Jaz Data File
++++++++++++++++++++++++++++++++++++
Date: Fri Jun 04 16:03:33 2021
User: jaz
Dark Spectrum Present: Yes
Reference Spectrum Present: Yes
Processed Spectrum Present: Yes
Spectrometers: JAZA3586
Integration Time (usec): 24600 (JAZA3586)
Spectra Averaged: 10 (JAZA3586)
Boxcar Smoothing: 1 (JAZA3586)
Correct for Electrical Dark: No (JAZA3586)
Strobe/Lamp Enabled: Yes (JAZA3586)
Correct for Detector Non-linearity: No (JAZA3586)
Correct for Stray Light: No (JAZA3586)
Number of Pixels in Processed Spectrum: 2048
>>>>>Begin Processed Spectral Data<<<<<
W	D	R	S	P
191.335022	0.000000	0.000000	0.000000	0.000000
191.713211	387.488678	386.225494	373.817017	1082.317871
192.091385	782.481934	776.240479	754.692688	445.236664
192.469528	1172.942749	1174.948853	1133.785278	-1951.916748
192.847641	1184.311157	1189.289429	1147.085327	-747.766174
193.225739	1196.571167	1199.320190	1158.528076	-1383.876587
193.603790	1211.877319	1200.360474	1175.171875	318.710907
193.981842	1215.518188	1204.224121	1188.397705	240.130356
194.359863	1208.905273	1203.852661	1194.193237	291.176819
194.737854	1212.768921	1214.849487	1192.112915	-992.806824
195.115829	1216.855591	1212.694702	1190.032349	644.651733
195.493774	1224.806030	1210.465576	1191.815552	230.051834
195.871704	1219.159058	1204.892944	1195.976563	162.500427
196.249603	1223.468628	1208.533691	1189.437988	227.859283
196.627457	1216.781372	1210.985718	1180.373047	628.200439
197.005310	1218.787598	1215.221069	1178.366821	1133.336792
197.383133	1212.026001	1212.248901	1179.555664	-14567.196289
197.760910	1210.688599	1217.821655	1182.602051	-393.751923
198.138687	1208.013672	1216.707031	1179.407104	-329.062286
198.516449	1204.521484	1217.301392	1177.995361	-207.561157
198.894180	1206.527466	1213.883545	1178.292603	-383.830353
199.271866	1202.069458	1216.038330	1180.744507	-152.660507
199.649536	1199.171753	1215.221069	1179.184204	-124.538322
200.027191	1201.846558	1219.901978	1183.716675	-100.412415
200.404816	1200.360474	1213.437622	1180.224487	-153.978424
200.782410	1202.440918	1226.069214	1187.208862	-64.465317
201.159988	1203.183960	1232.756470	1188.026245	-51.256100
201.537537	1212.397461	1237.586060	1192.484375	-79.055946
201.915070	1209.796875	1236.694458	1197.016846	-47.513672
202.292557	1204.149902	1234.911255	1201.846558	-7.487788
202.670029	1196.422485	1242.490112	1208.162231	25.483723
203.047485	1196.050903	1249.400269	1208.905273	24.094702
203.424911	1191.592773	1261.734497	1203.332520	16.737179
203.802292	1197.462524	1257.053345	1197.536987	0.124957
204.179688	1197.314087	1248.359985	1187.134644	-19.941746
204.557037	1199.691772	1237.957642	1183.642456	-41.941597
204.934357	1188.397827	1239.518066	1181.710449	-13.081664
205.311661	1187.060181	1244.867798	1187.951904	1.542571
205.688934	1192.038574	1253.858398	1193.004395	1.562315
206.066177	1193.004517	1257.796387	1190.552368	-3.784655
206.443390	1195.902222	1252.743774	1190.181030	-10.065157
206.820587	1191.741333	1246.428101	1180.521606	-20.516346
207.197769	1198.057129	1237.363281	1183.567993	-36.862259
207.574921	1199.914551	1239.517944	1177.846802	-55.721863
207.952042	1195.307739	1233.127930	1180.521606	-39.095871
208.329147	1190.626831	1241.747070	1178.887085	-22.964968
208.706223	1191.444092	1237.586060	1185.276978	-13.365520
209.083267	1196.868286	1233.499390	1186.540161	-28.194960
209.460297	1206.378906	1227.109497	1184.534058	-105.374947
209.837280	1203.926880	1224.806030	1175.394775	-136.653564
210.214264	1195.456421	1231.567627	1176.955078	-51.234352
210.591217	1186.168579	1228.595581	1180.298706	-13.835230
210.968124	1186.094360	1228.223999	1183.567993	-5.996651
211.345016	1190.032349	1233.053589	1185.499878	-10.535425
211.721893	1193.004517	1244.496216	1185.574219	-14.430089
212.098724	1191.592773	1248.657227	1192.038574	0.781223
212.475555	1193.227417	1249.771851	1188.917847	-7.621564
212.852356	1191.369873	1240.929810	1182.379272	-18.140863
213.229126	1188.917847	1246.799683	1172.051147	-29.139883
213.605865	1193.598999	1250.663330	1177.177856	-28.776545
213.982590	1197.388550	1256.830444	1186.688721	-18.000484
214.359283	1196.645386	1256.681885	1190.255371	-10.643550
214.735931	1192.261475	1249.028687	1185.128296	-12.565667
215.112579	1187.580444	1251.703613	1186.317139	-1.970124
215.489197	1193.524536	1248.880249	1187.803345	-10.335322
215.865799	1187.431885	1243.381714	1187.506104	0.132652
216.242355	1187.357544	1238.774902	1180.224487	-13.872857
216.618896	1182.379272	1232.310547	1184.088135	3.422429
216.995407	1182.230469	1236.545898	1184.385376	3.967394
217.371902	1183.270752	1230.824585	1189.735229	13.594020
217.748367	1195.084961	1229.858521	1181.636230	-38.675163
218.124802	1206.304565	1228.001099	1180.670288	-118.149185
218.501236	1204.001221	1234.168213	1180.150146	-79.063484
218.877609	1188.843384	1244.570557	1186.614380	-3.999851
219.253983	1176.063354	1250.366211	1189.512207	18.100048
219.630295	1180.744507	1244.719238	1180.075806	-1.045258
220.006592	1182.453613	1247.096802	1182.379272	-0.115002
220.382889	1194.119019	1249.846069	1179.481445	-26.266550
220.759140	1195.307861	1256.904785	1187.803223	-12.183463
221.135391	1203.852661	1257.499146	1183.642334	-37.673161
221.511581	1203.258301	1251.332153	1180.298828	-47.758755
221.887772	1196.422485	1251.555054	1177.178101	-34.905655
222.263931	1193.227417	1245.833740	1174.131592	-36.299488
222.640060	1189.066528	1242.713013	1179.927246	-17.036125
223.016159	1190.329590	1241.821411	1185.425537	-9.523945
223.392212	1188.843506	1243.381714	1176.880737	-21.934656
223.768265	1186.094238	1250.514771	1170.639404	-23.990541
224.144302	1185.276978	1253.486938	1163.357666	-32.135059
224.520294	1188.249023	1251.183594	1172.571167	-24.911358
224.896286	1190.106567	1257.573608	1167.221436	-33.920464
225.272217	1193.598877	1257.127808	1165.512573	-44.210258
225.648148	1188.769409	1260.397095	1172.645508	-22.510712
226.024048	1191.964233	1254.452759	1186.540161	-8.680109
226.399902	1191.146851	1262.106079	1195.902344	6.701726
226.775772	1198.428589	1261.140015	1195.233521	-5.094874
227.151581	1191.592651	1265.152344	1188.769165	-3.838361
227.527374	1192.558594	1260.322754	1179.630005	-19.078800
227.903137	1188.471924	1273.474243	1175.097656	-15.734003
228.278870	1188.992065	1284.248169	1182.230591	-7.098206
228.654572	1186.911621	1300.000366	1190.775391	3.416582
229.030273	1183.939575	1312.111816	1195.233521	8.811538
229.405930	1187.729126	1317.461548	1190.181030	1.889970
229.781555	1192.856079	1320.730957	1185.202637	-5.985102
230.157181	1197.982910	1324.891846	1183.790894	-11.182835
230.532761	1198.279907	1332.024902	1186.985962	-8.444387
230.908325	1194.936401	1332.396362	1194.936279	-0.000089
231.283859	1189.512207	1324.297363	1198.279907	6.504945
231.659332	1186.020020	1311.442993	1197.908569	9.478765
232.034821	1189.661011	1304.978638	1190.106689	0.386479
232.410263	1187.580444	1303.567017	1183.865234	-3.203138
232.785690	1192.855957	1298.588745	1182.453491	-9.838449
233.161087	1187.283203	1297.028198	1183.939575	-3.046725
233.536469	1194.564819	1292.272827	1185.574219	-9.201498
233.911804	1192.930176	1291.009766	1186.243042	-6.818069
234.287140	1193.524536	1292.421509	1187.357544	-6.235775
234.662430	1192.558594	1291.604248	1186.317383	-6.301348
235.037704	1197.091064	1300.223267	1189.809570	-7.060350
235.412933	1202.440918	1307.430786	1191.146973	-10.757176
235.788162	1197.091187	1317.164307	1195.753784	-1.113823
236.163345	1193.301758	1320.507935	1184.385376	-7.009394
236.538513	1195.233521	1319.244751	1179.035522	-13.061719
236.913635	1197.611206	1312.260376	1172.645508	-21.775734
237.288742	1196.942505	1309.585571	1176.732056	-17.942026
237.663834	1191.444214	1304.012817	1185.648560	-5.148553
238.038879	1189.958130	1307.802124	1186.688843	-2.774250
238.413910	1192.558716	1315.380981	1196.422485	3.145822
238.788910	1196.868286	1316.644165	1195.828003	-0.868525
239.163879	1202.069458	1317.089966	1194.639160	-6.459977
239.538834	1201.846558	1314.638062	1191.146973	-9.486162
239.913757	1198.800171	1325.857666	1188.546387	-8.070192
240.288651	1200.954956	1341.238281	1189.809448	-7.944998
240.663528	1200.657715	1351.046387	1188.100464	-8.349865
241.038361	1196.793945	1366.798462	1182.230469	-8.566524
241.413177	1193.524536	1384.110962	1182.379272	-5.847879
241.787979	1199.394531	1414.649536	1182.082031	-8.042787
242.162735	1194.490601	1437.163208	1186.614624	-3.245515
242.537476	1190.849731	1452.989624	1188.100464	-1.048779
242.912170	1187.729004	1465.101074	1189.214966	0.535729
243.286865	1186.837280	1482.042114	1189.883667	1.031957
243.661514	1186.391602	1493.484741	1191.815552	1.766223
244.036148	1187.134644	1488.506470	1187.431885	0.098629
244.410751	1196.422485	1474.908813	1192.038696	-1.574149
244.785339	1201.995117	1457.967896	1190.701172	-4.412167
245.159882	1201.252075	1450.091797	1191.890015	-3.762285
245.534378	1201.549194	1447.639771	1187.654663	-5.646104
245.908890	1200.806274	1471.639648	1184.013794	-6.200300
246.283356	1200.360474	1503.515625	1186.317261	-4.632352
246.657791	1195.976685	1551.292114	1189.066406	-1.944829
247.032196	1191.741333	1598.846069	1196.645386	1.204617
247.406586	1194.787720	1662.300415	1195.753662	0.206613
247.780960	1191.667114	1722.188477	1192.855835	0.224067
248.155289	1189.363647	1747.599976	1190.478149	0.199647
248.529602	1183.047852	1741.878784	1182.676392	-0.066471
248.903870	1195.159302	1695.067993	1184.682617	-2.095720
249.278122	1198.725830	1649.148804	1178.515503	-4.486966
249.652344	1201.995117	1596.096680	1181.338989	-5.241321
250.026550	1195.456543	1558.648071	1183.791016	-3.211949
250.400711	1199.989136	1534.871460	1185.722900	-4.260074
250.774857	1201.400757	1520.456665	1188.992065	-3.889190
251.148987	1197.759888	1518.004517	1184.013916	-4.292335
251.523071	1190.255249	1513.769165	1186.243042	-1.240196
251.897125	1186.837280	1524.766113	1191.592773	1.407247
252.271164	1195.159302	1534.574097	1190.255249	-1.444855
252.645187	1201.177856	1558.127930	1192.187134	-2.518762
253.019165	1196.645264	1576.852173	1182.081909	-3.830376
253.393112	1194.787720	1585.099976	1185.202759	-2.455716
253.767044	1195.307983	1572.914429	1180.150024	-4.014222
254.140930	1201.475098	1541.781616	1185.276978	-4.759862
254.514801	1196.942505	1523.131470	1181.487549	-4.738038
254.888657	1196.125244	1503.738647	1189.660767	-2.101494
255.262466	1192.855835	1508.642578	1197.091064	1.341168
255.636276	1192.038452	1503.589966	1203.555420	3.696650
256.010010	1192.781616	1508.493774	1196.793945	1.270882
256.383759	1195.159302	1519.861938	1187.060425	-2.494244
256.757446	1196.050903	1540.221069	1178.589722	-5.073415
257.131134	1190.775269	1566.895874	1181.487671	-2.469314
257.504791	1188.546265	1589.409668	1182.973633	-1.390157
257.878418	1192.187134	1620.319458	1187.506104	-1.093361
258.252014	1190.849731	1657.099243	1186.094360	-1.019920
258.625580	1193.821777	1694.027710	1188.769165	-1.010106
258.999115	1196.496704	1755.401733	1190.478149	-1.076847
259.372650	1199.840332	1837.803345	1193.598999	-0.978322
259.746124	1190.478149	1936.105957	1191.518433	0.139518
260.119598	1183.122192	2027.572632	1186.540161	0.404757
260.493042	1179.852905	2101.429443	1182.676392	0.306376
260.866425	1188.620605	2141.181396	1184.385376	-0.444615
261.239838	1191.295410	2115.547119	1187.283203	-0.434103
261.613159	1198.948608	2026.160767	1190.849731	-0.979057
261.986511	1194.639282	1921.914063	1190.106689	-0.623230
262.359802	1194.862061	1844.342163	1189.140747	-0.880907
262.733063	1191.146851	1812.466309	1184.013916	-1.148030
263.106293	1197.685425	1800.875000	1188.694946	-1.490490
263.479523	1194.564819	1787.277710	1186.094360	-1.429100
263.852692	1197.314087	1784.156860	1184.533936	-2.177781
264.225861	1195.010620	1772.862915	1183.865234	-1.928760
264.598969	1203.852661	1773.754517	1188.843628	-2.633617
264.972076	1204.447144	1764.764038	1193.152954	-2.015679
265.345154	1204.372681	1772.045532	1183.642456	-3.651791
265.718201	1201.474976	1786.683105	1182.973633	-3.161498
266.091217	1197.091187	1816.329956	1185.871460	-1.811858
266.464203	1191.146973	1851.846558	1195.828003	0.708496
266.837158	1188.843628	1894.124878	1193.376099	0.642647
267.210114	1190.255371	1932.836548	1189.660889	-0.080056
267.583038	1194.342041	1960.328735	1185.425659	-1.164039
267.955902	1189.958130	1966.272949	1188.397583	-0.201020
268.328766	1188.174805	1969.913696	1180.818848	-0.940974
268.701569	1189.586548	1969.022095	1180.670166	-1.143954
269.074371	1193.598877	1982.842407	1175.914917	-2.240622
269.447144	1195.679321	1986.185913	1187.060303	-1.090316
269.819885	1195.307861	2008.030884	1185.797241	-1.170217
270.192596	1201.549316	2029.504395	1190.775391	-1.301269
270.565277	1202.218140	2077.132568	1185.128418	-1.953302
270.937927	1208.310791	2138.655273	1193.673218	-1.573350
271.310577	1201.846558	2206.642334	1190.775513	-1.101820
271.683136	1200.731934	2290.901611	1206.081787	0.490736
272.055725	1192.038452	2350.640869	1202.961060	0.942740
272.428284	1194.341919	2380.659180	1204.670044	0.870604
272.800812	1191.592773	2357.179443	1188.397583	-0.274127
273.173279	1188.843384	2322.554443	1184.385376	-0.393223
273.545776	1186.242798	2302.789795	1186.614380	0.033280
273.918152	1189.735229	2282.059326	1190.329590	0.054412
274.290558	1196.199585	2252.784180	1191.741333	-0.421949
274.662964	1199.691772	2237.403564	1196.496704	-0.307896
275.035278	1199.245972	2224.474854	1198.948730	-0.028993
275.407593	1191.146851	2239.260986	1196.942505	0.552960
275.779907	1190.106567	2248.400391	1189.512207	-0.056162
276.152161	1190.998169	2273.885986	1183.865234	-0.658696
276.524384	1191.443970	2305.910889	1186.465820	-0.446684
276.896606	1188.769287	2340.981689	1186.911743	-0.161215
277.268799	1193.227417	2373.451904	1193.301636	0.006289
277.640930	1202.515259	2388.015137	1186.985962	-1.309937
278.013031	1202.812378	2398.863281	1192.930176	-0.826236
278.385162	1199.691772	2404.064697	1189.958130	-0.808192
278.757233	1193.970337	2396.411377	1194.044800	0.006193
279.129272	1203.035522	2384.374268	1189.363647	-1.157320
279.501282	1201.177856	2381.996582	1189.512329	-0.987919
279.873230	1202.069458	2407.185303	1193.598877	-0.702885
280.245178	1192.187134	2443.965088	1188.471924	-0.296795
280.617126	1189.437988	2506.305176	1196.719604	0.552950
280.988983	1188.323364	2566.193115	1196.125122	0.566219
281.360870	1190.478149	2625.858154	1205.487305	1.045657
281.732697	1191.518433	2684.780273	1200.509033	0.602078
282.104492	1189.809448	2746.376953	1201.103394	0.725567
282.476288	1187.431763	2805.150391	1195.976563	0.528201
282.848053	1190.775391	2847.577393	1191.443970	0.040354
283.219757	1196.125244	2867.639404	1182.899292	-0.791256
283.591461	1195.605103	2852.555908	1180.893066	-0.887898
283.963135	1194.267700	2831.676758	1181.190308	-0.798664
284.334747	1195.159302	2827.441406	1194.787720	-0.022765
284.706360	1198.205688	2861.174805	1198.131348	-0.004470
285.077942	1198.428589	2914.375732	1198.948730	0.030312
285.449524	1195.530762	2967.427734	1191.666992	-0.218058
285.821014	1198.651489	3006.436768	1187.357544	-0.624739
286.192535	1197.982788	3066.919189	1191.815796	-0.329973
286.563995	1197.388428	3120.863037	1189.809448	-0.394025
286.935425	1192.187256	3173.915039	1191.890015	-0.014999
287.306824	1193.078735	3157.642578	1189.066406	-0.204235
287.678223	1195.605103	3115.438721	1184.831055	-0.561197
288.049561	1202.738159	3054.510498	1185.945679	-0.906833
288.420898	1202.663818	3007.105469	1187.060181	-0.864735
288.792145	1201.326294	2986.672119	1190.552368	-0.603464
289.163452	1192.484253	2991.799072	1192.187134	-0.016513
289.534668	1187.431641	3032.294189	1187.283203	-0.008046
289.905914	1182.304810	3074.349365	1194.193359	0.628344
290.277039	1188.769165	3150.732422	1190.626831	0.094684
290.648193	1187.060181	3225.183594	1197.908569	0.532273
291.019318	1189.214966	3303.127197	1198.354370	0.432346
291.390381	1181.859131	3336.786377	1203.629883	1.010278
291.761475	1183.865356	3328.687500	1204.447144	0.959603
292.132507	1182.825073	3301.418701	1200.286133	0.824182
292.503510	1179.852905	3267.462158	1199.691772	0.950315
292.874481	1183.493652	3247.177734	1195.976563	0.604885
293.245422	1187.134644	3249.332275	1196.571045	0.457590
293.616364	1188.992188	3284.106201	1196.348145	0.351101
293.987213	1188.620605	3327.870361	1201.177856	0.586993
294.358093	1190.106689	3409.305908	1197.982910	0.354913
294.728943	1195.902344	3496.983154	1196.719727	0.035522
295.099731	1198.800049	3603.384521	1191.369873	-0.309000
295.470490	1194.416138	3661.860596	1188.917847	-0.222833
295.841248	1192.112793	3702.355713	1191.221313	-0.035514
296.211975	1192.261475	3742.330811	1188.546387	-0.145686
296.582642	1197.313965	3815.890625	1192.781616	-0.173084
296.953308	1196.348145	3898.218018	1193.821899	-0.093500
297.323883	1190.552612	3972.149170	1196.645264	0.219034
297.694519	1186.391602	4024.384033	1197.314087	0.384867
298.065063	1191.147095	4035.455078	1195.605103	0.156734
298.435608	1195.382202	3997.709229	1200.657593	0.188250
298.806122	1196.719604	3882.242920	1196.793823	0.002764
299.176575	1197.165405	3752.212891	1199.394409	0.087239
299.547028	1196.942505	3644.473877	1191.889893	-0.206437
299.917450	1197.091187	3595.657227	1200.360474	0.136302
300.287872	1197.239746	3577.899170	1196.793945	-0.018726
300.658234	1196.719604	3559.768799	1204.595703	0.333302
301.028564	1198.577271	3535.249023	1201.177856	0.111294
301.398865	1196.125244	3521.800049	1207.642090	0.495204
301.769135	1195.605103	3506.642578	1197.982788	0.102884
302.139374	1193.524536	3519.571289	1198.131470	0.198059
302.509583	1190.923950	3534.283203	1195.976563	0.215614
302.879791	1192.038452	3539.707764	1201.549316	0.405119
303.249939	1189.958008	3516.822266	1197.091187	0.306558
303.620087	1197.982788	3488.364014	1190.552490	-0.324413
303.990173	1195.605103	3468.005127	1188.843506	-0.297553
304.360260	1195.456421	3454.110352	1192.335815	-0.138162
304.730286	1186.243042	3436.054932	1185.945679	-0.013217
305.100281	1186.763062	3434.494385	1175.617676	-0.495850
305.470276	1183.939575	3457.008057	1177.846802	-0.268042
305.840179	1185.648560	3471.051514	1187.431763	0.078026
306.210144	1186.614502	3482.791260	1201.474976	0.647183
306.579987	1194.193359	3489.404297	1198.651489	0.194236
306.949890	1200.211914	3510.134766	1201.029175	0.035380
307.319702	1197.759766	3546.765869	1200.509155	0.117045
307.689484	1193.375977	3583.545898	1204.521362	0.466301
308.059265	1188.843628	3633.922852	1205.413086	0.677666
308.429016	1189.215088	3703.395752	1203.481201	0.567426
308.798737	1191.444092	3776.807373	1201.474976	0.387987
309.168396	1191.221191	3856.682861	1205.190063	0.524069
309.538055	1188.546265	3903.790771	1205.115845	0.610243
309.907684	1185.648560	3950.378174	1200.583374	0.540191
310.277313	1187.803345	3985.821045	1189.363647	0.055765
310.646851	1196.496704	4020.371826	1194.787720	-0.060519
311.016388	1207.493530	4042.662842	1195.753540	-0.414084
311.385895	1204.372681	4044.520264	1196.422363	-0.279926
311.755371	1200.732056	4044.891602	1186.020142	-0.517268
312.124817	1194.044800	4049.498291	1190.106812	-0.137911
312.494232	1196.125244	4037.386963	1191.146973	-0.175213
312.863617	1191.890015	4016.136719	1205.041504	0.465664
313.232971	1184.236694	3975.195557	1206.007446	0.780046
313.602295	1190.032349	3947.629150	1204.967285	0.541592
313.971619	1188.694946	3945.325928	1196.942505	0.299190
314.340820	1193.450317	3949.709717	1194.341919	0.032348
314.710083	1188.174927	3985.226563	1195.679321	0.268297
315.079285	1191.444214	4022.452148	1193.747559	0.081361
315.448486	1189.809570	4070.451904	1198.354370	0.296628
315.817596	1184.608276	4078.922607	1200.063354	0.533981
316.186707	1186.094360	4034.637939	1207.939331	0.766882
316.555786	1189.140747	3955.728516	1201.475098	0.445833
316.924866	1192.187134	3873.326904	1203.852661	0.435096
317.293884	1192.261353	3826.218750	1202.663818	0.394937
317.662872	1194.193359	3804.670898	1208.459473	0.546494
318.031830	1193.970459	3821.017334	1206.156006	0.463850
318.400757	1194.119019	3837.884033	1200.583374	0.244513
318.769684	1192.855957	3864.929932	1193.747559	0.033367
319.138550	1193.153076	3899.555420	1191.741333	-0.052163
319.507416	1197.388306	3934.106201	1195.307739	-0.076024
319.876190	1200.954834	3954.836670	1197.462524	-0.126814
320.244995	1201.400757	3922.886475	1202.663696	0.046406
320.613770	1196.645264	3884.843018	1205.635864	0.334447
320.982483	1194.787720	3855.122314	1206.824707	0.452461
321.351166	1192.707275	3828.299072	1195.307983	0.098676
321.719818	1193.153198	3812.398438	1185.276978	-0.300706
322.088440	1187.803345	3818.045166	1187.208862	-0.022602
322.457062	1188.397705	3847.840820	1194.267700	0.220723
322.825623	1184.534058	3889.821533	1199.989014	0.571287
323.194183	1192.112793	3945.325928	1203.183960	0.402118
323.562653	1190.701050	4032.928955	1207.790649	0.601275
323.931183	1193.673218	4123.280762	1212.991821	0.659426
324.299591	1194.193359	4205.236816	1215.146606	0.695880
324.668060	1196.273804	4273.669922	1218.861816	0.733998
325.036407	1195.679321	4330.511230	1213.883667	0.580712
325.404755	1190.180908	4361.644043	1211.580200	0.674745
325.773102	1189.512329	4375.092773	1209.351074	0.622767
326.141388	1191.295532	4375.315918	1208.459473	0.539065
326.509674	1188.174805	4364.541992	1206.379028	0.573115
326.877899	1184.385376	4358.226074	1205.561646	0.667213
327.246124	1184.682617	4361.644043	1212.174561	0.865353
327.614288	1186.317261	4356.739746	1214.106445	0.876514
327.982422	1184.608276	4339.130371	1209.202515	0.779650
328.350525	1186.911743	4295.291504	1198.428589	0.370510
328.718628	1191.072632	4291.948242	1198.131470	0.227640
329.086700	1196.719604	4292.319336	1201.995239	0.170424
329.454712	1191.146973	4322.709473	1211.134399	0.638257
329.822693	1185.277100	4337.272461	1212.323120	0.858060
330.190674	1184.459717	4347.377441	1222.205444	1.193383
330.558563	1186.317261	4365.358887	1219.679077	1.049430
330.926483	1186.020142	4387.204102	1218.341675	1.009674
331.294312	1186.540283	4444.342773	1214.552368	0.859846
331.662231	1185.871460	4502.373535	1221.759644	1.082110
332.029999	1187.506226	4567.313965	1228.149658	1.202537
332.397766	1196.125122	4611.672363	1227.109497	0.907157
332.765503	1203.183960	4672.452637	1223.171387	0.576128
333.133240	1197.982910	4735.312500	1222.056763	0.680566
333.500916	1192.707275	4830.270996	1225.548950	0.902848
333.868561	1183.122192	4884.957520	1232.236206	1.326748
334.236176	1194.416138	4910.815430	1236.545776	1.133614
334.603790	1189.363647	4893.800293	1230.304321	1.105180
334.971344	1193.152954	4881.391602	1226.737915	0.910596
335.338867	1185.128418	4869.057129	1216.187012	0.843083
335.706360	1189.512207	4856.797363	1223.914429	0.938084
336.073853	1193.004517	4856.054199	1221.239624	0.770809
336.441284	1195.456543	4863.930176	1228.744141	0.907396
336.808655	1199.765991	4865.937012	1226.663574	0.733670
337.176086	1198.279907	4828.190918	1224.062988	0.710295
337.543396	1195.753784	4732.562988	1220.645020	0.703777
337.910706	1185.574219	4648.452637	1225.326172	1.147945
338.277954	1181.859131	4632.774414	1234.316772	1.520108
338.645264	1189.958130	4711.460938	1234.093872	1.253321
339.012421	1190.181030	4855.459961	1234.688354	1.214296
339.379669	1191.072632	4989.056152	1238.254761	1.242294
339.746796	1187.357422	5102.070801	1244.124756	1.450102
340.113953	1194.341919	5172.138184	1239.740845	1.141308
340.481018	1196.348022	5222.738281	1239.815186	1.079557
340.848114	1197.388428	5239.233887	1240.781128	1.073586
341.215118	1197.314087	5258.849609	1240.706665	1.068379
341.582153	1189.660889	5275.419434	1236.397217	1.143884
341.949066	1190.998291	5323.418457	1239.517944	1.174122
342.316010	1189.958130	5341.474121	1246.576782	1.363807
342.682922	1189.437866	5372.160645	1247.839966	1.396270
343.049835	1188.249023	5410.055176	1248.657227	1.430862
343.416656	1184.533936	5475.292969	1244.273438	1.392283
343.783478	1189.140747	5579.539551	1245.090698	1.274371
344.150269	1180.893066	5725.173340	1249.548950	1.510820
344.516998	1180.150024	5925.716309	1261.288696	1.709778
344.883728	1186.391479	6071.052246	1274.886108	1.811684
345.250427	1191.146973	6155.608887	1274.440308	1.677792
345.617065	1190.552490	6166.828125	1262.923340	1.454318
345.983704	1188.694946	6142.828613	1256.607544	1.370827
346.350281	1185.797241	6125.738770	1261.734497	1.537210
346.716827	1189.363647	6042.817871	1263.889282	1.535517
347.083405	1189.735229	5984.638184	1260.768555	1.481434
347.449860	1195.456421	5891.982910	1253.189697	1.229276
347.816376	1192.187134	5832.392090	1263.517822	1.537231
348.182770	1184.311035	5772.652832	1262.923340	1.713305
348.549194	1184.831177	5738.474121	1265.152466	1.763891
348.915558	1178.663940	5744.640625	1256.458862	1.703796
349.281921	1184.088135	5762.622559	1261.585815	1.692631
349.648193	1178.143921	5816.491699	1276.074829	2.111332
350.014526	1176.806519	5864.564941	1283.208008	2.269773
350.380737	1170.787964	5933.517578	1295.616577	2.620947
350.746948	1172.348267	6002.544922	1289.746704	2.430511
351.113159	1182.156372	6058.494629	1284.619751	2.101236
351.479309	1187.431763	6116.748535	1280.161621	1.881191
351.845428	1184.534058	6154.494629	1276.223511	1.844873
352.211517	1182.007690	6219.063965	1281.276001	1.970760
352.577576	1180.447388	6262.455566	1273.400024	1.829053
352.943604	1185.499878	6307.260254	1280.904663	1.862734
353.309601	1188.174683	6379.854004	1282.613525	1.819042
353.675537	1190.626831	6505.797363	1288.409302	1.839687
354.041473	1197.759888	6654.923340	1281.944946	1.542652
354.407379	1202.143677	6771.875488	1284.991333	1.487462
354.773254	1201.549194	6897.298828	1287.294678	1.505429
355.139038	1199.022949	7009.050293	1294.799194	1.648465
355.504913	1197.239746	7163.822266	1300.446289	1.729743
355.870636	1194.787720	7271.933105	1306.687622	1.841323
356.236389	1198.948730	7444.463379	1315.083862	1.859497
356.602081	1194.713501	7622.791016	1323.257202	1.999722
356.967804	1198.948730	7803.420410	1327.715332	1.949688
357.333405	1193.598877	7960.571777	1326.154907	1.958868
357.699036	1196.273804	8122.476563	1326.897949	1.885942
358.064606	1194.044678	8320.418945	1320.805176	1.778752
358.430176	1186.688721	8475.934570	1328.681274	1.947973
358.795654	1184.608276	8576.020508	1324.594604	1.893905
359.161163	1183.047974	8578.546875	1331.356079	2.005383
359.526581	1183.642334	8559.748047	1328.235352	1.960289
359.892029	1186.020020	8585.753906	1339.083618	2.068501
360.257416	1189.512207	8702.186523	1354.241333	2.192683
360.622772	1200.063354	8933.491211	1362.711914	2.103189
360.988098	1201.400757	9239.989258	1369.696289	2.093596
361.353394	1191.815674	9581.633789	1369.919312	2.122854
361.718658	1180.744507	9879.364258	1378.389648	2.272144
362.083893	1173.537231	10100.191406	1384.259644	2.360598
362.449097	1185.797119	10221.454102	1393.473145	2.298405
362.814209	1193.078857	10226.135742	1395.182251	2.237375
363.179382	1198.948730	10020.463867	1394.364868	2.215222
363.544434	1195.307861	9638.399414	1391.764282	2.326830
363.909546	1200.880493	9166.280273	1392.507324	2.405740
364.274536	1200.063110	8747.881836	1396.668335	2.604795
364.639587	1208.831055	8448.368164	1399.045898	2.627445
365.004517	1199.468872	8269.075195	1403.355469	2.883988
365.369507	1197.759888	8148.854004	1406.253296	2.999433
365.734344	1192.335815	8075.813965	1413.237793	3.209162
366.099274	1192.261475	8009.981934	1418.215942	3.314223
366.464081	1192.038452	7972.681641	1432.630737	3.548222
366.828918	1181.784668	7951.134277	1451.429321	3.983317
367.193665	1182.825073	7922.750488	1468.147461	4.233317
367.558411	1180.818848	7910.564941	1484.419922	4.511330
367.923126	1185.797241	7919.927246	1492.518921	4.554734
368.287781	1187.952026	7916.880859	1504.407227	4.702906
368.652435	1190.552612	7875.791504	1512.877808	4.821446
369.017059	1194.787720	7814.491699	1526.846680	5.016221
369.381653	1193.153076	7748.881348	1549.434570	5.434659
369.746185	1191.890015	7745.835449	1570.388062	5.775117
370.110687	1184.311035	7768.200684	1595.873657	6.251056
370.475220	1184.236816	7837.005371	1619.353394	6.540383
370.839661	1193.227539	7891.766113	1644.096191	6.730851
371.204041	1201.772339	7976.322754	1674.188843	6.973400
371.568451	1198.874390	8024.990723	1707.996704	7.458448
371.932770	1189.214966	8086.885254	1739.203735	7.973544
372.297150	1192.558594	8093.052246	1768.702026	8.349307
372.661377	1197.759766	8144.173340	1794.262085	8.587198
373.025696	1197.834106	8192.098633	1835.574341	9.118046
373.389862	1179.109863	8199.379883	1869.233398	9.830441
373.754059	1176.360718	8182.067871	1911.883301	10.498906
374.118225	1181.561890	8168.395996	1953.344238	11.046239
374.482361	1190.626831	8240.394531	2000.154907	11.483047
374.846436	1193.375977	8334.090820	2058.928467	12.121370
375.210510	1187.951904	8466.497070	2110.420166	12.673800
375.574524	1189.289429	8599.871094	2173.205811	13.277182
375.938538	1188.472046	8767.944336	2230.493408	13.747941
376.302460	1188.323364	8935.645508	2298.703125	14.332433
376.666412	1186.168579	9118.950195	2380.362061	15.053905
377.030304	1190.701050	9306.043945	2446.937256	15.479768
377.394196	1195.753662	9470.030273	2518.639404	15.987933
377.757996	1206.527588	9612.765625	2574.663818	16.275249
378.121796	1201.177734	9673.470703	2643.616699	17.025368
378.485565	1194.936401	9663.440430	2701.795654	17.793690
378.849304	1189.512329	9580.815430	2745.485596	18.542690
379.212982	1187.877563	9428.791992	2782.859619	19.354431
379.576630	1189.735229	9223.048828	2799.652344	20.040512
379.940277	1188.397705	9053.637695	2826.252686	20.823967
380.303864	1188.026123	8909.342773	2847.354736	21.490229
380.667450	1188.694824	8842.692383	2904.418945	22.416052
381.030945	1187.951782	8805.169922	2960.591797	23.271488
381.394501	1187.951782	8832.141602	3015.873047	23.912558
381.757935	1191.889893	8875.459961	3084.083008	24.626482
382.121399	1195.382202	8899.980469	3146.868896	25.328857
382.484741	1197.982910	8974.505859	3235.660889	26.202944
382.848145	1193.599121	9036.028320	3303.127686	26.898918
383.211487	1186.094360	9134.776367	3379.733643	27.597521
383.574768	1184.385376	9203.135742	3474.618164	28.560970
383.938019	1187.654663	9289.028320	3566.381836	29.362022
384.301270	1198.354370	9399.517578	3663.124023	30.053902
384.664459	1197.462769	9508.371094	3730.516602	30.478662
385.027649	1192.484375	9596.271484	3812.769775	31.179817
385.390778	1181.859009	9648.357422	3901.264404	32.119598
385.753876	1186.837280	9694.870117	3977.499023	32.800316
386.116943	1190.626831	9712.554688	4036.792236	33.398144
386.479980	1198.205688	9737.074219	4108.494629	34.082844
386.842987	1194.787720	9771.700195	4184.952148	34.862949
387.205994	1193.078735	9857.073242	4268.394043	35.495354
387.568909	1191.221313	9908.192383	4331.031250	36.019508
387.931793	1193.227417	9943.933594	4411.500977	36.777302
388.294678	1189.809448	10001.591797	4488.032715	37.429695
388.657471	1189.215088	10035.918945	4559.883301	38.100838
389.020294	1190.701172	10033.987305	4613.455566	38.704552
389.383057	1198.874390	10029.306641	4677.653809	39.395344
389.745819	1197.982788	10065.416992	4736.575684	39.905483
390.108521	1198.279907	10107.696289	4798.692383	40.411320
390.471191	1195.605103	10199.163086	4877.602051	40.894913
390.833801	1193.524536	10306.084961	4983.929688	41.595390
391.196442	1189.958008	10504.993164	5115.445313	42.141411
391.558960	1190.255371	10664.372070	5231.803223	42.658833
391.921509	1194.639160	10865.584961	5357.598145	43.046040
392.284027	1190.106812	11050.671875	5486.438965	43.570850
392.646484	1188.546265	11194.968750	5591.502441	44.001301
393.008911	1185.499878	11215.699219	5635.416016	44.365181
393.371307	1189.066406	11170.597656	5658.375000	44.775780
393.733673	1188.249146	11094.808594	5677.471191	45.315655
394.096008	1191.369873	11033.583008	5693.148926	45.739502
394.458344	1188.843628	11014.932617	5727.476563	46.189617
394.820587	1188.546265	11007.206055	5750.436035	46.461426
395.182831	1186.614380	11037.000000	5800.070313	46.835281
395.545013	1192.855957	10994.351563	5806.162598	47.067371
395.907196	1199.023071	10902.364258	5785.358887	47.265533
396.269287	1196.794067	10754.798828	5757.568848	47.716808
396.631409	1195.159302	10609.537109	5714.474121	48.004391
396.993469	1195.010742	10431.507813	5685.420410	48.615936
397.355530	1194.936401	10301.106445	5656.963379	49.000038
397.717499	1194.341919	10248.424805	5668.777344	49.418980
398.079468	1192.112793	10239.955078	5682.449219	49.628811
398.441376	1185.945679	10246.493164	5707.562988	49.904457
398.803284	1188.100464	10236.833984	5715.959473	50.038593
399.165131	1191.964233	10271.161133	5756.009277	50.269257
399.526978	1202.738159	10269.601563	5783.946777	50.526939
399.888763	1201.549194	10272.946289	5813.519531	50.840790
400.250519	1199.468750	10283.050781	5833.654785	51.017166
400.612244	1201.252075	10300.215820	5854.832031	51.144066
400.973938	1197.016724	10277.478516	5877.196777	51.541214
401.335602	1193.376099	10284.684570	5903.722656	51.811535
401.697205	1185.054199	10340.709961	5945.183594	51.991135
402.058807	1186.242798	10426.899414	6014.730469	52.252651
402.420349	1189.958130	10573.499023	6106.939941	52.400070
402.781860	1194.044800	10686.663086	6190.308105	52.633141
403.143341	1192.187256	10848.494141	6275.013184	52.637375
403.504822	1187.431763	10988.703125	6355.929199	52.732929
403.866241	1188.472046	11187.909180	6457.946777	52.697712
404.227631	1191.666992	11357.468750	6558.701172	52.794991
404.588959	1195.976563	11535.942383	6681.003906	53.046860
404.950287	1191.890015	11699.706055	6777.002441	53.151978
405.311554	1195.010742	11819.631836	6832.729980	53.062778
405.672821	1192.633057	11872.460938	6853.311035	53.003452
406.034027	1193.896118	11839.618164	6837.931152	53.016933
406.395203	1188.100464	11738.343750	6811.701660	53.303047
406.756348	1187.060303	11666.492188	6741.932129	53.007378
407.117493	1186.985962	11611.063477	6714.959473	53.030819
407.478516	1193.078857	11608.610352	6717.411621	53.039379
407.839600	1197.536987	11581.268555	6752.630859	53.498051
408.200592	1196.050903	11564.996094	6768.680176	53.743454
408.561554	1195.233521	11554.593750	6763.924316	53.755161
408.922485	1191.666870	11549.465820	6780.271484	53.955524
409.283417	1191.592651	11541.515625	6803.528809	54.222008
409.644257	1192.632935	11609.799805	6862.376465	54.426926
410.005096	1203.332520	11742.429688	6917.583496	54.219547
410.365906	1208.682373	11899.358398	6988.690918	54.065887
410.726715	1210.465698	12006.278320	7053.928223	54.127121
411.087433	1208.831055	12067.281250	7121.618652	54.453327
411.448120	1208.162231	12140.247070	7169.246582	54.528339
411.808807	1200.732056	12182.301758	7185.146973	54.495079
412.169434	1184.311035	12140.469727	7147.104004	54.424122
412.530029	1181.338989	12081.399414	7121.321777	54.494953
412.890564	1184.162476	12054.799805	7116.492188	54.572048
413.251099	1192.558716	12071.887695	7120.058105	54.484055
413.611572	1192.558716	12107.479492	7149.333496	54.574604
413.972076	1194.564819	12149.833008	7163.822754	54.487553
414.332489	1200.137573	12209.200195	7212.267578	54.610733
414.692871	1201.920776	12337.893555	7272.750000	54.515480
415.053223	1198.948608	12465.247070	7379.671875	54.860279
415.413574	1198.725708	12683.473633	7523.076660	55.067390
415.773834	1197.685547	12865.292969	7660.388184	55.390129
416.134094	1192.335815	13081.588867	7749.997559	55.156212
416.494263	1188.472046	13239.926758	7838.193848	55.177750
416.854462	1188.174927	13507.268555	7977.958496	55.115936
417.214630	1195.605103	13818.596680	8172.928223	55.274723
417.574738	1190.403809	14173.762695	8372.059570	55.314312
417.934784	1189.363525	14516.002930	8545.333008	55.197483
418.294861	1185.054077	14929.497070	8739.559570	54.964069
418.654846	1188.174805	15428.960938	8991.000977	54.792103
419.014832	1190.255371	15937.636719	9269.190430	54.782169
419.374756	1188.472046	16431.822266	9595.379883	55.151314
419.734680	1188.694946	16990.283203	9909.234375	55.187740
420.094543	1183.419434	17514.341797	10239.807617	55.455463
420.454376	1187.729004	18040.255859	10501.872070	55.268520
420.814148	1188.323486	18518.912109	10764.235352	55.254398
421.173920	1204.595703	19014.585938	11057.285156	55.321140
421.533691	1204.744263	19527.572266	11352.637695	55.383881
421.893341	1200.360474	19903.619141	11562.840820	55.404682
422.253021	1187.729004	20212.568359	11689.675781	55.201241
422.612640	1196.422485	20301.064453	11725.637695	55.113384
422.972260	1201.252075	20285.236328	11726.159180	55.150471
423.331757	1200.063232	20210.414063	11684.473633	55.151058
423.691315	1196.645386	20206.548828	11686.926758	55.183239
424.050781	1201.549316	20305.669922	11740.276367	55.164677
424.410248	1207.270630	20346.462891	11785.526367	55.270130
424.769653	1198.948730	20416.531250	11830.627930	55.322670
425.128998	1195.605103	20401.224609	11867.481445	55.566425
425.488373	1191.072632	20334.798828	11829.215820	55.569866
425.847656	1194.639160	20130.244141	11741.317383	55.697601
426.206940	1187.506104	19901.242188	11601.850586	55.650803
426.566193	1189.512207	19540.873047	11391.945313	55.594967
426.925385	1199.988892	19176.195313	11176.911133	55.500706
427.284576	1203.852661	18657.115234	10872.048828	55.394783
427.643677	1202.515259	18250.234375	10669.871094	55.534443
428.002777	1193.152954	17832.429688	10445.550781	55.605766
428.361847	1188.992188	17443.232422	10258.233398	55.796154
428.720856	1184.979858	17095.494141	10060.365234	55.783146
429.079865	1183.716675	16822.656250	9914.954102	55.830112
429.438812	1191.815552	16654.509766	9811.525391	55.745201
429.797760	1191.518433	16509.173828	9754.088867	55.900005
430.156616	1190.329590	16319.776367	9635.502930	55.819447
430.515503	1182.527832	16159.207031	9582.004883	56.083702
430.874268	1183.567993	16085.350586	9545.966797	56.116768
431.233093	1183.419434	16079.703125	9557.929688	56.218788
431.591827	1187.729004	16148.433594	9566.624023	56.006012
431.950562	1188.917847	16167.975586	9581.410156	56.028172
432.309204	1186.168579	16250.823242	9638.401367	56.106380
432.667877	1187.357422	16371.192383	9702.821289	56.082432
433.026459	1193.227417	16552.640625	9781.730469	55.916870
433.385010	1203.852661	16651.685547	9839.538086	55.902245
433.743561	1203.704102	16776.513672	9954.335938	56.191734
434.102051	1198.354370	16928.685547	10023.213867	56.100914
434.460510	1192.038574	17123.431641	10140.315430	56.167580
434.818939	1188.100586	17222.255859	10169.961914	56.017052
435.177338	1192.781616	17219.804688	10215.361328	56.296043
435.535675	1188.694824	17169.054688	10189.726563	56.325588
435.894012	1190.181030	17084.052734	10164.612305	56.464729
436.252289	1190.998169	17089.253906	10158.147461	56.403355
436.610535	1192.855835	17046.603516	10163.645508	56.584663
436.968719	1195.010742	17179.531250	10241.739258	56.596809
437.326935	1196.273926	17294.255859	10330.381836	56.740696
437.685028	1198.948730	17493.611328	10435.519531	56.684639
438.043152	1199.691772	17632.035156	10496.001953	56.573246
438.401215	1194.639160	17856.056641	10593.264648	56.409515
438.759277	1190.106689	18091.375000	10689.561523	56.205578
439.117249	1190.106689	18508.064453	10922.351563	56.197422
439.475250	1195.382202	18822.884766	11122.002930	56.313259
439.833130	1197.239746	19234.820313	11368.390625	56.388664
440.191071	1198.354248	19455.275391	11482.148438	56.328190
440.548889	1201.326294	19750.035156	11648.882813	56.324982
440.906708	1204.595703	20056.533203	11822.379883	56.321980
441.264496	1197.834106	20304.259766	11959.320313	56.323910
441.622223	1184.756836	20479.093750	12043.950195	56.281769
441.979950	1186.168579	20496.033203	12088.532227	56.460068
442.337616	1188.620605	20552.876953	12122.191406	56.462643
442.695251	1194.564941	20461.855469	12061.858398	56.402805
443.052887	1194.341919	20345.498047	11969.276367	56.262581
443.410461	1194.119019	20174.898438	11883.828125	56.318600
443.768005	1192.707153	20045.314453	11804.546875	56.288448
444.125458	1192.707275	19934.529297	11725.711914	56.200539
444.482941	1198.948608	19915.431641	11761.526367	56.434631
444.840393	1205.635986	19999.246094	11841.104492	56.590878
445.197754	1202.589478	20241.400391	12003.530273	56.731171
445.555084	1202.515259	20518.919922	12167.441406	56.764839
445.912415	1202.589478	20900.537109	12373.929688	56.713219
446.269714	1200.954956	21174.640625	12562.210938	56.881119
446.626953	1195.085083	21490.650391	12733.034180	56.849609
446.984161	1198.057007	21761.630859	12909.726563	56.953476
447.341309	1198.354370	22002.224609	13021.997070	56.833858
447.698456	1195.456421	22144.365234	13113.761719	56.892254
448.055542	1187.134521	22287.546875	13181.674805	56.845051
448.412598	1185.871460	22262.431641	13166.961914	56.845570
448.769653	1188.100464	22143.474609	13083.148438	56.763706
449.126617	1188.472046	21778.425781	12898.506836	56.872570
449.483582	1195.902222	21506.253906	12757.182617	56.923092
449.840515	1197.462646	21158.515625	12555.895508	56.902973
450.197388	1192.335693	20900.759766	12435.971680	57.049900
450.554230	1194.119019	20661.876953	12318.351563	57.141827
450.911041	1196.348145	20464.232422	12217.522461	57.199707
451.267822	1201.846436	20283.304688	12115.132813	57.193142
451.624573	1195.307739	20069.164063	12012.817383	57.314785
451.981262	1194.861938	19927.025391	11950.477539	57.417900
452.337921	1188.694946	19749.365234	11858.789063	57.487656
452.694580	1186.985962	19615.027344	11799.792969	57.590530
453.051147	1184.756958	19566.656250	11758.406250	57.522076
453.407715	1181.561890	19469.689453	11682.692383	57.420483
453.764221	1179.035522	19502.904297	11667.012695	57.236698
454.120728	1182.899292	19252.427734	11551.398438	57.381123
454.477142	1186.465942	19210.894531	11549.243164	57.492962
454.833557	1187.134521	19020.753906	11472.786133	57.675625
455.189911	1184.682495	18877.126953	11400.340820	57.740227
455.546265	1185.425659	18629.697266	11265.333008	57.783482
455.902557	1190.701050	18450.779297	11169.258789	57.812935
456.258820	1192.038452	18419.498047	11151.946289	57.814144
456.615051	1198.577271	18497.513672	11202.174805	57.827824
456.971252	1197.314087	18513.041016	11198.832031	57.759735
457.327393	1197.239746	18744.939453	11343.573242	57.821449
457.683502	1197.314087	18999.947266	11502.284180	57.884525
458.039612	1199.468750	19491.087891	11805.885742	57.985119
458.395630	1192.038452	19929.253906	12060.296875	58.003597
458.751648	1187.431763	20402.785156	12337.223633	58.025433
459.107605	1184.756836	21065.044922	12697.887695	57.912292
459.463562	1181.710449	21724.853516	13063.012695	57.835857
459.819458	1187.431763	22339.039063	13405.027344	57.762020
460.175323	1186.688843	22813.833984	13686.709961	57.797836
460.531158	1194.267578	23304.009766	13953.679688	57.709457
460.886932	1187.951904	23619.498047	14131.932617	57.704361
461.242676	1183.939575	23773.601563	14217.899414	57.698784
461.598419	1186.020020	23607.091797	14156.823242	57.850948
461.954102	1188.917847	23261.359375	13964.304688	57.879356
462.309723	1195.456543	22688.708984	13658.104492	57.984005
462.665344	1201.177734	22049.775391	13293.276367	57.999577
463.020905	1204.447144	21456.396484	12976.747070	58.129219
463.376373	1201.623657	20965.033203	12708.886719	58.225086
463.731873	1192.484253	20546.187500	12466.585938	58.252941
464.087341	1183.270752	20269.412109	12262.847656	58.050381
464.442749	1184.162476	20066.416016	12177.324219	58.219543
464.798126	1187.060181	19931.109375	12135.789063	58.411758
465.153503	1189.363647	19974.279297	12202.140625	58.625641
465.508820	1185.351196	20038.849609	12187.354492	58.355232
465.864105	1184.311157	20240.431641	12268.940430	58.168339
466.219330	1187.283203	20501.087891	12428.020508	58.200535
466.574524	1193.078857	20703.708984	12575.140625	58.337742
466.929657	1191.072632	20853.578125	12679.909180	58.430176
467.284790	1191.221191	20993.492188	12769.368164	58.468781
467.639893	1192.187134	21143.509766	12861.653320	58.489685
467.994934	1197.834229	21294.865234	12980.612305	58.629448
468.349945	1197.685547	21318.044922	13014.418945	58.730228
468.704926	1198.874390	21277.921875	12993.317383	58.740055
469.059875	1200.880493	21083.470703	12877.405273	58.727383
469.414764	1200.731812	20864.724609	12760.898438	58.788506
469.769653	1194.044556	20672.429688	12670.026367	58.916492
470.124451	1189.289185	20564.466797	12631.536133	59.056217
470.479248	1186.837280	20408.431641	12517.555664	58.947865
470.834015	1187.431763	20284.123047	12440.132813	58.924873
471.188721	1192.632935	20325.955078	12448.827148	58.830318
471.543365	1196.050903	20419.949219	12507.526367	58.840694
471.898010	1204.670044	20584.455078	12580.194336	58.697887
472.252625	1196.273804	20746.210938	12659.921875	58.637775
472.607178	1196.199585	21004.337891	12840.700195	58.786446
472.961700	1190.255249	21198.267578	12975.410156	58.902180
473.316193	1200.360474	21427.419922	13138.801758	59.022133
473.670654	1204.372681	21546.673828	13200.846680	58.973042
474.025055	1206.007446	21781.841797	13326.713867	58.907482
474.379456	1196.496704	21943.154297	13408.297852	58.861530
474.733795	1189.066528	22133.888672	13530.600586	58.924034
475.088104	1184.236694	22259.681641	13649.558594	59.146187
475.442383	1191.592773	22292.154297	13696.221680	59.262066
475.796570	1193.375977	22403.533203	13748.083008	59.191959
476.150787	1197.834106	22598.650391	13842.893555	59.086811
476.504944	1189.809448	22869.857422	14015.721680	59.159977
476.859070	1186.391602	23143.068359	14175.027344	59.155746
477.213135	1183.939575	23397.851563	14328.461914	59.172478
477.567200	1187.357544	23878.367188	14564.596680	58.953918
477.921173	1194.044800	24267.937500	14812.098633	59.019318
478.275146	1197.982788	24781.220703	15116.516602	59.018757
478.629089	1201.177856	25065.281250	15310.967773	59.125584
478.983002	1198.800171	25522.615234	15584.921875	59.144188
479.336823	1199.914673	25902.375000	15822.913086	59.196522
479.690643	1198.131348	26434.603516	16104.148438	59.065376
480.044403	1201.029175	26999.603516	16417.705078	58.982624
480.398163	1199.989014	27726.062500	16833.501953	58.936398
480.751862	1200.434814	28640.357422	17411.283203	59.077606
481.105499	1198.205688	29801.708984	18135.363281	59.213577
481.459137	1191.666992	31363.029297	19127.007813	59.444912
481.812744	1182.453369	33313.847656	20326.251953	59.579731
482.166290	1185.722778	35658.246094	21824.789063	59.871063
482.519806	1196.645386	38424.316406	23533.453125	60.000553
482.873291	1201.920898	41492.273438	25460.349609	60.209030
483.226715	1197.239746	44907.968750	27515.634766	60.210373
483.580139	1193.673218	48077.050781	29536.966797	60.454884
483.933502	1194.490601	50999.972656	31563.130859	60.974495
484.286804	1197.239746	53370.605469	33403.902344	61.730080
484.640106	1193.896118	55267.406250	35084.410156	62.674892
484.993347	1198.354370	56492.355469	36271.691406	63.430637
485.346558	1200.211792	56989.519531	36859.574219	63.917915
485.699738	1200.583374	56829.097656	36701.011719	63.816963
486.052887	1196.199463	56130.207031	36036.597656	63.422276
486.405975	1193.004517	55109.812500	35064.042969	62.820927
486.759064	1187.877563	53815.156250	33927.882813	62.211094
487.112061	1194.416138	52516.050781	32755.982422	61.497589
487.464996	1192.410034	51351.128906	31807.138672	61.035706
487.817963	1194.861938	50636.113281	31216.357422	60.721554
488.170868	1187.877563	50270.546875	30883.775391	60.501801
488.523743	1191.666992	50230.718750	30778.861328	60.333946
488.876587	1194.936401	50122.832031	30672.978516	60.247929
489.229401	1200.434692	49862.031250	30574.751953	60.364471
489.582153	1198.800171	49301.718750	30263.126953	60.421127
489.934845	1198.651489	48574.667969	29822.212891	60.417831
490.287537	1201.623657	47780.738281	29309.525391	60.344433
490.640198	1201.029175	47069.582031	28814.296875	60.200867
490.992798	1200.360474	46402.125000	28345.000000	60.052166
491.345337	1192.261353	45962.769531	28036.125000	59.958809
491.697876	1193.301758	45570.453125	27785.056641	59.922173
492.050354	1192.632935	45538.277344	27781.416016	59.958050
492.402832	1192.261353	45469.105469	27730.148438	59.936264
492.755219	1189.586548	45234.824219	27620.255859	60.008007
493.107605	1188.694946	44622.203125	27291.017578	60.097202
493.459930	1188.769165	43617.703125	26692.806641	60.110012
493.812225	1191.444214	42237.976563	25830.302734	60.026653
494.164490	1191.221313	40533.246094	24770.447266	59.933945
494.516724	1186.763062	38682.589844	23624.921875	59.841747
494.868896	1185.202637	36854.890625	22493.958984	59.739117
495.221039	1185.425537	35276.035156	21544.000000	59.719009
495.573120	1197.239746	33902.472656	20741.455078	59.758678
495.925201	1201.623657	33037.886719	20260.271484	59.864590
496.277222	1210.614258	32479.724609	19869.068359	59.670563
496.629211	1198.874390	32256.744141	19723.060547	59.644096
496.981140	1195.902344	32131.171875	19573.638672	59.407066
497.333069	1187.134521	32124.187500	19571.708984	59.425747
497.684967	1187.803223	32122.923828	19570.816406	59.424412
498.036804	1193.673218	32135.705078	19618.220703	59.545368
498.388580	1196.868286	32045.203125	19575.349609	59.576897
498.740326	1201.400757	31906.554688	19515.013672	59.643448
499.092072	1199.245972	31611.943359	19370.347656	59.748405
499.443756	1193.598877	31315.845703	19213.716797	59.823284
499.795410	1187.729004	30982.748047	19003.810547	59.795506
500.147003	1179.258423	30663.843750	18779.937500	59.694511
500.498566	1181.636108	30249.455078	18559.109375	59.782513
500.850098	1186.614380	29835.218750	18334.195313	59.854855
501.201599	1186.391602	29451.666016	18136.701172	59.968670
501.553009	1188.323364	29125.328125	17949.455078	59.996166
501.904449	1189.363647	28922.111328	17809.322266	59.929001
502.255859	1198.502808	28717.037109	17687.390625	59.919209
502.607178	1197.611206	28630.322266	17600.755859	59.794106
502.958405	1205.115845	28489.296875	17521.771484	59.802620
503.309692	1200.286133	28425.025391	17492.791016	59.844486
503.660919	1197.611206	28373.830078	17476.744141	59.902126
504.012115	1182.602173	28383.865234	17481.945313	59.921272
504.363251	1181.190308	28437.806641	17505.869141	59.892532
504.714294	1183.865234	28488.630859	17529.869141	59.865021
505.065369	1194.267700	28519.984375	17570.289063	59.928974
505.416443	1195.233521	28518.201172	17555.130859	59.875992
505.767395	1195.084961	28519.759766	17583.142578	59.975307
506.118317	1186.985962	28456.900391	17529.126953	59.927364
506.469238	1189.066406	28489.296875	17522.439453	59.828701
506.820160	1190.106689	28490.486328	17515.232422	59.798168
507.170929	1195.382202	28570.585938	17550.599609	59.744644
507.521729	1183.790894	28589.533203	17609.224609	59.934277
507.872498	1184.905396	28690.880859	17644.742188	59.840946
508.223236	1190.106567	28860.587891	17758.871094	59.878845
508.573883	1201.995117	29079.412109	17899.896484	59.897594
508.924500	1200.731934	29276.609375	18053.408203	60.025467
509.275116	1197.685547	29428.412109	18162.410156	60.093121
509.625702	1192.707153	29622.859375	18261.751953	60.038528
509.976196	1188.397705	29880.990234	18359.013672	59.843376
510.326660	1184.236816	30155.166016	18519.359375	59.836269
510.677124	1185.796997	30384.611328	18686.615234	59.936745
511.027557	1195.159302	30530.244141	18875.119141	60.268990
511.377869	1197.091064	30751.740234	19005.595703	60.256187
511.728180	1198.205688	30929.619141	19091.044922	60.181599
512.078430	1190.701050	31087.142578	19170.398438	60.139923
512.428650	1189.660889	31187.525391	19241.136719	60.175869
512.778931	1183.642456	31262.275391	19302.658203	60.238827
513.129028	1182.676392	31323.724609	19309.939453	60.141449
513.479126	1184.905518	31350.994141	19319.076172	60.114426
513.829285	1195.605103	31277.210938	19309.566406	60.216072
514.179382	1199.543091	31193.992188	19281.779297	60.285275
514.529297	1202.663818	31083.650391	19267.365234	60.455505
514.879272	1198.502930	31123.103516	19266.994141	60.380058
515.229187	1198.800171	31026.658203	19219.812500	60.416714
515.579163	1191.741333	31075.552734	19212.083984	60.301353
515.928955	1193.227417	31058.388672	19215.427734	60.345230
516.278748	1196.645386	31310.794922	19339.064453	60.245499
516.628540	1200.880493	31580.365234	19502.976563	60.244919
516.978333	1204.521362	32052.337891	19763.855469	60.164173
517.327942	1192.038574	32556.851563	20072.732422	60.197056
517.677612	1196.199585	33111.820313	20438.375000	60.290775
518.027222	1189.289429	33628.222656	20803.500000	60.465031
518.376831	1197.239746	34249.613281	21178.951172	60.454689
518.726379	1193.301636	34762.527344	21488.570313	60.457958
519.075867	1192.261475	35272.394531	21745.509766	60.308590
519.425293	1190.626831	35616.785156	22005.345703	60.461926
519.774658	1181.710449	35901.515625	22140.505859	60.365532
520.124084	1182.602051	36011.929688	22203.958984	60.355335
520.473389	1179.555542	35945.429688	22135.302734	60.276775
520.822693	1181.115967	35679.722656	22037.521484	60.455795
521.171997	1186.911621	35323.218750	21860.828125	60.562836
521.521240	1195.902344	34904.964844	21593.189453	60.509804
521.870361	1203.332642	34518.144531	21357.054688	60.494781
522.219482	1195.084839	34135.933594	21093.279297	60.405838
522.568604	1187.877563	33831.371094	20956.562500	60.559341
522.917664	1190.255249	33665.671875	20830.916016	60.478550
523.266724	1198.057129	33716.941406	20846.742188	60.422386
523.615662	1200.657593	33896.085938	20979.224609	60.493370
523.964600	1196.496704	34255.566406	21227.841797	60.592587
524.313538	1199.171631	34748.933594	21583.380859	60.758133
524.662354	1198.279907	35397.152344	21932.603516	60.628681
525.011169	1194.639160	36269.089844	22416.166016	60.504234
525.359985	1184.608276	37217.566406	23016.455078	60.588554
525.708740	1185.351196	38407.000000	23760.375000	60.650253
526.057434	1190.552490	39685.007813	24589.072266	60.784126
526.406067	1196.571045	41259.406250	25516.224609	60.703777
526.754700	1196.868164	43039.777344	26618.728516	60.755478
527.103333	1196.348145	45008.730469	27876.896484	60.897278
527.451782	1191.741333	47108.968750	29290.134766	61.193577
527.800293	1186.020020	49143.449219	30700.843750	61.543800
528.148743	1185.648438	51076.285156	32113.263672	61.990822
528.497131	1183.642456	52769.937500	33372.542969	62.398159
528.845642	1185.425659	54124.480469	34455.062500	62.845165
529.193909	1183.270874	55173.707031	35384.734375	63.347263
529.542175	1185.574219	55840.425781	36084.000000	63.852383
529.890503	1188.026245	56193.957031	36462.277344	64.128090
530.238770	1193.227417	56118.988281	36483.902344	64.251595
530.586914	1200.732056	55699.769531	36146.417969	64.121658
530.934998	1196.868286	54910.300781	35485.269531	63.835804
531.283142	1189.437988	53879.355469	34509.156250	63.237370
531.631226	1186.763184	52532.468750	33324.769531	62.591419
531.979248	1187.208984	50958.511719	32076.408203	62.062267
532.327148	1187.134644	49316.050781	30870.328125	61.674343
532.675110	1184.831177	47841.218750	29897.630859	61.540981
533.023071	1187.357544	46835.386719	29187.369141	61.338932
533.370850	1189.958130	46185.750000	28776.775391	61.309769
533.718689	1194.713501	46025.703125	28607.437500	61.146824
534.066467	1200.360474	46054.015625	28582.546875	61.047832
534.414246	1200.063354	46149.640625	28550.599609	60.847149
534.761963	1198.651489	46113.675781	28480.679688	60.741428
535.109619	1201.920776	45973.843750	28391.070313	60.728130
535.457153	1204.447144	45632.792969	28179.603516	60.716091
535.804749	1205.487183	45094.843750	27878.306641	60.772869
536.152344	1195.010620	44276.027344	27414.732422	60.861431
536.499817	1192.484375	43374.066406	26859.986328	60.850021
536.847229	1185.648560	42300.464844	26170.755859	60.769108
537.194641	1187.952026	41343.593750	25509.833984	60.569031
537.542114	1188.620605	40532.503906	24992.685547	60.502583
537.889404	1189.735229	39933.332031	24621.468750	60.478985
538.236694	1188.992065	39428.292969	24336.962891	60.534504
538.583984	1186.094360	39068.296875	24157.078125	60.637932
538.931213	1179.184204	38948.746094	24099.046875	60.683422
539.278381	1182.825073	38930.687500	24148.976563	60.840935
539.625488	1182.081909	39066.886719	24237.992188	60.857937
539.972595	1193.376099	39317.511719	24470.115234	61.055122
540.319641	1188.992065	39846.621094	24790.806641	61.053444
540.666687	1196.868286	40537.261719	25259.505859	61.165215
541.013611	1189.735229	41506.464844	25830.523438	61.118023
541.360596	1189.437988	42589.425781	26495.384766	61.125492
541.707458	1188.249146	43753.675781	27176.666016	61.055225
542.054260	1199.691772	44811.082031	27830.455078	61.063782
542.401062	1205.710327	45728.425781	28386.908203	61.050179
542.747864	1199.543091	46354.277344	28798.695313	61.121281
543.094666	1192.261353	46542.332031	28934.447266	61.173412
543.441284	1189.066406	46243.859375	28766.744141	61.209198
543.787903	1187.357544	45619.488281	28397.982422	61.240875
544.134460	1189.586548	44665.519531	27780.376953	61.162094
544.481079	1187.580444	43511.230469	27059.046875	61.127686
544.827637	1194.787720	42058.535156	26135.759766	61.034473
545.174072	1190.998413	40494.460938	25127.322266	60.901314
545.520508	1193.078735	38985.968750	24214.291016	60.914135
545.866943	1192.409912	37707.222656	23379.353516	60.761486
546.213318	1193.896118	36684.371094	22747.185547	60.729782
546.559631	1195.679443	35888.066406	22188.054688	60.510033
546.905823	1198.577271	35163.761719	21742.685547	60.485783
547.252136	1196.348145	34579.667969	21383.802734	60.471680
547.598389	1194.713501	34016.003906	21020.388672	60.404926
547.944458	1192.038574	33575.019531	20751.041016	60.399017
548.290588	1192.410156	32968.562500	20402.410156	60.454140
548.636658	1198.428589	32392.642578	20095.095703	60.577477
548.982727	1194.713501	31723.025391	19697.427734	60.608376
549.328735	1198.131348	31159.960938	19352.591797	60.591961
549.674622	1185.202637	30452.970703	18950.091797	60.697792
550.020569	1182.453491	29748.876953	18551.976563	60.803982
550.366455	1180.521606	28950.421875	18082.087891	60.862900
550.712280	1184.905396	28276.271484	17665.099609	60.831905
551.058044	1188.100586	27702.802734	17326.947266	60.867538
551.403748	1184.088257	27268.947266	17068.820313	60.896370
551.749512	1186.985962	26932.880859	16865.974609	60.898983
552.095154	1187.283203	26684.412109	16727.845703	60.950245
552.440735	1191.072632	26570.947266	16652.947266	60.921795
552.786316	1190.923950	26496.273438	16617.283203	60.960861
553.131897	1197.239868	26473.908203	16564.529297	60.796341
553.477417	1195.382202	26453.400391	16554.423828	60.808582
553.822815	1200.806274	26416.919922	16478.486328	60.586971
554.168213	1194.416382	26381.849609	16448.392578	60.561852
554.513672	1187.506104	26271.955078	16370.375000	60.527020
554.859009	1181.116089	26126.250000	16318.958008	60.684547
555.204285	1182.379272	25918.500000	16232.247070	60.841667
555.549500	1196.496704	25726.130859	16118.936523	60.834332
555.894714	1199.766113	25533.460938	15979.914063	60.739433
556.239990	1201.400757	25317.984375	15805.229492	60.555130
556.585022	1208.905396	25047.593750	15647.112305	60.566284
556.930115	1201.623657	24765.615234	15478.668945	60.588398
557.275146	1191.444092	24438.388672	15317.803711	60.766518
557.620178	1181.859009	24240.593750	15182.945313	60.719231
557.965149	1186.317139	24020.507813	15066.661133	60.787540
558.310059	1196.719604	23873.017578	14951.268555	60.656059
558.654968	1191.889771	23698.927734	14860.620117	60.730919
558.999756	1191.815552	23586.208984	14804.965820	60.788212
559.344604	1185.945679	23539.177734	14784.012695	60.832668
559.689331	1188.546265	23461.603516	14748.867188	60.882175
560.033997	1188.917847	23393.990234	14692.026367	60.810917
560.378723	1196.273804	23334.099609	14686.675781	60.938244
560.723389	1196.199585	23307.796875	14641.351563	60.805885
561.067932	1196.570923	23311.068359	14655.171875	60.858719
561.412476	1203.926880	23239.884766	14598.479492	60.784985
561.757019	1199.988892	23193.669922	14597.512695	60.915329
562.101501	1197.314087	23184.009766	14572.472656	60.832962
562.445862	1190.552490	23197.755859	14553.377930	60.720234
562.790222	1199.097290	23224.505859	14538.960938	60.565792
563.134644	1195.233521	23211.054688	14569.500000	60.748436
563.478943	1193.821777	23241.443359	14585.475586	60.739677
563.823181	1181.784668	23236.539063	14604.050781	60.858833
564.167358	1187.060181	23265.814453	14612.893555	60.808834
564.511536	1176.509277	23339.302734	14633.920898	60.720741
564.855774	1180.670288	23410.781250	14664.459961	60.655521
565.199768	1179.630005	23524.912109	14700.050781	60.506828
565.543823	1187.060181	23615.484375	14787.133789	60.637669
565.887817	1195.084961	23824.052734	14900.964844	60.567852
566.231812	1205.710205	24010.328125	14993.398438	60.460075
566.575745	1212.694702	24150.759766	15076.245117	60.439060
566.919617	1207.790771	24251.515625	15137.172852	60.447613
567.263428	1200.806274	24326.859375	15223.066406	60.634037
567.607239	1191.741333	24455.255859	15303.090820	60.658718
567.950989	1197.016846	24462.166016	15375.386719	60.942532
568.294678	1193.598999	24469.818359	15389.653320	60.989521
568.638367	1195.753662	24435.640625	15363.350586	60.962418
568.981995	1192.484375	24397.818359	15295.140625	60.773338
569.325623	1190.701050	24279.900391	15205.903320	60.700253
569.669128	1198.057007	24107.218750	15107.972656	60.717697
570.012573	1197.462646	23969.984375	15013.311523	60.668945
570.356140	1203.629761	23908.384766	15010.859375	60.812057
570.699524	1198.651489	23881.265625	14978.313477	60.749889
571.042908	1195.456543	23911.134766	15022.375000	60.869492
571.386230	1188.620605	23980.757813	15020.071289	60.685188
571.729492	1189.883789	24080.322266	15091.031250	60.729061
572.072815	1195.530762	24155.367188	15147.796875	60.768143
572.416016	1193.152954	24237.398438	15179.524414	60.693550
572.759094	1195.902344	24339.044922	15235.625000	60.664719
573.102234	1186.317261	24462.166016	15214.448242	60.269039
573.445374	1191.667114	24532.751953	15258.213867	60.265182
573.788391	1177.772461	24543.898438	15248.182617	60.217133
574.131409	1179.184204	24545.458984	15325.234375	60.540455
574.474365	1177.846680	24530.375000	15348.862305	60.683006
574.817261	1181.041748	24462.462891	15312.379883	60.697914
575.160156	1187.729004	24293.201172	15185.692383	60.582890
575.502930	1187.951782	24065.537109	15032.109375	60.514065
575.845703	1186.168579	23866.851563	14903.788086	60.481506
576.188477	1193.895996	23668.685547	14731.480469	60.234531
576.531250	1200.954956	23447.708984	14586.515625	60.168602
576.873901	1204.892944	23158.671875	14425.575195	60.220531
577.216431	1192.855835	22908.865234	14304.313477	60.376923
577.559082	1191.072632	22646.353516	14136.092773	60.334892
577.901611	1200.434692	22346.171875	13973.444336	60.404659
578.244080	1202.217896	21991.822266	13763.316406	60.420097
578.586487	1198.131348	21639.181641	13553.187500	60.442375
578.928955	1203.035400	21287.060547	13366.093750	60.560860
579.271301	1211.357300	20994.158203	13200.250000	60.602604
579.613647	1215.443848	20660.019531	13047.631836	60.850838
579.955872	1208.756714	20338.064453	12829.703125	60.749432
580.298157	1203.629761	20019.380859	12650.782227	60.838135
580.640320	1206.081787	19760.361328	12465.471680	60.683517
580.982483	1205.487305	19584.710938	12339.230469	60.577877
581.324524	1207.122070	19360.613281	12215.218750	60.639004
581.666626	1198.800171	19215.427734	12125.981445	60.650539
582.008728	1196.719727	19068.603516	12049.597656	60.725990
582.350647	1194.341919	18970.375000	11971.952148	60.630009
582.692566	1196.719727	18852.755859	11897.127930	60.604820
583.034424	1182.750732	18738.328125	11840.137695	60.706554
583.376343	1178.664185	18652.955078	11800.088867	60.783154
583.718201	1178.218262	18593.289063	11758.108398	60.751350
584.059937	1193.747681	18539.345703	11685.811523	60.488335
584.401611	1190.924194	18410.208984	11628.821289	60.617485
584.743347	1187.803345	18320.970703	11586.171875	60.691452
585.085022	1179.109863	18221.404297	11541.515625	60.804054
585.426514	1182.973633	18183.138672	11482.817383	60.586731
585.768127	1184.979858	18104.302734	11448.414063	60.661026
586.109619	1191.221191	18055.783203	11415.647461	60.626690
586.451172	1190.626831	18032.082031	11396.847656	60.601776
586.792542	1196.199585	17999.240234	11360.440430	60.490486
587.133850	1196.051025	17970.857422	11350.409180	60.533386
587.475220	1200.732056	17912.158203	11351.598633	60.742073
587.816589	1199.914673	17873.369141	11337.555664	60.801079
588.157776	1202.069458	17889.867188	11368.762695	60.922920
588.498962	1203.555542	17941.208984	11376.786133	60.780502
588.840210	1201.103394	17988.093750	11389.195313	60.690403
589.181335	1199.023071	17985.865234	11386.446289	60.686954
589.522400	1196.942505	18006.447266	11402.941406	60.715649
589.863403	1191.221191	18014.398438	11423.226563	60.820889
590.204407	1189.437866	18026.361328	11415.127930	60.733723
590.545410	1183.196533	18042.337891	11415.945313	60.695557
590.886353	1192.410156	18050.509766	11402.049805	60.562222
591.227112	1194.936401	18054.669922	11397.071289	60.511837
591.567932	1198.948730	18029.853516	11370.471680	60.433613
591.908752	1196.942505	17982.150391	11365.864258	60.582642
592.249512	1196.050903	17967.958984	11379.684570	60.718395
592.590149	1188.694946	17911.041016	11312.291992	60.539333
592.930786	1190.329590	17859.103516	11263.549805	60.431686
593.271423	1193.301636	17779.970703	11181.667969	60.219238
593.612000	1195.753662	17704.408203	11174.757813	60.447105
593.952576	1195.382202	17671.119141	11194.151367	60.687847
594.292969	1192.335815	17669.708984	11198.088867	60.724201
594.633484	1191.667114	17713.173828	11247.945313	60.867805
594.973877	1189.512329	17790.966797	11271.202148	60.727745
595.314209	1185.202637	17897.369141	11345.875977	60.798065
595.654480	1190.106689	18043.748047	11429.838867	60.756798
595.994812	1185.871460	18174.816406	11523.309570	60.848030
596.335022	1190.106567	18336.871094	11643.831055	60.966167
596.675171	1194.416138	18503.830078	11740.499023	60.926865
597.015320	1196.719604	18679.183594	11804.473633	60.676537
597.355408	1201.549316	18765.078125	11805.811523	60.376598
597.695496	1195.679321	18803.937500	11779.582031	60.107605
598.035461	1197.388306	18764.482422	11745.476563	60.044582
598.375366	1199.914673	18733.796875	11735.000000	60.084152
598.715271	1198.502930	18659.121094	11724.078125	60.281803
599.055176	1199.320190	18535.408203	11670.950195	60.403648
599.395081	1195.233521	18350.990234	11588.846680	60.583824
599.734802	1200.657715	18136.253906	11436.601563	60.440411
600.074524	1195.828003	17917.134766	11295.723633	60.401352
600.414246	1197.165527	17611.601563	11095.922852	60.305199
600.753906	1191.592773	17274.416016	10906.971680	60.408417
601.093506	1190.106689	16968.291016	10683.022461	60.164818
601.433044	1191.072632	16729.185547	10535.307617	60.137516
601.772583	1197.239746	16577.679688	10451.346680	60.168030
602.112122	1208.756714	16494.908203	10426.158203	60.299034
602.451538	1205.115845	16505.681641	10422.666016	60.243198
602.790894	1199.765991	16597.445313	10469.253906	60.200554
603.130310	1193.524536	16725.023438	10573.500977	60.393246
603.469604	1190.775391	16915.830078	10693.945313	60.433304
603.808838	1193.821777	17115.259766	10814.016602	60.422905
604.148010	1192.112793	17354.291016	10939.143555	60.307659
604.487305	1194.713379	17581.880859	11063.153320	60.220531
604.826416	1193.524536	17785.025391	11179.883789	60.189610
605.165527	1196.942505	17921.890625	11261.171875	60.174953
605.504456	1200.211914	18023.314453	11327.226563	60.197071
605.843445	1199.023071	18096.130859	11345.950195	60.051266
606.182434	1196.645264	18122.804688	11384.069336	60.187447
606.521423	1197.908447	18059.351563	11334.062500	60.114391
606.860229	1194.267578	17919.216797	11270.831055	60.248695
607.199036	1198.502930	17744.529297	11147.338867	60.128246
607.537903	1195.085083	17583.218750	11067.093750	60.238766
607.876648	1203.183960	17370.787109	10924.209961	60.126575
608.215271	1198.725952	17159.841797	10774.489258	59.994324
608.553955	1194.713501	16917.021484	10617.041992	59.929676
608.892578	1190.403809	16675.462891	10493.475586	60.077732
609.231140	1195.902222	16497.507813	10405.278320	60.185684
609.569641	1198.131470	16384.343750	10317.007813	60.047073
609.908081	1204.818726	16353.879883	10266.704102	59.818134
610.246521	1204.669922	16309.745117	10218.556641	59.674557
610.584961	1212.991821	16299.043945	10212.315430	59.653271
610.923340	1207.865112	16269.546875	10172.934570	59.522366
611.261597	1205.561768	16194.426758	10151.757813	59.685616
611.599854	1196.125244	16055.629883	10102.346680	59.936195
611.938110	1196.422485	15928.942383	10059.993164	60.163303
612.276245	1195.753662	15754.925781	9951.437500	60.138611
612.614319	1198.725830	15549.032227	9831.958008	60.160614
612.952393	1198.651489	15299.747070	9674.660156	60.108868
613.290466	1193.673218	15057.965820	9516.469727	60.030445
613.628479	1186.465942	14767.368164	9337.474609	60.018169
613.966370	1184.682739	14472.684570	9186.639648	60.219414
614.304260	1181.116089	14218.715820	9053.118164	60.379227
614.642151	1187.803345	14041.801758	8911.125000	60.084976
614.979980	1193.598877	13915.635742	8815.200195	59.908657
615.317749	1201.474976	13780.627930	8699.213867	59.604477
615.655396	1199.543091	13672.145508	8648.985352	59.726448
615.993164	1195.456543	13586.624023	8606.929688	59.812546
616.330811	1193.450317	13544.270508	8587.313477	59.865360
616.668396	1192.261353	13516.704102	8595.932617	60.073074
617.005859	1196.125122	13456.890625	8568.961914	60.133575
617.343445	1196.570923	13440.543945	8583.004883	60.327103
617.680908	1190.626831	13416.174805	8546.820313	60.170666
618.018311	1182.973633	13451.022461	8562.719727	60.154194
618.355652	1182.453491	13461.499023	8570.447266	60.167488
618.692993	1181.487671	13457.188477	8571.709961	60.202038
619.030273	1187.431885	13447.604492	8535.672852	59.935871
619.367554	1187.654785	13410.453125	8496.070313	59.793304
619.704712	1201.921021	13414.464844	8488.417969	59.664040
620.041870	1199.394653	13394.402344	8496.145508	59.833920
620.379028	1195.530762	13372.781250	8486.708008	59.875401
620.716064	1189.140747	13295.282227	8452.826172	60.000004
621.053040	1189.437988	13253.971680	8415.600586	59.895916
621.389954	1192.112915	13185.835938	8388.479492	60.001110
621.726929	1190.106567	13155.296875	8361.210938	59.933056
622.063843	1190.181030	13065.984375	8326.957031	60.095097
622.400635	1193.078735	13023.855469	8271.007813	59.826412
622.737427	1195.084961	12977.713867	8252.283203	59.894939
623.074219	1198.948730	12942.938477	8209.187500	59.692139
623.410889	1203.406860	12876.437500	8201.682617	59.952522
623.747559	1207.344849	12855.262695	8190.760254	59.954197
624.084167	1209.276733	12812.910156	8171.218750	59.997944
624.420715	1204.372803	12844.859375	8165.274902	59.799068
624.757324	1200.806274	12831.411133	8145.286621	59.708679
625.093750	1190.924072	12877.331055	8184.072754	59.840019
625.430176	1193.524658	12932.686523	8211.118164	59.779343
625.766602	1187.729004	12987.223633	8247.082031	59.827591
626.102905	1187.134521	13049.713867	8300.133789	59.961658
626.439209	1189.734985	13100.757813	8335.279297	59.991024
626.775452	1195.604980	13208.125000	8389.372070	59.885582
627.111694	1199.171509	13281.684570	8417.978516	59.745911
627.447876	1190.180908	13340.532227	8466.721680	59.887493
627.783997	1186.985962	13355.020508	8469.320313	59.848076
628.120056	1187.283203	13384.000000	8481.581055	59.805420
628.456055	1187.357544	13405.473633	8457.878906	59.506077
628.792053	1179.778687	13396.557617	8451.118164	59.519283
629.128052	1182.230591	13329.090820	8423.403320	59.613537
629.463928	1189.437988	13240.448242	8396.430664	59.804058
629.799744	1200.360474	13180.187500	8363.440430	59.792850
630.135559	1191.815552	13096.002930	8298.944336	59.702763
630.471375	1193.821777	12982.765625	8244.555664	59.808022
630.807068	1192.558594	12805.480469	8157.918457	59.979393
631.142700	1201.474976	12674.781250	8079.603516	59.948963
631.478333	1192.261353	12530.411133	7972.458984	59.799862
631.813965	1187.951782	12392.579102	7874.454590	59.676266
632.149475	1186.465820	12242.635742	7794.802246	59.770576
632.484924	1192.112793	12138.539063	7740.412109	59.821346
632.820435	1197.313965	12063.714844	7720.944824	60.034885
633.155884	1200.063354	12009.325195	7671.755859	59.871735
633.491150	1200.434692	11957.686523	7632.152832	59.789604
633.826477	1197.388306	11871.122070	7573.601563	59.737423
634.161804	1196.348022	11807.965820	7518.543457	59.578053
634.497009	1197.165405	11731.285156	7461.553223	59.467594
634.832153	1197.016724	11687.817383	7423.287109	59.349812
635.167297	1201.474976	11617.082031	7390.074219	59.416592
635.502380	1193.153076	11567.002930	7367.783203	59.521103
635.837463	1193.896118	11490.098633	7318.966797	59.488640
636.172424	1178.886963	11435.187500	7274.162598	59.429569
636.507324	1186.168579	11361.554688	7226.832031	59.365452
636.842224	1188.620728	11301.221680	7177.048828	59.217491
637.177124	1199.245972	11181.148438	7129.866699	59.413731
637.511963	1195.085083	11060.109375	7053.705566	59.387794
637.846741	1190.701172	10935.502930	6978.363281	59.392303
638.181396	1184.088257	10805.102539	6910.970703	59.524723
638.516113	1188.992188	10682.280273	6852.939941	59.662655
638.850769	1189.289429	10595.270508	6807.392578	59.729046
639.185303	1193.301758	10533.079102	6750.699707	59.502468
639.519836	1187.283203	10459.668945	6705.894531	59.516628
639.854370	1186.688843	10376.301758	6651.505371	59.467316
640.188843	1187.728882	10286.766602	6609.672363	59.588093
640.523254	1188.026245	10199.237305	6565.537109	59.675785
640.857605	1198.948730	10102.791992	6519.841309	59.759502
641.191895	1202.589478	10032.353516	6465.302246	59.601967
641.526184	1200.137573	9998.025391	6425.699219	59.395638
641.860413	1187.580444	9957.233398	6387.433594	59.293713
642.194580	1184.756836	9901.877930	6342.183105	59.164330
642.528748	1189.363647	9821.111328	6309.638184	59.319092
642.862793	1202.143677	9722.139648	6271.892578	59.504124
643.196838	1200.880615	9656.605469	6264.982422	59.889622
643.530823	1198.651489	9591.589844	6222.630371	59.859596
643.864746	1192.335815	9570.487305	6180.425781	59.536880
644.198669	1194.564819	9555.627930	6153.008301	59.303978
644.532532	1199.097290	9532.073242	6137.404785	59.262234
644.866333	1198.205688	9488.606445	6136.364746	59.564785
645.200073	1194.490601	9442.686523	6116.822754	59.677677
645.533813	1195.010620	9444.543945	6093.640625	59.380692
645.867554	1200.434814	9438.451172	6088.438965	59.334717
646.201172	1202.292358	9443.653320	6079.522949	59.179913
646.534729	1198.280029	9417.053711	6081.083496	59.410370
646.868225	1197.908569	9422.477539	6086.061035	59.433537
647.201782	1200.732056	9420.693359	6083.906738	59.406303
647.535217	1202.292358	9446.846680	6091.411621	59.301189
647.868591	1198.577271	9442.686523	6083.015625	59.247620
648.201965	1195.679443	9434.959961	6081.231934	59.295868
648.535278	1196.868286	9390.081055	6078.631348	59.583015
648.868591	1196.422485	9396.025391	6050.544922	59.199486
649.201782	1197.759888	9361.994141	6037.541504	59.280289
649.534912	1198.131348	9346.836914	6004.997559	58.989323
649.868103	1192.410034	9294.527344	5997.566406	59.307415
650.201172	1188.100464	9269.264648	5988.056152	59.396835
650.534180	1178.589722	9218.589844	5986.049316	59.794273
650.867188	1183.716675	9172.448242	5963.685059	59.833885
651.200134	1187.729004	9160.484375	5946.595215	59.689102
651.533020	1201.623657	9119.395508	5929.208984	59.708534
651.865845	1200.954956	9092.720703	5913.753906	59.717926
652.198608	1199.914673	9027.557617	5887.302246	59.882492
652.531433	1191.146973	9004.300781	5850.744629	59.637859
652.864136	1189.809448	8974.059570	5824.664551	59.541447
653.196777	1234.168213	8993.526367	5847.400879	59.453789
653.529358	1238.923584	8953.477539	5823.550293	59.428284
653.861938	1239.220825	8894.704102	5780.826172	59.324867
654.194519	1196.348145	8775.374023	5686.758301	59.247852
654.526978	1189.214966	8719.795898	5644.108887	59.157375
654.859375	1189.437988	8671.276367	5608.145996	59.059120
655.191833	1193.227417	8631.524414	5586.375488	59.061207
655.524170	1198.948730	8592.960938	5555.019531	58.913490
655.856445	1199.765991	8540.131836	5544.320313	59.187164
656.188660	1194.044556	8502.237305	5516.977051	59.151867
656.520874	1194.341919	8472.368164	5507.763672	59.266369
656.853088	1194.119019	8476.305664	5498.550293	59.109047
657.185181	1193.747559	8462.113281	5512.667480	59.420784
657.517212	1188.546387	8463.749023	5520.617676	59.545712
657.849243	1193.078735	8479.203125	5538.747559	59.643078
658.181274	1191.369751	8546.967773	5540.308105	59.124199
658.513123	1201.474976	8615.771484	5569.435059	58.912670
658.844971	1196.422485	8700.476563	5624.938965	59.014988
659.176819	1191.890015	8788.525391	5681.928223	59.105618
659.508667	1192.855835	8864.833984	5721.309082	59.025887
659.840393	1201.177734	8910.307617	5750.212891	59.008411
660.172058	1213.660645	8963.508789	5775.773438	58.867126
660.503662	1204.967285	8970.715820	5787.587402	59.010670
660.835266	1195.976563	8981.416016	5766.856934	58.710629
661.166931	1189.437988	8940.176758	5740.033691	58.711769
661.498413	1190.552368	8944.487305	5729.185059	58.533283
661.829773	1196.125244	8897.750000	5702.584473	58.513092
662.161194	1199.394531	8808.512695	5653.768066	58.539944
662.492615	1204.372925	8705.677734	5583.329590	58.375931
662.823975	1200.063232	8564.725586	5509.398438	58.513683
663.155212	1199.245850	8425.408203	5429.225586	58.537014
663.486450	1190.923950	8266.400391	5358.266602	58.898403
663.817627	1194.044556	8130.872559	5280.248535	58.905945
664.148743	1190.106689	8024.024902	5215.456543	58.902519
664.479858	1190.626831	7899.121582	5145.091797	58.947128
664.810913	1189.437988	7831.061035	5100.064453	58.880585
665.141907	1189.363647	7762.479004	5063.062012	58.932457
665.472778	1191.146973	7705.786621	5021.972168	58.803333
665.803711	1198.428589	7647.310059	4996.783691	58.899441
666.134583	1201.623657	7571.744141	4967.730957	59.121445
666.465454	1205.412964	7529.688965	4953.093262	59.258644
666.796143	1199.543091	7475.894043	4919.583496	59.270752
667.126831	1203.555298	7473.664063	4900.115723	58.955284
667.457458	1204.967163	7453.974609	4880.722656	58.821430
667.788147	1203.926880	7437.033203	4885.626465	59.066853
668.118774	1192.484253	7406.644043	4867.868652	59.145313
668.449219	1183.642334	7390.594238	4868.313965	59.363621
668.779663	1187.431763	7380.563965	4853.379395	59.193756
669.110107	1194.861938	7356.860840	4843.942871	59.219112
669.440552	1206.156128	7334.792969	4808.649414	58.781315
669.770874	1201.995117	7310.124512	4778.482422	58.552906
670.101135	1199.988892	7273.195313	4766.148438	58.719551
670.431396	1188.769165	7234.781250	4766.296387	59.171684
670.761597	1186.911621	7195.327637	4732.562988	59.011417
671.091797	1188.546265	7174.150879	4710.495117	58.840317
671.421875	1193.153076	7136.702637	4687.015625	58.784103
671.751892	1195.010620	7117.754395	4682.186035	58.877701
672.081909	1198.205688	7104.230957	4676.613281	58.895916
672.411865	1194.193237	7076.813965	4659.226563	58.902885
672.741821	1190.626831	7037.210938	4641.914063	59.030830
673.071716	1182.899414	6976.579590	4602.533691	59.023525
673.401550	1189.066406	6928.580078	4582.323242	59.120983
673.731262	1184.533936	6897.744629	4561.741211	59.112244
674.060974	1189.809448	6848.705078	4540.341797	59.208237
674.390625	1191.146851	6823.441895	4510.546875	58.935123
674.720276	1198.725830	6768.457520	4478.596191	58.887405
675.049927	1198.205688	6755.528809	4458.906250	58.673943
675.379395	1195.679565	6725.585449	4443.674316	58.735081
675.708923	1190.329590	6707.083984	4424.950195	58.632675
676.038330	1188.026245	6681.152344	4401.841797	58.506130
676.367737	1184.459717	6640.880371	4378.808105	58.542927
676.697083	1193.227417	6596.149902	4360.900879	58.628887
677.026428	1193.153076	6553.128906	4338.833496	58.688335
677.355652	1196.273926	6537.302246	4328.133789	58.637768
677.684875	1192.335815	6519.544434	4308.740723	58.499771
678.013977	1193.747559	6537.970703	4308.220215	58.277370
678.343079	1189.437988	6548.967285	4299.601074	58.030525
678.672180	1186.985962	6577.945313	4321.669434	58.147045
679.001221	1184.608276	6594.365723	4337.050293	58.273258
679.330139	1188.249023	6608.186035	4349.830078	58.332432
679.659058	1193.004395	6621.709473	4351.241699	58.176624
679.987976	1202.886841	6643.332031	4363.427734	58.093426
680.316772	1206.304688	6680.482910	4397.309082	58.291935
680.645630	1203.704102	6719.417969	4419.228516	58.297520
680.974304	1195.753784	6741.337402	4439.587891	58.494007
681.302979	1188.992188	6780.197266	4444.491699	58.225365
681.631653	1183.122192	6789.113281	4461.209961	58.474724
681.960266	1183.047852	6806.128906	4461.209473	58.298317
682.288757	1186.242798	6801.894531	4453.333984	58.178310
682.617249	1197.239868	6812.147949	4451.550293	57.958393
682.945679	1199.023071	6793.349121	4459.648926	58.284515
683.274109	1207.419312	6772.767090	4447.538086	58.219521
683.602478	1201.326416	6708.718262	4412.020996	58.297916
683.930725	1197.314087	6645.857910	4361.643555	58.076611
684.259033	1188.323364	6565.091309	4325.310059	58.343353
684.587280	1191.146973	6510.627441	4297.743652	58.400379
684.915344	1194.639160	6446.801270	4262.227051	58.406193
685.243469	1199.691772	6385.427246	4237.335449	58.576912
685.571533	1199.171509	6335.495605	4198.178223	58.388191
685.899536	1196.868286	6284.375488	4164.073242	58.323357
686.227539	1196.496704	6218.988770	4122.537598	58.258747
686.555420	1190.923950	6164.079590	4118.599609	58.869579
686.883301	1191.890015	6159.992188	4105.373535	58.643791
687.211121	1188.397583	6161.181641	4099.578613	58.542278
687.538940	1189.586548	6164.228027	4079.070557	58.084263
687.866638	1187.877563	6135.621094	4079.813721	58.449593
688.194336	1185.945801	6136.958984	4085.089600	58.556576
688.521973	1187.283203	6125.664551	4078.402344	58.543861
688.849609	1190.478149	6112.810547	4071.268799	58.524906
689.177063	1190.998291	6071.498535	4041.176514	58.399307
689.504578	1192.484497	6021.195313	4007.962891	58.307041
689.832031	1196.496826	5973.046875	3973.486572	58.137985
690.159485	1201.252075	5909.146484	3929.573486	57.952049
690.486816	1201.549316	5858.323730	3897.400635	57.890957
690.814087	1198.800171	5792.343262	3868.496826	58.118469
691.141296	1191.592773	5738.027832	3830.082031	58.034245
691.468506	1189.363770	5675.613281	3784.014404	57.835629
691.795715	1181.636108	5593.434082	3733.265625	57.836498
692.122803	1184.459595	5526.042480	3702.504639	57.998314
692.449829	1196.125244	5466.674316	3681.848389	58.206177
692.776855	1199.765991	5404.111328	3643.136719	58.115364
693.103821	1196.199341	5352.842285	3618.616943	58.278217
693.430664	1186.985840	5297.338379	3575.818359	58.117462
693.757568	1185.351318	5272.372559	3559.768799	58.096531
694.084351	1191.369751	5222.292480	3527.744873	57.961292
694.411133	1195.530884	5191.679199	3512.809814	57.987804
694.737854	1193.376099	5148.435059	3478.333252	57.773018
695.064575	1190.403809	5141.673828	3462.803955	57.510628
695.391174	1191.815674	5114.181641	3445.639893	57.460835
695.717773	1198.725830	5106.603027	3437.838623	57.297421
696.044250	1200.211792	5089.067871	3434.420654	57.451576
696.370789	1189.214966	5099.470215	3434.197998	57.412693
696.697205	1185.202637	5115.593750	3447.869141	57.568481
697.023621	1180.967529	5169.314453	3466.221680	57.298279
697.349915	1188.323364	5212.410156	3501.367188	57.479969
697.676208	1192.187256	5277.201660	3544.462891	57.583042
698.002380	1200.211914	5347.492188	3581.242432	57.411854
698.328674	1198.577271	5428.928223	3628.350586	57.436684
698.654724	1197.685547	5519.726074	3672.263428	57.254852
698.980896	1198.502808	5588.158691	3723.829346	57.529037
699.306946	1197.982788	5652.207520	3761.500977	57.552509
699.632935	1197.833984	5676.728027	3776.807373	57.580585
699.958862	1199.840210	5686.684082	3790.999268	57.750153
700.284729	1200.880615	5678.511230	3777.178955	57.537086
700.610596	1201.400757	5653.545410	3760.237549	57.474255
700.936340	1191.889893	5608.295410	3712.609619	57.076279
701.262146	1194.193237	5517.051270	3660.449219	57.051514
701.587830	1191.964233	5429.300293	3609.700439	57.057934
701.913513	1195.530762	5318.068848	3546.023193	57.015663
702.239075	1190.255371	5215.679688	3487.621338	57.071400
702.564697	1187.134521	5095.160156	3431.671143	57.434029
702.890137	1186.317139	4972.783691	3367.770508	57.611847
703.215698	1191.295532	4867.273926	3309.814453	57.631432
703.541016	1195.902344	4792.599609	3246.731689	57.019794
703.866455	1196.719604	4716.662109	3210.174561	57.201363
704.191711	1188.546265	4653.355957	3179.636475	57.466080
704.517029	1188.992188	4583.957520	3137.581055	57.396427
704.842163	1180.001587	4534.992188	3106.671143	57.426971
705.167419	1183.568115	4497.617676	3080.293701	57.232868
705.492493	1183.791016	4454.225098	3066.027344	57.553104
705.817566	1192.855957	4418.262207	3053.395752	57.683891
706.142578	1193.673218	4377.470215	3025.012451	57.520607
706.467590	1198.131348	4355.253906	3009.631592	57.378204
706.792480	1191.518433	4350.499023	2985.780518	56.798771
707.117371	1191.295532	4345.817871	2983.031250	56.798954
707.442200	1186.540039	4357.111816	2983.774414	56.684868
707.766907	1197.536987	4354.659668	2982.436768	56.535652
708.091675	1200.434692	4357.780273	2980.133545	56.366932
708.416321	1205.635986	4338.684570	2980.727783	56.657013
708.741028	1193.450317	4348.715332	2999.080811	57.225952
709.065552	1188.992188	4359.415039	3010.449219	57.451550
709.390137	1185.425659	4383.117676	3011.415039	57.103355
709.714600	1194.862183	4390.547852	3011.489258	56.846241
710.039063	1200.509155	4416.256348	3028.207275	56.835880
710.363403	1196.942505	4443.822754	3059.563232	57.366474
710.687744	1190.849731	4480.082520	3086.906494	57.644344
711.012085	1190.106689	4524.961426	3106.002197	57.450645
711.336304	1195.010742	4558.917480	3112.986572	57.016319
711.660461	1197.165527	4586.483887	3128.144531	56.972488
711.984619	1198.800171	4588.193359	3137.135010	57.188259
712.308716	1190.626831	4593.542480	3150.658203	57.598591
712.632751	1183.791016	4590.124512	3142.707764	57.508072
712.956726	1179.332886	4582.843262	3124.206299	57.143162
713.280701	1180.373047	4557.729004	3104.961914	56.985077
713.604553	1187.431763	4516.268066	3088.169678	57.099167
713.928467	1194.713501	4463.661621	3075.909424	57.547436
714.252258	1199.691772	4426.733887	3043.291016	57.129696
714.575989	1203.555542	4383.415039	3008.814453	56.771660
714.899719	1202.440918	4343.588867	2976.864502	56.489655
715.223267	1203.183960	4294.399902	2949.892578	56.505554
715.546936	1198.577148	4258.734863	2936.220703	56.782810
715.870422	1200.731934	4230.202637	2922.103271	56.820862
716.193970	1205.784546	4207.392090	2914.003906	56.910152
716.517395	1211.654419	4192.976563	2895.280029	56.472446
716.840820	1208.013550	4160.506348	2871.056885	56.326756
717.164124	1193.450195	4122.091797	2853.670166	56.689079
717.487488	1192.484375	4081.671143	2839.626953	57.010597
717.810730	1186.837402	4061.535156	2824.692383	56.974857
718.133972	1191.444214	4028.098877	2801.287109	56.751457
718.457092	1188.917969	3989.461670	2762.054932	56.172554
718.780212	1194.119019	3933.808838	2732.556885	56.153721
719.103210	1196.570923	3890.565186	2707.813965	56.096745
719.426208	1199.988892	3846.875000	2689.758545	56.283855
719.749207	1196.645386	3808.163330	2679.058838	56.764435
720.072083	1199.023071	3758.974609	2654.018799	56.836845
720.394958	1195.828003	3722.417725	2625.040771	56.566868
720.717773	1190.849731	3686.677734	2586.774658	55.930332
721.040527	1192.781616	3669.737061	2570.799805	55.633545
721.363281	1192.633057	3652.721436	2561.511963	55.643486
721.685913	1195.902344	3628.424561	2551.406982	55.724243
722.008545	1199.989014	3603.161865	2536.100586	55.597813
722.331055	1199.394531	3555.607666	2523.691895	56.204479
722.653503	1205.115845	3531.087891	2505.488037	55.906609
722.976013	1194.936401	3499.137939	2493.896484	56.373543
723.298401	1192.112915	3494.382568	2483.197021	56.078754
723.620789	1187.060181	3481.008057	2484.534424	56.560757
723.943115	1184.459595	3480.636719	2479.481934	56.399059
724.265381	1190.626831	3466.073242	2468.782227	56.171635
724.587585	1194.341919	3460.054688	2467.370361	56.186661
724.909790	1197.759888	3462.878174	2472.051514	56.257179
725.231873	1198.057007	3469.416992	2478.590088	56.377377
725.553894	1196.793945	3475.881592	2464.621094	55.628716
725.875916	1217.672974	3490.072998	2492.558838	56.103058
726.197937	1208.905273	3494.977295	2507.568359	56.807617
726.519775	1212.026001	3493.936768	2515.667236	57.129372
726.841675	1188.843628	3491.930664	2483.419678	56.210472
727.163513	1195.382202	3504.264893	2480.076172	55.641369
727.485291	1180.595825	3535.100342	2496.422852	55.885521
727.806946	1188.472046	3538.518311	2506.304932	56.076889
728.128662	1189.363770	3550.852539	2518.044922	56.264557
728.450256	1202.663940	3545.576904	2524.212158	56.406200
728.771790	1199.914673	3544.833984	2525.846924	56.544895
729.093323	1196.273804	3547.211914	2529.413330	56.706707
729.414795	1192.112915	3542.976563	2532.236572	57.005585
729.736145	1190.775391	3550.852783	2533.053955	56.874344
730.057495	1205.115845	3541.936523	2523.543213	56.419704
730.378845	1209.053833	3545.577393	2521.388428	56.166122
730.700134	1205.784546	3543.942627	2517.598877	56.104603
731.021301	1189.140747	3559.546143	2522.651611	56.256660
731.342468	1184.682617	3562.815674	2518.787842	56.098846
731.663574	1189.066528	3555.310791	2528.150146	56.591103
731.984680	1194.193359	3551.744141	2525.029297	56.449936
732.305664	1193.673218	3557.390869	2520.571045	56.136051
732.626648	1196.348145	3572.029053	2515.815918	55.540615
732.947571	1194.862061	3582.134033	2514.106689	55.261597
733.268433	1202.589478	3565.639404	2513.438232	55.472752
733.589233	1196.942505	3559.249023	2519.902344	56.002884
733.909973	1193.227417	3533.688721	2513.735352	56.420837
734.230713	1185.276978	3508.128906	2508.162842	56.950932
734.551331	1182.899292	3469.491455	2486.243408	56.999409
734.871948	1186.465820	3435.832031	2467.593506	56.955051
735.192505	1185.871460	3407.448242	2445.971436	56.720978
735.513062	1188.397827	3388.872314	2416.027344	55.789307
735.833435	1185.574219	3346.148438	2396.336914	56.038933
736.153931	1190.255249	3313.604248	2365.872803	55.366192
736.474304	1191.741333	3258.917236	2352.349854	56.144646
736.794617	1194.490479	3247.028564	2328.721680	55.259933
737.114807	1190.701050	3227.115479	2325.823730	55.741241
737.434998	1186.317261	3218.793701	2315.941650	55.578720
737.755188	1185.128418	3189.889893	2317.873291	56.502724
738.075256	1187.134521	3191.599365	2315.050049	56.270157
738.395325	1195.902344	3202.893311	2319.433838	55.980896
738.715271	1202.961060	3233.505859	2326.418213	55.327869
739.035278	1202.961060	3250.075439	2332.882324	55.195805
739.355164	1190.626831	3269.765625	2336.746094	55.124714
739.675049	1182.453491	3275.041016	2335.854736	55.118427
739.994873	1185.054077	3275.115234	2341.799072	55.345036
740.314636	1197.834106	3271.028564	2346.777100	55.418972
740.634277	1201.326294	3247.772217	2334.963135	55.395397
740.953979	1204.372681	3227.710205	2313.861084	54.834568
741.273499	1199.691772	3200.069580	2306.133545	55.311642
741.593140	1196.868286	3176.441406	2300.635254	55.757828
741.912598	1195.010742	3145.234375	2288.300781	56.059727
742.232117	1191.072632	3098.274658	2256.870850	55.882816
742.551453	1196.422363	3067.290283	2233.465576	55.431129
742.870850	1192.335815	3034.077148	2212.660889	55.400021
743.190063	1202.292358	3023.452148	2190.667236	54.271729
743.509338	1196.719727	2986.746338	2170.679688	54.410362
743.828552	1193.227417	2963.638428	2159.385498	54.572529
744.147705	1183.790894	2930.425049	2156.339111	55.681278
744.466797	1183.939575	2915.787354	2149.577637	55.757675
744.785828	1189.735229	2896.988525	2142.073242	55.781883
745.104858	1194.861938	2878.264404	2120.525391	54.987648
745.423706	1195.976685	2866.598877	2112.278076	54.847912
745.742615	1193.673218	2855.304932	2099.943604	54.540989
746.061401	1196.422363	2841.484619	2096.599854	54.719963
746.380249	1197.759888	2828.407227	2090.135498	54.725235
746.698975	1199.320190	2815.404297	2086.643311	54.905750
747.017639	1197.314087	2805.670654	2080.178955	54.892361
747.336304	1199.543091	2794.896729	2079.658691	55.167431
747.654907	1199.766113	2794.599609	2074.903564	54.873280
747.973389	1196.793823	2794.451172	2081.219238	55.357639
748.291931	1196.199585	2798.760742	2072.302979	54.668953
748.610352	1194.490601	2799.503662	2069.033447	54.488209
748.928711	1197.685547	2798.314697	2059.968750	53.871517
749.247070	1202.218018	2788.581299	2066.432861	54.477737
749.565308	1199.988892	2783.825439	2067.621826	54.780460
749.883545	1197.091064	2781.968018	2064.872559	54.753872
750.201782	1191.072632	2776.915771	2054.469971	54.444057
750.519836	1190.923950	2762.649414	2056.773438	55.089104
750.837952	1192.632935	2757.522705	2057.367920	55.258522
751.155884	1190.329468	2752.247070	2054.544434	55.330379
751.473877	1191.295532	2748.531982	2044.662109	54.800064
751.791809	1193.896118	2733.077148	2032.550781	54.487072
752.109619	1191.890015	2716.135986	2026.160767	54.733341
752.427490	1199.320190	2706.104736	2025.194824	54.810398
752.745300	1195.828003	2697.783203	2025.789429	55.258736
753.062988	1199.765991	2701.349854	2028.018555	55.158596
753.380615	1187.505981	2696.742920	2016.352905	54.918278
753.698303	1186.837402	2694.959717	2010.928711	54.643532
754.015808	1185.871460	2682.922607	2001.046509	54.452049
754.333374	1189.066406	2679.356201	2001.640991	54.524601
754.650757	1184.385376	2693.324951	1998.371582	53.944256
754.968262	1184.162476	2705.213623	2000.675171	53.680817
755.285583	1184.682617	2710.191650	1994.433716	53.080715
755.602905	1186.985962	2683.368408	1988.638062	53.572674
755.920105	1180.893188	2667.541748	1982.025024	53.888447
756.237305	1184.534058	2643.988037	1983.213867	54.724564
756.554443	1193.598877	2645.399658	1991.684204	54.972095
756.871582	1197.388306	2650.378174	1984.031128	54.139595
757.188599	1195.084961	2661.895020	1977.046875	53.310371
757.505615	1190.181030	2669.548096	1975.486450	53.083878
757.822510	1197.016846	2672.297363	1984.477173	53.376991
758.139465	1201.103516	2683.888428	2000.229126	53.893562
758.456238	1196.719604	2698.229004	2012.637817	54.339867
758.773010	1194.193359	2706.030762	2032.030762	55.418488
759.089783	1189.512207	2716.878906	2033.665527	55.268543
759.406433	1192.261597	2725.944092	2030.173340	54.633976
759.723145	1186.688843	2741.918945	2019.325073	53.537815
760.039673	1192.484375	2747.566162	2012.340454	52.721092
760.356201	1192.558594	2750.389648	2024.377563	53.395969
760.672668	1193.598877	2746.005859	2025.120483	53.563377
760.989136	1189.215088	2736.792236	2028.538452	54.234669
761.305481	1186.094360	2738.872803	2023.560181	53.933376
761.621826	1189.140747	2735.454834	2022.297241	53.880157
761.938049	1191.072632	2738.055420	2024.526367	53.876083
762.254333	1187.803223	2746.897461	2027.201172	53.838821
762.570496	1185.425537	2781.447998	2057.219482	54.622913
762.886597	1177.921021	2858.574219	2088.500732	54.180107
763.202637	1183.419434	2950.560791	2145.714111	54.454880
763.518677	1181.561890	3089.655518	2207.682373	53.777260
763.834656	1192.187134	3205.865234	2288.895264	54.462933
764.150574	1189.883667	3314.495850	2337.861084	54.032326
764.466370	1195.976563	3361.975342	2376.795410	54.516136
764.782288	1188.620605	3390.359131	2376.424072	53.948433
765.097961	1195.902222	3366.582031	2378.504639	54.480743
765.413696	1194.564819	3316.501953	2349.526611	54.429600
765.729309	1199.394531	3231.127930	2306.653564	54.498245
766.044861	1193.450317	3127.772705	2253.155518	54.784313
766.360474	1200.509155	3022.560547	2201.515381	54.938419
766.675903	1203.258301	2910.214844	2153.218506	55.652279
766.991394	1199.840454	2824.023682	2096.376953	55.199223
767.306763	1185.351318	2746.228516	2040.798340	54.805531
767.622131	1175.097534	2686.637695	2005.207642	54.918163
767.937378	1181.710571	2638.563721	1970.954102	54.174541
768.252625	1187.431885	2594.948242	1940.935669	53.534283
768.567810	1194.416260	2557.277100	1906.904907	52.278900
768.882996	1190.255249	2510.986328	1890.186890	52.995773
769.197998	1195.679321	2461.500732	1876.515259	53.786098
769.513062	1198.279907	2437.574951	1867.227539	53.978077
769.828064	1200.880737	2410.974609	1849.023315	53.561348
770.142944	1198.057129	2397.080078	1836.688965	53.262688
770.457825	1190.923950	2360.448730	1830.373047	54.675976
770.772705	1188.174805	2335.780273	1819.896484	55.046940
771.087402	1192.261597	2310.888916	1809.048340	55.137821
771.402100	1192.112915	2293.353516	1792.255859	54.496986
771.716736	1191.890015	2288.598145	1777.618164	53.407841
772.031372	1192.112915	2271.359863	1762.832031	52.881233
772.345947	1194.342041	2262.889404	1754.955933	52.465050
772.660461	1194.490601	2237.180420	1746.113892	52.903873
772.974854	1189.883789	2235.248779	1744.033569	53.010174
773.289246	1195.233521	2220.313721	1734.597168	52.616726
773.603638	1200.657715	2211.174561	1734.522827	52.830898
773.917908	1197.834229	2192.524658	1730.064575	53.507133
774.232178	1195.902344	2182.642334	1730.064575	54.134041
774.546265	1190.255249	2174.320557	1720.999634	53.933857
774.860474	1195.605103	2165.329834	1710.968750	53.145355
775.174561	1192.707153	2156.339111	1704.727417	53.134422
775.488586	1195.679321	2147.571533	1702.572632	53.251125
775.802551	1186.094360	2136.426270	1689.346680	52.955425
776.116516	1185.871460	2129.962158	1683.030884	52.660133
776.430359	1187.357544	2133.379883	1664.455444	50.431992
776.744202	1197.759888	2132.190918	1667.055786	50.222637
777.057922	1199.023071	2112.946533	1657.916626	50.211376
777.371704	1196.793945	2096.079834	1673.074219	52.962055
777.685303	1194.341919	2092.736084	1677.681030	53.800339
777.998962	1197.388306	2091.770264	1676.937988	53.617996
778.312500	1201.177856	2082.408203	1664.826660	52.613804
778.626038	1202.663818	2074.234619	1661.854614	52.685429
778.939453	1195.902222	2080.401855	1661.483032	52.637760
779.252869	1195.084839	2085.528809	1671.885620	53.546410
779.566223	1192.781494	2076.389648	1665.867065	53.540199
779.879578	1195.530762	2073.937744	1662.300415	53.138199
780.192749	1196.570923	2064.426758	1653.904175	52.696915
780.505920	1195.530884	2067.621826	1653.607056	52.526192
780.819031	1195.902344	2060.042969	1650.189087	52.570927
781.132141	1195.456543	2062.940674	1644.987793	51.820110
781.445190	1195.976563	2062.420654	1629.755859	50.064316
781.758118	1201.920776	2055.659180	1626.709473	49.756306
782.071045	1193.524658	2040.798462	1616.604370	49.934238
782.383911	1190.701050	2019.027832	1621.954102	52.063156
782.696838	1184.831177	2009.814331	1614.820923	52.121033
783.009583	1188.174805	1996.959961	1622.028320	53.642616
783.322266	1189.809570	1989.901245	1614.746704	53.111057
783.634888	1189.363647	1973.554565	1610.065552	53.647892
783.947510	1193.747559	1967.907593	1603.081055	52.874531
784.260132	1194.936401	1955.647461	1599.440430	53.174465
784.572571	1202.812622	1949.554688	1602.635376	53.542282
784.885010	1200.211914	1948.886108	1601.223633	53.562916
785.197449	1204.447144	1948.068726	1598.697388	53.017590
785.509766	1203.704102	1943.833618	1593.644897	52.685482
785.822083	1206.081787	1936.477539	1581.830566	51.444546
786.134277	1200.509155	1932.167969	1582.796509	52.249401
786.446533	1193.078735	1927.189575	1574.697632	51.983826
786.758606	1190.552368	1929.195923	1579.378540	52.640568
787.070740	1186.763062	1935.883179	1573.583008	51.636570
787.382690	1184.459839	1952.229858	1581.979370	51.775860
787.694641	1183.642334	1961.889038	1582.276489	51.222080
788.006653	1192.112793	1983.511230	1590.449829	50.333309
788.318481	1200.657715	2004.984497	1599.291870	49.561218
788.630310	1204.298462	2023.634399	1615.192749	50.149673
788.942017	1204.818726	2038.049194	1620.839478	49.928654
789.253784	1199.543091	2049.194580	1626.486694	50.249264
789.565430	1203.555420	2046.445679	1617.198853	49.074409
789.877014	1191.592773	2034.854126	1618.016113	50.568348
790.188538	1191.444214	2020.365234	1613.557983	50.923279
790.500061	1190.329468	1997.925781	1613.037720	52.341530
790.811462	1198.577148	1981.430664	1593.644653	50.465061
791.122925	1198.057007	1959.213989	1581.310547	50.351444
791.434204	1198.279907	1950.892212	1567.267212	49.027542
791.745483	1198.577148	1936.551758	1568.901978	50.181244
792.056702	1200.434692	1916.935913	1556.790527	49.735550
792.367920	1196.868286	1906.087769	1551.737915	50.036644
792.678955	1191.295532	1893.084595	1546.016724	50.545273
792.990112	1189.363647	1883.796875	1541.261353	50.674088
793.301086	1184.013794	1881.270630	1532.196411	49.936062
793.612122	1183.865234	1868.861938	1526.103516	49.962032
793.922974	1183.642456	1856.304810	1529.818726	51.463600
794.233826	1182.156372	1838.249390	1531.379028	53.227615
794.544556	1182.973633	1834.831421	1532.567993	53.630466
794.855286	1186.317261	1853.332642	1526.549438	51.008144
795.166016	1186.985962	1858.905396	1529.447144	50.967594
795.476624	1187.729004	1872.131348	1532.270630	50.341972
795.787292	1186.540161	1871.239868	1539.552246	51.557213
796.097778	1188.992065	1885.431641	1540.666992	50.496113
796.408264	1195.828003	1895.313843	1552.332397	50.966637
796.718689	1191.221069	1915.970093	1559.316895	50.789421
797.029053	1193.153076	1917.307251	1565.855591	51.467289
797.339355	1187.580444	1919.016235	1564.443848	51.523785
797.649658	1187.580444	1907.202148	1561.025879	51.894688
797.959839	1186.911621	1912.031860	1555.750366	50.865875
798.270020	1192.781616	1908.167969	1548.914551	49.781902
798.580078	1199.320190	1893.827637	1536.877563	48.603851
798.890137	1195.976685	1868.936401	1535.168457	50.402985
799.200195	1193.004517	1846.793945	1525.509155	50.858063
799.510071	1193.301758	1834.385620	1524.023071	51.587841
799.820007	1198.057129	1831.636353	1518.821899	50.627415
800.129883	1202.440918	1831.562134	1517.930298	50.147629
800.439575	1192.112915	1829.109985	1513.472168	50.449093
800.749329	1189.586548	1825.543457	1506.116211	49.772186
801.058960	1189.289307	1811.946167	1492.964722	48.770908
801.368591	1201.103394	1810.088501	1494.302124	48.145470
801.678162	1205.858887	1797.605835	1498.834473	49.510284
801.987671	1201.846558	1800.949341	1496.753906	49.224834
802.297119	1193.673218	1790.918579	1488.580688	49.377941
802.606506	1183.122192	1785.271484	1481.670532	49.580452
802.915894	1181.338989	1776.801147	1484.791382	50.960819
803.225159	1179.109863	1773.160156	1482.487915	51.069424
803.534424	1187.208862	1768.478882	1477.360962	49.916920
803.843628	1183.493652	1762.757446	1480.184570	51.218620
804.152771	1186.614380	1758.893921	1486.500366	52.402012
804.461792	1189.512207	1765.061157	1489.249390	52.078487
804.770874	1192.632935	1777.841187	1490.735474	50.939564
805.079773	1190.998291	1782.893921	1485.459961	49.748917
805.388733	1186.763062	1787.203491	1495.193726	51.367405
805.697571	1187.803345	1792.999023	1501.583618	51.847740
806.006470	1198.948730	1801.543579	1512.506226	52.034546
806.315125	1199.988892	1809.717163	1507.007813	50.353401
806.623901	1195.530762	1811.500366	1500.320679	49.481323
806.932495	1191.815552	1810.683105	1493.707520	48.781353
807.241150	1197.908569	1805.481934	1499.651733	49.663658
807.549622	1202.143677	1792.033203	1496.679688	49.930706
807.858154	1200.657593	1785.197144	1489.249512	49.370811
808.166565	1192.261475	1769.370728	1474.537476	48.912056
808.474915	1190.181030	1767.513184	1470.302246	48.519939
808.783264	1186.688843	1753.172729	1470.525269	50.104942
809.091492	1188.100464	1754.881836	1465.695435	48.977432
809.399719	1189.809448	1748.268677	1460.122681	48.403397
809.707825	1196.496704	1753.544312	1464.060669	48.032513
810.015930	1198.131348	1741.729980	1471.045288	50.205044
810.323975	1197.759766	1728.058228	1466.289917	50.637550
810.632080	1186.317261	1717.581665	1456.853516	50.923092
810.939880	1186.317261	1720.405273	1446.822632	48.775738
811.247864	1184.682495	1718.770508	1448.977417	49.485275
811.555664	1189.289307	1716.095581	1454.772949	50.394928
811.863464	1191.221191	1710.151367	1459.974243	51.789829
812.171143	1194.936401	1705.098633	1454.104126	50.801041
812.478882	1199.766113	1702.423828	1439.764038	47.745796
812.786438	1202.143677	1692.244507	1428.841431	46.255329
813.094055	1203.926880	1682.807983	1436.197266	48.502724
813.401489	1196.050903	1672.405640	1440.878418	51.396049
813.708984	1190.106689	1664.009399	1438.054810	52.320469
814.016357	1186.763062	1665.421265	1432.110718	51.257381
814.323730	1183.865356	1667.873169	1429.287109	50.706154
814.630981	1181.636230	1675.823608	1431.219116	50.503696
814.938232	1184.756958	1675.154785	1433.745483	50.772762
815.245361	1186.911743	1670.250977	1433.002319	50.914669
815.552490	1194.044800	1667.576172	1437.534790	51.420033
815.859619	1197.091187	1670.770996	1438.723633	51.011768
816.166565	1203.035400	1680.281860	1439.986816	49.649696
816.473572	1200.063354	1682.659546	1430.401733	47.729008
816.780457	1195.605103	1681.470581	1427.058105	47.637260
817.087341	1193.450317	1681.396118	1428.841309	48.241219
817.394043	1191.815674	1683.699585	1437.311890	49.909382
817.700806	1195.530762	1688.380737	1438.129028	49.223553
818.007507	1195.753784	1691.055664	1444.296265	50.180000
818.314209	1197.908569	1699.080444	1447.788574	49.859142
818.620667	1196.645386	1713.495117	1455.664673	50.115009
818.927246	1202.589478	1726.126465	1456.481934	48.495609
819.233704	1202.886597	1755.030273	1470.302246	48.432259
819.540161	1203.183960	1780.813354	1474.983276	47.054276
819.846497	1193.301636	1818.187622	1488.654907	47.265144
820.152832	1187.060181	1853.927246	1513.917969	49.013935
820.458984	1183.419434	1904.378784	1548.840210	50.685352
820.765259	1193.747437	1962.409180	1588.889282	51.406467
821.071350	1196.199585	2045.999634	1621.285522	50.021877
821.377502	1195.679443	2183.905518	1692.913208	50.315792
821.683472	1182.453613	2452.138428	1830.596069	51.047508
821.989441	1182.899292	2901.744141	2078.767334	52.120354
822.295349	1182.750732	3540.895752	2420.931152	52.506542
822.601196	1186.540161	4261.112793	2800.469482	52.492802
822.907043	1189.512329	4872.178223	3132.008545	52.747009
823.212769	1188.472046	5240.347656	3326.532959	52.767197
823.518494	1198.428711	5263.456543	3352.315674	52.985786
823.824097	1195.828003	5055.333984	3233.951904	52.807899
824.129700	1193.227417	4704.179199	3049.978271	52.884544
824.435242	1190.329590	4351.093262	2857.459717	52.744537
824.740723	1191.146973	4012.495117	2675.195068	52.600674
825.046082	1196.570923	3684.894775	2500.880859	52.417213
825.351501	1193.004517	3356.476563	2335.186035	52.793907
825.656799	1197.462646	3051.092529	2184.574463	53.252907
825.962036	1196.125122	2803.961670	2051.423828	53.195625
826.267212	1198.205688	2645.399658	1961.294556	52.728859
826.572449	1190.701050	2581.648193	1917.976074	52.286316
826.877502	1197.536987	2610.774658	1937.369141	52.350159
827.182495	1198.280029	2735.305908	1989.826782	51.498596
827.487488	1200.360474	2882.648438	2058.408203	51.004807
827.792419	1197.982788	3015.427490	2110.791504	50.224842
828.097290	1199.691772	3036.677734	2126.097900	50.430767
828.402100	1194.564819	2971.885986	2103.881592	51.162209
828.706848	1193.153076	2828.481689	2042.656250	51.946941
829.011597	1189.140747	2675.269775	1972.217163	52.692356
829.316223	1198.502808	2529.041748	1888.180664	51.834473
829.620789	1194.193237	2403.841553	1811.426147	51.025814
829.925354	1197.462646	2276.709717	1739.723999	50.244411
830.229797	1201.697876	2160.425781	1676.938110	49.569878
830.534302	1207.121948	2033.293945	1620.616577	50.049461
830.838562	1207.716431	1945.245117	1559.836914	47.743294
831.142944	1200.063354	1860.540039	1522.982788	48.891876
831.447144	1195.159302	1818.038940	1492.815918	47.787182
831.751404	1192.410034	1770.262329	1477.435181	49.324913
832.055542	1193.227417	1756.739258	1461.162964	47.547455
832.359619	1186.168579	1743.587524	1456.853516	48.560413
832.663635	1178.441040	1756.070313	1467.181641	49.987183
832.967651	1174.280151	1775.611938	1483.230957	51.377762
833.271545	1182.602051	1829.778931	1517.558716	51.756588
833.575439	1192.855957	1920.130981	1561.620239	50.704929
833.879211	1193.970337	2041.541626	1627.006714	51.091438
834.183044	1190.626831	2166.370117	1684.516968	50.616810
834.486694	1188.694946	2270.542725	1728.207031	49.869499
834.790344	1193.673096	2300.189209	1735.711548	48.986042
835.093933	1194.861938	2276.040771	1729.321655	49.433056
835.397522	1187.580444	2210.431641	1706.064819	50.690109
835.700928	1186.168579	2148.686279	1670.473755	50.316494
836.004395	1190.478149	2090.061279	1628.195435	48.657791
836.307739	1189.215088	2022.891602	1597.508423	48.975033
836.611023	1186.614502	1952.155396	1568.976440	49.946636
836.914307	1188.397827	1882.385132	1540.592773	50.749481
837.217529	1191.444214	1815.884155	1500.766602	49.535973
837.520691	1195.753784	1760.454468	1463.838013	47.473686
837.823730	1190.106567	1706.510620	1442.215820	48.820152
838.126831	1194.936401	1664.232422	1416.284180	47.165920
838.429749	1189.883667	1630.796021	1402.017944	48.112572
838.732727	1193.821777	1600.406250	1376.234985	44.864777
839.035522	1196.125122	1587.106079	1366.872681	43.671577
839.338379	1200.137573	1579.675781	1364.940918	43.422070
839.641113	1196.645386	1590.003906	1373.411621	44.937691
839.943848	1194.936401	1607.836548	1389.460938	47.111763
840.246460	1189.289429	1633.842651	1400.383423	47.484528
840.549072	1193.375977	1650.709351	1415.838257	48.643353
840.851563	1190.998291	1655.836060	1412.494507	47.650219
841.154053	1197.239746	1658.511108	1413.088989	46.794418
841.456482	1195.902222	1653.681274	1401.720703	44.960224
841.758850	1200.880493	1635.922974	1404.841431	46.882992
842.061157	1201.995117	1610.957397	1402.835327	49.109715
842.363403	1203.183960	1580.121704	1390.426758	49.674728
842.665588	1201.177734	1567.341675	1373.560181	47.077942
842.967712	1193.375977	1549.509155	1357.956543	46.213207
843.269775	1191.518433	1539.626831	1348.297241	45.037354
843.571777	1189.512329	1518.598999	1346.588257	47.730869
843.873840	1192.261475	1503.441406	1333.288086	45.319958
844.175659	1189.958130	1490.884155	1333.362305	47.654293
844.477600	1194.639160	1477.955444	1322.216919	45.030155
844.779297	1196.868164	1466.215698	1327.418091	48.468952
845.081116	1201.252075	1456.853516	1316.867188	45.232574
845.382751	1197.536987	1456.184692	1314.712402	45.303093
845.684387	1194.416260	1453.807007	1303.418335	42.022346
845.985962	1195.084961	1442.884644	1299.628784	42.188847
846.287537	1196.496704	1431.516235	1288.334839	39.076809
846.588989	1202.589478	1427.949707	1290.043823	38.806469
846.890381	1198.428589	1425.423340	1287.517578	39.247158
847.191711	1195.382202	1422.897095	1289.746704	41.476189
847.493042	1190.998169	1417.175781	1282.762329	40.571724
847.794250	1190.180908	1410.414429	1281.870605	41.632942
848.095459	1181.041626	1416.061157	1274.960327	39.962082
848.396606	1184.459839	1410.339844	1270.427856	38.059155
848.697693	1186.911621	1417.101563	1271.096558	36.571945
848.998657	1195.828003	1403.949829	1271.319458	36.272724
849.299622	1192.112793	1403.652710	1274.886108	39.128933
849.600464	1191.666992	1396.222290	1273.474243	39.992733
849.901367	1193.450317	1401.349243	1281.796265	42.494663
850.202087	1195.605103	1396.371094	1282.984985	43.523251
850.502808	1192.558716	1388.643555	1283.802368	46.532742
850.803467	1192.261475	1385.299805	1276.966675	43.879990
851.104065	1189.437988	1387.157349	1275.109009	43.329605
851.404663	1187.134644	1395.702271	1272.136841	40.755222
851.705139	1184.013794	1390.278198	1271.988281	42.651318
852.005615	1181.116089	1394.439087	1267.901733	40.682743
852.306030	1188.769165	1396.222534	1272.731323	40.472786
852.606384	1187.580444	1398.748657	1278.675415	43.138580
852.906616	1196.719604	1396.965454	1284.842651	44.007427
853.206909	1197.165405	1395.999512	1279.195679	41.255634
853.506958	1201.029175	1398.451538	1276.297852	38.125710
853.807129	1194.341919	1394.216187	1277.040771	41.375439
854.107178	1191.518433	1387.231812	1273.548706	41.913471
854.407166	1190.701172	1380.990234	1265.300903	39.203373
854.707092	1191.518433	1382.104858	1256.533325	34.113075
855.007019	1193.004517	1388.792114	1265.003784	36.774170
855.306763	1193.227417	1392.730103	1270.056396	38.510250
855.606567	1193.896118	1386.711792	1280.013062	44.662834
855.906250	1190.255371	1378.612671	1269.090454	41.854012
856.205933	1189.660767	1376.978027	1273.697266	44.863190
856.505493	1179.630005	1382.773560	1270.056274	44.513481
856.805054	1173.611450	1386.860229	1277.338013	48.641106
857.104492	1167.741577	1384.631226	1273.697266	48.852348
857.403931	1174.503174	1385.151367	1269.313354	45.008778
857.703308	1182.825073	1385.819946	1259.876953	37.957550
858.002563	1191.221313	1386.191528	1255.864624	33.155479
858.301819	1197.982788	1389.460938	1256.830566	30.733418
858.601013	1194.193237	1395.702271	1270.279297	37.758137
858.900208	1196.348145	1394.885132	1270.650757	37.425072
859.199219	1194.639160	1389.015137	1270.427979	38.990837
859.498291	1194.416260	1377.646851	1265.821167	38.969971
859.797302	1192.038574	1374.748901	1271.096680	43.269642
860.096191	1196.496704	1372.073853	1267.084351	40.203209
860.395020	1196.050903	1375.566284	1268.421753	40.314568
860.693787	1196.422485	1390.723999	1265.969727	35.793465
860.992554	1195.085083	1394.959351	1268.050171	36.505493
861.291260	1198.205688	1391.169922	1266.638428	35.463951
861.589844	1195.976563	1367.467285	1266.192627	40.944527
861.888428	1187.060303	1357.436523	1272.656860	50.239731
862.186890	1185.276978	1360.408569	1266.415649	46.330116
862.485413	1180.298706	1366.501343	1269.759155	48.044674
862.783813	1192.335815	1369.176270	1260.471313	38.529362
863.082153	1198.428589	1369.101929	1262.031616	37.265942
863.380371	1204.521362	1372.891479	1254.675781	29.788195
863.678589	1195.828003	1373.040039	1259.356812	35.849037
863.976746	1196.050781	1371.182495	1267.232910	40.644913
864.274902	1198.131348	1370.290649	1269.759155	41.605541
864.572937	1201.995117	1369.770874	1271.468140	41.408260
864.870911	1200.657593	1371.405273	1269.461914	40.295902
865.168884	1192.930054	1370.810913	1273.325684	45.196335
865.466736	1194.639038	1367.764526	1274.365967	46.051525
865.764587	1189.437988	1368.359009	1271.393799	45.805580
866.062317	1195.010620	1371.851196	1268.793213	41.722660
866.360107	1191.295532	1367.318726	1266.787109	42.887291
866.657715	1196.942505	1363.157593	1265.152466	41.037167
866.955322	1196.050903	1356.693237	1267.604370	44.542099
867.252808	1190.478149	1365.535278	1265.523926	42.869305
867.550293	1192.558716	1368.136108	1265.969727	41.811199
867.847717	1193.598877	1372.891235	1265.301147	39.991817
868.145081	1197.685547	1371.776733	1262.626099	37.302608
868.442383	1198.279907	1361.374390	1264.112183	40.364502
868.739624	1194.490601	1365.015137	1254.527222	35.207027
869.036804	1194.193237	1370.142090	1262.700562	38.935932
869.333984	1189.586548	1373.411499	1259.133911	37.833473
869.631042	1197.908447	1360.185547	1262.700317	39.926689
869.928101	1204.372681	1361.968872	1255.715942	32.578999
870.224976	1202.589478	1372.668579	1255.715942	31.236328
870.521851	1197.536987	1380.916016	1254.675659	31.158783
870.818726	1186.911743	1380.767578	1254.972778	35.109097
871.115479	1188.917847	1382.402222	1255.493042	34.408566
871.412231	1190.181152	1389.238159	1267.010010	38.596409
871.708862	1193.004517	1388.717773	1266.044067	37.319675
872.005493	1194.564941	1391.392578	1269.684814	38.165306
872.302063	1191.815552	1394.439087	1258.167969	32.746647
872.598572	1195.605103	1398.005737	1266.489868	35.022007
872.895020	1192.930176	1397.931274	1258.316528	31.895611
873.191406	1195.753784	1400.606079	1271.691040	37.069271
873.487671	1186.094360	1403.132446	1270.204956	38.753841
873.783997	1183.345215	1402.612671	1282.910767	45.408268
874.080200	1177.921021	1397.114136	1283.653809	48.237274
874.376343	1186.465820	1398.005737	1279.790039	44.116600
874.672424	1195.084961	1400.531860	1276.595093	39.674549
874.968445	1193.673218	1398.748657	1268.495972	36.485477
875.264465	1193.524658	1399.937500	1271.988281	38.012955
875.560364	1186.688721	1400.680542	1270.279297	39.062511
875.856201	1184.831177	1398.971680	1265.078247	37.474026
876.152039	1190.181030	1394.290649	1268.644653	38.441902
876.447754	1188.026245	1385.522827	1270.130737	41.572613
876.743469	1194.639160	1390.278198	1284.471069	45.917171
877.039063	1192.781616	1393.324585	1275.257446	41.126263
877.334595	1199.914673	1397.262695	1269.090454	35.052685
877.630127	1199.617554	1392.581543	1264.335083	33.538658
877.925537	1191.890015	1385.448608	1273.548706	42.188099
878.221008	1188.992188	1383.293579	1280.161621	46.921658
878.516296	1182.750610	1391.541382	1280.607422	46.868362
878.811646	1185.574219	1395.256470	1275.034790	42.664829
879.106812	1182.973633	1409.745483	1278.601196	42.169064
879.401978	1191.295532	1419.330688	1278.526978	38.253506
879.697083	1193.078735	1441.324219	1296.136719	41.514545
879.992126	1196.125122	1462.203247	1308.619507	42.278706
880.287109	1197.091064	1500.469116	1326.898071	42.787212
880.582031	1196.199585	1559.316895	1354.835815	43.687321
880.876892	1191.741333	1671.588257	1414.055054	46.330135
881.171753	1186.242920	1862.694946	1517.632935	48.989433
881.466492	1187.728882	2151.509521	1660.963257	49.101875
881.761230	1195.010620	2502.441650	1834.831421	48.937252
882.055786	1189.660889	2820.010986	1987.449219	48.933559
882.350403	1189.215088	3014.164307	2091.918701	49.464588
882.644958	1181.636230	3064.615479	2122.680176	49.976330
882.939453	1187.431763	3004.281982	2109.156982	50.732040
883.233826	1185.202637	2906.648193	2051.275391	50.310783
883.528137	1189.214966	2784.940186	1987.969360	50.055885
883.822449	1195.159302	2669.473877	1924.960571	49.501057
884.116577	1197.016846	2550.886719	1873.691772	49.980797
884.410828	1198.205688	2418.033447	1818.484863	50.849735
884.704956	1195.084961	2264.152588	1736.677612	50.660278
884.999023	1200.880615	2093.702148	1643.724731	49.600521
885.292969	1199.765991	1944.948120	1546.313843	46.505119
885.586914	1202.589478	1822.274414	1488.283569	46.103119
885.880798	1193.450317	1735.563110	1444.147827	46.244530
886.174622	1193.970337	1668.616211	1420.742310	47.777088
886.468384	1196.645386	1627.601196	1389.683716	44.793068
886.762085	1196.719604	1588.666504	1377.200806	46.047359
887.055664	1192.707397	1545.868164	1356.247559	46.307568
887.349304	1185.648560	1517.112915	1342.278687	47.253986
887.642822	1185.128540	1498.760132	1333.733765	47.382095
887.936340	1189.289429	1488.357788	1319.839233	43.652161
888.229736	1191.444214	1466.066895	1315.604004	45.211048
888.523071	1192.930176	1450.240601	1302.526733	42.593128
888.816284	1195.902222	1438.872192	1307.802124	46.055035
889.109619	1197.834106	1433.968262	1295.765015	41.472572
889.402710	1201.400757	1420.519531	1286.848755	38.996201
889.695862	1196.570923	1415.318359	1277.635376	37.058472
889.988892	1186.911743	1405.064453	1273.028564	39.475475
890.281921	1172.051025	1397.188477	1260.099854	39.108921
>>>>>End Processed Spectral Data<<<<<
