Jaz Data File
++++++++++++++++++++++++++++++++++++
Date: Fri Jun 04 16:20:53 2021
User: jaz
Dark Spectrum Present: Yes
Reference Spectrum Present: Yes
Processed Spectrum Present: Yes
Spectrometers: JAZA3586
Integration Time (usec): 62000 (JAZA3586)
Spectra Averaged: 10 (JAZA3586)
Boxcar Smoothing: 1 (JAZA3586)
Correct for Electrical Dark: No (JAZA3586)
Strobe/Lamp Enabled: Yes (JAZA3586)
Correct for Detector Non-linearity: No (JAZA3586)
Correct for Stray Light: No (JAZA3586)
Number of Pixels in Processed Spectrum: 2048
>>>>>Begin Processed Spectral Data<<<<<
W	D	R	S	P
191.335022	0.000000	0.000000	0.000000	0.000000
191.713211	303.749542	300.480194	292.529816	343.179321
192.091385	607.053284	601.406250	599.028503	142.106110
192.469528	910.802795	909.242432	901.143372	619.049500
192.847641	907.979248	918.307373	913.774841	56.114670
193.225739	908.647949	930.121521	916.672668	37.370213
193.603790	914.220703	935.099792	930.492981	77.935760
193.981842	924.920227	939.855164	942.455750	117.412766
194.359863	935.694275	945.204895	946.765320	116.407181
194.737854	945.205017	947.879700	945.130615	-2.781708
195.115829	950.257507	948.102600	946.765320	162.057434
195.493774	951.074890	953.452454	956.573242	231.259949
195.871704	949.143005	961.105774	960.957092	98.757133
196.249603	946.913879	966.901367	962.591797	78.438660
196.627457	949.365906	957.762146	955.978821	78.760429
197.005310	944.833435	947.359680	953.378174	338.238708
197.383133	956.944763	942.009827	949.514465	49.751118
197.760910	960.734192	944.684753	950.108887	66.203598
198.138687	968.684570	944.016052	944.090393	99.698639
198.516449	956.944641	947.211121	938.294739	191.604904
198.894180	948.251282	949.143005	935.991394	-1374.852783
199.271866	934.430969	947.211121	944.981934	82.557426
199.649536	933.093567	944.907715	949.142883	135.848282
200.027191	929.824219	943.718811	946.616516	120.854912
200.404816	931.830383	947.136780	941.638367	64.077675
200.782410	931.458984	965.118103	947.211121	46.799015
201.159988	936.437256	969.724915	962.666016	78.794243
201.537537	941.341248	981.984802	972.176758	75.868141
201.915070	946.839600	973.068542	974.034363	103.682266
202.292557	940.375244	978.566895	967.867188	71.984169
202.670029	941.192566	976.337708	968.907471	78.858421
203.047485	933.093567	979.309875	971.359436	82.797333
203.424911	932.945007	975.000305	967.421387	81.978683
203.802292	925.291809	979.904297	961.625793	66.530540
204.179688	928.709717	975.223145	963.854919	75.559265
204.557037	928.486816	975.148865	975.817627	101.433205
204.934357	934.876892	970.765076	973.885742	108.695526
205.311661	927.297913	970.765076	968.090149	93.846100
205.688934	928.783997	966.306946	957.539246	76.633766
206.066177	925.663269	965.266785	959.322449	84.990387
206.443390	929.081238	964.597961	959.396729	85.355537
206.820587	932.276184	970.467834	962.145996	78.210320
207.197769	929.229736	971.285156	966.975647	89.752785
207.574921	925.291687	978.121033	964.449402	74.121140
207.952042	918.010071	975.371826	961.848633	76.424721
208.329147	927.892334	969.947754	962.071594	81.271950
208.706223	951.074768	988.820557	989.786438	102.558914
209.083267	955.904480	987.706055	992.981506	116.588646
209.460297	953.972656	996.696594	987.483154	78.434944
209.837280	933.390808	967.644287	959.396729	75.921982
210.214264	932.127625	966.083984	956.870422	72.866463
210.591217	923.954346	963.632019	960.585632	92.322166
210.968124	929.229797	965.712402	964.969421	97.963463
211.345016	924.400146	970.987976	964.003479	85.007896
211.721893	925.217529	969.576172	964.077820	87.604782
212.098724	922.171082	971.210938	953.601135	64.090836
212.475555	928.709717	971.582336	951.669250	53.552906
212.852356	934.876770	971.136536	947.879822	35.860828
213.229126	932.722107	970.987976	950.926208	47.572685
213.605865	925.811951	968.907532	951.817810	60.344608
213.982590	920.684998	973.588623	958.505066	71.488617
214.359283	919.570496	967.718689	966.306824	97.067665
214.735931	923.731445	966.752747	962.517395	90.155220
215.112579	924.251648	958.505127	952.337952	81.995476
215.489197	925.143250	962.220276	948.399902	62.725239
215.865799	923.508606	961.254333	947.359680	63.188805
216.242355	921.205261	959.471008	948.994324	72.621246
216.618896	921.502441	958.133606	948.994385	75.050697
216.995407	924.177246	959.173828	953.229553	83.014702
217.371902	926.332031	965.638123	953.452454	68.998016
217.748367	932.350525	968.238770	948.994385	46.376911
218.124802	935.842773	964.895203	958.653748	78.516579
218.501236	933.093567	959.619690	957.464844	91.876511
218.877609	924.697449	963.780701	956.721863	81.938972
219.253983	920.462158	971.136658	945.873596	50.146400
219.630295	927.000793	973.291321	954.344177	59.069069
220.006592	928.561218	971.582336	958.505127	69.602814
220.382889	928.783997	966.009705	958.505127	79.840340
220.759140	928.263855	963.706299	957.167664	81.551399
221.135391	928.635437	966.975586	957.985046	76.550591
221.511581	925.737610	972.028137	959.173828	72.231232
221.887772	921.502380	975.074646	953.155273	59.084476
222.263931	926.257751	973.588562	951.000488	52.276173
222.640060	931.310303	974.182922	961.848633	71.230377
223.016159	931.458923	975.668945	969.130371	85.210197
223.392212	927.743835	973.588562	981.836121	117.990204
223.768265	918.827454	969.278992	975.669128	112.665894
224.144302	921.056580	971.210876	973.737122	105.036949
224.520294	919.496155	971.730957	960.362732	78.236298
224.896286	924.474426	970.542175	955.681580	67.741867
225.272217	925.960510	966.604065	957.390625	77.331116
225.648148	925.886230	969.353333	968.015930	96.923187
226.024048	925.143127	972.696960	970.765076	95.937477
226.399902	916.375488	972.845520	973.811462	101.710541
226.775772	914.815125	968.758972	966.529785	95.867577
227.151581	920.610779	966.678406	967.792969	102.419403
227.527374	921.428040	964.746521	958.950928	86.620972
227.903137	918.084473	963.706299	959.471008	90.716522
228.278870	912.511719	956.573242	962.963196	114.502342
228.654572	915.260925	960.362610	964.226379	108.566795
229.030273	921.948059	960.659851	969.056091	121.689102
229.405930	920.610657	969.873352	962.294434	84.615295
229.781555	920.685059	972.994080	964.077820	82.954643
230.157181	920.090576	977.600830	957.910645	65.762306
230.532761	928.635437	978.789734	954.046875	50.666523
230.908325	931.533203	969.576172	948.474182	44.531170
231.283859	937.180176	962.517517	946.022217	34.897274
231.659332	931.533203	957.687805	948.771423	65.908936
232.034821	931.235901	958.728027	948.325623	62.162239
232.410263	923.880066	963.037598	953.378235	75.332047
232.785690	922.765442	971.805237	955.012878	65.757690
233.161087	924.474426	977.675110	963.780579	73.882797
233.536469	926.257751	974.182922	967.570007	86.201584
233.911804	926.480530	970.319275	968.981750	96.948990
234.287140	919.793274	968.461670	964.152039	91.144905
234.662430	926.480652	972.176758	961.477234	76.585480
235.037704	929.304199	971.730957	960.288391	73.029839
235.412933	937.997559	968.981750	962.591797	79.376732
235.788162	930.567322	966.901367	960.511230	82.412811
236.163345	927.892395	963.037537	962.220215	97.674438
236.538513	915.929688	967.718689	965.118103	94.978500
236.913635	909.391052	971.582336	967.272766	93.070457
237.288742	914.517883	977.452332	961.031433	73.907936
237.663834	927.743713	975.743347	961.031433	69.349945
238.038879	927.966614	974.703125	962.443115	73.767815
238.413910	927.297913	974.108643	963.632019	77.619186
238.788910	923.285645	977.229309	959.619629	67.355423
239.163879	936.139954	981.464600	958.579407	49.508282
239.538834	928.040955	980.721619	961.254333	63.046623
239.913757	927.075012	984.213867	961.328613	59.948002
240.288651	915.781006	988.449036	959.025208	59.509254
240.663528	924.548645	992.535645	958.728027	50.273411
241.038361	920.833679	991.272644	959.396667	54.746670
241.413177	928.783997	986.888855	964.820801	62.020294
241.787979	920.016357	985.625671	966.752686	71.234291
242.162735	922.022522	990.232422	963.260498	60.457466
242.537476	916.598389	997.439697	957.390625	50.459644
242.912170	926.332031	1002.715149	957.464905	40.758842
243.286865	931.458923	998.034180	960.957092	44.308006
243.661514	930.492981	987.185974	961.477234	54.652702
244.036148	924.474426	981.167419	960.436951	63.433807
244.410751	915.483887	981.761902	966.752686	77.354156
244.785339	924.846008	988.894836	962.071594	58.120636
245.159882	928.115295	991.495422	964.375000	57.209896
245.534378	934.876892	998.851379	957.910645	36.004589
245.908890	931.310303	991.198242	965.266602	56.699730
246.283356	926.926453	995.656433	964.375000	54.486481
246.657791	913.106140	998.628601	966.529785	62.467384
247.032196	909.985352	1005.167175	966.455566	59.328781
247.406586	910.877014	1015.643860	962.814636	49.574482
247.780960	925.737610	1020.622253	958.579407	34.612343
248.155289	922.988342	1024.485962	957.167664	33.674999
248.529602	918.158691	1014.009216	964.226379	48.062008
248.903870	916.375488	997.885559	965.861023	60.710945
249.278122	921.502441	993.724609	960.882813	54.526711
249.652344	929.155579	993.204529	957.316223	43.967381
250.026550	934.356750	998.034180	961.997375	43.407257
250.400711	936.660095	1001.377747	963.483459	41.446751
250.774857	929.006897	1000.114563	970.542175	58.411816
251.148987	927.892395	995.210632	965.489563	55.849899
251.523071	929.006897	994.913391	972.251160	65.614571
251.897125	931.681824	992.164307	969.576233	62.653526
252.271164	928.263855	997.439758	976.783508	70.139526
252.645187	922.839783	994.244690	981.910461	82.726357
253.019165	916.895569	996.770996	979.309753	78.139404
253.393112	916.449768	1009.105225	978.789734	67.281487
253.767044	919.050354	1010.962830	977.377930	63.459911
254.140930	930.418701	1008.362244	978.492493	61.677708
254.514801	930.938782	996.399475	972.028137	62.769508
254.888657	932.127686	996.473816	966.901306	54.041512
255.262466	932.945007	1002.640930	969.130371	51.918911
255.636276	928.709717	1012.077332	972.102478	52.049900
256.010010	923.657166	1014.529358	970.987976	52.085033
256.383759	921.205139	1020.250671	973.439941	52.738171
256.757446	923.285645	1015.049500	975.223206	56.599148
257.131134	917.935791	1015.272400	973.291321	56.870205
257.504791	918.381653	1008.287903	971.582458	59.173645
257.878418	915.335205	1007.173340	969.278992	58.737896
258.252014	921.948181	1017.501465	973.365540	53.810143
258.625580	930.938782	1027.160767	974.405823	45.173710
258.999115	934.356689	1035.259766	977.006409	42.268005
259.372650	934.951172	1044.547607	972.028137	33.830448
259.746124	924.103027	1050.937622	967.570007	34.270603
260.119598	922.319641	1058.813721	970.987976	35.656006
260.493042	930.195740	1056.064575	975.520447	36.009476
260.866425	933.093567	1063.346191	975.223206	32.344559
261.239838	929.601318	1071.668091	965.712402	25.418388
261.613159	913.923523	1076.200562	968.090149	33.379108
261.986511	915.409485	1066.541260	968.907471	35.398239
262.359802	923.285645	1058.070679	972.696960	36.659348
262.733063	936.808655	1047.817017	969.056091	29.049557
263.106293	929.378418	1045.959473	971.136536	35.818958
263.479523	926.331970	1050.491943	967.644287	33.273457
263.852692	919.347595	1052.720947	970.467834	38.328674
264.225861	923.062683	1054.652954	964.300720	31.338211
264.598969	917.489990	1048.634399	967.644287	38.243565
264.972076	915.112305	1046.479492	967.644287	39.988663
265.345154	917.564270	1052.126587	972.028137	40.474827
265.718201	921.873840	1053.612671	980.870178	44.782799
266.091217	929.155518	1062.826172	983.842285	40.911572
266.464203	920.016296	1062.157349	976.634949	39.832722
266.837158	922.542542	1066.764160	964.300720	28.954174
267.210114	921.502258	1066.764160	959.619629	26.240446
267.583038	932.350586	1068.918945	965.861023	24.537483
267.955902	936.288574	1071.073730	972.399719	26.791634
268.328766	935.471252	1072.782715	974.405945	28.355021
268.701569	928.709717	1065.203735	977.229309	35.547047
269.074371	923.137024	1062.900391	977.080750	38.596470
269.447144	924.920227	1070.405029	973.885742	33.656792
269.819885	925.366028	1088.757813	973.960144	29.740856
270.192596	926.109070	1096.708130	977.080811	29.878090
270.565277	921.725281	1100.869019	979.978699	32.517696
270.937927	921.948059	1102.355103	982.802185	33.731567
271.310577	926.109070	1112.906128	972.548340	24.860815
271.683136	925.886169	1123.011230	970.839355	22.804399
272.055725	925.514648	1135.568481	964.746521	18.677055
272.428284	914.963684	1148.868652	973.885681	25.190571
272.800812	925.068848	1154.144165	976.114807	22.283484
273.173279	935.768494	1149.091675	978.418274	19.993036
273.545776	941.043945	1142.552856	971.805359	15.265535
273.918152	931.830383	1134.008179	969.427673	18.596151
274.290558	924.771667	1134.528198	962.071594	17.782486
274.662964	925.960449	1130.292969	966.529724	19.854536
275.035278	927.520813	1128.509766	971.805237	22.033262
275.407593	921.948181	1129.624390	977.898132	26.940954
275.779907	921.799561	1134.602661	975.817627	25.384060
276.152161	921.130859	1134.974121	967.644348	21.751205
276.524384	924.623047	1145.079224	970.170654	20.660618
276.896606	921.205139	1146.268066	968.461670	20.997030
277.268799	917.935791	1159.122437	970.616455	21.842281
277.640930	926.257813	1159.196777	966.232666	17.161085
278.013031	935.842773	1159.345337	965.192383	13.131665
278.385162	940.821045	1164.249390	964.226379	10.475544
278.757233	937.626038	1164.472290	967.421387	13.134601
279.129272	925.217468	1174.057251	966.752686	16.691549
279.501282	920.387878	1173.537231	964.820801	17.552059
279.873230	918.753174	1179.704346	960.511230	16.002249
280.245178	924.994568	1182.750732	963.334717	14.874580
280.617126	933.019226	1195.828003	968.684570	13.570834
280.988983	928.263855	1205.487427	975.817627	17.153582
281.360870	937.328796	1221.759644	980.275879	15.099305
281.732697	926.852112	1223.468628	977.749512	17.159328
282.104492	928.041016	1235.579956	974.628845	15.148596
282.476288	918.976074	1237.214600	967.198547	15.152934
282.848053	929.675598	1254.081299	971.805359	12.986751
283.219757	933.762390	1263.666382	968.461670	10.517993
283.591461	939.780762	1269.610596	974.480225	10.520413
283.963135	937.848938	1269.684937	969.204773	9.449196
284.334747	946.245117	1264.557983	974.034424	8.730186
284.706360	943.198730	1269.982056	977.377991	10.459304
285.077942	934.579590	1271.839722	980.052917	13.483161
285.449524	923.582825	1285.882935	976.337708	14.561100
285.821014	922.616943	1290.043823	973.142761	13.751258
286.192535	929.304199	1304.607056	978.715393	13.165686
286.563995	929.081238	1312.557495	983.545105	14.202670
286.935425	930.790222	1321.696777	982.579163	13.248420
287.306824	926.480652	1318.798950	981.687500	14.071954
287.678223	931.310242	1304.978638	984.511047	14.237438
288.049561	928.635437	1304.458618	989.563660	16.211939
288.420898	929.304138	1305.276001	983.842346	14.505928
288.792145	926.777832	1309.585449	974.182922	12.383529
289.163452	926.554871	1313.374878	977.600891	13.196323
289.534668	923.508484	1324.594604	977.675110	13.504987
289.905914	919.793457	1340.866821	986.071350	15.740225
290.277039	924.028625	1363.232056	972.696960	11.081046
290.648193	933.836609	1370.439453	971.953918	8.730431
291.019318	930.567200	1371.851074	971.730957	9.328180
291.390381	922.468262	1366.278320	974.925964	11.819855
291.761475	919.644775	1367.838745	977.675232	12.947621
292.132507	917.192688	1376.903809	974.331604	12.429309
292.503510	924.251465	1372.965698	976.337830	11.607915
292.874481	927.297852	1382.253540	979.830017	11.546656
293.245422	935.545593	1391.169922	979.829895	9.719477
293.616364	927.297913	1400.903442	980.275696	11.186057
293.987213	925.143127	1399.566040	982.504883	12.090849
294.358093	924.028625	1417.175781	982.727783	11.902970
294.728943	927.595215	1430.773071	989.043518	12.212045
295.099731	926.406311	1455.887573	981.167480	10.342419
295.470490	927.149353	1470.302246	977.749512	9.316007
295.841248	924.771667	1500.692017	970.987976	8.024775
296.211975	918.530273	1518.078735	970.096375	8.600822
296.582642	915.855286	1530.264648	974.182922	9.493286
296.953308	919.719055	1535.688843	980.201477	9.819057
297.323883	926.852112	1548.022949	985.922791	9.509570
297.694519	931.458923	1553.224121	989.786438	9.380955
298.065063	930.790222	1568.456055	991.718323	9.554864
298.435608	926.109131	1559.242676	988.969177	9.928403
298.806122	920.387878	1542.152954	985.031189	10.396742
299.176575	926.257751	1508.345093	976.486389	8.629055
299.547028	927.743835	1490.809937	973.885803	8.194769
299.917450	926.703613	1487.540405	974.405945	8.505564
300.287872	924.251526	1481.447632	981.390320	10.254701
300.658234	922.393982	1473.942993	986.814453	11.679917
301.028564	924.325867	1469.187866	989.712219	12.000535
301.398865	916.821289	1477.138184	986.665833	12.465186
301.769135	921.428040	1489.695313	979.681396	10.251049
302.139374	925.291748	1499.057251	976.857910	8.987324
302.509583	924.102966	1495.490845	979.532776	9.700908
302.879791	924.325867	1494.153442	990.232361	11.566042
303.249939	915.186584	1486.574585	990.752441	13.224964
303.620087	920.164856	1487.391968	987.408875	11.854867
303.990173	918.753113	1489.695190	986.665833	11.894853
304.360260	931.681702	1487.986328	988.374817	10.191020
304.730286	936.437195	1490.661133	985.699890	8.888590
305.100281	934.951172	1481.596191	980.795898	8.386562
305.470276	933.985168	1493.930298	972.399719	6.860414
305.840179	930.938782	1498.017212	968.387390	6.603779
306.210144	931.607605	1503.961304	962.666016	5.426436
306.579987	928.932617	1503.664185	968.164368	6.826100
306.949890	925.663269	1509.608398	981.093079	9.492297
307.319702	920.536377	1523.280151	984.288086	10.576917
307.689484	917.415710	1536.134399	986.517273	11.168494
308.059265	918.901672	1544.159180	983.024963	10.255501
308.429016	921.130798	1559.837036	985.328308	10.051179
308.798737	924.845886	1583.762573	987.185852	9.460979
309.168396	925.663269	1603.304077	987.706055	9.155704
309.538055	931.756104	1621.805542	996.250977	9.346414
309.907684	930.864502	1627.303833	991.792786	8.748542
310.277313	930.270081	1642.313110	991.124084	8.546394
310.646851	923.582825	1664.232056	976.857910	7.193025
311.016388	923.508606	1677.235352	980.424500	7.551264
311.385895	919.496155	1685.037109	980.127258	7.920034
311.755371	924.697327	1683.253906	987.037354	8.218244
312.124817	922.468262	1685.557251	987.854675	8.568648
312.494232	933.093567	1682.585083	986.071350	7.068497
312.863617	924.920349	1680.950562	993.204407	9.031921
313.232971	924.548828	1677.903931	992.684387	9.044282
313.602295	919.050354	1676.343628	994.096130	9.909738
313.971619	929.527039	1670.622437	984.362366	7.399227
314.340820	931.161804	1674.485962	983.322083	7.017164
314.710083	937.923157	1689.643921	984.139465	6.148068
315.079285	931.681824	1706.139160	997.216797	8.462050
315.448486	930.715881	1711.265991	1003.606934	9.338421
315.817596	924.400208	1709.111206	1014.678040	11.504597
316.186707	923.508545	1703.612793	1011.334290	11.258206
316.555786	928.189636	1687.043335	1012.968994	11.172029
316.924866	931.384583	1668.170532	1011.780090	10.911651
317.293884	936.511536	1645.285156	1010.665710	10.462321
317.662872	931.904602	1651.898071	1008.659424	10.660489
318.031830	928.115234	1650.932129	999.817383	9.919822
318.400757	923.136963	1666.238647	1004.275452	10.918895
318.769684	919.347473	1674.708984	1009.253723	11.902413
319.138550	912.288818	1692.690430	1014.900879	13.148623
319.507416	919.644775	1701.903809	1021.588135	13.031919
319.876190	921.130859	1704.578735	1022.405457	12.926782
320.244995	929.972839	1711.934570	1035.557007	13.502473
320.613770	929.898621	1707.253540	1036.225708	13.678061
320.982483	928.041016	1702.052368	1042.318481	14.764314
321.351166	919.644775	1692.318726	1033.328003	14.712962
321.719818	919.644836	1682.213501	1025.303345	13.855606
322.088440	919.050293	1677.903931	1032.882202	15.000509
322.457062	922.691162	1682.510742	1039.643677	15.392143
322.825623	917.861511	1707.253540	1055.098511	17.385151
323.194183	922.914063	1730.584839	1060.151245	16.991724
323.562653	920.462097	1757.110840	1069.884766	17.859665
323.931183	922.468262	1772.491333	1076.200562	18.085663
324.299591	922.765625	1801.915161	1085.339844	18.492214
324.668060	932.201965	1837.877563	1091.878540	17.630659
325.036407	927.669495	1859.425659	1104.584229	18.987236
325.404755	926.554932	1877.852661	1113.203247	19.620390
325.773102	922.988464	1874.211914	1122.416870	20.965464
326.141388	926.480652	1885.505859	1127.543823	20.965368
326.509674	925.737549	1876.069336	1135.791382	22.103210
326.877899	926.034851	1879.190063	1147.605469	23.246016
327.246124	924.994568	1879.413086	1160.088379	24.632151
327.614288	926.406311	1889.815430	1169.450562	25.227522
327.982422	924.920227	1887.957886	1177.401001	26.217123
328.350525	927.223633	1887.140625	1182.230591	26.565521
328.718628	923.136963	1884.762817	1182.825073	27.005110
329.086700	924.920227	1887.140625	1191.221191	27.675673
329.454712	929.006897	1894.942261	1195.530884	27.592321
329.822693	942.455627	1908.242554	1212.026001	27.911993
330.190674	943.941711	1923.623047	1232.607910	29.465315
330.558563	936.734375	1938.037720	1255.938843	31.878897
330.926483	930.567200	1944.947876	1275.406250	33.995033
331.294312	922.171082	1959.437012	1285.957275	35.071644
331.662231	923.731445	1978.978638	1303.344116	35.973816
332.029999	917.861511	1999.263306	1315.381104	36.759655
332.397766	923.954285	2021.554077	1333.139404	37.279991
332.765503	921.428040	2045.033813	1357.733521	38.830833
333.133240	928.486816	2081.293701	1385.819946	39.671268
333.500916	927.966614	2104.624756	1408.779663	40.862595
333.868561	931.087402	2113.838135	1417.027222	41.085564
334.236176	922.542542	2115.621338	1432.407837	42.735256
334.603790	924.177246	2118.816406	1446.302368	43.705677
334.971344	917.415710	2132.264893	1463.243530	44.929680
335.338867	920.536377	2141.107178	1473.274414	45.285210
335.706360	913.700500	2143.484863	1486.203003	46.553078
336.073853	919.421875	2141.255859	1511.837524	48.485771
336.441284	925.588928	2141.255859	1526.549438	49.434631
336.808655	935.768372	2139.472900	1544.233398	50.549366
337.176086	934.282410	2127.064209	1548.022949	51.454556
337.543396	931.756104	2098.606201	1546.165405	52.655376
337.910706	918.678894	2079.287109	1550.177734	54.411030
338.277954	922.096741	2083.968506	1565.929810	55.413433
338.645264	930.195801	2127.807129	1606.944946	56.508244
339.012421	936.957275	2185.986084	1647.439941	56.882809
339.379669	932.276184	2252.264404	1697.891479	58.001675
339.746796	924.177246	2292.239014	1743.884766	59.917435
340.113953	925.663269	2331.322021	1786.088745	61.211552
340.481018	931.013123	2336.523438	1808.602539	62.439205
340.848114	932.499207	2340.089600	1819.004883	62.980377
341.215118	930.864563	2341.130127	1821.977051	63.187565
341.582153	929.601379	2353.241455	1834.311401	63.549068
341.949066	933.465027	2364.981201	1858.088257	64.590485
342.316010	935.619873	2378.132813	1898.583130	66.755951
342.682922	934.653870	2392.621826	1923.177368	67.801453
343.049835	930.270020	2407.111084	1956.687866	69.500900
343.416656	932.499023	2431.333740	1995.027954	70.890335
343.783478	932.424805	2471.457031	2039.981079	71.964462
344.150269	936.139954	2536.620850	2086.717773	71.889511
344.516998	935.248352	2602.229736	2137.317627	72.110542
344.883728	934.951172	2660.780518	2193.639160	72.932358
345.250427	929.378418	2693.993896	2242.158936	74.394707
345.617065	923.731445	2715.838867	2268.462158	75.036278
345.983704	917.787170	2711.454834	2288.375244	76.412598
346.350281	913.106140	2709.077148	2298.851807	77.158577
346.716827	920.016296	2692.507568	2289.118408	77.241684
347.083405	925.737549	2677.498535	2301.749756	78.550224
347.449860	933.167786	2662.489502	2305.241943	79.341751
347.816376	931.384583	2643.393555	2318.839355	81.042496
348.182770	935.619873	2615.753174	2310.368896	81.823807
348.549194	929.749939	2609.808594	2307.396729	81.999924
348.915558	926.926453	2600.298096	2329.464600	83.815102
349.281921	918.827454	2627.567139	2350.046631	83.758759
349.648193	923.657166	2643.468018	2397.674561	85.708107
350.014526	924.920227	2685.523438	2425.166504	85.212059
350.380737	933.019226	2714.055420	2466.330322	86.090958
350.746948	931.458801	2749.646484	2492.856201	85.876579
351.113159	930.195801	2768.073486	2523.394775	86.686890
351.479309	929.006897	2790.215820	2548.360352	87.005463
351.845428	930.641602	2800.023682	2571.765625	87.789650
352.211517	932.647766	2832.642578	2607.134033	88.131096
352.577576	934.208069	2862.066406	2648.669189	88.930870
352.943604	928.189636	2904.567627	2693.622314	89.326668
353.309601	929.155518	2938.226807	2738.278076	90.047707
353.675537	926.183411	2978.573242	2769.039307	89.790733
354.041473	936.362854	3030.585205	2841.335938	90.963264
354.407379	936.734375	3086.832275	2893.422119	91.004585
354.773254	937.031555	3160.466064	2986.597656	92.180191
355.139038	928.338196	3218.348389	3036.752197	92.070068
355.504913	927.520813	3284.700439	3106.151123	92.425301
355.870636	930.344421	3338.644287	3153.927734	92.330002
356.236389	934.951172	3406.854248	3221.840088	92.515312
356.602081	937.923279	3479.893555	3304.761963	93.110397
356.967804	931.013123	3539.632813	3399.869873	94.642265
357.333405	927.595032	3609.031494	3494.085205	95.713257
357.699036	925.588928	3686.380859	3600.041016	96.872643
358.064606	927.669434	3780.819580	3698.566406	97.117111
358.430176	931.681824	3852.373047	3777.104492	97.422920
358.795654	925.663330	3906.911377	3825.475586	97.268402
359.161163	925.737610	3932.545654	3838.329834	96.866585
359.526581	922.468262	3941.833252	3850.813232	96.985458
359.892029	931.384583	3947.257813	3881.128662	97.807297
360.257416	931.236023	4002.167725	3964.050537	98.758774
360.622772	933.093567	4109.163574	4078.550781	99.036140
360.988098	924.771667	4225.595703	4226.116211	100.015770
361.353394	929.229797	4368.257324	4389.730957	100.624413
361.718658	929.824280	4496.874512	4550.670410	101.508133
362.083893	934.356750	4633.220215	4685.975098	101.426247
362.449097	932.721985	4708.711914	4794.233887	102.264885
362.814209	931.087402	4742.594238	4808.203125	101.721336
363.179382	925.589050	4675.944336	4732.935059	101.519608
363.544434	927.966614	4524.589844	4550.818848	100.729271
363.909546	927.298035	4308.591797	4356.517090	101.417366
364.274536	932.127686	4124.023926	4184.432129	101.892548
364.639587	926.480652	4000.087158	4056.259766	101.827583
365.004517	925.811829	3936.186768	3978.018799	101.389595
365.369507	926.257629	3890.267578	3910.626221	100.686859
365.734344	927.446533	3873.326416	3887.815674	100.491852
366.099274	939.037781	3858.911865	3879.865234	100.717613
366.464081	937.774597	3854.602295	3895.765625	101.411240
366.828918	942.975769	3840.707764	3900.967041	102.079529
367.193665	925.291748	3830.676758	3905.722412	102.582985
367.558411	928.783997	3840.410400	3917.982422	102.664215
367.923126	925.663391	3843.159912	3904.682373	102.108742
368.287781	930.864502	3849.029541	3904.682373	101.907120
368.652435	927.446594	3840.856201	3886.032471	101.550629
369.017059	929.081238	3835.952148	3898.366455	102.147133
369.381653	939.483582	3827.852783	3883.655029	101.931961
369.746185	937.403137	3817.970703	3891.010742	102.535614
370.110687	939.557922	3832.237305	3895.468750	102.185913
370.475220	927.000732	3859.431885	3927.716064	102.328583
370.839661	928.486755	3913.747314	3952.607422	101.301735
371.204041	922.468262	3951.790283	3993.771240	101.385818
371.568451	928.115295	3987.083984	4026.835938	101.299522
371.932770	931.384583	4016.656494	4069.782959	101.721939
372.297150	928.486816	4056.705322	4098.018066	101.320648
372.661377	924.845947	4085.089111	4107.677246	100.714760
373.025696	919.496277	4114.438965	4113.547363	99.972092
373.389862	916.375488	4117.484863	4122.909668	100.169464
373.754059	920.313477	4129.967773	4143.120117	100.409775
374.118225	916.375488	4131.677246	4167.862793	101.125420
374.482361	917.861511	4152.184570	4195.354980	101.334763
374.846436	913.923523	4190.228027	4244.022949	101.641937
375.210510	918.455872	4246.177734	4300.195801	101.623276
375.574524	919.793396	4304.356934	4366.845215	101.846275
375.938538	919.273254	4384.604004	4457.420410	102.101280
376.302460	926.257629	4469.457520	4540.639160	102.008965
376.666412	929.749939	4588.861816	4659.152344	101.920975
377.030304	936.957275	4686.049316	4737.764648	101.379410
377.394196	935.471252	4778.630859	4835.249512	101.473228
377.757996	934.653992	4840.896484	4890.604980	101.272537
378.121796	930.716003	4889.193359	4939.125000	101.261383
378.485565	929.527100	4931.322754	4941.279297	100.248802
378.849304	930.418701	4902.270508	4891.570801	99.730614
379.212982	927.595215	4845.949219	4813.627441	99.175117
379.576630	924.994568	4716.959473	4716.067871	99.976486
379.940277	925.514709	4672.823730	4644.291504	99.238594
380.303864	928.338196	4617.691406	4597.926758	99.464279
380.667450	930.121582	4618.582520	4581.505859	98.994797
381.030945	931.756165	4608.105957	4591.239746	99.541222
381.394501	933.687988	4634.037598	4624.824707	99.751030
381.757935	932.796387	4664.278809	4642.137207	99.406624
382.121399	925.440430	4673.046875	4655.140137	99.522179
382.484741	919.198975	4700.761719	4679.064941	99.426247
382.848145	916.821350	4710.197754	4719.337402	100.240936
383.211487	920.610779	4740.587891	4761.986816	100.560188
383.574768	923.954407	4792.971191	4817.713867	100.639511
383.938019	926.703613	4845.577637	4896.029297	101.287399
384.301270	928.115295	4929.762695	4975.235840	101.136360
384.664459	922.096863	4990.021973	5043.445801	101.313301
385.027649	920.685059	5054.070801	5096.720703	101.031837
385.390778	921.353760	5103.630859	5162.850098	101.415947
385.753876	927.818054	5128.373535	5197.549316	101.646828
386.116943	936.065735	5165.302246	5245.251953	101.890404
386.479980	931.310303	5172.658203	5285.672363	102.664597
386.842987	936.288574	5209.289551	5348.681641	103.262161
387.205994	932.127625	5229.574219	5390.216797	103.738091
387.568909	932.201965	5277.127441	5426.402344	103.435616
387.931793	933.390808	5307.071777	5458.203613	103.455482
388.294678	924.920227	5378.625488	5519.429199	103.161499
388.657471	931.310242	5411.318848	5553.533691	103.174431
389.020294	929.378418	5417.708496	5568.988770	103.370522
389.383057	933.465088	5417.857422	5574.784668	103.499397
389.745819	933.390808	5427.293945	5597.893066	103.796234
390.108521	928.338196	5455.306152	5638.685059	104.050812
390.471191	933.167786	5500.556152	5692.034668	104.192299
390.833801	932.945007	5558.883301	5784.169434	104.870064
391.196442	928.115295	5669.742676	5923.635254	105.354546
391.558960	922.022461	5762.473145	6060.798828	106.163177
391.921509	916.747070	5887.599121	6205.763672	106.400604
392.284027	926.406311	6022.458496	6310.678223	105.655746
392.646484	926.480652	6118.457031	6422.281250	105.851799
393.008911	930.641602	6127.447754	6432.089355	105.862091
393.371307	925.514648	6090.296875	6421.389160	106.410576
393.733673	932.127625	6054.557129	6370.492188	106.167679
394.096008	934.133789	6050.024902	6369.006348	106.235107
394.458344	937.551758	6063.919434	6397.390137	106.505013
394.820587	927.149414	6087.547363	6418.789063	106.418915
395.182831	924.994629	6120.687012	6446.057129	106.262306
395.545013	913.106140	6106.569824	6426.292969	106.156258
395.907196	920.685059	6049.430176	6381.191895	106.468674
396.269287	918.084473	5982.260254	6295.075684	106.177025
396.631409	926.852234	5909.369141	6206.432129	105.962105
396.993469	928.115234	5853.270996	6128.935059	105.597061
397.355530	930.344421	5793.234375	6078.185547	105.859711
397.717499	926.703430	5772.429688	6076.179199	106.268402
398.079468	929.155518	5796.355469	6075.361816	105.732368
398.441376	923.211243	5818.126465	6089.107910	105.535980
398.803284	918.678894	5830.831543	6102.185059	105.524124
399.165131	914.889404	5820.503418	6121.727051	106.140388
399.526978	919.570496	5825.109863	6144.463379	106.510056
399.888763	925.291809	5842.720215	6161.329590	106.479187
400.250519	926.629333	5875.115723	6191.422363	106.391991
400.612244	926.777832	5921.183594	6226.419434	106.111557
400.973938	932.127625	5915.091309	6233.255371	106.385040
401.335602	931.087402	5913.232910	6255.471191	106.869293
401.697205	936.362976	5933.295410	6283.186035	107.002106
402.058807	934.505371	6006.929688	6343.594238	106.637154
402.420349	927.595215	6088.662109	6421.835938	106.455521
402.781860	918.678894	6144.537598	6514.045410	107.070755
403.143341	921.279480	6226.196777	6628.471191	107.583046
403.504822	930.492981	6330.442871	6736.804688	107.525291
403.866241	935.099792	6465.153809	6865.868652	107.246132
404.227631	936.511475	6580.992188	6989.433594	107.236122
404.588959	927.446533	6709.535645	7144.132324	107.516258
404.950287	926.034729	6810.364746	7258.410156	107.614212
405.311554	920.610657	6887.564941	7327.214355	107.368073
405.672821	926.109070	6922.264160	7334.347656	106.872459
406.034027	931.904785	6929.843750	7317.406250	106.461594
406.395203	931.384583	6891.205566	7256.626465	106.131409
406.756348	940.449524	6853.980469	7216.279785	106.126617
407.117493	933.167786	6806.946777	7180.243652	106.355309
407.478516	931.681824	6802.414063	7168.800781	106.240906
407.839600	922.839844	6793.200684	7162.484863	106.290657
408.200592	924.623047	6805.832031	7171.847168	106.223465
408.561554	924.400146	6803.156738	7214.496582	106.997055
408.922485	924.251526	6828.048828	7240.577637	106.987518
409.283417	925.366028	6852.568359	7255.363281	106.795700
409.644257	925.886230	6915.948730	7310.867188	106.592896
410.005096	928.932617	6987.650879	7400.996094	106.822319
410.365906	937.105896	7062.325684	7494.171875	107.050301
410.726715	939.409241	7167.611816	7552.054688	106.172615
411.087433	935.545471	7219.475098	7602.505859	106.095406
411.448120	930.047119	7289.542969	7666.332031	105.924828
411.808807	924.177246	7289.097168	7696.126953	106.394890
412.169434	916.747009	7269.853027	7677.179688	106.411453
412.530029	911.099915	7244.292969	7646.344238	106.348320
412.890564	916.226807	7222.373047	7634.753418	106.539330
413.251099	923.657166	7237.234375	7633.712891	106.279778
413.611572	926.703552	7274.459473	7677.031250	106.341957
413.972076	930.121399	7351.734375	7727.334473	105.848999
414.332489	931.236023	7413.404785	7810.181641	106.121048
414.692871	925.589050	7507.769531	7910.713379	106.121735
415.053223	926.554932	7577.688965	8017.337402	106.610130
415.413574	924.920227	7716.263184	8143.205566	106.286568
415.773834	922.245361	7823.110840	8271.229492	106.493668
416.134094	917.415710	7943.406738	8385.804688	106.296593
416.494263	915.706726	8029.598145	8519.698242	106.889336
416.854462	925.663269	8212.902344	8681.827148	106.434875
417.214630	924.102966	8396.950195	8907.038086	106.825882
417.574738	923.880066	8646.681641	9143.840820	106.437546
417.934784	921.799561	8856.958008	9379.901367	106.590210
418.294861	925.663330	9120.139648	9646.276367	106.420624
418.654846	932.721985	9392.680664	9958.050781	106.682892
419.014832	933.613586	9702.449219	10287.137695	106.667801
419.374756	935.396912	10059.918945	10659.915039	106.575645
419.734680	933.390808	10443.620117	11057.954102	106.459717
420.094543	935.694153	10801.386719	11484.674805	106.925903
420.454376	934.282410	11115.835938	11859.828125	107.307259
420.814148	936.065674	11421.442383	12243.899414	107.843849
421.173920	936.882996	11789.463867	12621.432617	107.666092
421.533691	934.876953	12149.683594	13004.463867	107.621887
421.893341	928.041016	12432.628906	13279.307617	107.359489
422.253021	915.260925	12600.774414	13457.262695	107.329491
422.612640	920.536377	12696.700195	13514.104492	106.941177
422.972260	924.102844	12676.266602	13496.122070	106.976212
423.331757	929.749939	12593.643555	13443.515625	107.286346
423.691315	934.951172	12530.410156	13447.752930	107.911224
424.050781	941.861328	12596.838867	13537.137695	108.067787
424.410248	944.759094	12696.031250	13633.359375	107.976395
424.769653	930.938782	12819.374023	13725.272461	107.619995
425.128998	920.684998	12916.710938	13765.768555	107.077827
425.488373	924.697266	12891.819336	13707.143555	106.813034
425.847656	928.338196	12791.510742	13580.531250	106.651009
426.206940	941.341125	12636.515625	13423.159180	106.726227
426.566193	934.282410	12440.579102	13200.101563	106.600929
426.925385	935.694153	12241.151367	12940.636719	106.187149
427.284576	931.013123	11888.063477	12586.807617	106.377121
427.643677	935.322571	11644.721680	12314.190430	106.251228
428.002777	927.372131	11372.477539	12049.820313	106.484787
428.361847	926.480652	11176.838867	11810.120117	106.178139
428.720856	920.833679	10940.852539	11581.862305	106.397293
429.079865	931.607483	10773.077148	11399.820313	106.368393
429.438812	931.087402	10656.125000	11282.125000	106.436996
429.797760	945.204895	10629.747070	11205.742188	105.947571
430.156616	942.530029	10527.655273	11124.604492	106.227875
430.515503	943.421692	10481.661133	11052.901367	105.988945
430.874268	931.384583	10443.395508	11029.347656	106.160126
431.233093	930.121521	10468.064453	11043.539063	106.033531
431.591827	919.050476	10512.868164	11108.703125	106.210617
431.950562	922.765564	10548.534180	11115.390625	105.888947
432.309204	917.564392	10618.824219	11172.007813	105.702187
432.667877	922.022461	10694.241211	11250.843750	105.695763
433.026459	924.177246	10777.906250	11406.062500	106.374809
433.385010	930.121399	10894.710938	11515.137695	106.226318
433.743561	933.316467	11039.526367	11638.704102	105.928810
434.102051	929.304199	11186.571289	11760.559570	105.595917
434.460510	928.932617	11315.190430	11886.949219	105.504951
434.818939	929.898621	11388.229492	11960.434570	105.471283
435.177338	925.291748	11413.195313	11989.784180	105.497658
435.535675	924.102966	11400.043945	11990.824219	105.639397
435.894012	918.010071	11346.545898	11966.230469	105.942200
436.252289	921.502380	11363.559570	11972.100586	105.827789
436.610535	924.548828	11345.059570	11968.608398	105.983864
436.968719	927.595154	11445.666992	12054.500977	105.788460
437.326935	928.932617	11500.500977	12147.825195	106.123253
437.685028	931.161804	11616.786133	12252.518555	105.949417
438.043152	921.056580	11712.116211	12360.034180	106.004211
438.401215	921.651062	11899.803711	12555.821289	105.975662
438.759277	916.375488	12058.217773	12752.874023	106.234665
439.117249	927.966736	12325.484375	13054.245117	106.394028
439.475250	924.177246	12531.897461	13282.948242	106.470268
439.833130	922.171082	12807.188477	13615.528320	106.801338
440.191071	920.313660	13004.684570	13832.416992	106.849609
440.548889	925.143250	13235.989258	14098.791992	107.008476
440.906708	928.561096	13521.682617	14373.637695	106.765244
441.264496	931.161682	13704.245117	14583.023438	106.879921
441.622223	931.384583	13894.831055	14733.338867	106.468246
441.979950	930.418640	13970.323242	14768.483398	106.120903
442.337616	938.517761	14040.984375	14796.495117	105.766174
442.695251	934.356689	13956.426758	14717.437500	105.844009
443.052887	935.768494	13845.047852	14586.143555	105.740799
443.410461	929.527039	13708.851563	14434.789063	105.680565
443.768005	930.047180	13600.073242	14334.628906	105.797585
444.125458	929.155579	13500.581055	14272.438477	106.139778
444.482941	934.208191	13532.382813	14295.100586	106.054192
444.840393	940.003723	13634.176758	14349.118164	105.632042
445.197754	942.752930	13833.679688	14587.629883	105.848686
445.555084	930.121399	14026.718750	14837.733398	106.192558
445.912415	928.858398	14312.934570	15199.958008	106.627457
446.269714	926.480652	14550.257813	15422.867188	106.405045
446.626953	929.601379	14821.684570	15705.215820	106.359962
446.984161	923.880066	15074.015625	15983.926758	106.430405
447.341309	924.400146	15293.358398	16240.346680	106.590515
447.698456	927.743835	15447.758789	16407.302734	106.608421
448.055542	930.121399	15537.887695	16450.623047	106.248291
448.412598	943.867432	15473.317383	16381.000000	106.247192
448.769653	939.632141	15350.496094	16248.742188	106.233116
449.126617	941.043945	15107.598633	15997.153320	106.279259
449.483582	928.412415	14952.379883	15811.842773	106.128532
449.840515	931.607483	14736.829102	15554.458008	105.922607
450.197388	933.465088	14580.571289	15420.563477	106.155090
450.554230	928.263916	14438.132813	15259.327148	106.078476
450.911041	920.685059	14341.019531	15145.049805	105.991142
451.267822	919.050293	14253.416992	14997.112305	105.577286
451.624573	922.022400	14112.018555	14865.075195	105.709305
451.981262	928.709717	13984.514648	14795.454102	106.211334
452.337921	926.703552	13833.457031	14695.221680	106.676849
452.694580	924.251526	13788.652344	14653.983398	106.726555
453.051147	928.561035	13798.980469	14649.004883	106.604477
453.407715	929.750000	13790.659180	14580.573242	106.141975
453.764221	935.396973	13833.458008	14582.800781	105.809738
454.120728	927.669434	13702.909180	14390.801758	105.384575
454.477142	925.291748	13653.200195	14339.906250	105.395279
454.833557	923.880066	13507.416992	14168.265625	105.251694
455.189911	927.149414	13394.922852	14081.332031	105.505470
455.546265	934.728271	13279.903320	13960.070313	105.509575
455.902557	927.818115	13175.804688	13835.018555	105.382225
456.258820	925.217529	13163.098633	13820.008789	105.367844
456.615051	920.685059	13219.346680	13891.786133	105.467583
456.971252	929.007019	13229.598633	13968.911133	106.010384
457.327393	928.783997	13389.497070	14147.832031	106.085808
457.683502	930.567322	13539.886719	14363.458008	106.531448
458.039612	927.075012	13878.484375	14720.036133	106.497765
458.395630	937.848938	14193.082031	15081.074219	106.699181
458.751648	941.712708	14541.785156	15431.930664	106.545151
459.107605	941.266907	15005.136719	15980.211914	106.933189
459.463562	930.938782	15519.831055	16554.126953	107.089615
459.819458	918.976074	16065.956055	17175.074219	107.322365
460.175323	915.409485	16568.169922	17668.294922	107.028305
460.531158	918.307373	17088.658203	18171.324219	106.695381
460.886932	922.616943	17426.214844	18447.656250	106.189201
461.242676	928.412537	17620.443359	18548.560547	105.560242
461.598419	933.910950	17466.564453	18302.914063	105.058777
461.954102	941.712708	17108.648438	17896.849609	104.875389
462.309723	940.078064	16534.806641	17330.589844	105.102898
462.665344	933.019287	15938.083008	16763.958984	105.503983
463.020905	926.257751	15508.316406	16309.817383	105.496490
463.376373	927.223633	15212.293945	15980.210938	105.375664
463.731873	931.161621	14979.132813	15726.616211	105.320946
464.087341	925.366028	14767.963867	15535.956055	105.548035
464.442749	924.474426	14626.639648	15421.008789	105.797401
464.798126	919.198975	14533.092773	15308.960938	105.699089
465.153503	920.833679	14563.184570	15342.026367	105.709000
465.508820	918.976074	14587.036133	15369.963867	105.728157
465.864105	924.623047	14732.965820	15548.066406	105.902954
466.219330	928.115295	14954.983398	15786.356445	105.927002
466.574524	927.818054	15113.247070	15973.078125	106.061371
466.929657	925.886230	15266.906250	16109.945313	105.878517
467.284790	934.653992	15436.910156	16265.237305	105.711716
467.639893	943.570313	15642.953125	16444.529297	105.453125
467.994934	946.245117	15899.445313	16647.078125	104.999817
468.349945	941.786926	16043.666992	16715.289063	104.447273
468.704926	933.687988	16107.195313	16720.490234	104.041878
469.059875	931.904785	15902.937500	16527.453125	104.171494
469.414764	924.474426	15624.229492	16333.077148	104.822174
469.769653	925.143250	15393.889648	16149.102539	105.219612
470.124451	921.056458	15305.914063	16075.765625	105.351822
470.479248	923.508362	15217.715820	15942.093750	105.067635
470.834015	923.434143	15178.559570	15892.385742	105.007507
471.188721	923.508484	15214.448242	15959.109375	105.210724
471.543365	924.325867	15295.214844	16032.520508	105.130547
471.898010	921.428040	15383.858398	16145.460938	105.266075
472.252625	919.347656	15477.108398	16255.207031	105.344910
472.607178	922.468262	15668.140625	16525.000000	105.810921
472.961700	926.183411	15818.379883	16699.611328	105.917404
473.316193	919.941956	16058.378906	16951.125000	105.897217
473.670654	916.301086	16204.234375	17088.138672	105.781715
474.025055	922.393860	16499.884766	17335.048828	105.361343
474.379456	926.777832	16730.447266	17547.033203	105.167068
474.733795	922.914063	16914.046875	17666.068359	104.702744
475.088104	919.867676	16981.589844	17758.498047	104.837013
475.442383	927.223694	16910.705078	17694.896484	104.906258
475.796570	931.236023	16933.884766	17755.302734	105.133011
476.150787	931.384583	17053.291016	17907.548828	105.298737
476.504944	929.304138	17292.695313	18160.847656	105.305450
476.859070	933.019226	17536.037109	18465.787109	105.599884
477.213135	930.418640	17753.669922	18733.052734	105.821602
477.567200	932.424805	18115.822266	19149.447266	106.015251
477.921173	941.118225	18475.892578	19515.089844	105.926491
478.275146	940.523865	18923.193359	19944.484375	105.679306
478.629089	939.334961	19183.849609	20204.173828	105.592499
478.983002	926.777832	19558.111328	20539.500000	105.267410
479.336823	927.743835	19873.896484	20886.568359	105.345001
479.690643	927.149414	20247.416016	21289.884766	105.395729
480.044403	929.304199	20659.945313	21763.787109	105.594559
480.398163	927.000732	21212.238281	22344.462891	105.581520
480.751862	924.920227	21985.431641	23162.537109	105.589157
481.105499	930.938721	22850.166016	24163.468750	105.991554
481.459137	933.390808	23982.392578	25436.349609	106.308113
481.812744	935.991394	25318.951172	27003.689453	106.909492
482.166290	929.824219	26972.781250	28913.568359	107.452255
482.519806	929.601318	28870.916016	31176.009766	108.249771
482.873291	926.852112	31187.601563	33923.425781	109.040833
483.226715	925.291809	33941.855469	37138.730469	109.682640
483.580139	927.149353	37022.292969	40519.726563	109.689484
483.933502	931.161621	40346.375000	43952.292969	109.148544
484.286804	929.972839	43622.089844	47087.937500	108.118240
484.640106	925.960449	46609.652344	49699.378906	106.763306
484.993347	923.657043	48754.843750	51293.917969	105.308411
485.346558	923.508484	49736.753906	51728.292969	104.079918
485.699738	920.313477	49204.011719	50951.824219	103.619881
486.052887	923.359924	47486.574219	49182.156250	103.641464
486.405975	929.155579	45002.855469	46971.656250	104.467064
486.759064	934.876770	42535.558594	44785.449219	105.408302
487.112061	929.452698	40696.566406	43260.011719	106.446144
487.464996	923.136963	39811.101563	42559.187500	107.066673
487.817963	923.434265	39886.816406	42665.144531	107.130615
488.170868	930.270020	40368.593750	43044.160156	106.784180
488.523743	931.161682	40950.085938	43414.039063	106.156967
488.876587	925.068848	41257.851563	43488.191406	105.529846
489.229401	920.387878	41102.035156	43142.761719	105.078751
489.582153	919.273254	40407.082031	42324.761719	104.856384
489.934845	920.759338	39245.355469	41066.296875	104.751366
490.287537	922.096741	37904.714844	39793.343750	105.106804
490.640198	928.263916	36727.464844	38786.316406	105.751114
490.992798	925.886230	35873.800781	38130.968750	106.458664
491.345337	925.886230	35634.468750	38032.816406	106.909958
491.697876	920.759277	35845.785156	38172.800781	106.662888
492.050354	925.960510	36486.425781	38825.402344	106.577461
492.402832	924.548828	37223.953125	39333.410156	105.811264
492.755219	921.650940	37681.140625	39511.660156	104.979721
493.107605	916.152527	37530.750000	39012.792969	104.047684
493.459930	910.208313	36629.832031	37854.488281	103.428528
493.812225	906.641785	35027.640625	36077.535156	103.076973
494.164490	918.232971	33023.917969	33980.714844	102.980141
494.516724	924.623047	30919.890625	31886.197266	103.221527
494.868896	936.214294	29047.609375	30118.906250	103.810898
495.221039	933.019348	27691.583984	28840.673828	104.294289
495.573120	934.059570	26697.562500	27912.783203	104.716820
495.925201	936.808777	26197.728516	27419.041016	104.834793
496.277222	939.632141	25905.421875	27165.669922	105.047897
496.629211	941.638367	25887.515625	27177.781250	105.172256
496.981140	932.276184	25918.201172	27254.681641	105.348930
497.333069	927.966614	26096.228516	27395.041016	105.160515
497.684967	921.650879	26243.201172	27490.146484	104.924446
498.036804	926.852112	26369.291016	27564.376953	104.697212
498.388580	927.669434	26345.443359	27478.853516	104.459122
498.740326	925.960510	26247.880859	27364.429688	104.409416
499.092072	922.691223	26043.697266	27125.322266	104.305656
499.443756	918.678894	25738.906250	26855.677734	104.499443
499.795410	922.171082	25425.052734	26515.000000	104.448242
500.147003	925.217529	25117.958984	26156.041016	104.290878
500.498566	926.629211	24800.984375	25788.244141	104.135231
500.850098	929.304138	24462.982422	25440.287109	104.152794
501.201599	923.062683	24171.046875	25212.994141	104.481880
501.553009	925.068848	23908.015625	24930.791016	104.450150
501.904449	915.929626	23714.453125	24725.271484	104.433701
502.255859	928.486816	23504.328125	24489.210938	104.362549
502.607178	922.096741	23458.484375	24457.556641	104.433151
502.958405	925.217468	23385.517578	24399.750000	104.515671
503.309692	917.787170	23373.554688	24348.109375	104.339890
503.660919	914.294983	23343.611328	24366.015625	104.558342
504.012115	919.719055	23430.843750	24373.000000	104.185295
504.363251	927.446594	23559.015625	24506.224609	104.185341
504.714294	939.706543	23664.673828	24565.146484	103.962479
505.065369	944.164734	23718.468750	24670.062500	104.178368
505.416443	930.938782	23790.392578	24713.978516	104.040283
505.767395	922.245361	23839.134766	24725.640625	103.868355
506.118317	916.524109	23840.546875	24711.970703	103.801353
506.469238	920.090637	23802.359375	24741.765625	104.105392
506.820160	924.623047	23786.158203	24767.921875	104.294388
507.170929	924.771667	23791.431641	24793.556641	104.382469
507.521729	930.864441	23841.513672	24814.955078	104.248863
507.872498	930.790222	23931.494141	24940.898438	104.388580
508.223236	934.059387	24105.365234	25114.765625	104.356255
508.573883	933.093567	24282.869141	25311.593750	104.405716
508.924500	934.653870	24468.330078	25490.216797	104.342232
509.275116	929.527100	24635.958984	25697.072266	104.476059
509.625702	930.418762	24848.615234	25946.361328	104.589584
509.976196	931.013123	25109.490234	26203.671875	104.525436
510.326660	932.201965	25350.083984	26489.291016	104.665459
510.677124	930.047180	25587.255859	26749.126953	104.712097
511.027557	933.390808	25796.490234	26941.275391	104.604355
511.377869	932.573425	26015.240234	27134.384766	104.461823
511.728180	929.749939	26157.083984	27248.369141	104.325806
512.078430	918.381592	26224.255859	27354.619141	104.466805
512.428650	924.845947	26307.474609	27480.638672	104.621918
512.778931	931.236023	26442.037109	27610.148438	104.578888
513.129028	938.889160	26508.388672	27688.240234	104.614296
513.479126	935.768372	26562.255859	27727.843750	104.548370
513.829285	933.687988	26498.951172	27689.205078	104.655746
514.179382	928.783997	26468.263672	27640.759766	104.590919
514.529297	926.332031	26417.509766	27520.835938	104.328270
514.879272	923.954346	26409.562500	27472.390625	104.170311
515.229187	919.273254	26335.408203	27406.560547	104.214455
515.579163	915.260925	26297.812500	27428.257813	104.453629
515.928955	915.260925	26265.195313	27484.578125	104.810204
516.278748	925.217529	26442.554688	27650.791016	104.734962
516.628540	929.229797	26676.087891	27921.625000	104.837631
516.978333	926.629211	27073.312500	28334.896484	104.825027
517.327942	927.818054	27473.728516	28850.484375	105.186317
517.677612	924.845947	27986.267578	29445.796875	105.393394
518.027222	925.960449	28541.013672	30039.771484	105.427322
518.376831	917.564270	29249.337891	30801.226563	105.477554
518.726379	923.062683	29932.255859	31452.935547	105.242058
519.075867	920.759338	30523.779297	32022.689453	105.063370
519.425293	927.669495	31030.673828	32434.326172	104.662834
519.774658	928.709656	31365.037109	32663.400391	104.265831
520.124084	936.288574	31560.380859	32765.865234	103.936394
520.473389	933.985168	31456.205078	32537.234375	103.541779
520.822693	933.167908	31142.646484	32191.505859	103.471954
521.171997	924.028625	30668.521484	31663.734375	103.345871
521.521240	924.102966	30138.818359	31192.134766	103.605431
521.870361	931.310364	29679.255859	30811.333984	103.937943
522.219482	937.551758	29310.195313	30478.900391	104.119118
522.568604	941.043945	29056.896484	30208.884766	104.097290
522.917664	935.768494	28899.595703	30033.976563	104.056602
523.266724	939.409363	28887.115234	30106.421875	104.362816
523.615662	934.208191	29075.173828	30389.068359	104.668976
523.964600	929.898499	29436.658203	30813.115234	104.828529
524.313538	917.712891	29892.281250	31347.275391	105.021622
524.662354	920.090576	30460.625000	32004.560547	105.226501
525.011169	917.787170	31172.072266	32866.472656	105.600533
525.359985	921.205078	32097.291016	33852.171875	105.628937
525.708740	926.777832	33165.765625	35063.152344	105.885376
526.057434	932.647766	34412.562500	36358.769531	105.813057
526.406067	934.282471	35787.457031	37856.492188	105.936432
526.754700	924.474426	37338.457031	39419.378906	105.714622
527.103333	917.341309	38947.781250	41179.015625	105.866966
527.451782	922.542542	40741.816406	43146.621094	106.039299
527.800293	925.068848	42541.949219	45214.910156	106.422783
528.148743	926.406311	44529.324219	47400.156250	106.584038
528.497131	923.508484	46552.886719	49446.378906	106.341293
528.845642	925.960449	48593.980469	51346.597656	105.774559
529.193909	928.115295	50525.183594	52928.574219	104.845833
529.542175	920.907959	52111.691406	54070.464844	103.826416
529.890503	918.827454	53093.378906	54630.636719	102.946373
530.238770	914.443604	53298.605469	54485.144531	102.265076
530.586914	918.307312	52670.074219	53667.222656	101.926788
530.934998	921.428040	51210.917969	52076.480469	101.721161
531.283142	926.777832	49138.324219	50057.230469	101.905991
531.631226	922.988464	46565.886719	47679.535156	102.439919
531.979248	916.003906	44075.113281	45495.031250	103.289963
532.327148	921.576660	42014.027344	43700.625000	104.104401
532.675110	919.942078	40772.800781	42662.167969	104.740860
533.023071	925.514709	40321.929688	42354.035156	105.158096
533.370850	912.957520	40415.105469	42523.226563	105.336723
533.718689	920.462097	40910.035156	43046.835938	105.343391
534.066467	915.038025	41538.863281	43508.179688	104.847687
534.414246	919.198975	42031.339844	43756.277344	104.195686
534.761963	921.948242	42280.925781	43705.675781	103.444839
535.109619	933.836609	42146.437500	43372.281250	102.974442
535.457153	933.242188	41470.062500	42653.328125	102.918991
535.804749	921.725281	40393.562500	41586.863281	103.023170
536.152344	916.524109	39116.152344	40413.027344	103.394997
536.499817	914.517883	37982.289063	39373.980469	103.754448
536.847229	922.468262	37057.441406	38515.410156	104.034782
537.194641	927.000732	36387.675781	37876.628906	104.198883
537.542114	935.174011	36048.113281	37476.878906	104.069061
537.889404	933.836609	35812.574219	37104.699219	103.704620
538.236694	926.554871	35590.261719	36782.820313	103.440369
538.583984	927.595154	35256.417969	36340.269531	103.157265
538.931213	920.239197	34902.589844	36006.433594	103.248283
539.278381	921.502258	34569.785156	35704.089844	103.371063
539.625488	920.759277	34287.808594	35639.003906	104.049492
539.972595	933.687988	34234.015625	35844.003906	104.834755
540.319641	932.499084	34562.429688	36403.355469	105.474068
540.666687	930.790222	35368.988281	37363.718750	105.792206
541.013611	929.824219	36658.214844	38786.687500	105.957367
541.360596	929.972839	38163.066406	40354.105469	105.884651
541.707458	923.359863	39796.687500	42011.875000	105.698479
542.054260	918.381592	41292.402344	43356.675781	105.112877
542.401062	924.845947	42722.949219	44542.699219	104.353668
542.747864	930.270020	43708.058594	45232.230469	103.562996
543.094666	933.985168	44075.035156	45374.074219	103.011147
543.441284	927.297852	43580.328125	44750.597656	102.743698
543.787903	923.731384	42492.687500	43543.402344	102.527641
544.134460	927.669434	40987.683594	42019.156250	102.574821
544.481079	929.527100	39369.894531	40392.890625	102.661255
544.827637	933.167969	37708.855469	38728.363281	102.772232
545.174072	928.263916	36107.261719	37099.125000	102.819473
545.520508	936.288574	34747.078125	35773.488281	103.035744
545.866943	936.585876	33621.609375	34682.652344	103.246269
546.213318	939.706543	32794.175781	33891.769531	103.445648
546.559631	940.152344	32075.000000	33171.777344	103.522667
546.905823	940.598145	31545.220703	32610.794922	103.481743
547.252136	937.923157	31158.773438	32199.900391	103.445061
547.598389	926.629211	30875.306641	31887.755859	103.380615
547.944458	923.880066	30659.751953	31612.240234	103.203163
548.290588	926.183411	30301.318359	31169.767578	102.956406
548.636658	929.750000	29876.900391	30598.156250	102.491631
548.982727	930.641602	29235.744141	29866.796875	102.229477
549.328735	930.790222	28531.130859	29142.123047	102.213715
549.674622	927.669434	27717.072266	28347.156250	102.351990
550.020569	927.297913	26944.771484	27601.677734	102.524864
550.366455	926.554932	26182.125000	26808.568359	102.480415
550.712280	926.109131	25535.318359	26182.494141	102.629814
551.058044	935.025452	25069.291016	25695.367188	102.594139
551.403748	932.573425	24693.693359	25329.501953	102.675835
551.749512	942.901550	24475.390625	25050.197266	102.442612
552.095154	932.721985	24287.033203	24884.353516	102.557648
552.440735	933.910889	24254.414063	24895.421875	102.748688
552.786316	927.892334	24240.742188	24972.328125	103.138123
553.131897	930.418640	24312.296875	25055.398438	103.178108
553.477417	924.474426	24392.544922	25088.685547	102.966331
553.822815	924.994629	24471.302734	25121.453125	102.761154
554.168213	916.301208	24534.757813	25125.166016	102.499771
554.513672	918.158691	24539.140625	25079.992188	102.289711
554.859009	913.551941	24414.462891	24929.677734	102.192322
555.204285	921.279480	24250.476563	24684.404297	101.860023
555.549500	920.536377	23971.916016	24418.623047	101.937874
555.894714	921.056458	23715.718750	24133.150391	101.831268
556.239990	924.400085	23332.837891	23829.328125	102.215637
556.585022	928.189636	23083.255859	23555.896484	102.133331
556.930115	930.418701	22835.007813	23269.828125	101.985062
557.275146	930.567322	22612.695313	23068.244141	102.101036
557.620178	938.071960	22420.177734	22860.570313	102.050041
557.965149	937.477356	22268.375000	22732.990234	102.178131
558.310059	935.545593	22128.015625	22556.076172	102.019875
558.654968	926.777832	22001.554688	22436.744141	102.064980
558.999756	928.783936	21890.693359	22293.044922	101.919441
559.344604	924.400146	21872.343750	22237.837891	101.744774
559.689331	928.040955	21813.867188	22176.390625	101.735741
560.033997	923.285583	21769.210938	22118.955078	101.677757
560.378723	922.468262	21728.568359	22135.302734	101.954880
560.723389	916.226868	21726.710938	22139.164063	101.981949
561.067932	916.969910	21743.353516	22204.400391	102.213760
561.412476	923.285583	21781.544922	22186.716797	101.942497
561.757019	926.183411	21813.642578	22191.398438	101.808533
562.101501	931.607483	21847.375000	22176.017578	101.571266
562.445862	925.440369	21826.794922	22192.736328	101.750801
562.790222	926.554871	21842.769531	22171.486328	101.571587
563.134644	921.130859	21799.525391	22168.587891	101.767677
563.478943	924.994568	21785.259766	22167.101563	101.830475
563.823181	928.041016	21731.466797	22183.968750	102.175133
564.167358	935.917053	21742.833984	22195.412109	102.175133
564.511536	944.684753	21746.845703	22224.984375	102.298508
564.855774	947.210999	21741.421875	22253.517578	102.462685
565.199768	940.300842	21790.164063	22376.859375	102.813904
565.543823	934.653870	21919.302734	22530.888672	102.914444
565.887817	932.350586	22224.390625	22763.158203	102.530380
566.231812	932.647766	22469.740234	22977.224609	102.356331
566.575745	931.830383	22698.587891	23197.162109	102.290527
566.919617	927.520935	22869.412109	23416.873047	102.495049
567.263428	931.607605	23048.037109	23560.427734	102.316788
567.607239	929.155518	23241.443359	23660.437500	101.877861
567.950989	933.390808	23309.505859	23677.156250	101.643051
568.294678	936.288574	23332.466797	23678.568359	101.545357
568.638367	939.780762	23205.037109	23565.923828	101.620850
568.981995	933.985291	23033.841797	23381.283203	101.572144
569.325623	932.870667	22841.101563	23200.132813	101.638794
569.669128	929.304199	22678.822266	23028.642578	101.608406
570.012573	934.133789	22542.701172	22953.744141	101.902222
570.356140	937.180176	22494.630859	22900.765625	101.883965
570.699524	936.511475	22466.468750	22901.289063	102.019608
571.042908	934.728210	22538.021484	22996.320313	102.121429
571.386230	929.378418	22611.208984	23135.119141	102.416359
571.729492	929.378418	22753.572266	23313.962891	102.567749
572.072815	931.533203	22931.525391	23491.177734	102.543877
572.416016	938.294739	23073.224609	23641.044922	102.565269
572.759094	943.273010	23225.023438	23802.728516	102.592728
573.102234	934.430969	23331.126953	23878.812500	102.445389
573.445374	924.325867	23403.572266	23910.021484	102.252960
573.788391	919.941956	23447.783203	23861.576172	101.836807
574.131409	927.297913	23405.060547	23812.759766	101.813789
574.474365	922.245361	23368.353516	23758.220703	101.736900
574.817261	929.675598	23236.318359	23628.562500	101.758415
575.160156	933.167908	23069.287109	23437.679688	101.664215
575.502930	937.477356	22847.568359	23197.755859	101.598289
575.845703	933.093567	22663.296875	23039.119141	101.729492
576.188477	929.527039	22479.916016	22778.318359	101.384674
576.531250	930.047119	22281.974609	22539.062500	101.204048
576.873901	925.514709	22067.166016	22271.646484	100.967194
577.216431	927.743835	21885.421875	22080.687500	100.931717
577.559082	928.040955	21675.888672	21836.453125	100.773888
577.901611	928.858337	21404.978516	21535.453125	100.637207
578.244080	918.158691	21076.634766	21164.460938	100.435677
578.586487	919.496155	20764.490234	20828.835938	100.324242
578.928955	984.659668	20464.753906	20565.728516	100.518349
579.271301	993.724609	20150.156250	20296.455078	100.763702
579.613647	998.628601	19797.216797	19949.166016	100.808304
579.955872	937.625977	19468.873047	19576.240234	100.579384
580.298157	935.916992	19189.125000	19268.478516	100.434746
580.640320	936.139954	18978.773438	19022.462891	100.242149
580.982483	938.591980	18758.910156	18800.521484	100.233505
581.324524	935.917175	18542.689453	18630.664063	100.499664
581.666626	928.932617	18395.123047	18477.080078	100.469231
582.008728	921.725281	18321.416016	18430.195313	100.625183
582.350647	919.644775	18258.332031	18362.357422	100.599960
582.692566	922.022461	18196.216797	18308.412109	100.649498
583.034424	926.406311	18102.892578	18174.890625	100.419167
583.376343	932.424866	18032.156250	18046.941406	100.086464
583.718201	928.115234	17989.357422	18006.892578	100.102776
584.059937	923.434265	17922.037109	17930.732422	100.051155
584.401611	925.143250	17826.187500	17882.509766	100.333244
584.743347	932.573425	17729.742188	17755.826172	100.155289
585.085022	931.756165	17631.142578	17658.859375	100.165977
585.426514	928.858337	17563.380859	17559.146484	99.974548
585.768127	923.434265	17467.677734	17519.539063	100.313469
586.109619	925.737610	17429.486328	17476.371094	100.284088
586.451172	925.663269	17406.898438	17433.126953	100.159142
586.792542	929.378479	17419.679688	17397.908203	99.867973
587.133850	927.075012	17375.765625	17372.718750	99.981476
587.475220	925.291809	17367.072266	17371.529297	100.027107
587.816589	932.127625	17337.648438	17352.287109	100.089233
588.157776	932.796387	17382.154297	17375.841797	99.961624
588.498962	929.155518	17406.228516	17414.775391	100.051872
588.840210	919.941956	17432.236328	17474.291016	100.254684
589.181335	927.223633	17486.625000	17508.767578	100.133705
589.522400	938.814880	17508.171875	17558.919922	100.306274
589.863403	939.334961	17577.646484	17572.443359	99.968727
590.204407	935.694153	17601.273438	17614.351563	100.078476
590.545410	930.567200	17729.373047	17689.025391	99.759819
590.886353	940.746765	17737.322266	17756.048828	100.111488
591.227112	941.935547	17730.041016	17771.650391	100.247849
591.567932	943.941833	17627.947266	17684.566406	100.339363
591.908752	932.424866	17569.396484	17616.876953	100.285393
592.249512	926.183411	17553.869141	17592.654297	100.233253
592.590149	918.530212	17491.529297	17560.705078	100.417404
592.930786	926.629211	17453.634766	17514.488281	100.368210
593.271423	937.105957	17368.185547	17414.699219	100.283081
593.612000	935.768494	17313.351563	17327.542969	100.086655
593.952576	933.910889	17280.658203	17269.662109	99.932732
594.292969	928.858337	17258.886719	17276.941406	100.110558
594.633484	932.350586	17301.833984	17349.238281	100.289581
594.973877	927.966736	17362.390625	17452.669922	100.549332
595.314209	922.171082	17462.402344	17583.146484	100.730003
595.654480	926.629211	17604.248047	17728.332031	100.744019
595.994812	926.332031	17751.513672	17868.244141	100.693787
596.335022	931.236023	17958.820313	18064.923828	100.623131
596.675171	924.697449	18112.255859	18233.292969	100.704216
597.015320	919.198975	18339.173828	18475.966797	100.785263
597.355408	915.855408	18511.927734	18620.337891	100.616104
597.695496	917.861572	18673.833984	18767.531250	100.527695
598.035461	922.096741	18664.767578	18738.775391	100.417114
598.375366	920.239197	18644.187500	18679.109375	100.197029
598.715271	913.403320	18582.962891	18594.033203	100.062653
599.055176	912.065918	18451.593750	18395.271484	99.678886
599.395081	915.781067	18220.291016	18111.658203	99.372231
599.734802	925.589050	17899.896484	17708.791016	98.874146
600.074524	923.062744	17575.195313	17382.601563	98.843430
600.414246	916.895508	17166.603516	17016.660156	99.077255
600.753906	924.251465	16780.080078	16681.109375	99.375809
601.093506	929.006897	16446.015625	16364.504883	99.474701
601.433044	940.077942	16265.683594	16170.649414	99.379898
601.772583	930.195801	16125.549805	16046.489258	99.479706
602.112122	935.099792	16109.945313	16033.784180	99.498108
602.451538	927.075012	16115.516602	16071.901367	99.712837
602.790894	931.979004	16229.051758	16239.602539	100.068970
603.130310	928.635437	16340.801758	16435.167969	100.612282
603.469604	929.601379	16533.544922	16679.326172	100.934258
603.808838	924.623047	16763.361328	16926.679688	101.031136
604.148010	919.719055	17060.052734	17223.072266	101.010010
604.487305	925.737610	17364.916016	17523.703125	100.965904
604.826416	923.880066	17646.748047	17762.361328	100.691345
605.165527	922.914124	17881.767578	17936.751953	100.324219
605.504456	920.833679	18056.304688	18087.736328	100.183434
605.843445	925.960510	18208.701172	18170.732422	99.780312
606.182434	929.229797	18246.000000	18181.207031	99.625839
606.521423	928.189636	18191.683594	18067.001953	99.277771
606.860229	931.013123	18000.427734	17857.173828	99.160759
607.199036	931.310303	17748.021484	17567.021484	98.923691
607.537903	928.041016	17471.392578	17255.466797	98.694786
607.876648	920.759338	17138.218750	16981.736328	99.035095
608.215271	926.480652	16793.380859	16672.341797	99.237160
608.553955	928.486816	16482.349609	16412.875000	99.553329
608.892578	935.471252	16244.803711	16186.625000	99.619980
609.231140	932.647766	16145.980469	16110.018555	99.763618
609.569641	936.511536	16083.863281	16091.368164	100.049545
609.908081	933.762207	16158.239258	16137.510742	99.863846
610.246521	939.483582	16216.196289	16188.926758	99.821495
610.584961	941.935547	16303.206055	16230.241211	99.525009
610.923340	941.564026	16314.574219	16226.301758	99.425797
611.261597	933.687988	16264.270508	16134.613281	99.154266
611.599854	931.236023	16154.600586	16004.286133	99.012604
611.938110	931.904724	16042.106445	15838.218750	98.650665
612.276245	929.378418	15846.690430	15595.993164	98.319420
612.614319	925.886230	15595.620117	15288.453125	97.906113
612.952393	923.285645	15271.067383	14935.367188	97.660271
613.290466	924.994629	14965.906250	14673.747070	97.919220
613.628479	925.514648	14675.456055	14426.765625	98.191338
613.966370	923.434143	14414.801758	14233.503906	98.656197
614.304260	925.960449	14226.592773	14032.588867	98.541397
614.642151	920.610657	14055.622070	13831.749023	98.295601
614.979980	918.530273	13893.643555	13660.333008	98.201859
615.317749	913.700500	13724.456055	13503.627930	98.276230
615.655396	926.777832	13610.476563	13410.601563	98.424156
615.993164	933.465088	13569.683594	13339.938477	98.181854
616.330811	941.563965	13513.434570	13300.558594	98.306717
616.668396	932.201904	13482.452148	13292.682617	98.487923
617.005859	933.687988	13447.827148	13274.924805	98.618347
617.343445	932.201965	13451.022461	13271.877930	98.569000
617.680908	931.681824	13433.709961	13246.911133	98.505852
618.018311	933.316467	13414.093750	13249.883789	98.684296
618.355652	926.034851	13453.175781	13223.061523	98.163071
618.692993	930.567322	13486.239258	13225.737305	97.925224
619.030273	923.285645	13513.731445	13204.040039	97.540268
619.367554	928.412598	13489.879883	13217.117188	97.828583
619.704712	921.651062	13487.726563	13218.379883	97.856560
620.041870	927.372253	13482.303711	13224.917969	97.949921
620.379028	923.954346	13457.262695	13197.278320	97.925652
620.716064	927.669434	13413.648438	13163.247070	97.994545
621.053040	928.041016	13332.062500	13083.445313	97.995674
621.389954	926.554932	13263.629883	13023.557617	98.054062
621.726929	926.703552	13178.406250	12911.731445	97.823364
622.063843	924.548828	13137.389648	12830.519531	97.487312
622.400635	924.920227	13093.700195	12785.269531	97.465393
622.737427	920.610779	13063.979492	12764.613281	97.534737
623.074219	924.251648	12980.981445	12730.805664	97.925011
623.410889	927.446594	12932.239258	12673.221680	97.842384
623.747559	932.796387	12877.405273	12654.125000	98.130692
624.084167	931.533203	12859.051758	12614.000977	97.945503
624.420715	937.254578	12856.823242	12612.960938	97.954102
624.757324	937.105957	12863.659180	12600.997070	97.797668
625.093750	932.201965	12906.160156	12679.760742	98.109238
625.430176	926.109070	12934.468750	12729.617188	98.294090
625.766602	922.022461	12978.233398	12788.761719	98.428429
626.102905	916.449707	13056.918945	12865.887695	98.426491
626.439209	916.078308	13160.348633	12959.879883	98.362755
626.775452	916.524109	13270.093750	13110.343750	98.706848
627.111694	916.821289	13360.372070	13186.949219	98.606323
627.447876	913.774841	13460.011719	13269.053711	98.477966
627.783997	918.604492	13539.518555	13300.855469	98.108986
628.120056	927.297852	13630.612305	13386.674805	98.079735
628.456055	934.653870	13630.463867	13390.018555	98.106102
628.792053	938.963379	13642.500000	13376.942383	97.909569
629.128052	933.836609	13565.297852	13297.958008	97.883537
629.463928	930.790222	13508.828125	13223.656250	97.732780
629.799744	922.988464	13378.575195	13091.694336	97.696770
630.135559	921.799561	13257.313477	12953.192383	97.534592
630.471375	921.799561	13133.452148	12776.799805	97.079407
630.807068	927.818115	12979.496094	12608.799805	96.924110
631.142700	938.369080	12824.723633	12467.625000	96.995728
631.478333	934.430969	12659.325195	12341.161133	97.286423
631.813965	929.155518	12539.401367	12264.109375	97.628891
632.149475	919.050354	12402.907227	12149.164063	97.790436
632.484924	922.765442	12305.050781	12066.687500	97.905838
632.820435	920.462097	12240.333008	11955.308594	97.482086
633.155884	915.186584	12205.261719	11858.268555	96.926567
633.491150	921.130859	12150.203125	11820.746094	97.066032
633.826477	924.994629	12064.458008	11783.148438	97.474663
634.161804	937.254578	11981.834961	11759.668945	97.988464
634.497009	930.641602	11913.625000	11681.131836	97.883148
634.832153	924.846008	11878.627930	11589.886719	97.364006
635.167297	928.041016	11836.870117	11527.101563	97.160385
635.502380	925.960510	11782.182617	11486.457031	97.275978
635.837463	932.647766	11681.725586	11423.226563	97.595154
636.172424	927.298035	11629.043945	11325.370117	97.162392
636.507324	930.790222	11540.104492	11214.956055	96.935257
636.842224	928.709717	11498.866211	11137.979492	96.585793
637.177124	925.737610	11375.078125	11051.192383	96.900421
637.511963	924.920227	11268.377930	10945.459961	96.878044
637.846741	926.703552	11128.913086	10839.578125	97.163994
638.181396	933.762207	11020.059570	10704.124023	96.867676
638.516113	936.659973	10921.682617	10588.879883	96.666977
638.850769	944.536133	10843.962891	10486.565430	96.389717
639.185303	941.043945	10745.882813	10424.225586	96.719406
639.519836	945.279236	10656.644531	10340.487305	96.744461
639.854370	931.384583	10524.905273	10240.920898	97.039833
640.188843	928.932617	10420.510742	10149.305664	97.142677
640.523254	920.016296	10311.063477	10075.746094	97.494240
640.857605	929.749939	10222.420898	9986.360352	97.459709
641.191895	923.954285	10147.151367	9903.214844	97.355186
641.526184	922.393982	10086.594727	9825.123047	97.146812
641.860413	918.901672	10060.738281	9778.386719	96.911438
642.194580	922.171082	10009.839844	9713.668945	96.740959
642.528748	927.669495	9943.413086	9664.628906	96.907806
642.862793	926.926514	9848.007813	9593.818359	97.150688
643.196838	928.932678	9772.441406	9551.391602	97.500427
643.530823	929.898621	9720.282227	9488.085938	97.358521
643.864746	924.994568	9685.731445	9426.041992	97.035759
644.198669	929.675598	9665.074219	9362.958984	96.541481
644.532532	923.657043	9634.610352	9317.114258	96.355209
644.866333	928.263855	9590.548828	9290.886719	96.540611
645.200073	930.270020	9561.125000	9274.614258	96.680382
645.533813	937.254578	9532.815430	9284.719727	97.113678
645.867554	938.146179	9522.635742	9278.180664	97.152367
646.201172	935.396973	9496.629883	9254.330078	97.169815
646.534729	938.666260	9503.317383	9239.692383	96.921944
646.868225	933.985168	9524.196289	9236.422852	96.649986
647.201782	929.972839	9531.850586	9249.649414	96.719307
647.535217	929.229797	9551.986328	9263.246094	96.651413
647.868591	937.031677	9574.797852	9296.980469	96.783691
648.201965	937.403137	9606.301758	9311.691406	96.601524
648.535278	926.332031	9594.413086	9281.672852	96.392044
648.868591	919.347595	9576.284180	9263.468750	96.386536
649.201782	920.982239	9553.695313	9241.772461	96.386734
649.534912	921.725281	9523.008789	9232.485352	96.622322
649.868103	924.325867	9498.488281	9232.113281	96.893280
650.201172	928.189514	9436.371094	9217.996094	97.433350
650.534180	930.864441	9424.186523	9198.083008	97.337868
650.867188	932.870605	9384.656250	9141.687500	97.125237
651.200134	932.201843	9387.554688	9111.222656	96.731873
651.533020	931.384583	9351.963867	9083.655273	96.813660
651.865845	927.743713	9318.378906	9031.420898	96.580025
652.198608	924.325867	9296.385742	8993.824219	96.386063
652.531433	925.143127	9267.778320	8964.252930	96.361763
652.864136	919.198975	9250.019531	8954.889648	96.457375
653.196777	1179.927246	9487.268555	9200.980469	96.553787
653.529358	1193.598877	9434.885742	9140.423828	96.426994
653.861938	1195.828003	9352.854492	9060.622070	96.417412
654.194519	928.932617	8999.098633	8710.583008	96.424911
654.526978	913.923401	8933.935547	8660.056641	96.585052
654.859375	920.610657	8892.846680	8617.704102	96.548737
655.191833	931.384583	8846.109375	8581.221680	96.653229
655.524170	937.254578	8788.525391	8532.033203	96.733116
655.856445	945.947937	8740.674805	8493.618164	96.830467
656.188660	952.263672	8731.387695	8465.606445	96.583405
656.520874	943.867493	8701.293945	8417.011719	96.335350
656.853088	933.167908	8690.743164	8422.212891	96.538475
657.185181	922.988464	8648.539063	8408.541992	96.893463
657.517212	926.034851	8681.306641	8436.553711	96.844048
657.849243	926.554932	8706.866211	8440.045898	96.570572
658.181274	926.777832	8766.383789	8488.937500	96.460968
658.513123	933.242188	8839.943359	8564.206055	96.512611
658.844971	932.647766	8919.967773	8664.440430	96.800835
659.176819	935.619873	9013.514648	8769.356445	96.977455
659.508667	928.783997	9118.356445	8871.819336	96.989624
659.840393	932.053406	9232.261719	8973.985352	96.888321
660.172058	928.709717	9312.656250	9042.492188	96.777603
660.503662	929.378418	9360.731445	9076.151367	96.624733
660.835266	929.675598	9389.189453	9090.491211	96.469086
661.166931	935.099792	9378.043945	9011.805664	95.662201
661.498413	937.626038	9345.126953	8965.440430	95.483955
661.829773	939.780762	9249.424805	8856.364258	95.269821
662.161194	942.381531	9118.652344	8766.011719	95.687027
662.492615	938.517761	8943.446289	8639.995117	96.209198
662.823975	936.734375	8776.415039	8476.008789	96.168129
663.155212	925.217468	8631.152344	8340.183594	96.224098
663.486450	929.378418	8479.351563	8164.160156	95.825264
663.817627	929.972839	8331.415039	8014.217285	95.714378
664.148743	928.783997	8208.890625	7872.744629	95.382675
664.479858	927.892334	8106.130371	7782.763672	95.495171
664.810913	923.582764	8055.232422	7713.958984	95.214661
665.141907	933.539368	7977.734375	7638.914063	95.190079
665.472778	930.567200	7909.153809	7546.556152	94.804138
665.803711	931.310303	7844.435547	7502.939941	95.060188
666.134583	927.595215	7812.560059	7474.185059	95.085304
666.465454	933.093567	7801.636719	7465.565918	95.107101
666.796143	938.443359	7766.492188	7433.615723	95.124870
667.126831	946.096497	7716.188965	7410.656250	95.487022
667.457458	941.266846	7667.074707	7372.910156	95.626335
667.788147	933.390808	7641.515137	7336.650391	95.455292
668.118774	923.136963	7628.289063	7316.663574	95.352440
668.449219	923.880066	7637.057129	7324.093750	95.338074
668.779663	928.932617	7644.264160	7347.721191	95.584091
669.110107	925.068909	7625.687988	7328.105469	95.558884
669.440552	922.468262	7601.019531	7297.864746	95.460770
669.770874	921.502380	7573.974121	7270.967285	95.445198
670.101135	929.304199	7556.586426	7259.152344	95.511978
670.431396	932.201965	7539.349121	7243.103027	95.516281
670.761597	931.681824	7487.782715	7176.527832	95.252441
671.091797	930.641602	7453.306152	7127.636719	95.007111
671.421875	932.499084	7394.013184	7082.981934	95.186401
671.751892	927.595032	7356.267090	7075.105469	95.626442
672.081909	922.914001	7335.313965	7053.929199	95.611862
672.411865	919.050293	7292.440918	7002.437500	95.449776
672.741821	923.731384	7253.877441	6953.025879	95.247322
673.071716	920.016296	7227.425781	6907.775879	94.932152
673.401550	915.409485	7202.385254	6884.221191	94.939316
673.731262	911.174255	7177.345703	6866.982910	95.047012
674.060974	917.564270	7109.135254	6836.964844	95.604179
674.390625	924.697449	7069.755371	6807.466309	95.731705
674.720276	935.768494	7028.220215	6765.337402	95.685104
675.049927	935.099792	7015.067871	6740.519531	95.484375
675.379395	936.511414	6976.579590	6712.804688	95.632912
675.708923	929.898438	6915.131348	6648.458984	95.544495
676.038330	927.000732	6857.843750	6615.245605	95.909561
676.367737	918.455872	6821.955566	6559.890625	95.560852
676.697083	918.827454	6802.935059	6538.787598	95.510834
677.026428	924.325867	6766.822754	6494.132324	95.332642
677.355652	924.845947	6748.321777	6480.608887	95.402870
677.684875	918.753113	6747.876465	6483.432129	95.463394
678.013977	915.781067	6747.207031	6486.850098	95.535278
678.343079	922.022461	6761.027344	6490.714355	95.370567
678.672180	925.514709	6753.894531	6494.503906	95.549522
679.001221	920.090576	6764.371094	6506.985840	95.595955
679.330139	920.907898	6780.123535	6530.614746	95.741600
679.659058	923.359863	6811.775879	6566.873535	95.840950
679.987976	927.520813	6874.562500	6620.966797	95.735764
680.316772	932.499207	6901.459473	6670.303223	96.127365
680.645630	933.390808	6955.923828	6703.220215	95.804031
680.974304	932.573486	6993.075684	6726.996582	95.609619
681.302979	927.000732	7040.925781	6756.123535	95.341751
681.631653	922.839783	7079.042969	6783.244141	95.195107
681.960266	924.845947	7101.408203	6796.173340	95.058167
682.288757	921.873840	7119.835938	6804.866699	94.918182
682.617249	927.446594	7105.940918	6806.278809	95.149918
682.945679	932.945007	7082.609375	6784.358887	95.150131
683.274109	937.031677	7058.312500	6751.739746	94.991692
683.602478	935.768494	7009.495605	6674.390137	94.482704
683.930725	928.783997	6964.319824	6597.857910	93.928261
684.259033	922.839844	6871.069824	6506.243652	93.866646
684.587280	924.177246	6792.605957	6451.630859	94.189667
684.915344	930.121399	6709.684082	6409.575684	94.807419
685.243469	928.115234	6635.529785	6345.675781	94.921448
685.571533	918.901672	6557.734863	6282.963379	95.127159
685.899536	920.313538	6469.166016	6199.521973	95.140541
686.227539	923.805725	6419.234863	6141.788574	94.951324
686.555420	934.282410	6387.210449	6093.789063	94.619011
686.883301	925.366028	6373.019043	6075.584473	94.540131
687.211121	926.332031	6370.417969	6076.030762	94.592529
687.538940	925.068848	6369.897949	6067.040527	94.437706
687.866638	931.087402	6379.037109	6058.049316	94.108101
688.194336	931.681824	6386.021973	6058.421387	93.993767
688.521973	924.846008	6385.798828	6075.139160	94.311256
688.849609	922.765442	6391.445801	6076.104980	94.233696
689.177063	921.576660	6393.229004	6070.606934	94.103752
689.504578	926.257751	6377.773926	6038.656250	93.779388
689.832031	928.412537	6329.923340	6002.025391	93.929512
690.159485	932.573486	6247.521484	5924.007813	93.913139
690.486816	931.236023	6170.023438	5827.710938	93.465805
690.814087	927.372253	6102.779785	5750.510254	93.193398
691.141296	928.709656	6020.229004	5664.170410	93.006828
691.468506	921.056580	5914.050781	5588.084473	93.471527
691.795715	925.366028	5793.753906	5502.265625	94.012634
692.122803	925.811951	5713.582031	5439.479004	94.274933
692.449829	934.505310	5668.777344	5389.770996	94.106667
692.776855	935.396973	5606.066406	5333.078125	94.155266
693.103821	931.013123	5545.657715	5277.128418	94.180931
693.430664	929.527039	5471.652344	5212.559082	94.295769
693.757568	925.886230	5427.962402	5150.367188	93.834061
694.084351	925.588928	5369.188965	5101.327637	93.971977
694.411133	925.960449	5329.511230	5072.349609	94.160133
694.737854	926.257629	5303.282715	5028.288574	93.717331
695.064575	926.554932	5280.917480	5003.173828	93.621490
695.391174	928.263855	5268.508301	4973.155762	93.195023
695.717773	927.892395	5248.893066	4986.307129	93.923035
696.044250	931.756104	5241.982422	4987.792480	94.102623
696.370789	928.561035	5223.778809	4988.461914	94.521423
696.697205	930.344299	5227.865234	4983.780762	94.320343
697.023621	924.771667	5253.648438	5009.563965	94.361481
697.349915	932.499207	5299.715820	5056.226074	94.424599
697.676208	926.257751	5387.467285	5137.364746	94.393837
698.002380	926.852234	5461.027344	5215.308105	94.580727
698.328674	923.657166	5562.153809	5325.722168	94.902840
698.654724	929.898499	5634.969238	5428.630859	95.614555
698.980896	932.945007	5766.263184	5549.447266	95.514137
699.306946	931.830383	5852.007813	5629.173828	95.471016
699.632935	934.579590	5945.183594	5691.068848	94.928459
699.958862	934.802490	5985.604980	5704.740234	94.439194
700.284729	933.316406	6020.601074	5717.000000	94.032158
700.610596	927.520813	5994.520996	5682.375000	93.839630
700.936340	930.047119	5931.809082	5627.763184	93.921227
701.262146	931.384583	5824.292969	5523.738770	93.857353
701.587830	932.721985	5714.770996	5400.321777	93.424385
701.913513	929.378418	5571.366699	5271.926758	93.549316
702.239075	926.034851	5438.884766	5121.166504	92.959702
702.564697	926.183350	5295.554688	4999.533203	93.225082
702.890137	928.040955	5151.109863	4859.026367	93.083618
703.215698	928.412415	5040.993652	4760.500488	93.179634
703.541016	924.845947	4930.803223	4661.083984	93.267044
703.866455	924.102966	4849.441406	4578.162109	93.089020
704.191711	920.016296	4768.971191	4510.249512	93.278130
704.517029	921.725281	4702.024902	4449.767090	93.327042
704.842163	922.616882	4660.266602	4410.980957	93.330414
705.167419	926.926453	4610.632324	4373.829590	93.571617
705.492493	930.641602	4581.580078	4334.226074	93.224922
705.817566	928.486816	4544.874512	4303.910645	93.336891
706.142578	928.858398	4506.757324	4271.068848	93.412659
706.467590	929.898621	4479.636719	4256.282227	93.707863
706.792480	929.229797	4456.379395	4237.558105	93.796089
707.117371	926.703613	4459.574707	4228.716309	93.465416
707.442200	926.926514	4452.367188	4222.103516	93.468513
707.766907	931.384583	4469.977051	4214.450684	92.778870
708.091675	930.195801	4471.760254	4214.599121	92.738770
708.416321	926.926453	4469.085938	4216.679199	92.874214
708.741028	920.982239	4479.414063	4239.416504	93.255524
709.065552	928.783997	4495.760254	4257.546387	93.321686
709.390137	927.223633	4513.444336	4268.691895	93.175201
709.714600	939.260681	4516.565430	4284.072266	93.500885
710.039063	944.313232	4541.753906	4292.616699	93.074600
710.363403	949.588684	4582.694824	4301.904785	92.271347
710.687744	940.449524	4621.852051	4333.260254	92.160820
711.012085	936.585754	4662.496094	4390.696777	92.705154
711.336304	937.031555	4705.517090	4441.965332	93.006432
711.660461	935.991394	4752.104980	4473.618164	92.702347
711.984619	935.396973	4788.661621	4491.451172	92.286789
712.308716	931.310242	4818.457031	4529.270996	92.560455
712.632751	927.446472	4817.937012	4533.803223	92.696709
712.956726	927.595154	4801.367676	4525.630371	92.881943
713.280701	927.892395	4779.002441	4490.410645	92.506271
713.604553	931.458923	4755.522949	4451.848145	92.058846
713.928467	935.174072	4705.145020	4408.306152	92.126228
714.252258	929.675598	4643.771484	4368.183105	92.579933
714.575989	932.721985	4578.458984	4329.471191	93.170441
714.899719	926.554932	4510.918457	4275.601563	93.434906
715.223267	928.635437	4452.219238	4222.697754	93.486137
715.546936	923.880066	4403.922363	4169.125488	93.253044
715.870422	922.022461	4372.863770	4136.432617	93.148590
716.193970	919.273254	4351.687012	4109.163574	92.934319
716.517395	920.685059	4323.303223	4079.739502	92.841873
716.840820	924.177246	4311.341309	4055.442383	92.445038
717.164124	931.384583	4288.678711	4024.978516	92.145454
717.487488	932.127625	4270.697266	4009.597656	92.179298
717.810730	930.195740	4237.483887	3991.839600	92.572639
718.133972	925.886169	4191.713379	3958.403076	92.856010
718.457092	928.561035	4124.470215	3909.437500	93.271629
718.780212	931.236023	4061.609619	3848.434814	93.190117
719.103210	942.975830	3998.823486	3784.609131	92.990021
719.426208	932.722107	3952.904541	3725.909912	92.484077
719.749207	931.607605	3917.387695	3678.281982	91.991852
720.072083	922.691223	3859.506104	3639.050049	92.493362
720.394958	928.635437	3805.933838	3593.354248	92.611832
720.717773	918.678894	3745.377197	3539.113037	92.703003
721.040527	924.846008	3727.618896	3505.899658	92.089287
721.363281	931.904785	3714.392822	3487.843750	91.858040
721.685913	942.604309	3679.544922	3464.884521	92.156921
722.008545	937.105774	3635.037842	3415.473389	91.861748
722.331055	930.195740	3606.134033	3373.789307	91.317261
722.653503	922.171082	3591.421875	3350.086914	90.958702
722.976013	916.821228	3584.066162	3358.780273	91.553612
723.298401	921.056458	3568.759766	3359.300049	92.089005
723.620789	921.130859	3555.385498	3350.383789	92.217850
723.943115	928.189514	3539.113037	3318.656494	91.556374
724.265381	929.378418	3538.964600	3304.019287	90.996834
724.587585	926.703552	3531.236572	3309.740479	91.495743
724.909790	923.508545	3523.137695	3318.210938	92.117081
725.231873	924.400146	3510.580811	3328.390381	92.955231
725.553894	934.208191	3510.506104	3325.789795	92.830162
725.875916	991.569824	3587.632813	3403.510498	92.907631
726.197937	987.185974	3591.570557	3396.451904	92.508072
726.519775	981.910461	3602.790283	3394.891357	92.067589
726.841675	924.325867	3545.874268	3343.770752	92.290680
727.163513	924.548767	3547.212158	3348.155029	92.410118
727.485291	920.462097	3563.112549	3357.516846	92.220093
727.806946	928.783936	3595.657471	3360.786377	91.193016
728.128662	925.366028	3615.867432	3385.454834	91.436073
728.450256	933.465027	3640.536133	3405.145264	91.304588
728.771790	923.731445	3642.913818	3409.677490	91.422554
729.093323	924.400146	3672.560547	3419.188232	90.780296
729.414795	924.474426	3667.285156	3429.293701	91.323082
729.736145	925.143066	3654.133545	3447.200439	92.417229
730.057495	926.852051	3644.622803	3449.652588	92.826096
730.378845	925.663269	3647.594971	3437.392578	92.277458
730.700134	922.393982	3652.201904	3425.727295	91.703644
731.021301	918.901794	3629.019287	3419.337158	92.262985
731.342468	923.508545	3621.811768	3417.702393	92.435638
731.663574	931.681824	3637.043701	3422.680420	92.076355
731.984680	938.517639	3659.409180	3426.692627	91.447044
732.305664	935.619934	3672.486084	3447.051758	91.763046
732.626648	929.527039	3687.272217	3457.454102	91.666451
732.947571	921.650940	3693.291016	3462.581055	91.676048
733.268433	919.867676	3706.442383	3458.048584	91.086052
733.589233	922.616882	3696.708740	3465.107422	91.651276
733.909973	933.019226	3692.176514	3453.739014	91.358322
734.230713	929.378418	3664.387451	3431.374268	91.480347
734.551331	929.527039	3623.594971	3386.197998	91.188156
734.871948	920.610657	3571.583252	3349.492188	91.622276
735.192505	927.446472	3535.175049	3304.613281	91.158524
735.513062	926.331970	3496.983154	3264.489990	90.955864
735.833435	928.040833	3458.197266	3228.453125	90.919769
736.153931	922.022461	3407.968506	3183.277344	90.961540
736.474304	922.245361	3355.436768	3142.930664	91.266365
736.794617	925.663269	3335.523438	3100.801025	90.259918
737.114807	931.756104	3303.424805	3080.145264	90.585548
737.434998	936.585754	3295.102783	3065.581787	90.268417
737.755188	937.923157	3262.483643	3057.408203	91.177887
738.075256	927.669434	3263.003906	3057.259766	91.189949
738.395325	924.623108	3269.691406	3062.163818	91.150467
738.715271	919.644836	3304.910889	3089.804443	90.981865
739.035278	927.743835	3323.932373	3118.708008	91.435387
739.355164	925.217468	3344.885498	3125.023682	90.913551
739.675049	929.898621	3344.291260	3130.447998	91.142982
739.994873	926.629211	3347.560547	3122.423096	90.700378
740.314636	924.177246	3343.770752	3122.274658	90.845734
740.634277	915.409485	3336.935303	3098.869385	90.168762
740.953979	917.489929	3309.666016	3078.436279	90.333916
741.273499	918.976013	3280.762451	3047.971924	90.143456
741.593140	932.573486	3241.382080	3021.000244	90.454735
741.912598	937.477478	3212.701172	2987.340820	90.095024
742.232117	940.523926	3163.289795	2955.242188	90.640144
742.551453	934.356689	3118.114014	2926.115234	91.207870
742.870850	933.465149	3077.693115	2894.536377	91.458153
743.190063	932.201965	3043.959717	2859.391602	91.259979
743.509338	930.344421	3011.192139	2827.218506	91.158714
743.828552	928.263916	2970.919922	2794.971436	91.386292
744.147705	925.589050	2949.818115	2781.076416	91.663902
744.466797	927.149353	2934.363037	2754.401611	91.034264
744.785828	927.223633	2917.718994	2732.928467	90.716354
745.104858	926.480652	2888.518311	2708.854492	90.842995
745.423706	925.811829	2878.264404	2701.349854	90.938858
745.742615	914.740784	2866.227539	2691.764893	91.060013
746.061401	924.474426	2857.757080	2678.613037	90.733688
746.380249	918.753113	2831.156982	2661.151855	91.110397
746.698975	932.276184	2813.472656	2649.263428	91.271019
747.017639	920.610657	2789.695557	2631.950928	91.560326
747.336304	921.130859	2779.218994	2618.279297	91.338425
747.654907	914.815125	2780.705078	2608.842773	90.789261
747.973389	926.034851	2789.770264	2610.700439	90.391884
748.291931	930.715820	2786.426514	2598.737549	89.885872
748.610352	926.332031	2788.729736	2599.554932	89.842407
748.928711	920.090576	2800.246826	2606.019287	89.669609
749.247070	918.307373	2816.964844	2622.142822	89.738960
749.565308	921.948242	2802.401367	2623.109131	90.465477
749.883545	925.812012	2783.825439	2615.158447	90.922188
750.201782	929.081238	2769.633789	2604.458740	91.025787
750.519836	930.938721	2774.834961	2593.462158	90.163612
750.837952	925.365967	2763.244141	2581.870850	90.131378
751.155884	923.880066	2745.931396	2564.484131	90.041595
751.473877	930.715881	2726.166748	2554.527588	90.440331
751.791809	931.681824	2715.095703	2544.051025	90.409142
752.109619	932.870605	2711.083252	2545.759766	90.702827
752.427490	928.412415	2704.619141	2529.487549	90.140137
752.745300	931.979065	2707.442383	2524.063477	89.671494
753.062988	930.270081	2693.844971	2518.119141	90.035820
753.380615	924.177307	2694.736572	2520.645264	90.167442
753.698303	919.941956	2689.461426	2517.524658	90.283424
754.015808	917.341370	2690.353027	2506.676758	89.640434
754.333374	921.205078	2692.433350	2507.642578	89.567085
754.650757	925.143250	2683.517090	2499.320801	89.524620
754.968262	928.041016	2678.241455	2496.274170	89.603058
755.285583	931.533264	2662.861084	2485.574707	89.760094
755.602905	929.304199	2656.247803	2480.521973	89.824463
755.920105	927.966736	2639.678467	2478.738525	90.597717
756.237305	922.839844	2630.836670	2488.843750	91.686584
756.554443	926.629211	2616.421631	2475.766602	91.676193
756.871582	929.229797	2613.449707	2463.581055	91.101601
757.188599	930.195801	2599.480713	2438.986816	90.385468
757.505615	927.149414	2602.972900	2449.240479	90.826454
757.822510	921.130798	2597.920166	2457.042236	91.598351
758.139465	923.062744	2614.861328	2474.577881	91.708031
758.456238	924.474426	2634.179932	2475.172363	90.699707
758.773010	928.412537	2664.049805	2482.379639	89.532944
759.089783	929.527039	2663.752441	2492.261963	90.111404
759.406433	926.703613	2676.235352	2513.066650	90.673576
759.723145	925.960510	2680.247803	2528.670166	91.359589
760.039673	931.681885	2705.956299	2534.762939	90.351357
760.356201	929.824280	2698.749023	2548.657471	91.515099
760.672668	929.750000	2703.504639	2551.183838	91.412521
760.989136	923.508545	2698.154785	2552.595459	91.797836
761.305481	928.041016	2688.049561	2544.125000	91.822510
761.621826	935.991455	2691.244629	2537.586670	91.245827
761.938049	940.300964	2703.133057	2545.091064	91.034767
762.254333	937.254578	2741.473389	2562.849609	90.099663
762.570496	930.864441	2773.869141	2601.041016	90.622482
762.886597	918.901672	2820.754150	2651.789795	91.115799
763.202637	921.353699	2891.490234	2726.241455	91.612320
763.518677	923.731445	2983.254150	2813.546875	91.759872
763.834656	920.016296	3101.247070	2922.326172	91.797249
764.150574	923.211243	3244.502686	3031.625000	90.829346
764.466370	923.359863	3375.126953	3135.649170	90.232445
764.782288	933.539307	3468.599609	3201.407227	89.460114
765.097961	936.214294	3500.401123	3238.409912	89.782677
765.413696	931.013123	3476.698486	3218.199219	89.845589
765.729309	929.601379	3422.234619	3162.472656	89.578812
766.044861	924.325867	3310.409180	3054.510742	89.275375
766.360474	923.731445	3182.608398	2935.106201	89.043129
766.675903	922.171082	3030.733643	2802.104248	89.157097
766.991394	918.233093	2895.948486	2688.049561	89.487923
767.306763	927.818115	2797.943359	2590.266846	88.895050
767.622131	939.483643	2708.111084	2518.936523	89.303879
767.937378	943.867432	2633.659912	2451.766846	89.235771
768.252625	940.300964	2573.251709	2406.665039	89.798424
768.567810	928.412415	2520.496826	2353.984375	89.541229
768.882996	924.325867	2486.391846	2316.907227	89.149971
769.197998	922.171082	2426.949707	2280.647461	90.277489
769.513062	924.771667	2398.640381	2250.257813	89.932442
769.828064	931.979004	2369.439453	2225.960938	90.018608
770.142944	932.053406	2355.841797	2192.227295	88.508507
770.457825	936.214294	2333.476807	2164.586670	87.912781
770.772705	928.783997	2299.000244	2132.636719	87.858597
771.087402	922.839783	2267.496094	2111.832031	88.423508
771.402100	916.375427	2240.672852	2097.268555	89.171295
771.716736	923.508484	2217.564697	2083.671143	89.653191
772.031372	933.910828	2193.267822	2080.847656	91.073212
772.345947	929.304138	2171.274170	2071.782715	91.989220
772.660461	923.137024	2159.014160	2060.042969	91.991829
772.974854	923.508545	2145.565430	2034.185669	90.885880
773.289246	931.681824	2121.268311	2012.192017	90.830750
773.603638	926.554932	2095.262451	1989.083862	90.914871
773.917908	923.285583	2078.693115	1980.167480	91.472649
774.232178	929.750000	2063.832275	1974.966431	92.164078
774.546265	935.917053	2051.126465	1971.176880	92.830971
774.860474	934.728210	2035.894531	1959.734375	93.083679
775.174561	931.384583	2031.733765	1942.273071	91.869797
775.488586	939.929382	2033.442749	1932.316406	90.752159
775.802551	937.477478	2027.646973	1923.325806	90.430740
776.116516	931.087402	2019.027954	1913.146484	90.267715
776.430359	920.684998	2006.842163	1900.143555	90.176498
776.744202	924.177246	2007.436646	1885.803101	88.771523
777.057922	931.161682	2000.526367	1876.515259	88.403290
777.371704	929.452820	1991.758789	1874.880493	88.997688
777.685303	927.149353	1976.006470	1870.050781	89.897980
777.998962	922.765442	1962.409180	1868.861938	91.001984
778.312500	926.554932	1954.681641	1859.648438	90.756668
778.626038	925.291809	1943.016113	1857.196411	91.567490
778.939453	931.607483	1943.461914	1847.760132	90.541939
779.252869	930.418640	1946.062500	1837.357788	89.296967
779.566223	934.579590	1946.211060	1826.137817	88.130730
779.879578	930.864502	1946.954102	1833.642578	88.848274
780.192749	932.499207	1937.963501	1844.119141	90.666565
780.505920	932.127686	1934.099976	1856.007690	92.206146
780.819031	928.338196	1923.920288	1843.821899	91.954620
781.132141	938.071777	1924.812012	1839.363770	91.340347
781.445190	940.375183	1926.372192	1832.379395	90.467232
781.758118	935.917053	1918.570679	1829.184204	90.903564
782.071045	928.932678	1906.904907	1815.884155	90.692909
782.383911	928.338196	1883.425415	1793.816284	90.617699
782.696838	932.573425	1873.617554	1782.225098	90.288185
783.009583	922.616882	1851.549438	1772.194336	91.457390
783.322266	917.787170	1849.023315	1768.330444	91.334862
783.634888	921.056458	1834.905640	1749.086060	90.609001
783.947510	931.161621	1825.617798	1737.048950	90.098022
784.260132	927.298035	1818.930542	1720.182251	88.925003
784.572571	927.223633	1807.041992	1721.073853	90.228874
784.885010	932.796387	1797.680054	1713.346558	90.249153
785.197449	940.969666	1786.980469	1702.275391	89.987709
785.509766	941.415344	1781.853516	1680.876099	87.985146
785.822083	935.842773	1779.550171	1675.377808	87.653023
786.134277	934.430969	1764.020874	1682.436523	90.165703
786.446533	932.796387	1754.510132	1691.427124	92.322998
786.758606	929.749817	1752.652710	1687.117554	92.036102
787.070740	936.288574	1760.900024	1681.842163	90.412712
787.382690	941.564026	1777.172485	1699.600220	90.716675
787.694641	939.334961	1786.906250	1712.974976	91.277283
788.006653	927.966736	1812.689331	1734.225464	91.131248
788.318481	922.022461	1836.168823	1743.810547	89.896774
788.630310	920.982239	1862.472046	1765.209595	89.669304
788.942017	927.446594	1864.403809	1772.565796	90.198273
789.253784	928.561096	1871.982788	1778.510132	90.092163
789.565430	926.777832	1875.995117	1774.943481	89.354218
789.877014	922.171082	1886.397461	1782.225098	89.196274
790.188538	917.638611	1883.648315	1775.240601	88.777779
790.500061	927.743835	1876.366577	1772.862915	89.089058
790.811462	930.047180	1851.772461	1755.698853	89.576767
791.122925	938.666260	1824.280273	1744.776489	91.022751
791.434204	935.545593	1790.472656	1716.392944	91.334969
791.745483	931.904785	1772.045410	1696.256836	90.979057
792.056702	927.520935	1752.058105	1671.514038	90.231606
792.367920	920.239258	1738.832153	1656.950684	89.997292
792.678955	923.880066	1717.730103	1644.542358	90.780655
792.990112	920.759338	1703.910034	1633.248169	90.977234
793.301086	928.263977	1695.067993	1623.885864	90.717041
793.612122	929.750000	1698.040039	1611.625977	88.752419
793.922974	926.109131	1697.445679	1608.133789	88.421150
794.233826	918.381592	1686.969116	1609.322632	89.897507
794.544556	922.394043	1674.188965	1609.916992	91.450867
794.855286	921.725281	1666.907227	1615.861328	93.149872
795.166016	928.115295	1682.139282	1609.842773	90.411911
795.476624	922.393982	1688.455078	1613.186157	90.174553
795.787292	920.907959	1695.588013	1613.929321	89.459045
796.097778	919.198975	1697.445679	1627.898315	91.063583
796.408264	924.028625	1702.869751	1634.362671	91.203972
796.718689	930.864441	1714.683960	1634.065430	89.714653
797.029053	934.208008	1722.485718	1637.409058	89.207275
797.339355	928.263855	1725.012085	1644.021973	89.834915
797.649658	928.709717	1723.526001	1645.879517	90.230888
797.959839	924.697327	1712.900757	1642.610229	91.082184
798.270020	929.675598	1714.089478	1635.477173	89.978210
798.580078	934.728210	1705.395996	1626.560913	89.770546
798.890137	935.768494	1696.702759	1616.084351	89.405342
799.200195	934.951111	1679.910156	1601.223755	89.437485
799.510071	932.870605	1673.223022	1590.598267	88.839806
799.820007	930.790100	1655.538940	1578.115601	89.317215
800.129883	921.205078	1654.201538	1569.496460	88.444000
800.439575	921.799500	1639.638184	1566.524292	89.814720
800.749329	925.886169	1647.439941	1564.146606	88.456390
801.058960	934.282410	1633.322266	1559.762817	89.477074
801.368591	938.220398	1628.418457	1555.973267	89.503708
801.678162	939.483643	1618.461914	1546.239624	89.363091
801.987671	933.316467	1609.471313	1541.410034	89.934067
802.297119	927.818115	1601.892456	1537.620483	90.465149
802.606506	918.158691	1589.038086	1529.670288	91.150749
802.915894	917.712952	1593.941895	1524.914917	89.792366
803.225159	925.217468	1584.208374	1513.546509	89.277260
803.534424	943.124451	1584.728516	1512.654785	88.766632
803.843628	947.656921	1581.161987	1509.979858	88.763763
804.152771	939.929443	1583.242310	1514.066528	89.246948
804.461792	928.338196	1583.093750	1518.078735	90.070335
804.770874	932.201904	1579.675781	1518.153198	90.498062
805.079773	928.189514	1581.682007	1512.877563	89.471275
805.388733	929.749817	1585.768555	1509.979858	88.447174
805.697571	933.019226	1589.260742	1507.230835	87.500046
806.006470	941.415466	1587.774780	1515.701172	88.849297
806.315125	939.557922	1599.366089	1528.184082	89.211708
806.623901	932.945007	1605.013062	1538.363647	90.082939
806.932495	924.845947	1605.682007	1538.586426	90.145119
807.241150	925.291809	1594.833618	1544.604980	92.498055
807.549622	926.332031	1583.613892	1534.796997	92.572914
807.858154	933.093567	1585.025513	1526.029297	90.950554
808.166565	935.619812	1574.326050	1507.973633	89.611435
808.474915	931.979004	1568.010254	1505.373047	90.151863
808.783264	929.081238	1556.493530	1501.137817	91.177139
809.091492	927.446594	1548.542969	1489.769531	90.537148
809.399719	933.465027	1541.484253	1485.608765	90.810242
809.707825	936.882996	1534.276855	1472.828613	89.713951
810.015930	934.876770	1526.549438	1464.283691	89.476318
810.323975	929.972839	1524.171753	1450.389160	87.582848
810.632080	923.657043	1522.537109	1446.228149	87.258057
810.939880	928.932617	1524.246094	1438.277954	85.559181
811.247864	926.406311	1523.057129	1434.414063	85.143227
811.555664	931.979004	1517.410156	1436.865845	86.241882
811.863464	925.589050	1514.586792	1444.742065	88.141769
812.171143	925.589050	1507.825195	1445.039429	89.216446
812.478882	925.440369	1497.794312	1438.723633	89.679344
812.786438	933.539368	1492.444336	1427.503906	88.380775
813.094055	936.659973	1482.710815	1425.571899	89.535973
813.401489	932.796387	1480.927368	1418.141602	88.545479
813.708984	925.886169	1473.125610	1427.578125	91.676865
814.016357	928.338196	1473.200073	1427.206543	91.558678
814.323730	933.539368	1476.469360	1429.064087	91.268623
814.630981	935.471191	1478.549805	1418.438965	88.931465
814.938232	929.824219	1482.562134	1416.135620	87.982277
815.245361	930.715881	1474.834595	1416.804321	89.334999
815.552490	933.242188	1471.491211	1412.494751	89.039192
815.859619	936.214294	1465.621094	1417.621582	90.933342
816.166565	931.681824	1477.732422	1416.358398	88.760376
816.473572	936.882996	1476.692383	1415.912598	88.740509
816.780457	931.384583	1486.871704	1413.014771	86.704117
817.087341	924.994446	1484.196777	1424.605957	89.343605
817.394043	915.409485	1487.911987	1435.156860	90.785172
817.700806	920.016296	1485.014160	1443.181641	92.595985
818.007507	925.291809	1489.398071	1439.541016	91.161758
818.314209	928.412537	1509.236816	1446.005249	89.113480
818.620667	930.344421	1523.354492	1443.924683	86.605659
818.927246	931.830383	1534.648438	1454.401367	86.688011
819.233704	930.047180	1539.403809	1464.655273	87.733208
819.540161	931.979065	1546.611206	1488.729370	90.582687
819.846497	931.904785	1576.777954	1519.713501	91.151054
820.152832	930.121521	1615.489746	1558.499634	91.684746
820.458984	926.554932	1669.507813	1597.508423	90.309021
820.765259	924.325867	1729.395874	1645.953979	89.635452
821.071350	927.669434	1820.416626	1718.696289	88.605919
821.377502	925.366028	1975.635132	1838.769531	86.968529
821.683472	925.440369	2206.642334	2043.399048	87.258591
821.989441	930.641541	2529.338867	2344.548096	88.441162
822.295349	935.396912	2947.663086	2766.141846	90.979263
822.601196	933.985168	3435.089111	3237.369385	92.094704
822.907043	935.248352	3956.173828	3725.687256	92.370331
823.212769	931.979004	4432.974609	4124.841309	91.198692
823.518494	935.471252	4803.522461	4395.897461	89.461746
823.824097	927.223633	4963.125000	4447.909180	87.234184
824.129700	932.721985	4911.038574	4342.696777	85.714012
824.435242	924.102844	4725.355957	4129.299316	84.319473
824.740723	925.811829	4500.738770	3893.759766	83.021217
825.046082	922.245361	4221.063477	3647.520508	82.613686
825.351501	926.926453	3886.403564	3369.405518	82.530762
825.656799	926.034729	3503.373291	3080.516357	83.593269
825.962036	921.502258	3160.912109	2793.262451	83.582741
826.267212	924.325867	2863.477783	2558.688477	84.282341
826.572449	924.548828	2659.888672	2403.470215	85.223732
826.877502	932.573486	2563.369385	2336.300537	86.076195
827.182495	937.031555	2555.121826	2349.972412	87.321510
827.487488	933.316467	2602.378418	2402.578613	88.029213
827.792419	924.771667	2669.622314	2476.509766	88.932434
828.097290	922.616882	2738.649658	2529.561768	88.486557
828.402100	925.440369	2775.801025	2549.772217	87.784607
828.706848	932.870605	2754.178955	2512.249268	86.716705
829.011597	927.892395	2688.643799	2437.574951	85.740814
829.316223	925.589050	2589.598633	2321.811279	83.907104
829.620789	920.387878	2479.556152	2212.586426	82.877426
829.925354	920.833679	2342.541748	2105.664795	83.338562
830.229797	918.753113	2198.246094	2009.368530	85.238098
830.534302	924.325867	2049.269287	1896.799805	86.446480
830.838562	921.651062	1908.911133	1771.748413	86.106728
831.142944	928.783997	1785.048462	1668.318970	86.367592
831.447144	927.372253	1690.089722	1581.310547	85.737946
831.751404	930.047058	1627.155273	1533.311035	86.538071
832.055542	930.270020	1594.833618	1507.230835	86.818001
832.359619	927.743835	1573.359985	1497.274292	88.215027
832.663635	936.065735	1569.793579	1489.472290	87.325584
832.967651	937.625977	1585.397095	1492.295898	85.627457
833.271545	938.963379	1623.068726	1516.741577	84.457489
833.575439	937.031555	1685.631470	1583.836792	86.401993
833.879211	937.700378	1753.321289	1664.232300	89.077156
834.183044	935.842773	1839.586792	1755.699097	90.717758
834.486694	933.539368	1924.663452	1825.915039	90.036728
834.790344	931.384583	2002.161133	1882.459351	88.821022
835.093933	928.263855	2045.851196	1910.099976	87.853188
835.397522	929.378418	2050.086426	1903.561401	86.925674
835.700928	929.749939	2034.854370	1872.577148	85.315659
836.004395	935.917053	2000.303345	1836.688965	84.628296
836.307739	928.709717	1955.276001	1791.513062	84.047508
836.611023	925.143127	1893.901855	1738.609375	83.969955
836.914307	923.731445	1817.816040	1673.594604	83.869377
837.217529	919.347595	1737.494751	1608.133789	84.188545
837.520691	928.858398	1655.316040	1543.564819	84.616966
837.823730	927.000793	1577.149780	1481.819214	85.337120
838.126831	941.266846	1518.896118	1432.482300	85.039917
838.429749	934.430969	1471.713989	1386.563110	84.151581
838.732727	937.403076	1435.974243	1361.300171	85.022385
839.035522	932.127625	1412.643433	1339.752319	84.830650
839.338379	930.864502	1392.135742	1329.869995	86.501274
839.641113	928.041016	1392.284302	1322.662720	85.003212
839.943848	922.096863	1389.237915	1319.244751	85.016693
840.246460	925.737610	1408.110840	1333.362183	84.503983
840.549072	921.428040	1416.507202	1349.857544	86.537575
840.851563	921.056458	1422.599976	1372.148438	89.940742
841.154053	912.437439	1422.376953	1386.414429	92.947685
841.456482	919.198975	1436.568848	1375.789063	88.252159
841.758850	930.121399	1442.067261	1373.188477	86.545692
842.061157	935.619812	1434.414063	1355.504517	84.179939
842.363403	934.208008	1410.859985	1350.600464	87.357750
842.665588	923.136963	1389.237915	1334.253906	88.203415
842.967712	928.115295	1362.563354	1317.535889	89.635712
843.269775	930.715881	1339.826660	1290.935425	88.049393
843.571777	928.189636	1317.907349	1265.672485	86.596741
843.873840	926.109131	1301.486450	1254.229858	87.410912
844.175659	930.864502	1282.019287	1235.728638	86.817596
844.477600	937.626038	1263.592163	1229.932983	89.674026
844.779297	931.013123	1253.635498	1210.762817	86.711189
845.081116	927.743713	1244.273315	1214.180786	90.492981
845.382751	930.567322	1240.335327	1201.252075	87.383057
845.684387	935.322754	1224.211792	1198.725830	91.177940
845.985962	932.722107	1210.391235	1188.546265	92.132736
846.287537	928.858215	1196.571045	1181.338989	94.310303
846.588989	924.400085	1197.239624	1178.664063	93.191765
846.890381	921.205078	1187.283203	1169.153320	93.186256
847.191711	919.273254	1191.072632	1164.620972	90.267944
847.493042	920.982178	1180.224487	1161.797485	92.891975
847.794250	920.016296	1188.100586	1158.750977	89.052094
848.095459	924.697327	1182.825073	1149.909058	87.248169
848.396606	930.344421	1185.722778	1137.723267	81.204552
848.697693	938.666260	1175.989136	1134.973999	82.717583
848.998657	945.650696	1173.983032	1139.209351	84.770584
849.299622	940.300842	1164.546509	1139.877930	88.999306
849.600464	935.619873	1166.849976	1141.661255	89.106644
849.901367	929.155457	1157.859375	1138.912109	91.715370
850.202087	930.047180	1157.265015	1135.494263	90.418556
850.502808	940.375244	1153.995483	1130.441528	88.973915
850.803467	940.300964	1152.880981	1130.813110	89.619026
851.104065	944.016113	1155.853149	1133.636597	89.512436
851.404663	927.669434	1150.206177	1128.807007	90.383980
851.705139	925.291809	1153.698364	1122.565430	86.369507
852.005615	921.056458	1150.206177	1120.484985	87.029793
852.306030	927.149353	1158.453735	1123.680054	84.966270
852.606384	929.452637	1162.688965	1122.862793	82.924545
852.906616	933.762207	1171.605225	1114.095093	75.820129
853.206909	931.013123	1172.942749	1111.865967	74.754318
853.506958	927.446533	1166.329834	1108.225098	75.676521
853.807129	919.273254	1164.472168	1120.708008	82.151566
854.107178	922.319641	1162.763306	1131.704712	87.082802
854.407166	922.022461	1163.877808	1130.293091	86.113716
854.707092	922.765564	1157.562134	1121.673828	84.715149
855.007019	925.440430	1152.806763	1108.670776	80.588158
855.306763	939.706543	1155.778931	1110.677002	79.126472
855.606567	944.016052	1149.165894	1110.825684	81.311119
855.906250	932.499207	1149.537354	1107.259155	80.520386
856.205933	924.623047	1139.878052	1109.562500	85.916451
856.505493	926.406433	1151.023438	1111.642944	82.467712
856.805054	936.362976	1151.469238	1117.512939	84.214172
857.104492	926.777832	1157.190552	1113.277710	80.941658
857.403931	932.499207	1157.264771	1110.528442	79.206635
857.703308	929.972839	1154.887207	1114.317871	81.962318
858.002563	942.455750	1150.874878	1121.896729	86.096214
858.301819	938.666260	1138.391968	1124.571655	93.080353
858.601013	933.093567	1138.689209	1122.714111	92.229843
858.900208	930.641602	1143.518921	1124.200195	90.924950
859.199219	925.514648	1150.949097	1122.491211	87.376427
859.498291	932.276184	1155.555908	1119.890625	84.026634
859.797302	931.087402	1160.757202	1114.392212	79.812325
860.096191	929.675598	1161.351685	1116.992798	80.853058
860.395020	928.263977	1156.373413	1119.370483	83.778435
860.693787	924.474426	1139.878052	1116.175415	88.996178
860.992554	928.486816	1132.373413	1110.454224	89.249321
861.291260	932.424805	1132.150513	1104.435669	86.123550
861.589844	938.591980	1136.385864	1103.469727	83.358368
861.888428	936.214355	1138.614868	1109.339722	85.536034
862.186890	935.917175	1140.918335	1103.692627	81.841217
862.485413	935.174072	1134.008179	1101.389282	83.594917
862.783813	935.322571	1135.642822	1086.082886	75.259651
863.082153	933.613708	1131.630493	1090.986816	79.474632
863.380371	932.350403	1145.822266	1094.702026	76.052940
863.678589	933.539307	1149.983276	1106.367432	79.848900
863.976746	931.384583	1144.558960	1105.995972	81.910118
864.274902	936.362854	1139.060669	1109.116577	85.227226
864.572937	932.870667	1127.023560	1111.494263	92.001511
864.870911	937.700378	1138.169067	1118.701782	90.289116
865.168884	924.846008	1137.203125	1116.175537	90.098007
865.466736	927.818115	1146.713989	1112.163208	84.215881
865.764587	920.536377	1146.936890	1112.088867	84.607796
866.062317	919.570496	1153.624023	1106.664795	79.936546
866.360107	921.948181	1152.435181	1111.568726	82.269516
866.657715	928.932617	1137.054565	1109.934082	86.968948
866.955322	933.985168	1138.094727	1110.900024	86.676422
867.252808	931.458923	1145.079224	1106.367554	81.878281
867.550293	923.954346	1156.893433	1109.636841	79.712898
867.847717	925.291809	1153.624023	1110.379883	81.060867
868.145081	926.777832	1149.240234	1113.574829	83.967896
868.442383	925.588928	1151.617920	1112.757568	82.807358
868.739624	923.805725	1146.713989	1109.859741	83.466629
869.036804	921.428040	1148.422852	1106.441772	81.505707
869.333984	924.251648	1151.469116	1100.200317	77.436241
869.631042	925.737610	1155.630127	1099.160156	75.436363
869.928101	924.994568	1146.713867	1093.736206	76.105980
870.224976	926.480652	1137.946167	1100.348999	82.220665
870.521851	937.031555	1144.633423	1111.271484	83.929848
870.818726	936.065674	1145.599243	1131.927612	93.475204
871.115479	933.985168	1153.103882	1121.748169	85.690079
871.412231	920.982239	1145.227905	1117.438599	87.607651
871.708862	926.926453	1154.812866	1106.590454	78.839279
872.005493	928.412537	1155.109985	1117.215698	83.284203
872.302063	935.174133	1164.397827	1117.067017	79.351692
872.598572	933.836609	1159.939697	1113.054688	79.263878
872.895020	941.564026	1161.500122	1110.305542	76.722977
873.191406	940.672363	1147.085327	1120.187866	86.969101
873.487671	937.477356	1150.503296	1127.469604	89.187378
873.783997	932.424805	1152.360962	1132.299194	90.878365
874.080200	931.013184	1160.162720	1127.098022	85.570686
874.376343	925.514709	1160.608521	1123.234253	84.102402
874.672424	927.892395	1158.379395	1123.902954	85.041916
874.968445	924.251526	1167.444458	1126.354980	83.104164
875.264465	925.811951	1170.193604	1123.011353	80.693214
875.560364	922.468323	1170.713745	1117.215698	78.449532
875.856201	925.886230	1172.125366	1114.540771	76.614365
876.152039	927.743835	1176.286255	1122.713989	78.445427
876.447754	926.257751	1175.469116	1130.590210	81.991631
876.743469	921.873840	1170.193481	1132.447876	84.799591
877.039063	924.697266	1170.416504	1130.664551	83.822205
877.334595	930.567200	1179.109863	1126.429199	78.804176
877.630127	927.372253	1179.704224	1126.949341	79.093063
877.925537	929.006836	1184.756836	1125.017456	76.641495
878.221008	927.149353	1186.168579	1132.819336	79.403366
878.516296	935.322693	1186.911621	1134.082520	79.001816
878.811646	936.660156	1191.146973	1140.249512	79.999962
879.106812	931.310364	1201.400757	1139.060669	76.918808
879.401978	929.229797	1222.056885	1150.057495	75.412315
879.697083	922.171082	1231.567505	1160.311279	76.969276
879.992126	924.028625	1244.644897	1179.332886	79.629227
880.287109	928.561218	1268.718872	1204.744263	81.192657
880.582031	928.263916	1328.161133	1254.378540	81.549614
880.876892	925.366150	1442.735962	1337.820435	79.721367
881.171753	921.130859	1616.975952	1485.237183	81.067802
881.466492	937.105957	1843.747681	1693.879028	83.469917
881.761230	939.186340	2109.082764	1938.929565	85.455696
882.055786	942.381348	2407.556885	2197.280029	85.648354
882.350403	928.709717	2707.813965	2438.020752	84.835449
882.644958	929.155579	2941.421875	2612.335205	83.645966
882.939453	922.839844	3063.798096	2686.637695	82.383568
883.233826	925.589050	3095.451172	2678.910156	80.803345
883.528137	922.468262	3049.680908	2630.836182	80.310165
883.822449	930.121521	2996.628662	2573.771729	79.537598
884.116577	932.647766	2909.026123	2497.760254	79.190933
884.410828	930.195801	2798.686279	2410.826172	79.242058
884.704956	929.378418	2623.777588	2278.567139	79.626381
884.999023	921.948181	2400.646484	2099.274658	79.619110
885.292969	928.189514	2162.803711	1899.548950	78.677162
885.586914	926.926453	1943.090454	1724.714844	78.509804
885.880798	927.743835	1764.243774	1589.335083	79.090408
886.174622	922.988464	1641.421387	1488.729126	78.746483
886.468384	918.827454	1552.406738	1415.838257	78.444923
886.762085	921.056580	1493.856079	1374.228882	79.115349
887.055664	926.034851	1441.695801	1338.043457	79.899132
887.349304	924.623108	1400.086060	1306.836304	80.387589
887.642822	920.536438	1361.894531	1270.205078	79.225609
887.936340	922.468262	1329.052612	1251.109253	80.829720
888.229736	922.096741	1306.687622	1238.477783	82.264313
888.523071	928.932617	1281.127441	1231.344727	85.865005
888.816284	931.087402	1271.171021	1216.484253	83.919609
889.109619	938.666321	1263.443359	1198.205688	79.913094
889.402710	934.728271	1244.942017	1186.837524	81.269531
889.695862	931.607605	1226.069092	1175.320435	82.765602
889.988892	922.171082	1208.608032	1162.466187	83.891098
890.281921	914.146362	1213.734985	1145.747925	77.306526
>>>>>End Processed Spectral Data<<<<<
