Jaz Data File
++++++++++++++++++++++++++++++++++++
Date: Fri Jun 04 16:36:39 2021
User: jaz
Dark Spectrum Present: Yes
Reference Spectrum Present: Yes
Processed Spectrum Present: Yes
Spectrometers: JAZA3586
Integration Time (usec): 40000 (JAZA3586)
Spectra Averaged: 10 (JAZA3586)
Boxcar Smoothing: 1 (JAZA3586)
Correct for Electrical Dark: No (JAZA3586)
Strobe/Lamp Enabled: Yes (JAZA3586)
Correct for Detector Non-linearity: No (JAZA3586)
Correct for Stray Light: No (JAZA3586)
Number of Pixels in Processed Spectrum: 2048
>>>>>Begin Processed Spectral Data<<<<<
W	D	R	S	P
191.335022	0.000000	0.000000	0.000000	0.000000
191.713211	235.539627	237.917343	242.226852	281.245758
192.091385	476.280426	474.943024	482.224609	-444.457367
192.469528	722.668274	719.027527	723.931335	-34.692371
192.847641	729.504150	732.847717	737.008606	224.444611
193.225739	737.825989	749.268555	745.850769	70.130951
193.603790	744.141785	755.807312	758.705078	124.840424
193.981842	754.246887	753.429626	755.435791	-145.474228
194.359863	759.968262	752.612305	757.367676	35.353470
194.737854	758.482239	759.225281	756.698914	-240.003281
195.115829	763.088928	769.701965	752.092102	-166.290100
195.493774	763.534851	771.782410	752.537903	-133.335800
195.871704	769.627625	772.451172	749.194336	-723.674377
196.249603	763.683411	763.757629	753.355286	-13915.789063
196.627457	755.881592	764.500671	753.281006	-30.172432
197.005310	756.401672	763.386169	751.720642	-67.020294
197.383133	756.104492	766.283936	753.578186	-24.817724
197.760910	762.717468	769.256042	755.955872	-103.410873
198.138687	758.259277	768.958801	756.104492	-20.139074
198.516449	763.609070	776.314758	751.571960	-94.737953
198.894180	757.962097	772.822571	752.017822	-40.000576
199.271866	760.191101	764.797913	754.544128	-122.578766
199.649536	755.212891	757.367676	760.562683	248.274979
200.027191	756.401672	762.345886	759.373840	50.001026
200.404816	749.565857	763.014648	763.460449	103.314804
200.782410	748.302734	770.965027	759.745300	50.491653
201.159988	756.550293	771.633789	757.070374	3.448011
201.537537	759.448059	786.419983	762.048645	9.641826
201.915070	757.516296	790.209473	766.878418	28.636316
202.292557	752.389343	789.912292	769.924805	46.732632
202.670029	759.893982	793.181458	761.379944	4.464027
203.047485	755.361389	786.122803	762.940369	24.637943
203.424911	751.646301	790.432373	761.305664	24.904205
203.802292	742.507080	787.608887	758.556458	35.584778
204.179688	745.924988	791.101074	750.977722	11.184533
204.557037	746.890869	787.311707	747.411133	1.287117
204.934357	749.045715	786.122803	748.674255	-1.001858
205.311661	749.120056	783.076355	753.355286	12.472589
205.688934	746.222229	785.008301	754.915710	22.413925
206.066177	740.203613	777.949524	752.612305	32.874268
206.443390	738.494690	772.971191	745.330566	19.827641
206.820587	739.534973	766.655457	745.627747	22.465578
207.197769	743.175781	775.125977	741.466858	-5.348710
207.574921	747.485352	779.955627	738.866272	-26.544521
207.952042	749.714539	777.355042	736.340027	-48.387367
208.329147	745.702087	779.584167	735.448425	-30.262789
208.706223	752.983826	793.553040	751.349121	-4.029421
209.083267	749.342957	799.200012	750.606140	2.533611
209.460297	759.225159	798.754211	752.092102	-18.045099
209.837280	752.760803	787.460205	733.442139	-55.674343
210.214264	747.411133	791.175354	724.302917	-52.801613
210.591217	738.271912	781.293152	727.497864	-25.043554
210.968124	733.070618	783.596497	732.624817	-0.882322
211.345016	739.832214	783.150696	742.209900	5.488848
211.721893	738.346130	781.887512	743.324402	11.433426
212.098724	740.129395	780.104309	747.931152	19.516634
212.475555	743.547302	774.605896	752.389343	28.468903
212.852356	740.055115	774.828796	749.417236	26.923010
213.229126	738.866272	775.794678	754.915588	43.460625
213.605865	737.454529	767.844238	745.330566	25.916792
213.982590	742.061340	767.844238	744.959045	11.238865
214.359283	746.890930	760.042480	738.271790	-65.537071
214.735931	741.169678	767.770020	745.850647	17.597403
215.112579	745.479187	770.221985	748.971436	14.114202
215.489197	737.083008	771.782410	741.986877	14.132433
215.865799	736.637207	775.646057	733.293518	-8.571616
216.242355	728.092285	773.491272	728.240906	0.327365
216.618896	734.110840	778.915344	736.265625	4.809305
216.995407	735.968445	770.816406	738.643311	7.675817
217.371902	738.271790	773.342773	733.962219	-12.288136
217.748367	735.522644	765.392334	728.463867	-23.631905
218.124802	740.426575	775.125977	735.522644	-14.132608
218.501236	746.147949	772.005310	747.485352	5.172231
218.877609	748.079773	777.652344	747.708313	-1.256096
219.253983	741.095276	769.553284	748.599915	26.370920
219.630295	736.934387	769.107422	742.507080	17.321005
220.006592	736.934387	763.460449	741.763977	18.206961
220.382889	739.237793	764.797852	741.020996	6.976522
220.759140	737.231628	767.992920	744.438965	23.429890
221.135391	739.609314	776.389160	748.451355	24.040451
221.511581	742.729980	777.949524	745.181946	6.961945
221.887772	746.147949	781.218811	743.101563	-8.686376
222.263931	749.194275	777.280762	742.655701	-23.280142
222.640060	748.154053	779.286926	734.259460	-44.629971
223.016159	747.633972	780.921631	736.637207	-33.035561
223.392212	738.866211	789.243469	740.500977	3.245047
223.768265	736.414246	790.135071	748.154114	21.853477
224.144302	738.049011	788.574707	746.222229	16.176359
224.520294	744.884766	777.652283	734.705322	-31.065653
224.896286	750.606140	781.293030	738.197571	-40.436062
225.272217	750.531738	777.875183	734.333801	-59.238831
225.648148	752.017822	774.382996	742.878601	-40.863628
226.024048	741.987000	776.314880	739.237793	-8.008670
226.399902	738.420410	786.419983	742.655762	8.823728
226.775772	739.832214	798.828613	741.392578	2.644846
227.151581	749.194336	795.261963	739.534973	-20.967789
227.527374	748.154114	792.438477	735.076843	-29.530222
227.903137	747.411072	788.574707	727.052063	-49.458725
228.278870	742.061279	788.054688	729.727051	-26.817383
228.654572	749.417236	785.454102	736.191406	-36.700832
229.030273	740.352356	787.980408	745.033386	9.828305
229.405930	741.987000	786.048523	745.776367	8.600174
229.781555	729.652649	782.184814	745.404968	29.986046
230.157181	729.652771	788.574768	748.748535	32.408550
230.532761	730.470032	785.602600	745.553528	27.358595
230.908325	736.934387	786.345642	746.445129	19.248129
231.283859	737.305908	782.779114	733.887939	-7.516446
231.659332	739.683594	790.357971	736.637207	-6.011691
232.034821	743.547363	794.964783	730.692932	-25.000149
232.410263	747.931152	789.837891	734.036621	-33.155842
232.785690	743.695984	781.961853	730.915833	-33.398304
233.161087	739.460693	775.423157	736.488586	-8.264470
233.536469	736.562805	766.655518	737.380188	2.716215
233.911804	730.915833	767.547180	737.677429	18.458498
234.287140	736.562805	766.135437	732.030457	-15.326159
234.662430	739.832214	780.995911	730.544373	-22.563187
235.037704	753.206726	784.933899	741.392578	-37.236687
235.412933	751.349121	791.546875	742.432800	-22.181141
235.788162	750.308899	786.642883	745.627747	-12.883675
236.163345	744.438965	786.865784	737.454529	-16.462315
236.538513	742.209961	784.636780	739.386292	-6.655388
236.913635	737.008728	790.580994	743.472961	12.066381
237.288742	735.522644	793.330139	743.398743	13.624701
237.663834	736.488586	791.621155	746.742371	18.598415
238.038879	739.237793	782.779114	742.061279	6.484613
238.413910	737.974609	784.190918	749.268616	24.437275
238.788910	742.878601	789.540710	748.897156	12.898163
239.163879	738.271790	791.175354	758.928040	39.045101
239.538834	739.312073	782.110413	746.742371	17.361183
239.913757	733.665039	779.955627	743.398743	21.027391
240.288651	734.556641	781.664612	732.996338	-3.312184
240.663528	735.299744	789.615051	741.021057	10.533520
241.038361	735.002441	788.500488	740.426575	10.138937
241.413177	736.562805	784.933899	743.918884	15.207593
241.787979	730.915833	787.460266	743.547363	22.339123
242.162735	731.807556	795.187744	749.863098	28.487675
242.537476	737.677429	801.503479	751.200500	21.187386
242.912170	747.485352	795.336365	750.457520	6.211296
243.286865	745.999329	787.608887	750.531799	10.892859
243.661514	738.346191	784.785339	753.281006	32.159966
244.036148	737.677429	786.791504	749.417236	23.903143
244.410751	740.203796	798.308411	748.599915	14.450003
244.785339	742.135559	805.070007	738.791992	-5.312777
245.159882	738.271790	801.577698	742.284180	6.338098
245.534378	739.980774	800.686218	751.051941	18.237518
245.908890	746.668152	793.776062	758.630798	25.394135
246.283356	744.736267	794.073242	752.240723	15.210611
246.657791	742.581360	791.026794	743.695984	2.300782
247.032196	737.008728	799.943115	737.900330	1.416716
247.406586	736.637207	811.905823	740.278015	4.837087
247.780960	730.395813	814.506348	732.922058	3.003482
248.155289	731.733215	806.258789	736.785828	6.779703
248.529602	733.813660	798.308411	739.534973	8.870975
248.903870	740.278015	786.568604	750.383118	21.829714
249.278122	738.791992	788.946289	752.612244	27.555468
249.652344	736.340027	792.958679	754.246887	31.627140
250.026550	736.860046	800.686096	747.113831	16.065203
250.400711	735.225403	797.491028	746.742371	18.496510
250.774857	737.603210	794.147461	745.330627	13.666141
251.148987	740.278076	789.466492	743.621643	6.797468
251.523071	739.460693	794.296082	738.123352	-2.438829
251.897125	737.603027	798.531311	742.061340	7.317313
252.271164	731.733154	807.967773	738.271790	8.576989
252.645187	740.055115	813.837708	749.788757	13.192329
253.019165	733.070618	810.642761	744.810364	15.133971
253.393112	741.689758	814.506409	756.847473	20.816277
253.767044	735.894104	814.060608	748.079773	15.589375
254.140930	745.330627	812.500244	748.451355	4.646040
254.514801	735.745605	799.868835	746.370789	16.569944
254.888657	737.677429	787.088684	742.878601	10.526290
255.262466	742.284180	784.859680	744.141785	4.363084
255.636276	744.067566	790.358093	742.209900	-4.013059
256.010010	745.702148	804.921387	739.014893	-11.292371
256.383759	740.129395	811.608643	734.556702	-7.796239
256.757446	741.318176	819.038879	732.922058	-10.802937
257.131134	739.534973	811.608643	739.534973	0.000000
257.504791	738.791931	810.419739	745.479187	9.336117
257.878418	735.968445	807.001892	744.216003	11.610810
258.252014	736.860046	812.500244	746.742249	13.064749
258.625580	739.906433	824.908875	751.051941	13.111985
258.999115	740.946716	831.521729	746.965271	6.644829
259.372650	738.643311	845.564941	743.695984	4.725586
259.746124	738.271790	855.224304	732.327637	-5.082535
260.119598	736.637207	866.815613	730.172852	-4.965766
260.493042	740.426575	865.255188	733.665039	-5.416655
260.866425	737.528809	863.100403	739.906494	1.893490
261.239838	736.860107	855.298645	745.553528	7.340027
261.613159	735.076843	852.549500	742.284180	6.135331
261.986511	737.825989	845.490723	744.810486	6.487266
262.359802	738.569031	840.883972	743.621582	4.938234
262.733063	743.250061	833.007874	745.479187	2.483490
263.106293	739.832214	827.137878	741.987000	2.468093
263.479523	743.027283	830.555847	743.547363	0.594184
263.852692	730.915833	832.339050	742.729980	11.648366
264.225861	734.779602	835.162598	741.466797	6.661681
264.598969	737.305847	835.459778	746.965271	9.841097
264.972076	739.386414	831.967529	746.445129	7.624358
265.345154	737.900330	834.791016	746.147949	8.512294
265.718201	734.928223	831.224548	744.959167	10.416747
266.091217	743.250061	844.004578	748.079773	4.793544
266.464203	745.479187	848.462708	747.931213	2.380989
266.837158	748.897156	856.710388	743.101501	-5.375643
267.210114	748.302734	861.614258	739.832214	-7.475427
267.583038	750.234558	873.502747	741.912598	-6.751101
267.955902	750.160217	871.793762	743.918762	-5.131360
268.328766	748.599915	872.611145	746.593750	-1.617728
268.701569	746.965149	867.187012	748.748474	1.483362
269.074371	742.284180	875.806152	749.268616	5.230927
269.447144	740.203674	877.960938	745.776428	4.045343
269.819885	735.596924	887.323059	743.993164	5.533813
270.192596	739.757874	894.456116	748.599915	5.715670
270.565277	736.117004	908.425049	749.194336	7.589507
270.937927	743.101501	912.214539	757.144714	8.304039
271.310577	740.723816	925.143250	749.788757	4.915394
271.683136	741.838379	932.424866	748.302734	3.391823
272.055725	738.049011	938.963440	737.454590	-0.295858
272.428284	739.683594	933.093567	738.494812	-0.614643
272.800812	742.878662	935.174072	735.076843	-4.057205
273.173279	745.702148	932.722107	741.912659	-2.026249
273.545776	740.723816	938.369141	744.141785	1.729345
273.918152	734.036621	933.093567	746.147949	6.084353
274.290558	732.624817	937.774597	739.683594	3.440792
274.662964	738.197510	924.251526	736.339905	-0.998422
275.035278	743.175781	919.793396	738.866272	-2.440022
275.407593	738.940613	919.867737	736.562805	-1.314235
275.779907	742.432800	933.910950	733.739319	-4.540195
276.152161	741.689758	951.594971	733.442139	-3.929211
276.524384	744.290344	957.316223	741.987000	-1.081251
276.896606	744.513245	964.895081	742.952942	-0.708000
277.268799	755.064270	969.724792	745.182068	-4.603642
277.640930	753.652527	977.823792	744.736145	-3.977487
278.013031	750.754700	979.532776	748.079834	-1.169197
278.385162	744.141785	973.885742	748.302734	1.811125
278.757233	754.246887	974.851746	746.593750	-3.469161
279.129272	752.537903	983.990906	739.014893	-5.842659
279.501282	757.516296	996.548096	740.649597	-7.056257
279.873230	748.897156	998.702881	741.318176	-3.033949
280.245178	742.730042	997.588379	751.423401	3.411056
280.617126	735.596985	1010.219788	753.281067	6.439408
280.988983	735.819824	1028.126831	752.017883	5.541454
281.360870	743.918884	1047.891235	748.971375	1.662155
281.732697	743.993164	1054.429810	746.222168	0.718022
282.104492	744.661865	1068.918823	738.048889	-2.039425
282.476288	736.191406	1091.952759	738.791992	0.730992
282.848053	738.866211	1104.732788	733.813721	-1.380965
283.219757	736.785828	1101.983643	738.494690	0.467928
283.591461	740.129395	1097.451172	740.129395	0.000000
283.963135	741.764160	1095.667969	744.736145	0.839772
284.334747	738.049011	1104.955811	746.667969	2.349086
284.706360	740.575195	1105.550293	746.890930	1.730456
285.077942	738.494812	1118.181641	747.485352	2.367883
285.449524	743.250183	1134.453979	745.924988	0.683737
285.821014	737.603088	1153.846924	744.884766	1.749378
286.192535	740.055176	1171.382446	746.222229	1.429785
286.563995	737.751709	1191.072632	746.593750	1.950504
286.935425	747.708252	1201.772217	748.005554	0.065476
287.306824	750.160217	1196.273804	748.971497	-0.266461
287.678223	754.767029	1184.979858	753.355286	-0.328150
288.049561	752.983704	1178.441162	756.996094	0.943077
288.420898	748.376953	1175.097534	752.686523	1.009928
288.792145	749.937317	1180.521606	748.674255	-0.293337
289.163452	750.977600	1175.469116	744.364746	-1.557829
289.534668	748.897156	1186.243042	747.039551	-0.424745
289.905914	748.599915	1198.057129	749.342957	0.165320
290.277039	746.370850	1227.183716	744.438965	-0.401796
290.648193	753.578186	1252.966797	739.386414	-2.841830
291.019318	744.513367	1266.935669	740.278015	-0.810714
291.390381	742.581482	1277.635254	740.352356	-0.416617
291.761475	740.649597	1271.096558	736.042786	-0.868477
292.132507	743.175781	1268.421753	736.414246	-1.287308
292.503510	747.039551	1258.836670	746.370789	-0.130669
292.874481	744.959045	1262.923340	762.345886	3.356764
293.245422	745.999329	1268.347412	760.859863	2.844949
293.616364	745.925049	1282.019043	754.692810	1.635490
293.987213	745.850769	1299.331665	746.890930	0.187931
294.358093	746.667969	1330.167236	744.438965	-0.382006
294.728943	740.649475	1359.294067	744.513245	0.624554
295.099731	737.603027	1393.176147	740.500977	0.442048
295.470490	738.123230	1415.689819	741.021057	0.427682
295.841248	735.299744	1432.482056	743.324463	1.151022
296.211975	735.002502	1443.033203	749.788757	2.088363
296.582642	735.002502	1452.395142	745.850769	1.512180
296.953308	741.689758	1481.298950	743.918945	0.301401
297.323883	744.216064	1509.608398	741.912781	-0.300929
297.694519	744.587585	1534.796997	746.965332	0.300901
298.065063	743.918762	1546.908325	747.931152	0.499681
298.435608	741.912659	1534.871216	745.181946	0.412290
298.806122	736.637207	1508.939575	745.999268	1.212227
299.176575	735.448242	1464.803711	748.079834	1.731884
299.547028	732.699036	1429.435669	747.188171	2.079571
299.917450	733.962219	1411.751587	743.175781	1.359355
300.287872	737.974609	1410.859985	741.838379	0.574209
300.658234	741.095398	1424.160156	743.993164	0.424230
301.028564	745.330566	1431.441772	748.228455	0.422364
301.398865	751.943542	1438.797852	741.838379	-1.471224
301.769135	751.349121	1433.893921	740.352356	-1.611142
302.139374	753.503906	1430.104492	741.020996	-1.844945
302.509583	741.095276	1426.612183	740.352295	-0.108383
302.879791	748.451355	1427.206665	740.129395	-1.226062
303.249939	748.079773	1425.571899	736.265625	-1.743806
303.620087	750.754639	1424.160278	739.163513	-1.721269
303.990173	746.445129	1425.200562	736.637207	-1.444986
304.360260	740.055115	1431.664917	740.723816	0.096688
304.730286	740.426575	1433.596680	742.655701	0.321584
305.100281	738.420410	1442.587280	741.689758	0.464286
305.470276	737.677429	1446.302368	744.067444	0.901748
305.840179	737.677429	1453.286987	748.971436	1.578236
306.210144	729.578430	1460.122681	758.779358	3.997147
306.579987	730.544373	1462.054688	747.708313	2.346370
306.949890	725.194580	1475.131836	742.952942	2.367980
307.319702	736.340027	1483.973999	738.717712	0.318028
307.689484	739.906555	1496.085327	747.931213	1.061212
308.059265	742.804382	1511.985962	747.559753	0.618238
308.429016	736.860107	1536.505981	752.760925	1.988482
308.798737	738.123230	1572.691406	750.828918	1.522427
309.168396	741.541199	1601.520874	756.476013	1.736647
309.538055	742.061279	1619.799316	755.807312	1.566075
309.907684	738.420471	1642.313110	754.321289	1.759149
310.277313	726.977844	1656.505005	747.113953	2.166274
310.646851	732.624817	1675.675171	741.987000	0.992755
311.016388	738.940613	1684.219849	738.791992	-0.015722
311.385895	750.011719	1698.114380	740.426575	-1.010982
311.755371	752.612305	1700.343384	739.460693	-1.387694
312.124817	753.801086	1709.557007	740.500916	-1.391587
312.494232	752.017822	1702.721069	740.129395	-1.250488
312.863617	742.135559	1703.761353	739.312073	-0.293616
313.232971	742.581360	1689.792603	740.203796	-0.251007
313.602295	742.581360	1679.910278	742.952942	0.039643
313.971619	748.228455	1674.040161	743.547363	-0.505620
314.340820	739.163513	1688.603516	747.856873	0.915630
314.710083	743.918884	1723.823120	741.095398	-0.288139
315.079285	739.609375	1758.299683	741.392578	0.175049
315.448486	747.262512	1771.971313	735.002625	-1.196427
315.817596	750.457520	1760.380249	739.757874	-1.059452
316.186707	750.606140	1746.039673	740.352295	-1.030088
316.555786	749.268738	1725.234985	744.513245	-0.487260
316.924866	745.702148	1713.866577	746.073669	0.038374
317.293884	746.965332	1705.767578	748.154114	0.123986
317.662872	748.005554	1698.040039	747.411072	-0.062575
318.031830	745.776367	1687.489136	742.284180	-0.370834
318.400757	745.553528	1689.049438	741.987000	-0.378012
318.769684	743.844543	1701.532227	742.507080	-0.139655
319.138550	739.312073	1723.823120	747.708252	0.852827
319.507416	743.695984	1740.244141	745.627747	0.193845
319.876190	746.445129	1749.160278	744.884827	-0.155608
320.244995	753.652527	1759.042603	745.479248	-0.812946
320.613770	752.760925	1748.194336	756.253113	0.350821
320.982483	744.290344	1732.070679	759.448059	1.534523
321.351166	733.293640	1711.043091	758.779358	2.606569
321.719818	729.801331	1700.046265	748.599915	1.937509
322.088440	735.819885	1712.529297	745.404968	0.981365
322.457062	740.203674	1727.761230	747.856934	0.774968
322.825623	738.791992	1749.234741	752.389343	1.345683
323.194183	737.157288	1777.841309	753.206726	1.542201
323.562653	736.117004	1808.528320	752.389404	1.517365
323.931183	740.723816	1846.794067	747.708313	0.631470
324.299591	740.500916	1883.648438	748.005554	0.656489
324.668060	739.683533	1928.824341	751.572021	0.999754
325.036407	741.912659	1974.074707	753.578308	0.946763
325.404755	748.525635	2001.269531	749.788757	0.100828
325.773102	753.652527	2000.898071	745.033386	-0.691054
326.141388	746.519470	1995.176758	740.575195	-0.476053
326.509674	741.615479	2000.823730	743.324463	0.135719
326.877899	739.163513	2028.315796	738.049011	-0.086452
327.246124	735.671204	2037.603516	737.157288	0.114144
327.614288	737.454529	2037.380493	736.860046	-0.045732
327.982422	740.352356	2020.811157	739.609314	-0.058029
328.350525	748.376953	2018.730591	742.061279	-0.497159
328.718628	747.336731	2014.049683	736.860107	-0.827072
329.086700	747.188171	2011.969116	737.751770	-0.746090
329.454712	744.736145	2005.802124	741.466797	-0.259253
329.822693	738.866211	2008.253906	753.949707	1.188250
330.190674	734.853943	2022.594360	754.023987	1.488657
330.558563	728.686768	2036.488892	750.308899	1.653318
330.926483	729.058289	2043.547729	745.033386	1.215308
331.294312	731.658875	2063.312256	736.711487	0.379424
331.662231	734.482422	2096.525635	738.420471	0.289128
332.029999	730.618652	2139.472412	738.940613	0.590690
332.397766	726.754883	2161.020264	747.336731	1.435010
332.765503	730.395752	2184.277100	746.965149	1.139666
333.133240	741.318176	2213.626709	746.742371	0.368414
333.500916	745.107666	2258.876953	753.429504	0.549743
333.868561	740.203674	2292.239014	754.098328	0.895254
334.236176	728.389587	2314.455566	758.184875	1.878566
334.603790	727.646484	2318.616455	752.389343	1.555206
334.971344	732.773438	2322.034180	754.469788	1.365185
335.338867	737.454407	2317.724854	748.079773	0.672376
335.706360	737.974609	2309.774414	748.079834	0.642908
336.073853	737.974609	2313.043701	744.067444	0.386830
336.441284	744.067383	2312.523682	739.683594	-0.279497
336.808655	740.203674	2315.124268	732.922058	-0.462348
337.176086	734.259460	2282.951172	735.076843	0.052779
337.543396	727.869446	2229.601807	740.203674	0.821333
337.910706	731.436035	2186.729248	746.742371	1.051770
338.277954	742.432800	2197.874512	741.615417	-0.056160
338.645264	746.073669	2278.492920	745.776367	-0.019401
339.012421	750.234619	2391.358643	748.302734	-0.117717
339.379669	744.736145	2489.661133	748.079773	0.191620
339.746796	745.256287	2554.453125	741.838379	-0.188919
340.113953	739.312012	2587.369385	737.825989	-0.080410
340.481018	740.129395	2600.743896	744.216064	0.219641
340.848114	744.736145	2606.242432	748.822815	0.219536
341.215118	744.810547	2606.167969	753.281006	0.455069
341.582153	751.274902	2614.787354	748.897156	-0.127595
341.949066	742.952942	2619.765625	746.296570	0.178155
342.316010	746.593750	2626.378174	742.878601	-0.197637
342.682922	739.237793	2644.582520	747.856934	0.452366
343.049835	745.033386	2664.792969	750.531738	0.286408
343.416656	747.336731	2708.482666	756.550293	0.469805
343.783478	749.565857	2756.853760	755.955872	0.318341
344.150269	742.507080	2833.534180	754.395508	0.568545
344.516998	732.550476	2908.283203	750.457520	0.823035
344.883728	733.219238	2973.520752	748.005554	0.660015
345.250427	735.894104	3027.613037	747.188171	0.492821
345.617065	740.872375	3052.875732	743.473083	0.112487
345.983704	740.426575	3062.460693	741.541199	0.048002
346.350281	739.089172	3056.591064	746.816589	0.333437
346.716827	737.231628	3029.767822	741.020996	0.165292
347.083405	737.900330	3015.427002	741.466797	0.156594
347.449860	745.181946	2980.727783	746.593750	0.063153
347.816376	756.253113	2959.848877	755.881531	-0.016863
348.182770	748.748535	2927.081299	761.900085	0.603744
348.549194	741.169617	2915.564453	751.051941	0.454486
348.915558	731.807434	2917.793701	749.194397	0.795383
349.281921	734.631042	2930.425049	746.965332	0.561723
349.648193	741.763977	2967.725342	744.884766	0.140200
350.014526	749.863037	3003.613281	750.011719	0.006597
350.380737	750.828918	3037.495117	750.531738	-0.012996
350.746948	750.085938	3083.711670	760.562683	0.448947
351.113159	744.290344	3120.565674	760.265442	0.672275
351.479309	743.695984	3159.946045	758.482178	0.611948
351.845428	736.562805	3178.447266	745.330566	0.359057
352.211517	736.191345	3204.453369	739.757874	0.144496
352.577576	737.677429	3224.292236	737.974609	0.011951
352.943604	738.866272	3268.799561	746.222168	0.290755
353.309601	733.813660	3326.012451	756.996094	0.894315
353.675537	736.562927	3398.531982	755.435730	0.708979
354.041473	737.231628	3463.101318	756.773193	0.716893
354.407379	737.454529	3531.237061	746.965149	0.340421
354.773254	730.321472	3603.979248	754.841309	0.853262
355.139038	735.151123	3657.848633	756.253113	0.722004
355.504913	743.770264	3718.479736	760.636902	0.567001
355.870636	753.801086	3785.946533	757.293274	0.115172
356.236389	754.098328	3870.131592	760.116882	0.193148
356.602081	752.463684	3974.378174	757.367676	0.152207
356.967804	753.578308	4058.934814	754.246887	0.020227
357.333405	749.342957	4160.060547	749.268616	-0.002180
357.699036	741.987000	4258.734863	747.411072	0.154235
358.064606	733.070618	4383.563477	746.667969	0.372480
358.430176	736.042786	4463.290039	739.609314	0.095688
358.795654	740.723816	4522.880859	743.695984	0.078584
359.161163	745.256348	4527.116211	746.965271	0.045187
359.526581	740.352356	4512.032715	754.098389	0.364454
359.892029	742.432800	4532.837402	747.856934	0.143102
360.257416	734.482361	4586.186523	745.107666	0.275860
360.622772	743.844543	4737.764160	741.318298	-0.063252
360.988098	753.578186	4891.199707	734.408020	-0.463314
361.353394	760.488342	5119.605957	733.590820	-0.617041
361.718658	751.794922	5312.124512	733.219238	-0.407332
362.083893	739.163391	5485.621094	740.575195	0.029744
362.449097	739.386414	5590.685059	742.581360	0.065858
362.814209	742.952942	5620.480469	741.541199	-0.028944
363.179382	742.284180	5510.587402	741.838379	-0.009349
363.544434	747.039551	5286.118164	739.312073	-0.170243
363.909546	741.987000	4997.972168	735.596924	-0.150143
364.274536	738.791992	4783.386230	727.497864	-0.279240
364.639587	731.658875	4624.527344	729.949890	-0.043900
365.004517	733.887939	4546.212402	736.042786	0.056523
365.369507	737.305908	4485.581543	743.918884	0.176427
365.734344	736.265686	4461.358398	743.844543	0.203454
366.099274	741.318176	4434.460449	745.553467	0.114680
366.464081	740.575195	4419.600098	747.931213	0.199945
366.828918	742.358459	4397.755371	747.411072	0.138223
367.193665	733.665039	4407.711426	741.243958	0.206283
367.558411	736.637207	4422.943359	741.689758	0.137063
367.923126	737.900330	4444.565918	737.900330	0.000000
368.287781	748.599915	4440.851074	747.485352	-0.030187
368.652435	755.658691	4412.615723	750.234558	-0.148324
369.017059	760.488342	4391.365234	755.138489	-0.147343
369.381653	758.630859	4382.894531	750.085938	-0.235770
369.746185	746.147949	4386.535156	743.250183	-0.079600
370.110687	739.163513	4383.414551	744.959167	0.159036
370.475220	731.807556	4413.209961	745.330627	0.367335
370.839661	733.516541	4458.534668	747.188171	0.367022
371.204041	727.869446	4518.497070	754.618408	0.705661
371.568451	734.631042	4561.741211	749.640137	0.392178
371.932770	738.197571	4607.065918	749.640137	0.295760
372.297150	742.284180	4659.077637	740.649475	-0.041736
372.661377	743.398743	4691.102051	749.565918	0.156222
373.025696	743.250061	4709.900879	750.234558	0.176080
373.389862	744.959045	4690.136230	751.794922	0.173272
373.754059	739.163513	4678.767578	751.349121	0.309310
374.118225	739.980774	4703.139160	748.154114	0.206233
374.482361	740.575195	4757.157715	751.126221	0.262687
374.846436	745.033386	4821.801270	747.931213	0.071081
375.210510	743.473083	4884.512207	753.503906	0.242230
375.574524	745.107727	4970.480469	750.457520	0.126611
375.938538	750.531799	5075.915527	750.754700	0.005153
376.302460	749.714539	5184.472168	748.451355	-0.028484
376.666412	751.200500	5314.947754	750.606140	-0.013024
377.030304	743.695862	5425.732910	749.194336	0.117438
377.394196	748.599915	5540.011230	745.404968	-0.066681
377.757996	745.107727	5642.771484	750.085999	0.101646
378.121796	740.649475	5706.671875	750.680359	0.201990
378.485565	731.510254	5727.922363	753.355286	0.437214
378.849304	734.556641	5657.706543	754.024109	0.395427
379.212982	743.175781	5563.787598	754.989990	0.245077
379.576630	745.553528	5426.253418	761.602844	0.342883
379.940277	744.067444	5342.811523	758.779480	0.319914
380.303864	741.764099	5279.654297	750.977600	0.203035
380.667450	746.668030	5273.710449	745.553528	-0.024619
381.030945	746.816650	5266.131348	740.723816	-0.134818
381.394501	747.411072	5289.090332	745.850769	-0.034355
381.757935	747.113831	5320.224121	751.126221	0.087739
382.121399	744.216064	5333.449707	750.011719	0.126288
382.484741	742.729980	5372.161621	752.315125	0.207048
382.848145	742.729980	5398.167480	751.497742	0.188334
383.211487	744.959045	5457.014160	756.996094	0.255452
383.574768	746.519470	5529.311035	758.407898	0.248567
383.938019	739.163391	5603.242188	754.023987	0.305517
384.301270	742.878601	5682.597656	745.924988	0.061671
384.664459	738.791931	5748.207031	751.794922	0.259571
385.027649	745.404968	5810.918457	753.429504	0.158415
385.390778	745.033386	5882.025879	760.711243	0.305195
385.753876	750.085938	5914.720215	757.516296	0.143870
386.116943	743.027161	5948.750000	762.494446	0.373959
386.479980	734.779602	5948.973145	762.197266	0.525828
386.842987	735.225403	5978.619629	761.305664	0.497393
387.205994	734.259521	6024.241699	764.797913	0.577287
387.568909	737.157288	6076.328125	765.095154	0.523262
387.931793	732.030457	6115.560059	770.221985	0.709414
388.294678	738.123230	6134.135254	760.785583	0.419983
388.657471	739.312012	6167.200684	758.407898	0.351811
389.020294	738.197510	6164.599609	767.472839	0.539498
389.383057	737.008728	6170.246094	776.166199	0.720702
389.745819	735.968445	6169.800781	784.562439	0.894286
390.108521	744.364563	6207.397949	776.166260	0.582125
390.471191	751.869202	6265.205566	770.147705	0.331533
390.833801	746.816589	6350.950684	766.878357	0.357982
391.196442	739.683594	6489.970703	771.633728	0.555627
391.558960	732.773438	6626.167969	787.831726	0.934237
391.921509	737.157288	6785.101563	804.252686	1.109392
392.284027	734.333801	6929.843262	802.097900	1.093762
392.646484	734.185242	7031.192871	801.577820	1.070232
393.008911	738.866272	7057.421387	800.611816	0.977210
393.371307	743.101563	7022.796387	810.865540	1.079097
393.733673	739.386414	6967.886719	823.422791	1.349223
394.096008	733.739441	6933.261719	826.469055	1.495754
394.458344	727.497864	6947.082031	834.716797	1.723892
394.820587	728.686768	6966.994629	834.345215	1.693704
395.182831	733.070618	7002.585938	839.323547	1.694755
395.545013	735.968445	6979.997559	845.044861	1.746891
395.907196	733.665039	6956.369629	854.852844	1.947510
396.269287	734.705261	6865.571777	870.530701	2.215436
396.631409	738.494812	6766.229004	880.264343	2.351954
396.993469	745.181946	6663.170410	885.168274	2.365438
397.355530	750.383240	6594.068848	892.970154	2.440017
397.717499	754.246887	6566.354004	899.062927	2.491627
398.079468	753.206726	6550.676270	926.183411	2.983658
398.441376	744.216064	6563.457031	942.232849	3.402794
398.803284	742.061279	6582.403809	967.792969	3.865042
399.165131	743.695984	6620.892578	974.554504	3.928038
399.526978	751.423523	6630.626465	985.625549	3.983567
399.888763	744.810486	6648.013184	991.421204	4.177575
400.250519	740.203796	6659.976074	1001.377747	4.411892
400.612244	741.095398	6690.439941	1023.148438	4.740909
400.973938	740.129395	6696.532715	1049.005737	5.185618
401.335602	741.243958	6710.427246	1072.336792	5.546702
401.697205	733.813660	6731.380371	1082.962036	5.821500
402.058807	736.562805	6789.411621	1094.702026	5.916871
402.420349	736.488586	6863.045410	1105.773071	6.027603
402.781860	734.779602	6960.456543	1133.859497	6.410225
403.143341	735.448303	7083.427246	1152.732422	6.573495
403.504822	739.312012	7209.519043	1177.400879	6.770863
403.866241	741.169617	7342.298340	1195.084839	6.876327
404.227631	742.507080	7445.652832	1216.632690	7.073181
404.588959	739.757874	7596.710449	1238.477783	7.273201
404.950287	743.472961	7703.111816	1253.115356	7.322828
405.311554	743.695862	7789.451660	1283.951050	7.667810
405.672821	748.748535	7819.173340	1304.309814	7.857537
406.034027	740.872375	7827.568848	1321.399536	8.191789
406.395203	737.603088	7790.193848	1316.495605	8.208225
406.756348	734.482422	7732.981934	1326.080688	8.453216
407.117493	740.426575	7686.914063	1338.563599	8.610641
407.478516	739.312073	7686.096191	1358.328003	8.910827
407.839600	737.305969	7681.414551	1363.900757	9.023401
408.200592	734.779602	7698.950684	1370.290649	9.125438
408.561554	736.488586	7680.300781	1387.528931	9.375834
408.922485	734.036621	7709.130371	1396.668335	9.499969
409.283417	739.460693	7716.932129	1410.562866	9.618128
409.644257	741.615479	7771.247559	1420.445190	9.656690
410.005096	742.804382	7851.345703	1448.531616	9.927876
410.365906	745.107605	7951.134277	1468.593262	10.040008
410.726715	745.924988	8075.813965	1481.819214	10.039637
411.087433	746.519470	8144.915527	1500.840698	10.195740
411.448120	745.850769	8207.107422	1519.342163	10.366771
411.808807	742.804382	8205.992188	1540.592773	10.689646
412.169434	738.940613	8191.429199	1544.233521	10.805691
412.530029	731.510315	8162.450684	1546.091187	10.962016
412.890564	737.528809	8168.320801	1539.552368	10.793244
413.251099	742.135559	8162.599609	1547.279785	10.850322
413.611572	741.243958	8187.045410	1566.895630	11.088822
413.972076	734.779602	8210.895508	1583.688110	11.354940
414.332489	726.383362	8253.694336	1584.951538	11.406041
414.692871	728.389465	8376.889648	1589.260864	11.255428
415.053223	729.727051	8476.973633	1604.270142	11.288438
415.413574	739.609314	8672.019531	1635.254272	11.290956
415.773834	736.711487	8780.500977	1658.065063	11.454223
416.134094	736.860046	8896.041992	1681.544922	11.578181
416.494263	733.516418	8988.623047	1694.919556	11.646163
416.854462	739.609314	9211.680664	1720.628296	11.579447
417.214630	738.197571	9463.194336	1749.160522	11.586972
417.574738	742.878601	9721.098633	1785.345703	11.611066
417.934784	733.144958	9935.610352	1824.057495	11.854568
418.294861	731.881836	10204.141602	1854.373047	11.850300
418.654846	724.377258	10542.738281	1896.799805	11.941123
419.014832	730.024231	10909.347656	1936.997559	11.857108
419.374756	740.203796	11321.801758	1984.402710	11.758139
419.734680	747.188171	11739.606445	2029.132813	11.662080
420.094543	749.714417	12160.531250	2072.674316	11.593911
420.454376	739.683594	12534.721680	2112.723389	11.640825
420.814148	741.838379	12902.816406	2149.874756	11.578315
421.173920	744.513367	13312.893555	2192.673584	11.522250
421.533691	752.389404	13732.554688	2251.149658	11.546542
421.893341	745.033386	14036.601563	2291.050049	11.631558
422.253021	744.959167	14235.583008	2316.164307	11.646645
422.612640	738.197571	14278.604492	2309.402588	11.603825
422.972260	749.863098	14267.012695	2297.960205	11.452838
423.331757	745.553528	14205.640625	2293.873779	11.503048
423.691315	751.794922	14206.457031	2309.551514	11.577820
424.050781	743.472961	14324.895508	2344.473633	11.788166
424.410248	748.079773	14437.612305	2354.801758	11.736865
424.769653	740.352295	14579.604492	2362.157715	11.718881
425.128998	743.250183	14627.604492	2356.064697	11.616056
425.488373	742.135559	14577.450195	2352.721436	11.641123
425.847656	745.479248	14418.961914	2336.300537	11.634354
426.206940	741.838379	14250.963867	2314.826904	11.643896
426.566193	742.061340	13982.210938	2284.734131	11.651476
426.925385	737.157288	13730.101563	2267.570313	11.778801
427.284576	738.643372	13347.071289	2235.843262	11.874597
427.643677	731.064453	13067.024414	2215.484375	12.033275
428.002777	733.293640	12783.708008	2183.236816	12.032310
428.361847	726.160461	12500.020508	2162.729248	12.201341
428.720856	726.234802	12225.323242	2133.602783	12.238952
429.079865	730.321472	12042.464844	2111.088867	12.206062
429.438812	738.197510	11917.635742	2094.667969	12.133619
429.797760	746.445129	11831.890625	2091.696045	12.135290
430.156616	746.593750	11670.282227	2083.968506	12.242887
430.515503	742.135559	11611.657227	2079.213135	12.301164
430.874268	732.179016	11582.902344	2080.996338	12.430668
431.233093	726.754944	11613.515625	2084.042725	12.467325
431.591827	732.253235	11633.057617	2091.993164	12.473758
431.950562	734.928162	11654.233398	2100.092041	12.502295
432.309204	740.203674	11713.526367	2109.677002	12.480025
432.667877	735.002502	11802.465820	2123.125977	12.542382
433.026459	739.386414	11929.078125	2137.466553	12.494358
433.385010	738.569092	12045.511719	2159.608643	12.567850
433.743561	742.730042	12187.875000	2174.320557	12.508279
434.102051	742.581360	12341.012695	2192.598877	12.501842
434.460510	746.445129	12475.426758	2207.533936	12.457082
434.818939	747.782532	12569.940430	2218.679443	12.441865
435.177338	747.633972	12607.760742	2226.555420	12.469693
435.535675	739.460693	12566.372070	2221.428467	12.530472
435.894012	737.825989	12502.026367	2210.134277	12.515159
436.252289	732.550598	12510.942383	2210.951660	12.551808
436.610535	736.711487	12547.500000	2216.375732	12.528074
436.968719	738.866272	12677.233398	2244.982422	12.615764
437.326935	744.290344	12776.278320	2254.864502	12.554651
437.685028	751.274841	12863.510742	2273.143066	12.564716
438.043152	750.606140	12939.819336	2289.415527	12.624353
438.401215	750.680359	13101.426758	2316.090088	12.674616
438.759277	739.386414	13290.082031	2332.213867	12.691149
439.117249	733.888000	13598.585938	2359.334229	12.634935
439.475250	734.185242	13826.324219	2374.937744	12.532349
439.833130	739.460693	14160.686523	2420.336914	12.524014
440.191071	743.398743	14380.770508	2447.977295	12.499319
440.548889	745.479187	14677.165039	2485.128662	12.486999
440.906708	742.432800	14980.989258	2513.140869	12.436007
441.264496	739.163391	15222.547852	2542.193115	12.448954
441.622223	733.516418	15361.641602	2551.406982	12.427366
441.979950	742.507080	15395.671875	2553.338867	12.357957
442.337616	743.473083	15401.245117	2548.434814	12.314024
442.695251	743.621643	15311.117188	2546.800049	12.378096
443.052887	735.596985	15150.770508	2531.939697	12.461472
443.410461	741.095398	14990.574219	2516.335938	12.458283
443.768005	751.051941	14860.840820	2504.521973	12.427329
444.125458	755.732971	14802.290039	2496.125732	12.390174
444.482941	754.469788	14827.627930	2508.311279	12.462317
444.840393	752.537903	14940.418945	2531.716553	12.540130
445.197754	752.240723	15152.925781	2562.106445	12.567914
445.555084	754.098328	15372.415039	2600.818359	12.632918
445.912415	748.228333	15694.739258	2636.855225	12.635905
446.269714	742.209778	15931.543945	2672.297607	12.706863
446.626953	738.940491	16232.172852	2688.792725	12.585187
446.984161	737.008728	16502.931641	2721.188721	12.585244
447.341309	741.689758	16707.041016	2750.240967	12.580689
447.698456	738.866211	16860.998047	2776.841064	12.640852
448.055542	743.547302	16929.802734	2781.819580	12.592611
448.412598	740.352295	16941.320313	2769.856689	12.527057
448.769653	737.231628	16859.212891	2765.770264	12.582439
449.126617	735.894226	16616.689453	2742.216553	12.633638
449.483582	740.798096	16429.296875	2734.785889	12.709869
449.840515	749.714539	16132.754883	2692.582031	12.629931
450.197388	744.959045	15956.805664	2678.687256	12.711989
450.554230	742.209900	15803.296875	2655.133301	12.701097
450.911041	743.027161	15656.698242	2649.486572	12.783301
451.267822	745.479187	15513.442383	2635.220459	12.796222
451.624573	742.432800	15307.995117	2630.910889	12.965363
451.981262	735.522644	15257.765625	2617.462158	12.959014
452.337921	735.745605	15135.092773	2597.697510	12.930807
452.694580	737.677429	15088.132813	2589.226807	12.902373
453.051147	738.420471	15072.528320	2595.245361	12.953893
453.407715	746.519470	15016.282227	2597.400146	12.970648
453.764221	750.383240	15044.963867	2587.443604	12.851445
454.120728	747.188171	14840.706055	2560.100342	12.863446
454.477142	737.677429	14827.034180	2560.174561	12.935275
454.833557	730.172852	14671.590820	2546.874512	13.030968
455.189911	733.144958	14559.097656	2542.044922	13.083364
455.546265	735.374023	14404.918945	2505.339111	12.948237
455.902557	744.587585	14306.468750	2513.883789	13.046097
456.258820	746.370850	14305.206055	2521.091064	13.089032
456.615051	743.547363	14329.875000	2543.976563	13.251772
456.971252	746.296570	14315.682617	2537.512207	13.200418
457.327393	754.321228	14451.433594	2549.326416	13.104989
457.683502	754.098328	14642.688477	2582.242432	13.162921
458.039612	747.782532	15001.273438	2631.430664	13.215346
458.395630	731.881775	15363.574219	2680.247803	13.316067
458.751648	733.219238	15740.363281	2729.361572	13.301280
459.107605	722.148132	16300.902344	2791.552979	13.283506
459.463562	733.665039	16863.076172	2866.673096	13.224339
459.819458	735.076843	17419.900391	2931.465088	13.163987
460.175323	748.079834	17910.373047	2982.585693	13.019856
460.531158	748.451355	18392.896484	3026.647217	12.911689
460.886932	750.308899	18704.298828	3046.040039	12.786746
461.242676	748.005554	18850.826172	3052.132813	12.728002
461.598419	740.798157	18737.363281	3038.832764	12.769297
461.954102	740.426575	18405.972656	3014.312500	12.871869
462.309723	732.773438	17883.251953	2973.297607	13.063916
462.665344	736.785828	17298.416016	2918.982178	13.176216
463.020905	735.819885	16856.462891	2863.329346	13.197424
463.376373	738.866211	16488.517578	2818.079346	13.201646
463.731873	742.655701	16198.364258	2791.404541	13.255611
464.087341	742.804260	15902.343750	2774.612061	13.402834
464.442749	740.723816	15723.645508	2774.315186	13.572728
464.798126	733.145020	15612.710938	2751.578125	13.565134
465.153503	723.039734	15672.079102	2761.683594	13.637290
465.508820	725.491699	15746.159180	2765.398438	13.580666
465.864105	729.652649	15899.666992	2799.057861	13.641419
466.219330	740.946777	16158.315430	2836.283447	13.590754
466.574524	746.668030	16318.289063	2869.497070	13.632679
466.929657	745.181946	16498.697266	2905.087891	13.710629
467.284790	747.708313	16673.457031	2942.090576	13.778832
467.639893	740.798096	16854.904297	2973.818115	13.857548
467.994934	745.925049	17052.177734	3004.504883	13.851005
468.349945	746.222229	17109.017578	2994.994141	13.743202
468.704926	755.435730	17123.953125	2987.192139	13.634444
469.059875	754.469788	16919.472656	2963.935547	13.668205
469.414764	754.618408	16711.572266	2960.814697	13.825924
469.769653	746.073669	16525.667969	2938.672607	13.895153
470.124451	742.878601	16436.654297	2931.019531	13.942731
470.479248	737.008728	16291.762695	2896.617188	13.883912
470.834015	737.454529	16200.073242	2882.053955	13.869574
471.188721	736.265686	16254.315430	2876.035400	13.788909
471.543365	739.832214	16366.511719	2898.772217	13.815730
471.898010	744.958984	16484.207031	2924.183594	13.845798
472.252625	743.695862	16599.525391	2943.873779	13.876146
472.607178	740.649475	16781.642578	2967.279297	13.880873
472.961700	740.129395	16967.546875	2996.108643	13.902268
473.316193	742.729980	17201.525391	3026.572998	13.876125
473.670654	741.243958	17364.025391	3054.510498	13.916243
474.025055	741.689758	17601.869141	3082.968506	13.886440
474.379456	734.110901	17758.720703	3107.191162	13.939117
474.733795	737.528809	17916.689453	3125.246826	13.898922
475.088104	734.408020	17997.009766	3134.311523	13.902328
475.442383	740.129395	17994.410156	3136.614990	13.889223
475.796570	739.386414	18069.457031	3144.119385	13.876071
476.150787	732.253357	18231.064453	3171.908936	13.941836
476.504944	736.860046	18463.111328	3217.233398	13.992655
476.859070	732.624817	18730.824219	3256.317139	14.021916
477.213135	735.522644	18979.439453	3278.458984	13.938544
477.567200	735.225403	19377.925781	3307.139648	13.795824
477.921173	737.231628	19731.236328	3356.848389	13.791809
478.275146	737.974670	20168.804688	3412.501221	13.764345
478.629089	734.110840	20408.357422	3460.723633	13.858791
478.983002	731.435974	20747.623047	3498.246338	13.822864
479.336823	733.367859	21052.636719	3546.692139	13.845597
479.690643	729.875671	21458.181641	3591.867920	13.807168
480.044403	740.426575	21909.939453	3650.121094	13.744740
480.398163	743.027161	22481.251953	3752.733154	13.845224
480.751862	749.565857	23274.806641	3873.029297	13.866504
481.105499	741.912659	24180.111328	4016.656494	13.971824
481.459137	744.959045	25395.851563	4176.035645	13.918671
481.812744	749.417236	26820.310547	4380.294434	13.926939
482.166290	747.411133	28685.900391	4651.350098	13.973336
482.519806	752.612244	30924.195313	4967.656738	13.970245
482.873291	747.411133	33616.035156	5353.213379	14.012762
483.226715	751.200500	36722.406250	5773.767090	13.962741
483.580139	750.754700	39923.441406	6191.720215	13.889691
483.933502	752.760925	43227.312500	6589.388184	13.741469
484.286804	753.875427	46222.824219	6941.211426	13.607827
484.640106	742.655762	48794.890625	7198.447754	13.434946
484.993347	744.290344	50480.894531	7335.685059	13.252603
485.346558	742.581482	51138.402344	7316.886719	13.045339
485.699738	749.640137	50650.531250	7206.695313	12.939759
486.052887	746.890930	49382.406250	7002.808594	12.862859
486.405975	743.770264	47642.531250	6759.838379	12.827777
486.759064	738.643311	45787.792969	6548.521484	12.896754
487.112061	739.014832	44143.250000	6403.111328	13.049641
487.464996	740.278015	43063.554688	6346.269531	13.245646
487.817963	741.392517	42825.488281	6342.554688	13.309450
488.170868	739.237793	42852.093750	6327.991699	13.270898
488.523743	740.278015	43090.972656	6332.226563	13.203913
488.876587	739.906494	43047.804688	6274.195801	13.080983
489.229401	751.200500	42877.351563	6219.583496	12.980969
489.582153	759.373840	42151.562500	6111.398438	12.930036
489.934845	769.033203	41183.917969	5998.161621	12.938621
490.287537	761.082764	40084.535156	5888.564941	13.039248
490.640198	753.801086	39258.359375	5825.853027	13.172601
490.992798	743.175781	38567.050781	5781.717285	13.321061
491.345337	740.054993	38347.636719	5812.330078	13.487373
491.697876	741.392517	38374.753906	5843.760254	13.558097
492.050354	752.538025	38806.082031	5938.718750	13.628641
492.402832	751.497742	39110.500000	5924.453125	13.485636
492.755219	754.172668	39170.910156	5886.335938	13.359185
493.107605	743.918884	38723.605469	5760.764160	13.209285
493.459930	743.101563	37759.972656	5617.731934	13.168673
493.812225	734.853943	36300.148438	5410.501465	13.146658
494.164490	732.624817	34562.800781	5183.878418	13.157642
494.516724	729.355530	32733.474609	4969.886230	13.249953
494.868896	730.841614	30991.369141	4785.912598	13.400530
495.221039	729.504150	29509.326172	4666.879395	13.681027
495.573120	732.104675	28338.093750	4557.505859	13.857142
495.925201	741.763977	27691.658203	4509.877441	13.981923
496.277222	750.680359	27313.162109	4468.491211	13.996473
496.629211	751.274719	27220.654297	4481.939941	14.094268
496.981140	741.020996	27203.193359	4473.841309	14.106251
497.333069	736.934387	27302.312500	4475.475586	14.072983
497.684967	736.117004	27419.859375	4467.822754	13.984941
498.036804	734.408142	27471.427734	4491.599609	14.052394
498.388580	732.030457	27467.193359	4491.302734	14.061153
498.740326	732.179016	27381.966797	4482.460449	14.072463
499.092072	735.299805	27170.126953	4433.792480	13.990984
499.443756	738.494690	26879.828125	4390.324707	13.969563
499.795410	735.002502	26584.326172	4347.675293	13.975889
500.147003	741.095398	26270.546875	4329.471191	14.055828
500.498566	743.250061	25920.357422	4302.722168	14.137733
500.850098	743.324463	25533.015625	4269.731934	14.225298
501.201599	738.866272	25271.025391	4224.778809	14.209563
501.553009	737.974670	25034.521484	4189.113770	14.204237
501.904449	748.451355	24858.349609	4175.664551	14.214963
502.255859	751.274841	24631.203125	4166.896484	14.303316
502.607178	756.104492	24495.750000	4162.512695	14.349028
502.958405	758.110657	24402.500000	4149.807129	14.344615
503.309692	761.082764	24365.498047	4141.410645	14.320744
503.660919	750.754700	24377.458984	4145.497559	14.368245
504.012115	755.658630	24415.501953	4160.952637	14.392715
504.363251	748.971497	24505.484375	4166.524902	14.385754
504.714294	756.550354	24580.156250	4173.435547	14.342436
505.065369	745.330566	24602.892578	4169.497070	14.352541
505.416443	751.794922	24611.289063	4188.443848	14.403696
505.767395	745.702087	24628.156250	4182.871582	14.392027
506.118317	748.971375	24640.937500	4188.072754	14.394383
506.469238	748.154114	24633.728516	4182.277344	14.377395
506.820160	753.206726	24595.687500	4192.902344	14.426752
507.170929	748.971436	24569.607422	4216.307129	14.556016
507.521729	746.668030	24633.359375	4238.004395	14.616241
507.872498	744.290344	24757.666016	4264.158691	14.657949
508.223236	747.633972	24976.562500	4281.546387	14.585508
508.573883	745.999329	25163.431641	4297.075195	14.543200
508.924500	746.816650	25350.380859	4316.393555	14.508373
509.275116	742.730042	25483.751953	4348.715332	14.574925
509.625702	743.473083	25691.501953	4382.894531	14.588012
509.976196	742.581360	25916.865234	4421.680176	14.614513
510.326660	750.457520	26171.648438	4441.965332	14.521380
510.677124	750.011658	26404.291016	4463.364258	14.474593
511.027557	751.349121	26593.611328	4481.122559	14.432844
511.377869	744.959167	26834.873047	4498.880859	14.388402
511.728180	742.952881	26944.916016	4519.611328	14.413647
512.078430	742.432800	27015.353516	4531.574707	14.422234
512.428650	741.021057	27075.466797	4540.416504	14.427475
512.778931	746.593750	27229.939453	4553.567871	14.374974
513.129028	751.646301	27367.773438	4575.264160	14.365794
513.479126	750.234558	27436.281250	4594.731934	14.406395
513.829285	752.017883	27365.693359	4594.731934	14.438870
514.179382	750.903320	27327.796875	4586.930176	14.433691
514.529297	755.435791	27212.927734	4571.995605	14.425252
514.879272	755.807312	27233.507813	4591.165527	14.485238
515.229187	752.760925	27111.205078	4590.422363	14.559514
515.579163	751.943542	27142.412109	4613.604980	14.632788
515.928955	745.999329	27128.890625	4602.979004	14.619246
516.278748	747.336731	27310.486328	4637.455566	14.644794
516.628540	753.652527	27538.521484	4665.394043	14.604296
516.978333	747.559753	27943.916016	4727.139160	14.632767
517.327942	737.528809	28426.734375	4786.953125	14.624559
517.677612	729.355530	28956.216797	4867.497070	14.660296
518.027222	736.934387	29498.703125	4950.938965	14.651408
518.376831	741.689758	30155.314453	5032.597168	14.588161
518.726379	740.946777	30792.087891	5112.473145	14.546957
519.075867	740.055115	31322.015625	5147.098145	14.410597
519.425293	739.460693	31706.828125	5191.680176	14.377133
519.774658	736.340027	31915.173828	5206.837402	14.338244
520.124084	732.847717	31988.140625	5233.437988	14.399450
520.473389	731.807556	31842.580078	5182.614746	14.306321
520.822693	732.699036	31606.966797	5135.432129	14.260202
521.171997	728.909668	31205.507813	5075.692871	14.262691
521.521240	729.206970	30837.634766	5049.538574	14.349243
521.870361	729.875671	30460.103516	5031.929199	14.470302
522.219482	736.117126	30195.365234	5014.096191	14.521685
522.568604	739.014893	29914.203125	4986.604004	14.558908
522.917664	741.169678	29728.814453	4952.276367	14.527246
523.266724	736.785828	29683.787109	4957.403320	14.580501
523.615662	735.522644	29904.990234	5002.431152	14.627996
523.964600	733.590759	30266.843750	5050.802246	14.618136
524.313538	738.123230	30751.521484	5113.290527	14.577381
524.662354	742.061279	31337.023438	5201.116211	14.574473
525.011169	750.903320	32096.099609	5327.728027	14.601359
525.359985	749.565857	33036.402344	5468.829590	14.616680
525.708740	748.525635	34138.757813	5618.177246	14.584061
526.057434	744.290344	35312.222656	5776.516113	14.557496
526.406067	745.776428	36668.542969	5960.118652	14.515426
526.754700	747.262451	38133.343750	6165.490723	14.492636
527.103333	749.863098	39856.425781	6425.699707	14.513770
527.451782	748.897156	41732.199219	6709.015625	14.542798
527.800293	746.445129	43754.199219	7025.024902	14.598716
528.148743	738.494812	45878.511719	7345.715332	14.637170
528.497131	737.008728	48008.769531	7651.174316	14.626418
528.845642	734.482422	49876.667969	7914.800293	14.611311
529.193909	733.442139	51426.328125	8102.117188	14.535914
529.542175	731.138733	52492.125000	8235.490234	14.498085
529.890503	735.002502	53056.824219	8239.725586	14.343390
530.238770	737.751709	53022.125000	8140.160156	14.157974
530.586914	742.878601	52352.582031	7934.490234	13.934612
530.934998	742.655701	51098.203125	7691.224121	13.799013
531.283142	745.850769	49424.753906	7432.278809	13.735783
531.631226	750.903320	47472.230469	7171.996094	13.743386
531.979248	752.315125	45533.222656	6939.502441	13.816575
532.327148	748.897156	43753.156250	6775.070801	14.012970
532.675110	746.147888	42465.566406	6664.954590	14.187175
533.023071	743.993164	41707.675781	6636.125000	14.383794
533.370850	749.194336	41515.976563	6612.050781	14.381455
533.718689	749.045715	41697.050781	6633.746582	14.371154
534.066467	748.599854	42005.558594	6652.544922	14.310182
534.414246	738.123230	42160.402344	6648.458984	14.268496
534.761963	734.631042	42095.386719	6610.936035	14.207442
535.109619	730.544250	41884.519531	6547.556152	14.134750
535.457153	736.711487	41444.199219	6479.197266	14.106707
535.804749	740.798096	40746.574219	6376.585449	14.087433
536.152344	745.999329	39872.621094	6266.468750	14.109241
536.499817	752.240723	38945.324219	6146.544434	14.123772
536.847229	749.045715	38052.949219	6032.786621	14.164042
537.194641	751.126221	37227.964844	5938.644531	14.221403
537.542114	743.175781	36635.699219	5881.728516	14.316499
537.889404	744.364563	36145.597656	5832.392090	14.372458
538.236694	745.107666	35775.718750	5776.739746	14.363529
538.583984	743.175781	35403.910156	5712.541504	14.337162
538.931213	738.420410	35171.488281	5685.272949	14.366575
539.278381	728.909668	35029.644531	5676.653809	14.424602
539.625488	736.117004	34997.847656	5718.337402	14.541648
539.972595	733.144958	35217.332031	5776.591309	14.625388
540.319641	736.117126	35712.191406	5890.050781	14.735598
540.666687	725.863281	36517.855469	6038.656250	14.843524
541.013611	723.708496	37643.468750	6222.927246	14.895055
541.360596	727.943787	38894.800781	6384.684082	14.821080
541.707458	737.231628	40264.792969	6539.233887	14.678371
542.054260	748.154114	41480.906250	6670.675293	14.539948
542.401062	750.308899	42504.949219	6804.271484	14.498898
542.747864	746.445129	43183.105469	6834.587402	14.346421
543.094666	741.912659	43355.714844	6808.729980	14.236743
543.441284	739.906494	43020.382813	6685.609863	14.062527
543.787903	741.466858	42166.347656	6556.100098	14.036572
544.134460	740.649597	41021.714844	6375.173340	13.988021
544.481079	733.887939	39622.746094	6198.481934	14.051824
544.827637	737.528809	38111.500000	6005.666016	14.095737
545.174072	743.993164	36509.683594	5836.106934	14.237426
545.520508	747.485352	35197.941406	5681.482910	14.322009
545.866943	742.581360	34112.156250	5562.599121	14.444348
546.213318	736.265686	33302.996094	5477.968262	14.559959
546.559631	742.432800	32594.373047	5399.801270	14.621931
546.905823	740.649597	32044.310547	5329.734375	14.659899
547.252136	739.534973	31647.533203	5259.369629	14.623511
547.598389	734.556702	31243.103516	5197.550293	14.628667
547.944458	734.928223	30881.029297	5152.596680	14.654195
548.290588	741.615479	30374.880859	5098.578613	14.702946
548.636658	742.135559	29871.921875	5032.300781	14.727759
548.982727	743.473083	29264.945313	4937.489746	14.704769
549.328735	743.027161	28624.529297	4852.636230	14.739553
549.674622	743.027161	27912.187500	4752.253418	14.756534
550.020569	742.209900	27229.271484	4679.585449	14.865278
550.366455	735.374023	26553.859375	4593.468750	14.943150
550.712280	735.448303	25952.529297	4533.432129	15.061156
551.058044	735.968445	25412.271484	4465.816895	15.115102
551.403748	741.541199	24990.828125	4412.169922	15.137058
551.749512	741.243958	24679.945313	4382.003418	15.208676
552.095154	739.312073	24484.677734	4357.334473	15.236753
552.440735	741.838379	24401.978516	4366.622559	15.320214
552.786316	743.621643	24386.226563	4376.207520	15.364575
553.131897	745.404968	24440.171875	4407.562988	15.455556
553.477417	740.352295	24520.865234	4411.129395	15.436071
553.822815	735.448303	24538.177734	4407.488770	15.426973
554.168213	736.340027	24492.330078	4400.281738	15.423233
554.513672	735.819824	24382.437500	4374.721191	15.388677
554.859009	736.339905	24221.943359	4343.886230	15.360671
555.204285	737.008728	24037.896484	4306.957031	15.321082
555.549500	733.070618	23823.976563	4274.784180	15.338132
555.894714	730.024231	23643.796875	4250.784668	15.365258
556.239990	728.166687	23375.041016	4213.930664	15.391809
556.585022	737.380127	23112.009766	4182.128906	15.395781
556.930115	743.027161	22851.578125	4155.157227	15.433532
557.275146	746.073669	22631.865234	4131.974609	15.470772
557.620178	748.005554	22488.240234	4119.714844	15.509075
557.965149	746.593750	22302.037109	4095.640625	15.536897
558.310059	750.977539	22168.365234	4064.359131	15.470522
558.654968	747.856873	22001.406250	4043.925781	15.508323
558.999756	750.383118	21886.833984	4037.015381	15.549594
559.344604	748.971375	21783.179688	4048.086670	15.684523
559.689331	749.714417	21713.853516	4045.114258	15.719224
560.033997	747.485413	21652.628906	4038.650146	15.743326
560.378723	743.770264	21649.880859	4040.879150	15.771029
560.723389	738.569092	21659.986328	4036.272705	15.762333
561.067932	736.934387	21702.488281	4029.436523	15.704341
561.412476	730.395752	21668.158203	4017.919678	15.701410
561.757019	730.172852	21655.007813	4021.412109	15.728866
562.101501	733.516418	21692.679688	4025.498291	15.706647
562.445862	740.649475	21724.332031	4026.910156	15.661031
562.790222	740.872375	21686.808594	4023.938232	15.674000
563.134644	730.098572	21623.875000	4022.229248	15.756513
563.478943	730.544434	21633.164063	4015.022217	15.713236
563.823181	726.011902	21657.236328	4001.870361	15.650581
564.167358	737.751770	21685.470703	4013.015625	15.635421
564.511536	736.562805	21707.986328	4019.554443	15.654596
564.855774	745.330566	21744.617188	4036.644287	15.673454
565.199768	742.284180	21838.906250	4047.046631	15.664890
565.543823	741.541199	21986.697266	4082.637451	15.726390
565.887817	739.312073	22171.859375	4116.742188	15.758417
566.231812	743.398743	22351.896484	4150.921875	15.769366
566.575745	738.123230	22522.789063	4169.125977	15.749622
566.919617	734.631042	22722.142578	4202.636230	15.772613
567.263428	734.036621	22852.990234	4215.416504	15.739352
567.607239	736.488525	22937.994141	4211.478516	15.652046
567.950989	746.965149	22972.916016	4191.788086	15.499103
568.294678	745.330566	23011.109375	4174.326660	15.400297
568.638367	750.754700	22934.056641	4166.302246	15.396930
568.981995	749.937317	22796.968750	4147.280762	15.409528
569.325623	748.897156	22643.382813	4128.630859	15.436460
569.669128	750.903320	22492.474609	4112.878418	15.463350
570.012573	739.460693	22350.478516	4103.293457	15.565360
570.356140	737.380188	22259.757813	4109.832031	15.669514
570.699524	737.528809	22229.291016	4109.015137	15.687343
571.042908	741.169678	22324.250000	4131.974609	15.710478
571.386230	752.760925	22430.875000	4139.033203	15.620696
571.729492	749.120056	22553.548828	4143.491699	15.567348
572.072815	750.308899	22675.257813	4161.101074	15.556671
572.416016	740.872375	22811.900391	4181.905762	15.590726
572.759094	738.048889	23022.546875	4215.193359	15.603423
573.102234	741.466858	23119.216797	4204.047852	15.473321
573.445374	745.776428	23157.853516	4205.087891	15.435034
573.788391	749.342957	23119.812500	4197.360840	15.413257
574.131409	741.021057	23115.130859	4199.218262	15.456245
574.474365	730.767273	23092.171875	4172.691895	15.392256
574.817261	730.470032	22990.599609	4165.187500	15.429909
575.160156	742.135498	22836.791016	4143.045410	15.392454
575.502930	749.268555	22608.830078	4136.432617	15.495113
575.845703	744.141785	22404.500000	4097.943359	15.483593
576.188477	741.838379	22172.453125	4071.417725	15.536555
576.531250	741.838318	21951.326172	4035.380859	15.528627
576.873901	743.547302	21735.255859	4013.238281	15.576106
577.216431	739.460693	21513.384766	3988.272705	15.638894
577.559082	735.299805	21267.443359	3951.344482	15.663462
577.901611	736.637207	20984.576172	3897.846436	15.612498
578.244080	736.042786	20692.265625	3840.187500	15.554771
578.586487	742.284180	20399.068359	3805.636719	15.584199
578.928955	788.426208	20107.505859	3777.104492	15.470085
579.271301	789.986572	19810.220703	3749.686768	15.560798
579.613647	782.481934	19466.941406	3701.761719	15.624106
579.955872	735.374023	19157.841797	3670.925781	15.934628
580.298157	733.590759	18899.865234	3635.929443	15.976520
580.640320	736.340027	18712.693359	3624.783936	16.068018
580.982483	740.872498	18529.390625	3602.938721	16.089403
581.324524	747.262451	18324.462891	3590.307617	16.174618
581.666626	756.698914	18185.664063	3556.648438	16.064920
582.008728	751.794922	18058.978516	3548.177979	16.157354
582.350647	749.194336	17954.583984	3522.914795	16.121229
582.692566	745.776367	17810.660156	3518.456787	16.247873
583.034424	750.457458	17689.992188	3500.846924	16.236511
583.376343	747.336731	17568.431641	3500.029541	16.364529
583.718201	742.432800	17478.080078	3487.100830	16.400131
584.059937	742.655579	17423.617188	3471.125977	16.356794
584.401611	746.816589	17347.531250	3456.711182	16.323963
584.743347	736.488586	17333.412109	3448.909424	16.342913
585.085022	735.745605	17242.689453	3439.473389	16.379337
585.426514	732.773438	17186.888672	3428.996338	16.386314
585.768127	746.965332	17094.677734	3424.463867	16.378429
586.109619	742.061279	17066.369141	3423.943359	16.428764
586.451172	739.386414	17054.628906	3432.785889	16.508486
586.792542	731.733215	17032.041016	3426.989990	16.535006
587.133850	733.888000	16998.232422	3406.482422	16.432230
587.475220	736.860107	16978.990234	3399.052490	16.390661
587.816589	739.832214	16936.562500	3397.640625	16.409536
588.157776	738.197510	16952.984375	3417.182373	16.521862
588.498962	741.466797	17013.689453	3413.169922	16.418797
588.840210	746.519348	17076.029297	3415.101807	16.342087
589.181335	756.253113	17170.914063	3427.138672	16.271341
589.522400	752.315002	17177.673828	3447.348877	16.407763
589.863403	747.633972	17257.847656	3458.123047	16.417044
590.204407	743.101563	17219.283203	3447.052002	16.411268
590.545410	740.649475	17276.943359	3453.367432	16.404633
590.886353	745.924988	17271.814453	3454.110596	16.387533
591.227112	741.243896	17279.173828	3451.955811	16.390879
591.567932	740.278015	17213.193359	3425.207031	16.299051
591.908752	734.556641	17128.783203	3417.256592	16.363688
592.249512	741.169617	17069.044922	3423.126221	16.425631
592.590149	741.838379	16995.931641	3419.262695	16.472307
592.930786	744.216003	16923.412109	3406.408203	16.454414
593.271423	741.838379	16848.291016	3386.718018	16.421242
593.612000	748.154114	16766.111328	3371.262939	16.376051
593.952576	748.822754	16751.921875	3365.244385	16.349468
594.292969	744.884766	16771.833984	3365.393311	16.350639
594.633484	741.466797	16835.806641	3377.802002	16.380512
594.973877	735.968445	16921.107422	3399.720947	16.458014
595.314209	736.785706	17011.162109	3411.981201	16.438084
595.654480	737.528809	17142.009766	3438.209717	16.463068
595.994812	739.832214	17301.091797	3451.658447	16.374516
596.335022	744.438965	17506.017578	3484.574951	16.347721
596.675171	747.856934	17731.601563	3502.555908	16.219622
597.015320	748.674133	17914.013672	3525.069580	16.174427
597.355408	743.027161	18009.791016	3528.115967	16.129768
597.695496	732.476257	18077.406250	3535.546143	16.160746
598.035461	725.714661	18090.259766	3538.592773	16.198975
598.375366	729.578430	18090.853516	3517.713623	16.059507
598.715271	731.510254	18001.988281	3497.206299	16.014009
599.055176	736.637207	17797.134766	3462.803955	15.979409
599.395081	735.819824	17555.279297	3427.733154	16.004755
599.734802	735.596863	17262.750000	3367.547852	15.925012
600.074524	742.284180	16989.242188	3326.755859	15.907419
600.414246	745.330566	16674.050781	3289.975830	15.975202
600.753906	750.606140	16334.859375	3250.892578	16.043673
601.093506	747.931213	16025.387695	3197.691650	16.035133
601.433044	740.203796	15773.797852	3182.831299	16.247795
601.772583	748.674255	15658.257813	3192.565186	16.391409
602.112122	744.067444	15662.715820	3207.871338	16.514927
602.451538	752.760803	15716.661133	3223.623779	16.512159
602.790894	741.615417	15811.543945	3256.168213	16.685896
603.130310	746.370850	15937.264648	3282.322998	16.693897
603.469604	745.627747	16140.706055	3301.715576	16.603279
603.808838	749.194336	16390.509766	3324.675049	16.465883
604.148010	752.760925	16675.166016	3372.749268	16.454727
604.487305	747.633972	16923.857422	3414.358643	16.485458
604.826416	745.404968	17140.300781	3427.733154	16.360750
605.165527	742.878601	17310.677734	3424.612061	16.186419
605.504456	741.987000	17456.310547	3423.200439	16.041410
605.843445	745.479187	17551.789063	3417.627930	15.899674
606.182434	738.271790	17567.244141	3410.123291	15.876498
606.521423	741.095398	17470.353516	3387.684326	15.820121
606.860229	740.278015	17286.009766	3370.817383	15.898597
607.199036	743.547363	17057.900391	3338.198486	15.904100
607.537903	739.163391	16839.373047	3316.353271	16.007183
607.876648	736.711426	16582.507813	3279.945068	16.049894
608.215271	731.361633	16297.410156	3256.762451	16.223776
608.553955	730.618652	16033.040039	3226.892578	16.312933
608.892578	731.361633	15797.055664	3214.484131	16.481966
609.231140	735.299744	15679.286133	3210.694580	16.564487
609.569641	732.476257	15600.823242	3210.695068	16.667749
609.908081	726.754883	15640.054688	3215.375977	16.687260
610.246521	730.321472	15665.762695	3207.500000	16.585907
610.584961	737.231628	15698.456055	3213.369873	16.550371
610.923340	743.993164	15667.249023	3208.688721	16.515802
611.261597	741.318176	15597.105469	3193.382568	16.505787
611.599854	744.884766	15491.372070	3156.528320	16.354021
611.938110	739.089111	15379.325195	3121.754639	16.274775
612.276245	735.299622	15184.726563	3096.789063	16.343136
612.614319	735.225403	14934.104492	3068.033447	16.429523
612.952393	742.729980	14617.278320	3020.033936	16.413536
613.290466	751.943542	14358.926758	2974.709229	16.335476
613.628479	751.274841	14092.476563	2933.619873	16.357933
613.966370	747.485352	13862.956055	2917.347656	16.544296
614.304260	743.472961	13630.165039	2889.707031	16.654655
614.642151	743.175781	13430.440430	2867.639404	16.744852
614.979980	744.587585	13280.719727	2847.131592	16.771872
615.317749	745.107666	13131.965820	2831.007813	16.839622
615.655396	744.810486	13051.495117	2821.868896	16.877481
615.993164	746.370850	12962.034180	2819.342529	16.969784
616.330811	747.485352	12934.320313	2807.677002	16.905060
616.668396	742.952881	12903.039063	2810.203125	17.000294
617.005859	744.141785	12898.506836	2800.469482	16.918428
617.343445	751.794922	12904.004883	2811.986572	16.953226
617.680908	752.760925	12886.247070	2811.912109	16.970812
618.018311	750.977539	12901.256836	2818.599365	17.017073
618.355652	740.872375	12891.745117	2817.113281	17.087175
618.692993	740.055115	12914.778320	2816.370361	17.054310
619.030273	734.185120	12891.596680	2820.605469	17.161716
619.367554	733.442200	12885.950195	2823.206299	17.196156
619.704712	732.104797	12872.500000	2826.029541	17.247583
620.041870	736.265686	12869.750977	2813.546875	17.120235
620.379028	736.562805	12823.906250	2799.057617	17.063259
620.716064	735.745544	12772.563477	2793.039063	17.091671
621.053040	738.569092	12715.350586	2786.500732	17.099182
621.389954	739.237793	12636.960938	2792.816406	17.260265
621.726929	741.912659	12565.184570	2784.420166	17.275316
622.063843	743.993164	12514.882813	2777.881592	17.278969
622.400635	743.250183	12489.323242	2775.281006	17.299660
622.737427	743.993164	12460.046875	2755.739258	17.170851
623.074219	735.522644	12390.499023	2740.730225	17.204733
623.410889	734.928223	12343.093750	2724.978027	17.143534
623.747559	741.020996	12345.768555	2723.194580	17.080711
624.084167	743.993164	12338.190430	2727.058350	17.103945
624.420715	739.980774	12330.684570	2715.467041	17.043713
624.757324	735.076843	12308.245117	2715.021484	17.108061
625.093750	736.339905	12340.343750	2719.999756	17.094616
625.430176	743.472961	12407.440430	2734.117188	17.066614
625.766602	750.903320	12441.620117	2744.296875	17.051081
626.102905	748.599915	12556.268555	2751.801514	16.965260
626.439209	746.816711	12666.608398	2760.791748	16.896059
626.775452	741.243958	12801.243164	2780.556396	16.909723
627.111694	749.194336	12840.401367	2808.197021	17.028927
627.447876	752.835144	12883.200195	2826.029541	17.090948
627.783997	746.445129	12964.190430	2824.321045	17.007032
628.120056	741.169617	13029.799805	2807.973877	16.818834
628.456055	740.055115	13034.332031	2793.187744	16.699905
628.792053	749.714417	12978.010742	2788.432373	16.672134
629.128052	744.959045	12918.940430	2768.445068	16.621399
629.463928	744.661865	12855.782227	2761.609375	16.653683
629.799744	735.002502	12766.916992	2741.919189	16.679945
630.135559	739.757813	12631.981445	2741.101807	16.829014
630.471375	736.191345	12485.605469	2717.176025	16.860285
630.807068	743.398682	12319.835938	2702.018555	16.919022
631.142700	741.095398	12180.221680	2677.795654	16.930490
631.478333	744.736145	12047.813477	2671.108643	17.042904
631.813965	741.764099	11927.071289	2657.139893	17.124033
632.149475	739.980896	11817.327148	2641.833252	17.168844
632.484924	733.293640	11721.253906	2625.858154	17.223984
632.820435	732.104675	11645.317383	2616.941895	17.271149
633.155884	736.042786	11574.358398	2611.592041	17.304804
633.491150	740.946777	11549.838867	2611.889160	17.309288
633.826477	743.398743	11496.860352	2608.174072	17.341164
634.161804	741.318298	11462.532227	2599.257813	17.329563
634.497009	740.203796	11376.414063	2581.202148	17.308781
634.832153	743.250061	11331.909180	2556.533447	17.124769
635.167297	743.770264	11240.664063	2535.134521	17.065660
635.502380	739.757874	11198.014648	2522.205811	17.043451
635.837463	737.083008	11129.582031	2510.168945	17.061209
636.172424	732.699158	11054.461914	2499.097900	17.113344
636.507324	736.117004	10947.093750	2485.946045	17.136745
636.842224	736.562927	10846.190430	2484.831543	17.293104
637.177124	747.633972	10736.446289	2467.741943	17.220345
637.511963	746.965271	10641.338867	2443.296387	17.144400
637.846741	746.593750	10508.262695	2404.956055	16.988512
638.181396	739.163513	10414.417969	2404.733154	17.214735
638.516113	742.581360	10315.297852	2392.770508	17.238462
638.850769	740.500977	10255.558594	2390.467041	17.340578
639.185303	748.525574	10191.211914	2361.340576	17.080044
639.519836	747.782532	10105.467773	2344.622314	17.064474
639.854370	748.748535	10000.774414	2325.155029	17.038502
640.188843	747.113831	9914.583008	2323.074463	17.190794
640.523254	749.342957	9846.745117	2321.291260	17.279089
640.857605	752.017822	9764.269531	2311.186035	17.300539
641.191895	748.971375	9671.984375	2293.130615	17.305357
641.526184	749.342957	9583.862305	2285.625977	17.389547
641.860413	744.290344	9529.249023	2289.712891	17.591688
642.194580	746.147949	9511.416992	2282.282471	17.525240
642.528748	741.838379	9452.940430	2269.873779	17.541243
642.862793	744.141785	9394.538086	2265.564453	17.587894
643.196838	742.878601	9304.632813	2265.935791	17.789078
643.530823	741.243958	9248.086914	2268.610596	17.954565
643.864746	745.033386	9204.992188	2257.390869	17.876652
644.198669	742.432800	9178.987305	2242.604736	17.781807
644.532532	744.364563	9147.258789	2224.920654	17.619596
644.866333	747.782532	9112.411133	2210.506104	17.487011
645.200073	741.615479	9095.396484	2211.100342	17.590654
645.533813	739.832214	9079.717773	2207.608154	17.599472
645.867554	731.213074	9089.823242	2211.397705	17.708500
646.201172	736.414246	9075.408203	2215.558594	17.737682
646.534729	737.528809	9095.098633	2216.970459	17.701815
646.868225	738.866272	9098.293945	2223.731689	17.762764
647.201782	742.209900	9100.300781	2222.840088	17.714931
647.535217	745.553528	9072.957031	2232.053711	17.850706
647.868591	745.999329	9062.406250	2228.115967	17.821598
648.201965	744.290344	9061.440430	2229.973389	17.862886
648.535278	741.392578	9076.597656	2223.509033	17.781404
648.868591	748.005554	9071.991211	2219.719482	17.680399
649.201782	750.085938	9047.321289	2202.555420	17.505463
649.534912	749.640137	8997.613281	2195.273926	17.527142
649.868103	747.485352	8956.821289	2188.735352	17.556231
650.201172	742.507080	8906.816406	2199.657959	17.847815
650.534180	748.079773	8906.221680	2193.713623	17.720135
650.867188	742.432800	8887.422852	2187.026367	17.735975
651.200134	745.033386	8889.206055	2175.137939	17.559849
651.533020	738.346008	8831.323242	2175.434814	17.757235
651.865845	735.745422	8775.670898	2178.481201	17.944643
652.198608	735.745544	8704.118164	2178.630127	18.107643
652.531433	739.609314	8675.363281	2176.698242	18.109039
652.864136	735.225403	8641.256836	2165.330078	18.088781
653.196777	854.258484	8764.749023	2347.222900	18.873220
653.529358	862.431702	8725.590820	2339.941406	18.790281
653.861938	865.849609	8659.759766	2330.727783	18.795164
654.194519	745.999329	8460.702148	2120.525391	17.816969
654.526978	740.129395	8426.745117	2112.500732	17.854038
654.859375	740.055115	8385.358398	2090.209961	17.659925
655.191833	741.763977	8369.161133	2091.918945	17.701387
655.524170	734.036621	8316.034180	2077.652588	17.721134
655.856445	738.940613	8290.177734	2086.494629	17.845472
656.188660	745.702087	8246.041992	2081.739258	17.813021
656.520874	750.234558	8203.466797	2070.965576	17.720243
656.853088	752.983704	8205.324219	2069.108154	17.660553
657.185181	740.129395	8185.261719	2061.306152	17.745510
657.517212	733.665039	8182.513184	2077.949951	18.046883
657.849243	732.327637	8190.462891	2075.646484	18.011457
658.181274	739.237793	8256.220703	2091.621338	17.991041
658.513123	738.048828	8340.480469	2089.615234	17.778080
658.844971	742.655579	8423.031250	2113.020752	17.842424
659.176819	740.500916	8499.042969	2125.726563	17.854200
659.508667	751.126160	8571.710938	2147.645752	17.856970
659.840393	746.296570	8636.206055	2155.076172	17.855459
660.172058	745.181946	8668.007813	2156.042236	17.807541
660.503662	747.039551	8690.223633	2149.131836	17.651514
660.835266	740.203674	8709.245117	2142.444580	17.596106
661.166931	743.324402	8703.968750	2127.881104	17.392519
661.498413	742.729980	8678.557617	2122.754395	17.389799
661.829773	742.284180	8590.805664	2104.252930	17.353189
662.161194	744.736145	8475.786133	2100.686768	17.539024
662.492615	746.445129	8357.049805	2080.476318	17.528585
662.823975	754.692688	8210.153320	2066.210205	17.591370
663.155212	753.355286	8078.488281	2045.702515	17.642645
663.486450	750.680359	7920.224121	2037.677734	17.950895
663.817627	746.370789	7804.237793	2015.238281	17.978058
664.148743	753.726868	7681.341309	1989.232422	17.834503
664.479858	747.931213	7597.230469	1961.145996	17.712978
664.810913	748.376953	7513.937500	1954.013062	17.820196
665.141907	739.089172	7440.451660	1958.693970	18.199356
665.472778	737.528809	7351.808594	1944.353638	18.245749
665.803711	738.940613	7296.006348	1939.969727	18.316563
666.134583	736.637146	7275.350098	1914.929810	18.020254
666.465454	738.866211	7261.976563	1915.598267	18.039433
666.796143	741.912659	7221.035156	1906.682007	17.977268
667.126831	749.194336	7175.859375	1906.607788	18.009550
667.457458	741.392578	7138.335938	1911.586060	18.293011
667.788147	739.757813	7131.871582	1910.099976	18.309156
668.118774	734.853821	7114.782715	1913.592407	18.475733
668.449219	750.828918	7113.816895	1902.223999	18.095194
668.779663	749.268616	7095.538574	1894.570679	18.046852
669.110107	743.472961	7096.281250	1884.614136	17.962782
669.440552	735.745544	7093.160156	1882.385132	18.036257
669.770874	735.374023	7087.587402	1874.731934	17.936392
670.101135	745.553528	7077.705566	1877.035156	17.868834
670.431396	746.965271	7040.256348	1869.976563	17.844578
670.761597	748.822754	6991.143066	1859.723022	17.796272
671.091797	740.649475	6935.787598	1843.524902	17.802275
671.421875	740.649475	6888.011230	1841.890259	17.914038
671.751892	737.900330	6863.639160	1848.057251	18.122826
672.081909	744.959045	6835.775879	1851.698120	18.170616
672.411865	750.457458	6803.899902	1844.193726	18.068007
672.741821	751.349121	6753.225098	1832.082153	18.006588
673.071716	744.216064	6712.878906	1834.459961	18.266132
673.401550	729.206848	6668.000000	1824.949219	18.450592
673.731262	734.259460	6646.378906	1835.351563	18.624319
674.060974	737.380188	6592.583496	1819.599487	18.483034
674.390625	746.296570	6574.824707	1824.651978	18.501333
674.720276	739.534973	6537.673828	1810.608765	18.472717
675.049927	741.318298	6504.088379	1811.946167	18.578356
675.379395	740.203674	6483.209473	1794.113647	18.351191
675.708923	740.129395	6439.222656	1773.382935	18.130138
676.038330	742.284180	6401.179199	1752.503906	17.851891
676.367737	746.222229	6350.132813	1746.188354	17.844076
676.697083	746.445129	6313.650879	1751.017944	18.044472
677.026428	741.912781	6295.892578	1757.630859	18.288113
677.355652	736.191406	6279.693848	1757.333618	18.420525
677.684875	744.067566	6283.187012	1761.717407	18.372049
678.013977	743.324402	6282.666504	1763.426392	18.415579
678.343079	746.222168	6285.192871	1770.708008	18.495960
678.672180	746.965149	6298.195801	1766.695679	18.369450
679.001221	754.544128	6355.705566	1765.432617	18.047836
679.330139	755.732910	6403.705566	1762.980591	17.833792
679.659058	748.451355	6433.501465	1765.061157	17.882160
679.987976	737.677429	6448.361816	1768.553345	18.051706
680.316772	740.203796	6467.011719	1770.485352	17.990501
680.645630	742.878662	6521.847656	1784.825562	18.029980
680.974304	743.621765	6554.466309	1789.729614	18.002682
681.302979	733.145020	6589.611328	1802.658203	18.262091
681.631653	732.922058	6600.385254	1800.949219	18.202536
681.960266	736.934326	6612.125000	1803.327026	18.150776
682.288757	746.073547	6609.673340	1806.967773	18.092884
682.617249	743.398743	6599.048340	1811.871704	18.246872
682.945679	742.878601	6572.818848	1820.119507	18.477736
683.274109	736.637207	6546.664063	1815.215454	18.564083
683.602478	737.900330	6494.132324	1799.983398	18.451012
683.930725	740.203674	6424.956543	1785.940308	18.395462
684.259033	747.485352	6338.542480	1780.739136	18.480473
684.587280	749.120056	6272.412598	1782.150757	18.703169
684.915344	743.695984	6201.527344	1773.085938	18.860785
685.243469	748.302673	6145.726563	1753.024048	18.614832
685.571533	743.993164	6090.742188	1734.077026	18.517492
685.899536	747.262451	6033.306641	1726.869629	18.531954
686.227539	736.637207	5977.876953	1723.005859	18.819376
686.555420	735.745605	5929.580078	1724.417603	19.035494
686.883301	734.259460	5928.688965	1721.445313	19.004702
687.211121	736.265625	5916.949219	1726.200806	19.108196
687.538940	742.432800	5924.973145	1733.630981	19.125719
687.866638	742.507141	5922.149902	1738.757935	19.233969
688.194336	745.330566	5945.183594	1735.860352	19.049189
688.521973	745.033386	5933.072266	1734.299927	19.068216
688.849609	749.788818	5900.007813	1731.550781	19.062529
689.177063	746.965332	5868.800781	1741.953125	19.426392
689.504578	742.952942	5819.091797	1727.761108	19.400734
689.832031	743.324402	5778.225098	1713.272095	19.264484
690.159485	739.312073	5702.808594	1685.631470	19.065580
690.486816	735.894104	5645.520996	1675.229126	19.132513
690.814087	736.711487	5588.976563	1672.702759	19.289780
691.141296	744.290344	5513.261719	1657.693726	19.153049
691.468506	750.903320	5430.859863	1639.415161	18.985472
691.795715	742.135559	5330.105469	1603.749878	18.779861
692.122803	740.352356	5268.805664	1589.335083	18.747742
692.449829	736.562988	5206.985840	1579.452759	18.854811
692.776855	741.095398	5153.116699	1576.332153	18.930931
693.103821	741.763977	5106.603027	1572.022583	19.021519
693.430664	742.952881	5047.012207	1552.183960	18.801577
693.757568	746.073547	4996.263184	1539.923828	18.677998
694.084351	748.822754	4936.747070	1525.211914	18.538757
694.411133	746.965271	4905.613770	1530.784668	18.847937
694.737854	741.912598	4866.679688	1525.509155	18.997353
695.064575	739.757874	4845.354492	1522.908569	19.075197
695.391174	743.695984	4821.800293	1507.973755	18.741007
695.717773	743.770325	4814.741699	1501.509399	18.613226
696.044250	741.838379	4798.395020	1502.772583	18.758131
696.370789	743.472961	4808.277832	1505.521851	18.747490
696.697205	739.089172	4835.844238	1520.530884	19.074652
697.023621	743.473083	4878.122070	1519.416382	18.766848
697.349915	745.702087	4922.480957	1529.892944	18.775015
697.676208	749.194336	4979.471191	1537.471802	18.634182
698.002380	741.838379	5069.674805	1553.446899	18.753216
698.328674	740.649475	5171.320801	1566.524414	18.639950
698.654724	742.284180	5268.285645	1583.539551	18.587166
698.980896	738.791931	5342.662598	1609.099609	18.903826
699.306946	736.191345	5405.374512	1633.916870	19.226608
699.632935	740.426575	5465.261719	1649.074585	19.231318
699.958862	748.525574	5493.943359	1632.876587	18.635893
700.284729	752.537903	5499.962402	1620.245117	18.277431
700.610596	749.565857	5462.513184	1600.257813	18.050106
700.936340	749.565918	5406.637207	1598.697388	18.233164
701.262146	741.987000	5303.728027	1576.852417	18.301464
701.587830	746.445129	5213.524902	1554.933105	18.098804
701.913513	747.782532	5092.187988	1526.178101	17.917194
702.239075	748.748535	4972.709473	1507.899414	17.972488
702.564697	744.661926	4829.454102	1492.295898	18.302864
702.890137	743.324402	4711.461426	1464.506714	18.174330
703.215698	750.234558	4614.570313	1449.274536	18.089525
703.541016	748.897156	4523.029785	1428.618286	18.009996
703.866455	754.172607	4428.516602	1422.971313	18.201853
704.191711	747.039551	4353.842285	1419.182007	18.635410
704.517029	747.336731	4282.883301	1407.665039	18.676838
704.842163	742.507019	4240.010254	1394.959351	18.654802
705.167419	743.398743	4205.311035	1378.390015	18.342211
705.492493	748.079773	4191.713379	1373.560181	18.163385
705.817566	744.661926	4147.949219	1382.253540	18.734581
706.142578	748.154053	4110.798340	1388.049194	19.029522
706.467590	743.695984	4084.197510	1388.643555	19.306910
706.792480	749.863037	4075.949951	1387.157593	19.160490
707.117371	743.993164	4073.349609	1372.668457	18.882788
707.442200	744.513367	4072.308838	1380.172974	19.101522
707.766907	737.825989	4065.473389	1380.916016	19.325666
708.091675	733.590820	4058.711670	1394.216187	19.867710
708.416321	731.436035	4045.560303	1395.033691	20.023319
708.741028	741.689758	4048.012451	1399.714722	19.902018
709.065552	753.503906	4076.544678	1402.686890	19.535812
709.390137	752.315002	4087.690186	1405.287231	19.577175
709.714600	744.959167	4131.677246	1401.349243	19.381304
710.039063	739.534973	4157.608887	1409.522583	19.601320
710.363403	740.872498	4209.695313	1413.237671	19.383095
710.687744	739.014893	4245.434570	1429.881470	19.702906
711.012085	740.352356	4277.013184	1435.454224	19.654184
711.336304	743.324402	4306.808594	1449.943359	19.829441
711.660461	741.764099	4336.900879	1451.652344	19.745792
711.984619	742.804199	4372.714844	1451.503784	19.523886
712.308716	746.816589	4377.916504	1448.828979	19.333326
712.632751	746.222229	4378.437012	1453.286987	19.466490
712.956726	746.890930	4341.582520	1449.794556	19.553934
713.280701	743.175842	4323.378418	1439.689575	19.454590
713.604553	741.243958	4278.647949	1423.937500	19.299280
713.928467	739.089172	4231.837402	1416.284180	19.388599
714.252258	737.008728	4181.757324	1410.934204	19.563850
714.575989	744.959045	4121.571777	1401.126343	19.432709
714.899719	746.742371	4058.785889	1384.036743	19.241728
715.223267	749.863037	4011.455078	1376.680786	19.218153
715.546936	743.324402	3995.182861	1371.702515	19.323662
715.870422	739.460693	3983.814453	1363.380615	19.230946
716.193970	735.671204	3953.499023	1352.681030	19.174730
716.517395	740.723816	3919.022705	1342.798706	18.943306
716.840820	745.999329	3893.462158	1345.176392	19.036827
717.164124	742.581360	3856.459961	1344.953491	19.344753
717.487488	742.581360	3828.150391	1341.684204	19.416283
717.810730	733.144958	3803.184814	1330.613159	19.461252
718.133972	731.881836	3772.348877	1315.158081	19.183771
718.457092	726.903503	3710.455078	1302.378052	19.288239
718.780212	728.240967	3652.053467	1292.347168	19.293514
719.103210	731.361633	3602.567627	1287.740356	19.377874
719.426208	733.219238	3571.434814	1280.532959	19.283726
719.749207	742.655701	3525.812744	1289.523560	19.649193
720.072083	744.290344	3482.940186	1281.796143	19.626671
720.394958	738.271790	3447.051758	1274.811646	19.807436
720.717773	734.853943	3407.745361	1250.440552	19.289471
721.040527	738.866272	3363.164063	1234.688354	18.893515
721.363281	740.872375	3328.984619	1234.093872	19.057190
721.685913	741.392578	3296.737549	1233.350952	19.252132
722.008545	743.250183	3280.316406	1235.059937	19.384979
722.331055	747.633972	3253.196045	1240.706909	19.679134
722.653503	741.763977	3233.431641	1236.397339	19.851498
722.976013	735.151123	3217.604736	1232.756470	20.044901
723.298401	738.717590	3189.889893	1222.651245	19.742947
723.620789	745.553528	3182.385742	1222.948486	19.590801
723.943115	745.404968	3167.822266	1226.069214	19.842339
724.265381	741.095398	3156.528076	1218.416016	19.761290
724.587585	738.346130	3139.141357	1223.171509	20.194366
724.909790	739.237793	3142.039307	1226.292114	20.270269
725.231873	738.123291	3146.646240	1224.954590	20.212856
725.553894	746.296570	3165.890625	1226.589355	19.850140
725.875916	796.748047	3217.605225	1264.483765	19.321079
726.197937	802.915222	3233.877686	1275.926270	19.457769
726.519775	798.011230	3231.276611	1273.845825	19.555393
726.841675	748.377014	3193.679688	1235.282715	19.911879
727.163513	747.633972	3203.264893	1232.161987	19.731304
727.485291	742.284119	3220.354492	1236.768799	19.954426
727.806946	737.974609	3239.672852	1243.753296	20.217413
728.128662	733.219238	3254.979248	1253.561157	20.634077
728.450256	729.875671	3264.638428	1251.926636	20.595654
728.771790	731.584656	3269.691406	1257.127808	20.706110
729.093323	734.705322	3281.951172	1256.310425	20.477219
729.414795	739.757874	3297.034424	1258.093628	20.269053
729.736145	744.661865	3300.155518	1255.567383	19.992439
730.057495	741.318298	3297.034424	1258.613770	20.240725
730.378845	737.305908	3299.412109	1261.808838	20.471554
730.700134	735.522644	3292.427734	1261.957397	20.588749
731.021301	739.089172	3290.793213	1256.235962	20.266722
731.342468	745.107727	3272.885986	1252.520996	20.073488
731.663574	743.250183	3273.703857	1246.205200	19.876081
731.984680	745.256348	3269.617188	1250.588989	20.018242
732.305664	739.683594	3279.127686	1255.418823	20.308981
732.626648	736.785828	3284.997314	1265.152466	20.734804
732.947571	733.739441	3295.919922	1260.545654	20.560856
733.268433	734.779602	3300.526611	1257.722168	20.381689
733.589233	743.101501	3303.795898	1255.864502	20.024374
733.909973	739.014832	3292.353516	1254.006958	20.169363
734.230713	741.987000	3255.945068	1247.988647	20.127689
734.551331	733.590759	3218.571045	1232.756470	20.087311
734.871948	740.203796	3175.846924	1225.251953	19.914583
735.192505	738.049011	3143.227783	1211.951538	19.703423
735.513062	741.987000	3106.225342	1206.527466	19.648632
735.833435	735.894226	3056.516602	1205.190063	20.222845
736.153931	737.677429	3016.467529	1202.218140	20.385410
736.474304	742.432800	2977.384521	1192.707397	20.146950
736.794617	743.398743	2961.186523	1178.143921	19.602650
737.114807	741.764099	2942.982422	1178.961304	19.861601
737.434998	733.813660	2932.059814	1180.150024	20.304203
737.755188	737.231628	2921.063232	1179.184204	20.237484
738.075256	738.940613	2920.022705	1182.007690	20.314095
738.395325	741.243958	2930.945313	1184.533936	20.244312
738.715271	740.055115	2939.341553	1191.741333	20.537853
739.035278	736.860046	2951.229736	1188.620483	20.401312
739.355164	742.804260	2954.276123	1186.242798	20.051737
739.675049	738.866211	2971.588623	1192.707153	20.326797
739.994873	742.581360	2978.201416	1197.908569	20.366932
740.314636	735.448303	2984.294189	1205.487427	20.901348
740.634277	742.432800	2969.731201	1202.143799	20.639849
740.953979	734.556641	2942.090576	1188.249146	20.552006
741.273499	733.367859	2910.066406	1181.264648	20.576887
741.593140	722.445313	2882.722656	1177.475220	21.063496
741.912598	731.807434	2863.701172	1173.091309	20.699148
742.232117	734.631042	2813.769775	1158.156494	20.370235
742.551453	738.717590	2775.949951	1132.819336	19.344957
742.870850	739.609314	2746.971436	1126.652222	19.281170
743.190063	746.890930	2724.532227	1116.695557	18.699276
743.509338	753.355286	2682.254150	1119.964844	19.006157
743.828552	754.989990	2633.139893	1114.392212	19.135971
744.147705	751.423523	2604.236084	1117.067017	19.734512
744.466797	750.160339	2585.808838	1111.122925	19.664038
744.785828	747.039551	2563.146729	1113.129028	20.157923
745.104858	743.250183	2546.948486	1112.088867	20.449024
745.423706	746.296570	2537.660889	1107.110474	20.141850
745.742615	738.940613	2530.082031	1105.698853	20.476231
746.061401	739.832214	2526.292725	1100.274780	20.176353
746.380249	731.807434	2508.459961	1103.321167	20.910883
746.698975	740.129395	2505.636475	1100.051758	20.386345
747.017639	746.519470	2502.813232	1098.268555	20.027920
747.336304	744.736145	2494.193604	1095.890869	20.072206
747.654907	743.770264	2494.119385	1093.884766	20.002552
747.973389	734.705322	2472.348877	1098.194336	20.918503
748.291931	735.374084	2477.029785	1095.519409	20.678329
748.610352	730.915955	2465.884521	1087.048828	20.526764
748.928711	734.185242	2478.441650	1079.692871	19.808306
749.247070	742.729980	2487.655029	1085.859985	19.664455
749.565308	743.027161	2498.948975	1085.637085	19.511684
749.883545	738.494690	2495.085205	1088.312012	19.914562
750.201782	738.866211	2497.165771	1083.630981	19.607851
750.519836	743.993164	2482.379639	1090.243896	19.917938
750.837952	746.370789	2465.810059	1092.324341	20.120138
751.155884	740.278015	2435.123047	1090.912476	20.688292
751.473877	741.392578	2416.918945	1086.602905	20.603098
751.791809	749.045715	2411.420654	1080.361572	19.930271
752.109619	748.451355	2391.656006	1074.937500	19.868868
752.427490	743.844543	2393.290771	1070.330688	19.793682
752.745300	738.494690	2395.668213	1069.884888	19.997314
753.062988	744.661926	2395.371094	1067.135742	19.535471
753.380615	742.804382	2385.860107	1070.850708	19.965624
753.698303	746.222229	2381.030518	1072.634033	19.966366
754.015808	745.776367	2383.854248	1071.593872	19.890232
754.333374	748.525635	2389.129639	1072.336792	19.737314
754.650757	747.188171	2371.742676	1066.392700	19.648743
754.968262	746.668030	2365.278320	1077.835327	20.459976
755.285583	745.702148	2345.588135	1074.194580	20.532240
755.602905	743.695984	2337.712158	1075.829224	20.836254
755.920105	740.575195	2338.083740	1055.841675	19.734886
756.237305	737.900330	2330.504639	1051.903687	19.716345
756.554443	740.798096	2327.458496	1061.042969	20.183580
756.871582	736.934387	2311.260498	1074.343140	21.431948
757.188599	737.900330	2323.594971	1078.578247	21.484461
757.505615	732.104736	2325.155273	1068.770142	21.133379
757.822510	731.510254	2351.978516	1071.965332	21.009672
758.139465	737.157288	2356.659424	1075.903320	20.916676
758.456238	741.987000	2377.018311	1086.157104	21.049757
758.773010	750.606140	2385.265869	1080.733032	20.195452
759.089783	752.983826	2386.380615	1084.225220	20.279299
759.406433	748.302673	2388.609619	1084.522583	20.497379
759.723145	744.736145	2389.129639	1101.983765	21.725189
760.039673	741.392578	2407.110840	1103.766968	21.754843
760.356201	737.008728	2414.095459	1104.658569	21.921934
760.672668	736.042725	2419.891113	1097.302612	21.454418
760.989136	735.002502	2423.160400	1089.797974	21.016722
761.305481	741.541199	2422.640381	1091.952759	20.844194
761.621826	741.689758	2421.600098	1094.924927	21.027025
761.938049	744.216003	2420.708252	1101.760742	21.326956
762.254333	745.107666	2436.163330	1098.194214	20.879652
762.570496	745.107666	2473.909180	1107.407715	20.956717
762.886597	741.392578	2542.119141	1127.246582	21.427685
763.202637	738.346130	2652.012695	1160.756958	22.073378
763.518677	737.751709	2790.141357	1192.707275	22.167114
763.834656	738.048889	2935.774658	1231.344604	22.445734
764.150574	738.420410	3054.659180	1262.626099	22.631763
764.466370	741.318176	3124.949951	1277.783813	22.506229
764.782288	743.250183	3158.385986	1281.870483	22.301865
765.097961	746.667969	3161.358154	1272.136841	21.761337
765.413696	742.729980	3117.965088	1255.567383	21.591017
765.729309	747.559631	3033.037109	1231.344727	21.167789
766.044861	749.565857	2916.753174	1205.190063	21.023758
766.360474	750.457520	2803.739014	1178.441162	20.843885
766.675903	741.318298	2690.873047	1156.373291	21.289734
766.991394	739.237793	2578.675781	1130.813110	21.287769
767.306763	743.993164	2472.645996	1111.494507	21.259407
767.622131	742.655701	2386.529053	1080.807373	20.570421
767.937378	733.367859	2319.285156	1062.306152	20.741201
768.252625	733.888000	2267.273193	1043.878906	20.216114
768.567810	735.596924	2220.090820	1035.408447	20.196211
768.882996	744.438965	2176.401123	1024.783081	19.577620
769.197998	739.089172	2141.850342	1027.680786	20.573111
769.513062	746.965271	2113.466797	1027.086548	20.499157
769.828064	745.627747	2083.968506	1021.513855	20.614040
770.142944	749.417236	2050.532227	1021.885254	20.941118
770.457825	743.398682	2027.721191	1015.941101	21.220715
770.772705	745.627747	2010.111450	1017.427063	21.494886
771.087402	737.751709	1994.582397	1004.869934	21.253319
771.402100	741.912598	1972.068726	998.257080	20.838369
771.716736	746.668030	1954.013062	994.393311	20.518185
772.031372	755.287109	1946.434082	988.449158	19.574583
772.345947	749.120056	1922.137207	986.368652	20.225502
772.660461	743.472961	1904.824585	987.854675	21.042871
772.974854	740.352234	1884.168457	988.597656	21.703262
773.289246	744.661865	1878.595703	986.814453	21.355089
773.603638	750.680359	1867.450317	980.350098	20.565536
773.917908	748.525635	1846.794312	977.229431	20.824030
774.232178	745.553528	1845.976929	972.548340	20.627953
774.546265	741.392517	1838.323608	964.077820	20.300755
774.860474	741.838379	1830.893433	959.842590	20.017740
775.174561	739.832214	1805.258789	960.214111	20.684853
775.488586	738.271790	1783.859741	959.396729	21.148384
775.802551	739.534973	1774.200195	954.195557	20.746862
776.116516	741.392578	1767.290161	952.115051	20.540302
776.430359	740.798157	1757.556641	955.235840	21.090326
776.744202	738.569031	1753.395630	961.105713	21.928543
777.057922	741.987000	1744.404907	957.836365	21.532871
777.371704	736.711487	1737.717773	955.755859	21.882418
777.685303	741.318176	1731.327759	942.232727	20.294203
777.998962	733.293640	1720.256470	945.353516	21.486105
778.312500	735.374023	1729.544434	942.678528	20.852009
778.626038	728.835449	1714.683960	951.149109	22.550489
778.939453	734.185242	1722.708618	951.372009	21.970827
779.252869	738.420410	1718.621948	949.811707	21.566105
779.566223	737.008606	1723.748657	946.765320	21.257545
779.879578	737.900330	1704.578735	942.009949	21.114532
780.192749	738.494690	1697.148438	947.656921	21.818329
780.505920	743.027161	1706.882202	948.251282	21.292011
780.819031	744.810486	1701.903809	948.845703	21.318216
781.132141	750.977600	1703.910034	950.703308	20.959063
781.445190	753.281006	1690.906860	948.994324	20.873285
781.758118	748.376953	1699.303223	950.331787	21.237696
782.071045	744.141663	1682.882446	941.415466	21.014727
782.383911	742.284119	1663.712280	938.369080	21.280548
782.696838	749.268616	1644.244751	930.047180	20.199261
783.009583	741.020996	1622.028320	925.886230	20.983393
783.322266	739.386414	1610.065796	927.892395	21.650448
783.634888	734.036621	1595.502319	929.229919	22.658279
783.947510	735.076843	1600.852173	933.242188	22.888773
784.260132	737.008606	1601.595215	922.914063	21.502237
784.572571	735.819824	1600.406372	925.291809	21.914751
784.885010	739.386414	1584.802734	922.096863	21.611891
785.197449	737.974670	1576.183594	926.034851	22.435955
785.509766	733.219238	1566.821411	925.514709	23.068014
785.822083	735.745544	1563.329102	925.291748	22.903572
786.134277	735.374023	1552.852539	925.588928	23.268490
786.446533	747.336731	1555.453125	928.040955	22.361162
786.758606	743.844543	1555.676147	931.087402	23.064249
787.070740	749.565857	1559.168335	927.297913	21.953003
787.382690	748.599915	1566.004028	917.267090	20.634491
787.694641	748.154114	1577.075195	919.942078	20.724285
788.006653	745.404968	1606.127563	926.777832	21.072163
788.318481	737.677429	1624.108887	939.706482	22.791277
788.630310	735.819824	1647.365723	938.740540	22.261162
788.942017	740.575195	1654.350098	945.204895	22.393885
789.253784	742.878601	1668.467651	941.489746	21.457811
789.565430	746.445129	1668.541992	942.530029	21.265108
789.877014	743.175842	1665.495483	936.437256	20.953844
790.188538	741.838379	1657.545044	934.653992	21.056482
790.500061	740.278015	1653.458496	930.270081	20.805532
790.811462	736.860046	1637.334839	929.898621	21.437422
791.122925	737.825989	1614.078125	924.623108	21.317736
791.434204	732.476257	1584.876953	916.821289	21.626570
791.745483	735.671204	1563.923706	910.208313	21.072935
792.056702	738.866211	1537.843384	908.870911	21.277792
792.367920	745.924988	1529.075684	903.743958	20.151800
792.678955	750.085938	1512.060547	904.784180	20.302282
792.990112	747.633972	1509.831421	903.149475	20.403572
793.301086	745.627869	1497.348511	909.465271	21.794985
793.612122	735.076843	1487.911987	901.589172	22.118034
793.922974	737.677429	1485.311401	901.737793	21.943941
794.233826	742.135559	1478.624146	898.691406	21.257063
794.544556	743.398743	1482.265015	905.824463	21.983101
794.855286	748.377014	1478.549927	899.805969	20.738781
795.166016	746.816711	1485.757446	892.821533	19.758665
795.476624	750.011719	1497.422852	891.781250	18.968079
795.787292	741.392578	1505.224609	897.651184	20.457195
796.097778	738.717590	1506.339233	901.886475	21.256420
796.408264	743.844543	1503.738647	905.081482	21.218344
796.718689	749.714539	1508.196655	904.709961	20.434948
797.029053	745.553467	1523.057251	911.991516	21.406719
797.339355	740.129395	1528.332642	918.753113	22.662140
797.649658	738.643311	1537.769165	920.016296	22.696423
797.959839	743.398682	1522.611328	917.267090	22.313345
798.270020	746.370789	1515.255249	907.681946	20.979897
798.580078	747.262451	1494.673462	906.344543	21.284420
798.890137	750.234558	1476.469360	900.103210	20.636391
799.200195	743.993164	1459.974121	899.285828	21.689497
799.510071	739.980774	1455.590210	898.691406	22.178387
799.820007	735.076843	1456.853394	903.743958	23.368328
800.129883	734.036621	1459.825562	894.827637	22.153963
800.439575	735.225403	1448.828735	896.090820	22.542694
800.749329	734.928223	1441.844360	892.598633	22.303976
801.058960	741.615479	1426.166382	892.078430	21.979805
801.368591	741.615479	1412.568970	882.716309	21.029898
801.678162	740.946777	1399.417358	877.515137	20.740236
801.987671	735.374023	1392.581665	876.103333	21.413219
802.297119	728.686829	1382.996582	880.264343	23.166018
802.606506	727.720886	1383.888306	883.087891	23.677952
802.915894	735.671204	1378.018188	884.871094	23.227304
803.225159	739.089172	1381.807617	889.329285	23.375727
803.534424	742.878601	1375.046265	890.146545	23.295710
803.843628	740.500977	1372.222656	890.220947	23.700306
804.152771	743.398743	1373.857056	878.332520	21.402491
804.461792	746.296570	1377.423828	875.583313	20.485052
804.770874	744.438965	1381.064575	880.041504	21.300201
805.079773	748.228333	1382.104980	878.258240	20.513441
805.388733	745.330566	1389.683716	882.121887	21.229246
805.697571	749.640137	1395.627930	877.663757	19.818272
806.006470	749.045715	1402.166626	884.276672	20.705347
806.315125	751.051941	1404.990234	885.688477	20.588570
806.623901	753.429504	1406.921997	887.174500	20.466187
806.932495	752.463623	1397.931274	889.775085	21.273174
807.241150	752.835144	1392.804565	886.580078	20.898645
807.549622	750.085938	1391.095581	885.762695	21.166103
807.858154	748.748535	1397.262695	886.059875	21.173222
808.166565	742.729980	1397.857056	883.013489	21.413176
808.474915	741.912659	1388.643555	887.991760	22.587309
808.783264	742.878662	1379.801758	883.533630	22.083509
809.091492	750.234558	1367.095825	877.589417	20.645624
809.399719	744.587585	1364.718018	871.793762	20.512810
809.707825	734.928223	1353.869751	863.620605	20.792334
810.015930	733.962341	1343.244507	868.301575	22.048771
810.323975	742.729980	1343.690430	863.100403	20.029675
810.632080	746.445129	1348.520142	866.815491	19.992586
810.939880	742.655762	1348.074219	867.855713	20.679903
811.247864	739.757874	1337.300415	871.719482	22.084053
811.555664	739.534973	1324.668945	875.954773	23.314285
811.863464	737.008606	1313.003418	874.245850	23.826124
812.171143	733.590820	1297.399780	872.611145	24.657345
812.478882	738.866211	1286.403076	875.063049	24.874460
812.786438	740.872375	1289.300781	872.016785	23.912767
813.094055	741.764099	1292.198730	876.549133	24.487019
813.401489	742.952881	1296.210938	869.936279	22.951929
813.708984	748.599915	1286.997437	877.589417	23.958042
814.016357	754.767090	1277.115234	877.143555	23.428143
814.323730	752.760925	1272.434082	876.326355	23.777529
814.630981	746.147949	1268.941895	870.679260	23.820343
814.938232	741.169617	1280.755981	862.951843	22.569551
815.245361	744.661865	1280.161621	859.979675	21.534615
815.552490	747.485352	1284.545410	853.663879	19.770327
815.859619	742.507080	1277.709595	848.685608	19.838943
816.166565	738.791931	1277.635254	842.815735	19.305019
816.473572	737.603027	1280.533081	843.261658	19.460817
816.780457	747.411072	1286.848877	840.215149	17.203852
817.087341	749.565857	1286.848755	852.623779	19.181314
817.394043	752.537903	1291.381348	863.992004	20.683949
817.700806	746.965271	1296.285278	872.091003	22.778296
818.007507	747.633972	1308.693726	875.286072	22.751961
818.314209	743.695984	1315.009521	874.394348	22.876820
818.620667	738.494690	1323.925781	881.601746	24.444731
818.927246	736.042725	1337.894775	882.047607	24.259264
819.233704	740.129395	1353.572632	881.601746	23.062012
819.540161	744.959045	1384.036743	882.790588	21.567259
819.846497	748.748535	1414.277954	894.010254	21.826490
820.152832	737.900330	1462.129028	915.409485	24.510098
820.458984	735.522644	1511.688965	933.910889	25.560017
820.765259	733.888000	1582.573730	948.845703	25.328304
821.071350	741.689758	1667.947632	964.672180	24.073471
821.377502	743.250061	1819.970703	1006.950378	24.491060
821.683472	738.866211	2095.039307	1083.110718	25.383522
821.989441	740.575195	2579.196045	1223.171265	26.247721
822.295349	738.420471	3241.233398	1415.169556	27.039539
822.601196	741.541199	4001.201416	1620.765259	26.972876
822.907043	736.711426	4655.140137	1792.776001	26.951225
823.212769	740.649597	5048.498047	1878.372681	26.410471
823.518494	750.829041	5123.841309	1897.468628	26.220819
823.824097	759.670959	4939.273438	1820.342407	25.377327
824.129700	757.813477	4622.966797	1720.033691	24.894749
824.435242	744.141785	4282.214355	1607.687988	24.407249
824.740723	739.312073	3978.018799	1519.267700	24.082317
825.046082	743.621582	3692.102295	1437.460449	23.532082
825.351501	742.507141	3395.337158	1354.241455	23.059687
825.656799	743.027161	3073.160400	1275.554810	22.853956
825.962036	737.083008	2781.076416	1206.527710	22.967035
826.267212	735.225403	2548.731934	1153.401123	23.058958
826.572449	733.590820	2416.770264	1130.144409	23.559793
826.877502	738.123230	2395.296875	1140.249512	24.265791
827.182495	748.228333	2481.265137	1173.165649	24.519808
827.487488	747.485352	2621.400146	1223.468628	25.400476
827.792419	746.742371	2717.176270	1245.908081	25.332783
828.097290	736.117004	2739.169922	1255.195801	25.914381
828.402100	734.259460	2680.173340	1227.035156	25.323614
828.706848	734.928223	2582.167969	1194.713379	24.890388
829.011597	742.730042	2425.538086	1139.357910	23.569407
829.316223	747.559753	2261.997803	1088.683472	22.524773
829.620789	744.587585	2123.274658	1052.126587	22.306658
829.925354	748.228333	2015.461426	1024.411499	21.794188
830.229797	745.999329	1905.047485	1002.269348	22.110388
830.534302	741.689758	1773.977539	975.743408	22.673294
830.838562	731.956055	1650.486450	947.508301	23.467077
831.142944	729.355469	1544.084961	919.942078	23.392624
831.447144	734.705322	1454.401367	900.846191	23.084866
831.751404	745.033447	1396.296753	892.672852	22.669695
832.055542	756.178772	1363.826538	886.580078	21.460016
832.359619	759.299500	1362.043213	874.617249	19.132135
832.663635	749.342957	1369.250610	868.524475	19.225689
832.967651	748.599915	1400.160522	877.663757	19.808416
833.271545	741.912598	1459.528320	899.434387	21.950716
833.575439	746.816650	1558.648071	930.790222	22.661549
833.879211	735.299744	1673.891602	967.272766	24.715004
834.183044	746.742371	1781.407715	1003.086670	24.775578
834.486694	745.181946	1869.382202	1029.018433	25.247860
834.790344	753.355286	1918.942017	1031.098877	23.828651
835.093933	749.640137	1930.235962	1020.325012	22.927818
835.397522	751.720642	1880.304688	1010.071228	22.891569
835.700928	755.955872	1809.939941	990.603821	22.262949
836.004395	756.773254	1742.918945	974.554443	22.084078
836.307739	756.476074	1684.888306	947.805481	20.608238
836.611023	752.315125	1624.406128	936.511475	21.121231
836.914307	745.702148	1551.143555	914.815125	20.996309
837.217529	742.284180	1477.732544	906.344543	22.307529
837.520691	740.203674	1403.355469	884.945374	21.826330
837.823730	738.271790	1344.359009	880.115723	23.403221
838.126831	736.860046	1291.009644	868.747375	23.799950
838.429749	733.219238	1254.155640	861.614441	24.647001
838.732727	734.185242	1218.044556	851.657715	24.278229
839.035522	731.881836	1210.242798	840.512390	22.708908
839.338379	747.856934	1198.279907	837.688782	19.943888
839.641113	750.383240	1192.781494	839.397766	20.120903
839.943848	749.045715	1195.456421	845.342041	21.571239
840.246460	732.253357	1215.295288	860.276855	26.503599
840.549072	726.606262	1244.421875	870.604980	27.808880
840.851563	736.637207	1253.115356	870.159180	25.852396
841.154053	738.643372	1260.842773	868.004395	24.772343
841.456482	745.181946	1255.641724	858.642273	22.227085
841.758850	742.878601	1239.592285	860.202454	23.620016
842.061157	740.055115	1212.100342	856.338867	24.634027
842.363403	742.358459	1180.447388	854.555664	25.610600
842.665588	744.438965	1166.701416	848.982910	24.758049
842.967712	752.537903	1154.515747	838.951965	21.497221
843.269775	747.931152	1138.912109	838.951965	23.280113
843.571777	748.525574	1114.095093	830.035645	22.296736
843.873840	745.850769	1091.581299	826.692078	23.382751
844.175659	750.903320	1074.417358	817.627136	20.624704
844.477600	754.618408	1063.717773	820.153503	21.201950
844.779297	753.578186	1042.244263	815.175232	21.338512
845.081116	746.742371	1033.402222	806.035950	20.684298
845.382751	741.689758	1028.201050	808.562195	23.340244
845.684387	736.117126	1024.411499	806.258789	24.329876
845.985962	736.711487	1020.027649	802.469421	23.210089
846.287537	738.123230	1004.424133	796.005066	21.735500
846.588989	747.856873	1010.962830	806.035889	22.112391
846.890381	750.160339	1009.328125	811.608582	23.709831
847.191711	749.937317	1012.374573	805.738708	21.262754
847.493042	737.826111	997.662598	798.308411	23.277061
847.794250	735.819824	991.941223	788.946289	20.742689
848.095459	733.367859	982.653503	788.723328	22.205639
848.396606	735.299744	982.802063	791.992676	22.906021
848.697693	739.089172	980.201477	798.011230	24.437599
848.998657	736.934326	984.213867	796.228027	23.978409
849.299622	742.432800	986.294250	792.364197	20.475313
849.600464	738.346130	981.687500	798.754333	24.824469
849.901367	739.534973	968.610291	799.274414	26.078514
850.202087	735.596924	964.077820	788.649109	23.219528
850.502808	733.219238	965.415283	781.813171	20.927977
850.803467	734.259583	976.040527	777.132141	17.731983
851.104065	739.163574	979.458496	783.373535	18.398209
851.404663	747.485352	981.018799	785.008240	16.067457
851.705139	749.640137	970.542175	791.175354	18.802551
852.005615	750.829041	965.861023	795.113464	20.594343
852.306030	748.822815	966.232605	795.113464	21.291887
852.606384	740.946777	972.176758	792.067078	22.107990
852.906616	733.293518	968.461609	792.438538	25.150105
853.206909	726.606262	962.591736	793.478760	28.337549
853.506958	730.247070	964.152100	792.141296	26.461264
853.807129	738.494812	965.043701	794.741882	24.827785
854.107178	745.033386	965.935364	789.392090	20.080719
854.407166	747.262451	955.904480	794.667664	22.720835
854.707092	742.432800	957.167542	792.958679	23.529438
855.007019	742.507141	944.759033	796.227966	26.561346
855.306763	746.519470	950.257507	795.856445	24.215889
855.606567	749.640137	947.136719	789.614990	20.240782
855.906250	745.702148	954.046875	781.218811	17.047066
856.205933	733.887939	948.697083	779.361267	21.169176
856.505493	736.711426	947.954102	780.772949	20.858250
856.805054	742.507019	947.805481	788.426086	22.366982
857.104492	748.971436	948.994324	789.689270	20.356588
857.403931	741.095276	948.622864	784.859619	21.088446
857.703308	736.340027	948.994324	781.887512	21.418558
858.002563	737.380188	953.972656	781.664551	20.445938
858.301819	742.804260	957.687805	789.912170	21.922531
858.601013	744.290344	953.526855	788.723328	21.235769
858.900208	737.454529	957.390625	784.116638	21.216213
859.199219	742.135559	952.115051	777.280762	16.737446
859.498291	739.757874	958.133606	775.423157	16.332073
859.797302	750.531738	947.285339	785.528320	17.787010
860.096191	746.742371	947.136719	792.958679	23.062681
860.395020	750.829041	941.638367	793.924622	22.585678
860.693787	752.092102	938.740540	784.562500	17.396555
860.992554	748.599915	930.715820	766.581238	9.873560
861.291260	743.027161	931.161682	769.776184	14.218030
861.589844	731.658936	932.350586	778.246643	23.213575
861.888428	730.470032	934.505371	790.358093	29.351809
862.186890	741.169678	938.889221	789.763672	24.577234
862.485413	745.776428	938.294861	781.664734	18.641491
862.783813	748.154114	947.508301	782.481934	17.219513
863.082153	745.702148	944.833435	787.460266	20.970144
863.380371	746.519470	948.920105	788.203308	20.594717
863.678589	748.599915	951.966492	787.906067	19.327734
863.976746	752.909485	949.143005	784.413757	16.054482
864.274902	758.259277	950.108887	785.082520	13.981390
864.572937	758.779358	952.189453	790.878113	16.596214
864.870911	750.085999	955.755920	790.135193	19.472557
865.168884	747.113953	955.830261	795.113464	22.997490
865.466736	748.674255	953.824036	783.447937	16.950386
865.764587	747.485352	950.777588	782.556335	17.251513
866.062317	742.581482	946.988098	775.497559	16.103235
866.360107	735.968506	943.421631	772.451172	17.585981
866.657715	733.293640	945.502136	773.268372	18.837479
866.955322	740.798157	950.108887	779.361267	18.423857
867.252808	741.466858	950.851868	784.785339	20.688435
867.550293	743.770264	947.731201	785.751282	20.582872
867.847717	742.284180	946.096497	781.590332	19.285465
868.145081	743.027161	940.969666	785.528320	21.471468
868.442383	747.708252	945.204895	782.333313	17.531975
868.739624	740.723816	942.158508	779.361145	19.181070
869.036804	739.386292	934.802551	781.367432	21.482931
869.333984	734.779602	934.356689	787.014404	26.172745
869.631042	738.643372	936.511536	787.683105	24.784044
869.928101	743.175842	942.158508	791.101074	24.085129
870.224976	744.438965	942.901550	782.853455	19.356035
870.521851	754.321228	949.588684	792.438477	19.520533
870.818726	747.633972	955.161438	793.998840	22.341558
871.115479	748.599854	959.099548	788.649109	19.025803
871.412231	743.398682	951.817871	773.417053	14.402883
871.708862	741.243958	951.446350	765.243713	11.417451
872.005493	741.243958	946.542297	776.612122	17.227692
872.302063	738.866272	951.743591	782.036133	20.279221
872.598572	744.364685	958.950928	781.887512	17.486130
872.895020	741.912598	960.882751	781.441711	18.052284
873.191406	739.980774	961.848633	787.980408	21.634335
873.487671	744.513184	961.848633	790.283752	21.059874
873.783997	748.822815	964.597839	786.865784	17.630850
874.080200	752.240723	974.182922	782.407654	13.592247
874.376343	748.525574	976.040527	784.933899	16.002607
874.672424	753.280945	978.715393	787.980286	15.392209
874.968445	750.977600	979.681335	792.809998	18.291086
875.264465	753.132385	969.947754	789.912170	16.963642
875.560364	749.120056	971.508118	784.859680	16.070837
875.856201	747.931152	964.746521	783.447937	16.381119
876.152039	745.776367	965.861084	786.940125	18.703596
876.447754	740.278015	971.656677	787.831726	20.552332
876.743469	739.683594	977.972412	788.203308	20.361725
877.039063	735.745605	981.390320	784.785339	19.963684
877.334595	733.590759	972.028137	786.791504	22.312250
877.630127	734.333740	970.096375	781.887512	20.170191
877.925537	738.346191	980.201477	785.899902	19.662052
878.221008	742.804260	992.758606	792.661438	19.946514
878.516296	744.810486	992.981506	801.206238	22.724552
878.811646	738.346191	990.826721	796.153625	22.895800
879.106812	738.271912	998.257080	805.515808	25.864513
879.401978	745.776428	1012.300293	801.577820	20.936733
879.697083	756.921875	1037.265991	805.144287	17.201151
879.992126	756.996094	1055.321533	805.887268	16.388536
880.287109	750.457520	1088.609009	814.432129	18.918921
880.582031	745.850769	1140.398193	835.459778	22.711847
880.876892	743.695984	1252.149536	869.713379	24.784447
881.171753	735.596985	1447.342651	925.960510	26.746004
881.466492	738.717590	1735.860229	1006.727539	26.877794
881.761230	738.643311	2090.432617	1101.983643	26.878473
882.055786	749.863037	2436.609131	1203.183960	26.875469
882.350403	747.039551	2701.201172	1270.205078	26.771866
882.644958	752.240723	2833.906006	1295.468018	26.095804
882.939453	741.689758	2834.648682	1276.149292	25.536074
883.233826	754.172668	2744.742432	1238.923462	24.352364
883.528137	753.503906	2624.594971	1195.679321	23.631956
883.822449	757.516296	2500.657959	1157.264893	22.932652
884.116577	745.999329	2392.547607	1127.989624	23.199459
884.410828	745.702148	2276.115234	1093.736084	22.741177
884.704956	744.513184	2133.379639	1055.321655	22.378571
884.999023	744.438904	1956.019165	1008.213623	21.771130
885.292969	740.129395	1762.980835	964.672302	21.952641
885.586914	738.346191	1600.480835	923.285645	21.451342
885.880798	734.408020	1469.633423	890.443848	21.222857
886.174622	737.157227	1369.919312	870.010559	20.995779
886.468384	737.974609	1289.300781	860.945618	22.304585
886.762085	737.008606	1230.898804	851.583496	23.198454
887.055664	735.374023	1179.035522	837.986084	23.128458
887.349304	737.974609	1150.280396	822.010986	20.382051
887.642822	742.135559	1120.484985	813.094727	18.754929
887.936340	743.473083	1100.274780	801.206238	16.180740
888.229736	747.559631	1071.891113	802.617981	16.975950
888.523071	744.513245	1062.306030	798.159851	16.881002
888.816284	744.513245	1061.488647	800.686096	17.721518
889.109619	737.900330	1059.111084	794.296082	17.557243
889.402710	738.717712	1043.953247	796.227966	18.841270
889.695862	739.312073	1015.123718	786.419983	17.079739
889.988892	739.312073	987.854675	779.881348	16.322866
890.281921	736.488525	966.975464	770.147705	14.603509
>>>>>End Processed Spectral Data<<<<<
