Jaz Data File
++++++++++++++++++++++++++++++++++++
Date: Fri Jun 04 16:03:38 2021
User: jaz
Dark Spectrum Present: Yes
Reference Spectrum Present: Yes
Processed Spectrum Present: Yes
Spectrometers: JAZA3586
Integration Time (usec): 24600 (JAZA3586)
Spectra Averaged: 10 (JAZA3586)
Boxcar Smoothing: 1 (JAZA3586)
Correct for Electrical Dark: No (JAZA3586)
Strobe/Lamp Enabled: Yes (JAZA3586)
Correct for Detector Non-linearity: No (JAZA3586)
Correct for Stray Light: No (JAZA3586)
Number of Pixels in Processed Spectrum: 2048
>>>>>Begin Processed Spectral Data<<<<<
W	D	R	S	P
191.335022	0.000000	0.000000	0.000000	0.000000
191.713211	387.488678	386.225494	380.281342	570.569214
192.091385	782.481934	776.240479	760.191162	357.140625
192.469528	1172.942749	1174.948853	1145.302124	-1377.826416
192.847641	1184.311157	1189.289429	1153.252563	-623.883057
193.225739	1196.571167	1199.320190	1165.958130	-1113.596802
193.603790	1211.877319	1200.360474	1176.434937	307.743835
193.981842	1215.518188	1204.224121	1184.459595	274.999176
194.359863	1208.905273	1203.852661	1186.168579	449.998779
194.737854	1212.768921	1214.849487	1183.642334	-1399.935425
195.115829	1216.855591	1212.694702	1177.698120	941.084290
195.493774	1224.806030	1210.465576	1175.097534	346.631256
195.871704	1219.159058	1204.892944	1179.481445	278.124878
196.249603	1223.468628	1208.533691	1184.756958	259.202118
196.627457	1216.781372	1210.985718	1182.899414	584.609741
197.005310	1218.787598	1215.221069	1183.716675	983.335022
197.383133	1212.026001	1212.248901	1189.735107	-10000.383789
197.760910	1210.688599	1217.821655	1198.354370	-172.916458
198.138687	1208.013672	1216.707031	1199.765991	-94.873344
198.516449	1204.521484	1217.301392	1196.125244	-65.698761
198.894180	1206.527466	1213.883545	1192.335815	-192.924118
199.271866	1202.069458	1216.038330	1185.574219	-118.085693
199.649536	1199.171753	1215.221069	1175.543457	-147.223068
200.027191	1201.846558	1219.901978	1175.246216	-147.326080
200.404816	1200.360474	1213.437622	1178.886963	-164.206375
200.782410	1202.440918	1226.069214	1182.825073	-83.018448
201.159988	1203.183960	1232.756470	1188.843628	-48.492104
201.537537	1212.397461	1237.586060	1188.992188	-92.920113
201.915070	1209.796875	1236.694458	1186.243042	-87.568588
202.292557	1204.149902	1234.911255	1178.366821	-83.816475
202.670029	1196.422485	1242.490112	1186.168579	-22.258377
203.047485	1196.050903	1249.400269	1196.942505	1.671251
203.424911	1191.592773	1261.734497	1209.573853	25.635353
203.802292	1197.462524	1257.053345	1205.635864	13.715770
204.179688	1197.314087	1248.359985	1201.549316	8.296905
204.557037	1199.691772	1237.957642	1193.376099	-16.504719
204.934357	1188.397827	1239.518066	1186.020142	-4.651163
205.311661	1187.060181	1244.867798	1186.911743	-0.256778
205.688934	1192.038574	1253.858398	1190.106689	-3.125025
206.066177	1193.004517	1257.796387	1190.403809	-4.013942
206.443390	1195.902222	1252.743774	1184.608276	-19.869171
206.820587	1191.741333	1246.428101	1176.360718	-28.124929
207.197769	1198.057129	1237.363281	1179.630005	-46.881016
207.574921	1199.914551	1239.517944	1180.150269	-49.905525
207.952042	1195.307739	1233.127930	1181.561890	-36.345268
208.329147	1190.626831	1241.747070	1181.413208	-18.023436
208.706223	1191.444092	1237.586060	1188.323364	-6.763317
209.083267	1196.868286	1233.499390	1188.323364	-23.326958
209.460297	1206.378906	1227.109497	1177.698120	-138.350067
209.837280	1203.926880	1224.806030	1166.107056	-181.136795
210.214264	1195.456421	1231.567627	1170.862427	-68.106270
210.591217	1186.168579	1228.595581	1183.716675	-5.779113
210.968124	1186.094360	1228.223999	1188.397827	5.467568
211.345016	1190.032349	1233.053589	1180.893188	-21.243368
211.721893	1193.004517	1244.496216	1174.280151	-36.363853
212.098724	1191.592773	1248.657227	1183.716675	-13.802110
212.475555	1193.227417	1249.771851	1193.227417	0.000000
212.852356	1191.369873	1240.929810	1196.273804	9.894950
213.229126	1188.917847	1246.799683	1193.227417	7.445462
213.605865	1193.598999	1250.663330	1189.958130	-6.380289
213.982590	1197.388550	1256.830444	1185.202759	-20.500341
214.359283	1196.645386	1256.681885	1188.917847	-12.871402
214.735931	1192.261475	1249.028687	1184.905396	-12.958323
215.112579	1187.580444	1251.703613	1201.697876	22.016117
215.489197	1193.524536	1248.880249	1187.505981	-10.872509
215.865799	1187.431885	1243.381714	1185.945679	-2.656319
216.242355	1187.357544	1238.774902	1165.586792	-42.341248
216.618896	1182.379272	1232.310547	1168.410278	-27.976442
216.995407	1182.230469	1236.545898	1169.599121	-23.255543
217.371902	1183.270752	1230.824585	1169.822021	-28.281065
217.748367	1195.084961	1229.858521	1165.512573	-85.042740
218.124802	1206.304565	1228.001099	1159.494019	-215.751282
218.501236	1204.001221	1234.168213	1165.809692	-126.600388
218.877609	1188.843384	1244.570557	1175.692017	-23.599560
219.253983	1176.063354	1250.366211	1186.465820	14.000089
219.630295	1180.744507	1244.719238	1189.437988	13.588930
220.006592	1182.453613	1247.096802	1189.512329	10.919504
220.382889	1194.119019	1249.846069	1187.728882	-11.466849
220.759140	1195.307861	1256.904785	1181.041748	-23.160431
221.135391	1203.852661	1257.499146	1182.973633	-38.919659
221.511581	1203.258301	1251.332153	1186.911621	-34.003265
221.887772	1196.422485	1251.555054	1198.577148	3.908149
222.263931	1193.227417	1245.833740	1195.159302	3.672343
222.640060	1189.066528	1242.713013	1186.317139	-5.125014
223.016159	1190.329590	1241.821411	1178.886841	-22.222460
223.392212	1188.843506	1243.381714	1179.555664	-17.029972
223.768265	1186.094238	1250.514771	1184.831177	-1.960651
224.144302	1185.276978	1253.486938	1182.527832	-4.030416
224.520294	1188.249023	1251.183594	1184.756836	-5.548918
224.896286	1190.106567	1257.573608	1182.453491	-11.343430
225.272217	1193.598877	1257.127808	1186.168579	-11.695928
225.648148	1188.769409	1260.397095	1186.763062	-2.801079
226.024048	1191.964233	1254.452759	1187.877563	-6.539873
226.399902	1191.146851	1262.106079	1182.676392	-11.937078
226.775772	1198.428589	1261.140015	1177.623901	-33.175274
227.151581	1191.592651	1265.152344	1178.143921	-18.282743
227.527374	1192.558594	1260.322754	1183.865356	-12.828666
227.903137	1188.471924	1273.474243	1183.790894	-5.506944
228.278870	1188.992065	1284.248169	1185.648560	-3.510017
228.654572	1186.911621	1300.000366	1177.475220	-8.344244
229.030273	1183.939575	1312.111816	1184.162476	0.173907
229.405930	1187.729126	1317.461548	1182.750854	-3.837338
229.781555	1192.856079	1320.730957	1194.564941	1.336355
230.157181	1197.982910	1324.891846	1187.729004	-8.079736
230.532761	1198.279907	1332.024902	1189.958008	-6.222214
230.908325	1194.936401	1332.396362	1178.886963	-11.675718
231.283859	1189.512207	1324.297363	1183.493774	-4.465204
231.659332	1186.020020	1311.442993	1175.840454	-8.116189
232.034821	1189.661011	1304.978638	1178.143921	-9.987276
232.410263	1187.580444	1303.567017	1176.657837	-9.417131
232.785690	1192.855957	1298.588745	1178.441162	-13.633231
233.161087	1187.283203	1297.028198	1182.527832	-4.333110
233.536469	1194.564819	1292.272827	1183.345093	-11.482914
233.911804	1192.930176	1291.009766	1191.221191	-1.742447
234.287140	1193.524536	1292.421509	1193.227417	-0.300433
234.662430	1192.558594	1291.604248	1192.484375	-0.074934
235.037704	1197.091064	1300.223267	1192.707397	-4.250532
235.412933	1202.440918	1307.430786	1192.707397	-9.270914
235.788162	1197.091187	1317.164307	1194.416382	-2.227647
236.163345	1193.301758	1320.507935	1188.769287	-3.563090
236.538513	1195.233521	1319.244751	1192.187134	-2.456541
236.913635	1197.611206	1312.260376	1192.261475	-4.666175
237.288742	1196.942505	1309.585571	1196.496704	-0.395764
237.663834	1191.444214	1304.012817	1198.651489	6.402563
238.038879	1189.958130	1307.802124	1198.205566	6.998606
238.413910	1192.558716	1315.380981	1198.280029	4.658206
238.788910	1196.868286	1316.644165	1189.140869	-6.451563
239.163879	1202.069458	1317.089966	1183.642456	-16.020622
239.538834	1201.846558	1314.638062	1187.803467	-12.450486
239.913757	1198.800171	1325.857666	1188.769409	-7.894663
240.288651	1200.954956	1341.238281	1189.363647	-8.262784
240.663528	1200.657715	1351.046387	1179.555664	-14.031675
241.038361	1196.793945	1366.798462	1183.716675	-7.692307
241.413177	1193.524536	1384.110962	1184.013794	-4.990252
241.787979	1199.394531	1414.649536	1186.391479	-6.040766
242.162735	1194.490601	1437.163208	1183.196411	-4.654085
242.537476	1190.849731	1452.989624	1190.329468	-0.198468
242.912170	1187.729004	1465.101074	1196.570923	3.187747
243.286865	1186.837280	1482.042114	1190.106812	1.107547
243.661514	1186.391602	1493.484741	1183.567993	-0.919463
244.036148	1187.134644	1488.506470	1181.041626	-2.021761
244.410751	1196.422485	1474.908813	1185.351196	-3.975523
244.785339	1201.995117	1457.967896	1180.298706	-8.476062
245.159882	1201.252075	1450.091797	1174.205933	-10.868901
245.534378	1201.549194	1447.639771	1178.144043	-9.510787
245.908890	1200.806274	1471.639648	1183.642456	-6.337409
246.283356	1200.360474	1503.515625	1188.026245	-4.068619
246.657791	1195.976685	1551.292114	1185.499878	-2.948593
247.032196	1191.741333	1598.846069	1187.357422	-1.076851
247.406586	1194.787720	1662.300415	1191.444092	-0.715195
247.780960	1191.667114	1722.188477	1190.032349	-0.308143
248.155289	1189.363647	1747.599976	1188.917847	-0.079859
248.529602	1183.047852	1741.878784	1184.682495	0.292511
248.903870	1195.159302	1695.067993	1186.763062	-1.679555
249.278122	1198.725830	1649.148804	1183.716553	-3.332263
249.652344	1201.995117	1596.096680	1179.852905	-5.618402
250.026550	1195.456543	1558.648071	1174.948853	-5.646522
250.400711	1199.989136	1534.871460	1180.224487	-5.901968
250.774857	1201.400757	1520.456665	1178.886963	-7.056379
251.148987	1197.759888	1518.004517	1181.116089	-5.197214
251.523071	1190.255249	1513.769165	1180.447388	-3.031666
251.897125	1186.837280	1524.766113	1182.379272	-1.319215
252.271164	1195.159302	1534.574097	1184.682617	-3.086691
252.645187	1201.177856	1558.127930	1187.357544	-3.871778
253.019165	1196.645264	1576.852173	1193.301880	-0.879359
253.393112	1194.787720	1585.099976	1197.016968	0.571145
253.767044	1195.307983	1572.914429	1197.685547	0.629641
254.140930	1201.475098	1541.781616	1193.970459	-2.205259
254.514801	1196.942505	1523.131470	1194.936401	-0.615013
254.888657	1196.125244	1503.738647	1189.140747	-2.270544
255.262466	1192.855835	1508.642578	1192.707397	-0.047006
255.636276	1192.038452	1503.589966	1189.140869	-0.930049
256.010010	1192.781616	1508.493774	1194.713501	0.611913
256.383759	1195.159302	1519.861938	1192.855957	-0.709370
256.757446	1196.050903	1540.221069	1195.084961	-0.280658
257.131134	1190.775269	1566.895874	1190.106689	-0.177757
257.504791	1188.546265	1589.409668	1181.933350	-1.649668
257.878418	1192.187134	1620.319458	1175.023315	-4.008998
258.252014	1190.849731	1657.099243	1176.137817	-3.155374
258.625580	1193.821777	1694.027710	1181.041748	-2.554954
258.999115	1196.496704	1755.401733	1185.871460	-1.901082
259.372650	1199.840332	1837.803345	1186.763062	-2.049848
259.746124	1190.478149	1936.105957	1183.865356	-0.886876
260.119598	1183.122192	2027.572632	1177.029419	-0.721508
260.493042	1179.852905	2101.429443	1171.976929	-0.854620
260.866425	1188.620605	2141.181396	1177.400879	-1.177849
261.239838	1191.295410	2115.547119	1179.927124	-1.229999
261.613159	1198.948608	2026.160767	1182.230591	-2.021007
261.986511	1194.639282	1921.914063	1179.555664	-2.073992
262.359802	1194.862061	1844.342163	1186.540161	-1.281317
262.733063	1191.146851	1812.466309	1186.763062	-0.705561
263.106293	1197.685425	1800.875000	1191.815796	-0.973099
263.479523	1194.564819	1787.277710	1185.351318	-1.554463
263.852692	1197.314087	1784.156860	1182.304932	-2.557611
264.225861	1195.010620	1772.862915	1183.196411	-2.044503
264.598969	1203.852661	1773.754517	1185.871338	-3.155161
264.972076	1204.447144	1764.764038	1188.694824	-2.811323
265.345154	1204.372681	1772.045532	1182.230591	-3.900502
265.718201	1201.474976	1786.683105	1183.642334	-3.047231
266.091217	1197.091187	1816.329956	1190.552490	-1.055925
266.464203	1191.146973	1851.846558	1190.106812	-0.157433
266.837158	1188.843628	1894.124878	1181.784790	-1.000854
267.210114	1190.255371	1932.836548	1175.097534	-2.041236
267.583038	1194.342041	1960.328735	1180.001465	-1.872170
267.955902	1189.958130	1966.272949	1190.701050	0.095698
268.328766	1188.174805	1969.913696	1196.199341	1.026498
268.701569	1189.586548	1969.022095	1201.029053	1.468050
269.074371	1193.598877	1982.842407	1199.988892	0.809638
269.447144	1195.679321	1986.185913	1198.874390	0.404180
269.819885	1195.307861	2008.030884	1189.735229	-0.685674
270.192596	1201.549316	2029.504395	1190.255249	-1.364092
270.565277	1202.218140	2077.132568	1188.100464	-1.613606
270.937927	1208.310791	2138.655273	1197.239746	-1.189994
271.310577	1201.846558	2206.642334	1203.109619	0.125703
271.683136	1200.731934	2290.901611	1200.954712	0.020435
272.055725	1192.038452	2350.640869	1192.187134	0.012833
272.428284	1194.341919	2380.659180	1182.230469	-1.020928
272.800812	1191.592773	2357.179443	1195.159180	0.305975
273.173279	1188.843384	2322.554443	1197.462646	0.760270
273.545776	1186.242798	2302.789795	1198.800171	1.124661
273.918152	1189.735229	2282.059326	1192.558716	0.258484
274.290558	1196.199585	2252.784180	1194.564819	-0.154722
274.662964	1199.691772	2237.403564	1197.908447	-0.171852
275.035278	1199.245972	2224.474854	1188.026245	-1.094363
275.407593	1191.146851	2239.260986	1187.654663	-0.333188
275.779907	1190.106567	2248.400391	1182.899292	-0.681028
276.152161	1190.998169	2273.885986	1194.119019	0.288197
276.524384	1191.443970	2305.910889	1185.945679	-0.493356
276.896606	1188.769287	2340.981689	1184.905396	-0.335345
277.268799	1193.227417	2373.451904	1186.094238	-0.604392
277.640930	1202.515259	2388.015137	1185.276978	-1.454094
278.013031	1202.812378	2398.863281	1184.682617	-1.515802
278.385162	1199.691772	2404.064697	1176.212036	-1.949540
278.757233	1193.970337	2396.411377	1180.744507	-1.099915
279.129272	1203.035522	2384.374268	1183.716553	-1.635345
279.501282	1201.177856	2381.996582	1186.837280	-1.214460
279.873230	1202.069458	2407.185303	1183.196533	-1.566067
280.245178	1192.187134	2443.965088	1185.128418	-0.563895
280.617126	1189.437988	2506.305176	1187.208862	-0.169275
280.988983	1188.323364	2566.193115	1191.741333	0.248062
281.360870	1190.478149	2625.858154	1186.837402	-0.253643
281.732697	1191.518433	2684.780273	1179.407104	-0.811065
282.104492	1189.809448	2746.376953	1177.178101	-0.811487
282.476288	1187.431763	2805.150391	1181.561890	-0.362849
282.848053	1190.775391	2847.577393	1182.304810	-0.511261
283.219757	1196.125244	2867.639404	1189.661011	-0.386729
283.591461	1195.605103	2852.555908	1190.255249	-0.322873
283.963135	1194.267700	2831.676758	1194.044678	-0.013620
284.334747	1195.159302	2827.441406	1195.828003	0.040967
284.706360	1198.205688	2861.174805	1196.496826	-0.102760
285.077942	1198.428589	2914.375732	1197.834229	-0.034637
285.449524	1195.530762	2967.427734	1196.125244	0.033551
285.821014	1198.651489	3006.436768	1205.338745	0.369914
286.192535	1197.982788	3066.919189	1211.134399	0.703695
286.563995	1197.388428	3120.863037	1215.963989	0.965729
286.935425	1192.187256	3173.915039	1211.357300	0.967340
287.306824	1193.078735	3157.642578	1201.772217	0.442515
287.678223	1195.605103	3115.438721	1200.434814	0.251569
288.049561	1202.738159	3054.510498	1195.679321	-0.381194
288.420898	1202.663818	3007.105469	1205.933228	0.181187
288.792145	1201.326294	2986.672119	1197.908569	-0.191432
289.163452	1192.484253	2991.799072	1187.803223	-0.260156
289.534668	1187.431641	3032.294189	1175.840576	-0.628289
289.905914	1182.304810	3074.349365	1176.063477	-0.329872
290.277039	1188.769165	3150.732422	1180.744507	-0.409012
290.648193	1187.060181	3225.183594	1188.174927	0.054695
291.019318	1189.214966	3303.127197	1186.168701	-0.144106
291.390381	1181.859131	3336.786377	1190.478271	0.399974
291.761475	1183.865356	3328.687500	1188.100586	0.197463
292.132507	1182.825073	3301.418701	1184.979858	0.101708
292.503510	1179.852905	3267.462158	1181.264648	0.067625
292.874481	1183.493652	3247.177734	1181.561768	-0.093613
293.245422	1187.134644	3249.332275	1187.357422	0.010803
293.616364	1188.992188	3284.106201	1187.951782	-0.049659
293.987213	1188.620605	3327.870361	1182.007690	-0.309123
294.358093	1190.106689	3409.305908	1183.270874	-0.308031
294.728943	1195.902344	3496.983154	1183.939575	-0.519876
295.099731	1198.800049	3603.384521	1181.338989	-0.726157
295.470490	1194.416138	3661.860596	1182.304932	-0.490840
295.841248	1192.112793	3702.355713	1190.849731	-0.050316
296.211975	1192.261475	3742.330811	1198.205688	0.233100
296.582642	1197.313965	3815.890625	1193.153198	-0.158894
296.953308	1196.348145	3898.218018	1187.431763	-0.330008
297.323883	1190.552612	3972.149170	1185.054199	-0.197671
297.694519	1186.391602	4024.384033	1189.363647	0.104724
298.065063	1191.147095	4035.455078	1186.985962	-0.146297
298.435608	1195.382202	3997.709229	1188.026245	-0.262495
298.806122	1196.719604	3882.242920	1186.763062	-0.370749
299.176575	1197.165405	3752.212891	1189.066528	-0.316976
299.547028	1196.942505	3644.473877	1189.363647	-0.309653
299.917450	1197.091187	3595.657227	1191.072632	-0.250923
300.287872	1197.239746	3577.899170	1195.382080	-0.078032
300.658234	1196.719604	3559.768799	1191.890015	-0.204380
301.028564	1198.577271	3535.249023	1199.468872	0.038157
301.398865	1196.125244	3521.800049	1199.320190	0.137377
301.769135	1195.605103	3506.642578	1205.115845	0.411536
302.139374	1193.524536	3519.571289	1199.023071	0.236390
302.509583	1190.923950	3534.283203	1199.840332	0.380496
302.879791	1192.038452	3539.707764	1205.413086	0.569698
303.249939	1189.958008	3516.822266	1208.682373	0.804704
303.620087	1197.982788	3488.364014	1207.344971	0.408761
303.990173	1195.605103	3468.005127	1199.468872	0.170030
304.360260	1195.456421	3454.110352	1197.834106	0.105270
304.730286	1186.243042	3436.054932	1194.564819	0.369888
305.100281	1186.763062	3434.494385	1193.227417	0.287595
305.470276	1183.939575	3457.008057	1188.472046	0.199399
305.840179	1185.648560	3471.051514	1187.729004	0.091032
306.210144	1186.614502	3482.791260	1192.038574	0.236222
306.579987	1194.193359	3489.404297	1194.267700	0.003239
306.949890	1200.211914	3510.134766	1193.004517	-0.312019
307.319702	1197.759766	3546.765869	1188.249146	-0.404878
307.689484	1193.375977	3583.545898	1187.877563	-0.230043
308.059265	1188.843628	3633.922852	1186.763062	-0.085092
308.429016	1189.215088	3703.395752	1198.057007	0.351682
308.798737	1191.444092	3776.807373	1200.583374	0.353501
309.168396	1191.221191	3856.682861	1205.487427	0.535226
309.538055	1188.546265	3903.790771	1195.159302	0.243552
309.907684	1185.648560	3950.378174	1189.066406	0.123623
310.277313	1187.803345	3985.821045	1189.066406	0.045141
310.646851	1196.496704	4020.371826	1185.499878	-0.389423
311.016388	1207.493530	4042.662842	1190.849731	-0.587048
311.385895	1204.372681	4044.520264	1195.233521	-0.321785
311.755371	1200.732056	4044.891602	1201.846558	0.039186
312.124817	1194.044800	4049.498291	1200.211792	0.215972
312.494232	1196.125244	4037.386963	1193.598877	-0.088917
312.863617	1191.890015	4016.136719	1198.577148	0.236776
313.232971	1184.236694	3975.195557	1203.406860	0.686867
313.602295	1190.032349	3947.629150	1197.982788	0.288310
313.971619	1188.694946	3945.325928	1195.233521	0.237194
314.340820	1193.450317	3949.709717	1188.249146	-0.188704
314.710083	1188.174927	3985.226563	1198.279907	0.361273
315.079285	1191.444214	4022.452148	1196.199463	0.167970
315.448486	1189.809570	4070.451904	1196.868164	0.245035
315.817596	1184.608276	4078.922607	1198.057007	0.464660
316.186707	1186.094360	4034.637939	1198.428589	0.433001
316.555786	1189.140747	3955.728516	1200.434692	0.408227
316.924866	1192.187134	3873.326904	1188.769287	-0.127477
317.293884	1192.261353	3826.218750	1185.945679	-0.239779
317.662872	1194.193359	3804.670898	1191.741333	-0.093930
318.031830	1193.970459	3821.017334	1202.738037	0.333743
318.400757	1194.119019	3837.884033	1202.589478	0.320394
318.769684	1192.855957	3864.929932	1193.747437	0.033363
319.138550	1193.153076	3899.555420	1192.781616	-0.013725
319.507416	1197.388306	3934.106201	1201.474976	0.149327
319.876190	1200.954834	3954.836670	1206.824829	0.213153
320.244995	1201.400757	3922.886475	1206.973511	0.204769
320.613770	1196.645264	3884.843018	1201.920898	0.196252
320.982483	1194.787720	3855.122314	1199.246094	0.167587
321.351166	1192.707275	3828.299072	1195.605103	0.109950
321.719818	1193.153198	3812.398438	1193.524658	0.014182
322.088440	1187.803345	3818.045166	1195.010620	0.274016
322.457062	1188.397705	3847.840820	1193.227417	0.181606
322.825623	1184.534058	3889.821533	1194.490601	0.368040
323.194183	1192.112793	3945.325928	1195.902344	0.137641
323.562653	1190.701050	4032.928955	1190.180908	-0.018300
323.931183	1193.673218	4123.280762	1201.920776	0.281524
324.299591	1194.193359	4205.236816	1201.326294	0.236892
324.668060	1196.273804	4273.669922	1209.648315	0.434605
325.036407	1195.679321	4330.511230	1195.010742	-0.021327
325.404755	1190.180908	4361.644043	1193.078857	0.091376
325.773102	1189.512329	4375.092773	1199.171631	0.303219
326.141388	1191.295532	4375.315918	1199.543091	0.259030
326.509674	1188.174805	4364.541992	1198.651489	0.329832
326.877899	1184.385376	4358.226074	1195.456421	0.348822
327.246124	1184.682617	4361.644043	1206.676270	0.692286
327.614288	1186.317261	4356.739746	1215.221069	0.911671
327.982422	1184.608276	4339.130371	1212.917603	0.897420
328.350525	1186.911743	4295.291504	1214.255005	0.879663
328.718628	1191.072632	4291.948242	1208.979492	0.577478
329.086700	1196.719604	4292.319336	1211.580200	0.480055
329.454712	1191.146973	4322.709473	1206.676270	0.495896
329.822693	1185.277100	4337.272461	1209.128296	0.756702
330.190674	1184.459717	4347.377441	1212.026001	0.871546
330.558563	1186.317261	4365.358887	1208.310913	0.691833
330.926483	1186.020142	4387.204102	1205.264526	0.601165
331.294312	1186.540283	4444.342773	1199.023071	0.383166
331.662231	1185.871460	4502.373535	1206.601929	0.625070
332.029999	1187.506226	4567.313965	1207.121948	0.580380
332.397766	1196.125122	4611.672363	1212.397461	0.476420
332.765503	1203.183960	4672.452637	1212.100220	0.257007
333.133240	1197.982910	4735.312500	1213.140503	0.428504
333.500916	1192.707275	4830.270996	1223.468628	0.845658
333.868561	1183.122192	4884.957520	1225.994751	1.158143
334.236176	1194.416138	4910.815430	1235.505737	1.105629
334.603790	1189.363647	4893.800293	1230.230103	1.103176
334.971344	1193.152954	4881.391602	1219.456177	0.713165
335.338867	1185.128418	4869.057129	1215.369629	0.820896
335.706360	1189.512207	4856.797363	1215.963989	0.721291
336.073853	1193.004517	4856.054199	1221.685425	0.782979
336.441284	1195.456543	4863.930176	1226.217773	0.838529
336.808655	1199.765991	4865.937012	1225.028931	0.689082
337.176086	1198.279907	4828.190918	1227.109497	0.794223
337.543396	1195.753784	4732.562988	1226.143555	0.859243
337.910706	1185.574219	4648.452637	1223.468628	1.094304
338.277954	1181.859131	4632.774414	1230.750366	1.416761
338.645264	1189.958130	4711.460938	1224.880371	0.991686
339.012421	1190.181030	4855.459961	1225.177612	0.954814
339.379669	1191.072632	4989.056152	1215.963989	0.655384
339.746796	1187.357422	5102.070801	1219.753418	0.827545
340.113953	1194.341919	5172.138184	1226.812134	0.816287
340.481018	1196.348022	5222.738281	1233.573730	0.924543
340.848114	1197.388428	5239.233887	1230.453003	0.818056
341.215118	1197.314087	5258.849609	1226.069214	0.707987
341.582153	1189.660889	5275.419434	1224.508911	0.852914
341.949066	1190.998291	5323.418457	1229.115601	0.922397
342.316010	1189.958130	5341.474121	1231.567627	1.002272
342.682922	1189.437866	5372.160645	1230.378784	0.978810
343.049835	1188.249023	5410.055176	1229.338501	0.973268
343.416656	1184.533936	5475.292969	1233.053711	1.130797
343.783478	1189.140747	5579.539551	1240.929810	1.179598
344.150269	1180.893066	5725.173340	1247.394043	1.463400
344.516998	1180.150024	5925.716309	1251.703613	1.507799
344.883728	1186.391479	6071.052246	1249.028809	1.282327
345.250427	1191.146973	6155.608887	1254.973022	1.285659
345.617065	1190.552490	6166.828125	1258.167847	1.358754
345.983704	1188.694946	6142.828613	1254.824219	1.334830
346.350281	1185.797241	6125.738770	1252.817993	1.356712
346.716827	1189.363647	6042.817871	1254.304199	1.338027
347.083405	1189.735229	5984.638184	1266.787109	1.606954
347.449860	1195.456421	5891.982910	1260.545776	1.385904
347.816376	1192.187134	5832.392090	1254.081299	1.333867
348.182770	1184.311035	5772.652832	1249.177368	1.413721
348.549194	1184.831177	5738.474121	1253.784058	1.514235
348.915558	1178.663940	5744.640625	1260.396973	1.790045
349.281921	1184.088135	5762.622559	1264.335083	1.752678
349.648193	1178.143921	5816.491699	1272.508423	2.034442
350.014526	1176.806519	5864.564941	1272.285522	2.036773
350.380737	1170.787964	5933.517578	1272.656982	2.138879
350.746948	1172.348267	6002.544922	1267.827271	1.976710
351.113159	1182.156372	6058.494629	1270.873657	1.819342
351.479309	1187.431763	6116.748535	1274.068726	1.757586
351.845428	1184.534058	6154.494629	1273.697266	1.794043
352.211517	1182.007690	6219.063965	1272.656982	1.799648
352.577576	1180.447388	6262.455566	1270.279297	1.767646
352.943604	1185.499878	6307.260254	1271.913940	1.687195
353.309601	1188.174683	6379.854004	1278.452637	1.738897
353.675537	1190.626831	6505.797363	1273.102905	1.551711
354.041473	1197.759888	6654.923340	1278.006836	1.470488
354.407379	1202.143677	6771.875488	1264.260864	1.115263
354.773254	1201.549194	6897.298828	1278.972778	1.359322
355.139038	1199.022949	7009.050293	1275.777710	1.321074
355.504913	1197.239746	7163.822266	1288.037720	1.521775
355.870636	1194.787720	7271.933105	1286.031494	1.501425
356.236389	1198.948730	7444.463379	1291.307007	1.478794
356.602081	1194.713501	7622.791016	1295.616577	1.569724
356.967804	1198.948730	7803.420410	1294.130493	1.441172
357.333405	1193.598877	7960.571777	1301.709351	1.597620
357.699036	1196.273804	8122.476563	1306.762085	1.595222
358.064606	1194.044678	8320.418945	1309.585571	1.621314
358.430176	1186.688721	8475.934570	1310.254272	1.695176
358.795654	1184.608276	8576.020508	1309.585449	1.690843
359.161163	1183.047974	8578.546875	1306.093262	1.663786
359.526581	1183.642334	8559.748047	1314.638062	1.775947
359.892029	1186.020020	8585.753906	1322.142578	1.839560
360.257416	1189.512207	8702.186523	1338.192017	1.979053
360.622772	1200.063354	8933.491211	1333.510986	1.725595
360.988098	1201.400757	9239.989258	1335.219849	1.664709
361.353394	1191.815674	9581.633789	1340.346924	1.770375
361.718658	1180.744507	9879.364258	1359.145508	2.050911
362.083893	1173.537231	10100.191406	1371.331055	2.215767
362.449097	1185.797119	10221.454102	1382.550781	2.177525
362.814209	1193.078857	10226.135742	1381.807617	2.089312
363.179382	1198.948730	10020.463867	1383.293823	2.089721
363.544434	1195.307861	9638.399414	1377.052368	2.152582
363.909546	1200.880493	9166.280273	1372.965698	2.160409
364.274536	1200.063110	8747.881836	1374.377441	2.309466
364.639587	1208.831055	8448.368164	1389.683716	2.498125
365.004517	1199.468872	8269.075195	1402.389648	2.870326
365.369507	1197.759888	8148.854004	1413.832153	3.108464
365.734344	1192.335815	8075.813965	1414.872437	3.232910
366.099274	1192.261475	8009.981934	1418.661987	3.320765
366.464081	1192.038452	7972.681641	1421.411133	3.382757
366.828918	1181.784668	7951.134277	1427.355347	3.627685
367.193665	1182.825073	7922.750488	1444.890625	3.888256
367.558411	1180.818848	7910.564941	1462.351929	4.183413
367.923126	1185.797241	7919.927246	1490.661133	4.527146
368.287781	1187.952026	7916.880859	1503.589844	4.690759
368.652435	1190.552612	7875.791504	1514.438110	4.844786
369.017059	1194.787720	7814.491699	1523.725952	4.969078
369.381653	1193.153076	7748.881348	1533.459473	5.190978
369.746185	1191.890015	7745.835449	1553.966919	5.524564
370.110687	1184.311035	7768.200684	1574.177368	5.921520
370.475220	1184.236816	7837.005371	1601.446411	6.271218
370.839661	1193.227539	7891.766113	1623.960327	6.430250
371.204041	1201.772339	7976.322754	1651.080688	6.632298
371.568451	1198.874390	8024.990723	1681.842163	7.075294
371.932770	1189.214966	8086.885254	1707.328003	7.511421
372.297150	1192.558594	8093.052246	1737.197632	7.892755
372.661377	1197.759766	8144.173340	1768.107422	8.210678
373.025696	1197.834106	8192.098633	1803.475586	8.659116
373.389862	1179.109863	8199.379883	1839.512573	9.407084
373.754059	1176.360718	8182.067871	1869.679565	9.896486
374.118225	1181.561890	8168.395996	1915.301392	10.501745
374.482361	1190.626831	8240.394531	1960.848755	10.925494
374.846436	1193.375977	8334.090820	2015.758423	11.516809
375.210510	1187.951904	8466.497070	2066.730225	12.073544
375.574524	1189.289429	8599.871094	2115.992920	12.505138
375.938538	1188.472046	8767.944336	2174.320557	13.006823
376.302460	1188.323364	8935.645508	2234.951416	13.509546
376.666412	1186.168579	9118.950195	2308.511230	14.148160
377.030304	1190.701050	9306.043945	2376.275146	14.609045
377.394196	1195.753662	9470.030273	2446.045410	15.110587
377.757996	1206.527588	9612.765625	2512.992188	15.541608
378.121796	1201.177734	9673.470703	2567.902100	16.131695
378.485565	1194.936401	9663.440430	2625.189209	16.889086
378.849304	1189.512329	9580.815430	2674.229248	17.693521
379.212982	1187.877563	9428.791992	2717.324951	18.559196
379.576630	1189.735229	9223.048828	2730.179443	19.175701
379.940277	1188.397705	9053.637695	2748.754883	19.838646
380.303864	1188.026123	8909.342773	2769.039795	20.475960
380.667450	1188.694824	8842.692383	2819.416748	21.305492
381.030945	1187.951782	8805.169922	2866.673096	22.038509
381.394501	1187.951782	8832.141602	2936.592041	22.875416
381.757935	1191.889893	8875.459961	3014.312744	23.718437
382.121399	1195.382202	8899.980469	3082.299805	24.490799
382.484741	1197.982910	8974.505859	3157.939697	25.203510
382.848145	1193.599121	9036.028320	3212.775391	25.746822
383.211487	1186.094360	9134.776367	3289.826904	26.466431
383.574768	1184.385376	9203.135742	3361.083252	27.145100
383.938019	1187.654663	9289.028320	3462.432373	28.078915
384.301270	1198.354370	9399.517578	3548.549561	28.656855
384.664459	1197.462769	9508.371094	3650.121094	29.511314
385.027649	1192.484375	9596.271484	3710.306396	29.960564
385.390778	1181.859009	9648.357422	3788.770264	30.790903
385.753876	1186.837280	9694.870117	3854.899658	31.359333
386.116943	1190.626831	9712.554688	3928.979248	32.133018
386.479980	1198.205688	9737.074219	3991.096436	32.707973
386.842987	1194.787720	9771.700195	4057.968750	33.382423
387.205994	1193.078735	9857.073242	4135.095215	33.956818
387.568909	1191.221313	9908.192383	4209.397949	34.624146
387.931793	1193.227417	9943.933594	4268.691406	35.145321
388.294678	1189.809448	10001.591797	4334.078125	35.682549
388.657471	1189.215088	10035.918945	4398.646973	36.278278
389.020294	1190.701172	10033.987305	4466.856934	37.046814
389.383057	1198.874390	10029.306641	4530.683105	37.730980
389.745819	1197.982788	10065.416992	4593.096680	38.287441
390.108521	1198.279907	10107.696289	4659.077637	38.844273
390.471191	1195.605103	10199.163086	4736.946777	39.332695
390.833801	1193.524536	10306.084961	4843.274414	40.051861
391.196442	1189.958008	10504.993164	4969.886230	40.578785
391.558960	1190.255371	10664.372070	5092.337402	41.186760
391.921509	1194.639160	10865.584961	5204.533691	41.463314
392.284027	1190.106812	11050.671875	5307.145996	41.752567
392.646484	1188.546265	11194.968750	5377.956543	41.867210
393.008911	1185.499878	11215.699219	5426.401855	42.281334
393.371307	1189.066406	11170.597656	5458.649414	42.774830
393.733673	1188.249146	11094.808594	5476.854004	43.290558
394.096008	1191.369873	11033.583008	5489.113281	43.666431
394.458344	1188.843628	11014.932617	5515.787598	44.035259
394.820587	1188.546265	11007.206055	5557.248535	44.493874
395.182831	1186.614380	11037.000000	5596.480469	44.768463
395.545013	1192.855957	10994.351563	5597.966797	44.943249
395.907196	1199.023071	10902.364258	5588.530762	45.237076
396.269287	1196.794067	10754.798828	5567.279785	45.725922
396.631409	1195.159302	10609.537109	5542.611328	46.178856
396.993469	1195.010742	10431.507813	5496.469238	46.570236
397.355530	1194.936401	10301.106445	5448.990234	46.716167
397.717499	1194.341919	10248.424805	5449.138672	46.993130
398.079468	1192.112793	10239.955078	5470.686035	47.288330
398.441376	1185.945679	10246.493164	5513.410156	47.761620
398.803284	1188.100464	10236.833984	5533.026855	48.016956
399.165131	1191.964233	10271.161133	5572.257813	48.245384
399.526978	1202.738159	10269.601563	5599.824219	48.496220
399.888763	1201.549194	10272.946289	5618.697754	48.693142
400.250519	1199.468750	10283.050781	5643.068848	48.919029
400.612244	1201.252075	10300.215820	5660.009277	49.002914
400.973938	1197.016724	10277.478516	5674.275391	49.306511
401.335602	1193.376099	10284.684570	5695.080566	49.516575
401.697205	1185.054199	10340.709961	5753.854004	49.901390
402.058807	1186.242798	10426.899414	5816.789063	50.110580
402.420349	1189.958130	10573.499023	5886.484375	50.050682
402.781860	1194.044800	10686.663086	5944.812500	50.046967
403.143341	1192.187256	10848.494141	6039.622559	50.199684
403.504822	1187.431763	10988.703125	6139.039063	50.520050
403.866241	1188.472046	11187.909180	6247.818848	50.596313
404.227631	1191.666992	11357.468750	6331.929199	50.564259
404.588959	1195.976563	11535.942383	6430.157715	50.620876
404.950287	1191.890015	11699.706055	6527.494141	50.777477
405.311554	1195.010742	11819.631836	6606.998047	50.938168
405.672821	1192.633057	11872.460938	6634.415527	50.953838
406.034027	1193.896118	11839.618164	6609.895996	50.874897
406.395203	1188.100464	11738.343750	6559.890137	50.916264
406.756348	1187.060303	11666.492188	6529.351563	50.978825
407.117493	1186.985962	11611.063477	6495.691895	50.927349
407.478516	1193.078857	11608.610352	6500.818848	50.959862
407.839600	1197.536987	11581.268555	6506.912109	51.131668
408.200592	1196.050903	11564.996094	6523.407715	51.378002
408.561554	1195.233521	11554.593750	6526.751465	51.465706
408.922485	1191.666870	11549.465820	6543.320801	51.667870
409.283417	1191.592651	11541.515625	6562.044922	51.888813
409.644257	1192.632935	11609.799805	6620.893066	52.108795
410.005096	1203.332520	11742.429688	6685.164551	52.014244
410.365906	1208.682373	11899.358398	6749.733887	51.830696
410.726715	1210.465698	12006.278320	6812.593750	51.891674
411.087433	1208.831055	12067.281250	6858.512207	52.030273
411.448120	1208.162231	12140.247070	6907.552246	52.134521
411.808807	1200.732056	12182.301758	6902.796875	51.923954
412.169434	1184.311035	12140.469727	6874.562500	51.936558
412.530029	1181.338989	12081.399414	6865.868652	52.151360
412.890564	1184.162476	12054.799805	6870.771973	52.311646
413.251099	1192.558716	12071.887695	6885.855469	52.331322
413.611572	1192.558716	12107.479492	6911.564453	52.396217
413.972076	1194.564819	12149.833008	6947.304688	52.511169
414.332489	1200.137573	12209.200195	7000.580078	52.687885
414.692871	1201.920776	12337.893555	7063.588379	52.637230
415.053223	1198.948608	12465.247070	7143.018066	52.759735
415.413574	1198.725708	12683.473633	7257.443848	52.754471
415.773834	1197.685547	12865.292969	7358.198730	52.800140
416.134094	1192.335815	13081.588867	7447.807129	52.614502
416.494263	1188.472046	13239.926758	7527.757324	52.601822
416.854462	1188.174927	13507.268555	7676.659668	52.670147
417.214630	1195.605103	13818.596680	7854.615234	52.753029
417.574738	1190.403809	14173.762695	8068.085938	52.973057
417.934784	1189.363525	14516.002930	8271.006836	53.139004
418.294861	1185.054077	14929.497070	8480.688477	53.080608
418.654846	1188.174805	15428.960938	8720.092773	52.889763
419.014832	1190.255371	15937.636719	8973.315430	52.775879
419.374756	1188.472046	16431.822266	9266.588867	52.994366
419.734680	1188.694946	16990.283203	9565.286133	53.011070
420.094543	1183.419434	17514.341797	9845.926758	53.043594
420.454376	1187.729004	18040.255859	10121.961914	53.014198
420.814148	1188.323486	18518.912109	10361.143555	52.928501
421.173920	1204.595703	19014.585938	10646.985352	53.017376
421.533691	1204.744263	19527.572266	10896.866211	52.896431
421.893341	1200.360474	19903.619141	11095.031250	52.903461
422.253021	1187.729004	20212.568359	11241.407227	52.845005
422.612640	1196.422485	20301.064453	11313.851563	52.957958
422.972260	1201.252075	20285.236328	11318.534180	53.014519
423.331757	1200.063232	20210.414063	11258.942383	52.912640
423.691315	1196.645386	20206.548828	11237.246094	52.817734
424.050781	1201.549316	20305.669922	11292.898438	52.822895
424.410248	1207.270630	20346.462891	11332.278320	52.901962
424.769653	1198.948730	20416.531250	11362.520508	52.886841
425.128998	1195.605103	20401.224609	11376.340820	53.009148
425.488373	1191.072632	20334.798828	11350.707031	53.070309
425.847656	1194.639160	20130.244141	11294.905273	53.340073
426.206940	1187.506104	19901.242188	11178.917969	53.390793
426.566193	1189.512207	19540.873047	10973.916992	53.317047
426.925385	1199.988892	19176.195313	10751.455078	53.133934
427.284576	1203.852661	18657.115234	10467.692383	53.077988
427.643677	1202.515259	18250.234375	10267.446289	53.173862
428.002777	1193.152954	17832.429688	10051.077148	53.235027
428.361847	1188.992188	17443.232422	9845.481445	53.256805
428.720856	1184.979858	17095.494141	9672.801758	53.347252
429.079865	1183.716675	16822.656250	9556.221680	53.536270
429.438812	1191.815552	16654.509766	9455.541992	53.442993
429.797760	1191.518433	16509.173828	9400.334961	53.590553
430.156616	1190.329590	16319.776367	9285.759766	53.507771
430.515503	1182.527832	16159.207031	9239.468750	53.796577
430.874268	1183.567993	16085.350586	9184.708008	53.692505
431.233093	1183.419434	16079.703125	9213.537109	53.906853
431.591827	1187.729004	16148.433594	9245.710938	53.860977
431.950562	1188.917847	16167.975586	9262.354492	53.898159
432.309204	1186.168579	16250.823242	9291.554688	53.803997
432.667877	1187.357422	16371.192383	9356.124023	53.799099
433.026459	1193.227417	16552.640625	9417.350586	53.544514
433.385010	1203.852661	16651.685547	9483.999023	53.600700
433.743561	1203.704102	16776.513672	9567.886719	53.710171
434.102051	1198.354370	16928.685547	9677.928711	53.905884
434.460510	1192.038574	17123.431641	9753.420898	53.739075
434.818939	1188.100586	17222.255859	9786.411133	53.624966
435.177338	1192.781616	17219.804688	9797.631836	53.689636
435.535675	1188.694824	17169.054688	9808.627930	53.940800
435.894012	1190.181030	17084.052734	9771.476563	53.991222
436.252289	1190.998169	17089.253906	9792.282227	54.102062
436.610535	1192.855835	17046.603516	9742.276367	53.926811
436.968719	1195.010742	17179.531250	9809.446289	53.892361
437.326935	1196.273926	17294.255859	9873.717773	53.903919
437.685028	1198.948730	17493.611328	9982.942383	53.907188
438.043152	1199.691772	17632.035156	10053.827148	53.882366
438.401215	1194.639160	17856.056641	10159.262695	53.804684
438.759277	1190.106689	18091.375000	10311.137695	53.966553
439.117249	1190.106689	18508.064453	10528.695313	53.924309
439.475250	1195.382202	18822.884766	10722.030273	54.044235
439.833130	1197.239746	19234.820313	10926.214844	53.937248
440.191071	1198.354248	19455.275391	11077.421875	54.111351
440.548889	1201.326294	19750.035156	11246.312500	54.154640
440.906708	1204.595703	20056.533203	11409.182617	54.130177
441.264496	1197.834106	20304.259766	11526.062500	54.056309
441.622223	1184.756836	20479.093750	11605.639648	54.010063
441.979950	1186.168579	20496.033203	11620.574219	54.036655
442.337616	1188.620605	20552.876953	11648.660156	54.017254
442.695251	1194.564941	20461.855469	11571.311523	53.856800
443.052887	1194.341919	20345.498047	11525.764648	53.946732
443.410461	1194.119019	20174.898438	11455.995117	54.064568
443.768005	1192.707153	20045.314453	11375.671875	54.013561
444.125458	1192.707275	19934.529297	11284.281250	53.845215
444.482941	1198.948608	19915.431641	11267.785156	53.796631
444.840393	1205.635986	19999.246094	11353.528320	53.996506
445.197754	1202.589478	20241.400391	11517.812500	54.179974
445.555084	1202.515259	20518.919922	11697.179688	54.330318
445.912415	1202.589478	20900.537109	11905.821289	54.336784
446.269714	1200.954956	21174.640625	12055.838867	54.345924
446.626953	1195.085083	21490.650391	12201.398438	54.230141
446.984161	1198.057007	21761.630859	12362.635742	54.292988
447.341309	1198.354370	22002.224609	12499.649414	54.323040
447.698456	1195.456421	22144.365234	12619.796875	54.534302
448.055542	1187.134521	22287.546875	12693.504883	54.531494
448.412598	1185.871460	22262.431641	12676.043945	54.516357
448.769653	1188.100464	22143.474609	12604.936523	54.481659
449.126617	1188.472046	21778.425781	12379.651367	54.352623
449.483582	1195.902222	21506.253906	12255.565430	54.453331
449.840515	1197.462646	21158.515625	12056.286133	54.400051
450.197388	1192.335693	20900.759766	11962.440430	54.647213
450.554230	1194.119019	20661.876953	11841.921875	54.694550
450.911041	1196.348145	20464.232422	11743.395508	54.738998
451.267822	1201.846436	20283.304688	11626.741211	54.633633
451.624573	1195.307739	20069.164063	11515.659180	54.680676
451.981262	1194.861938	19927.025391	11440.687500	54.696430
452.337921	1188.694946	19749.365234	11377.159180	54.892757
452.694580	1186.985962	19615.027344	11313.704102	54.952763
453.051147	1184.756958	19566.656250	11310.359375	55.084641
453.407715	1181.561890	19469.689453	11254.707031	55.080246
453.764221	1179.035522	19502.904297	11247.203125	54.945644
454.120728	1182.899292	19252.427734	11122.077148	55.005184
454.477142	1186.465942	19210.894531	11129.582031	55.164669
454.833557	1187.134521	19020.753906	11044.950195	55.276585
455.189911	1184.682495	18877.126953	10970.054688	55.308193
455.546265	1185.425659	18629.697266	10813.201172	55.191616
455.902557	1190.701050	18450.779297	10749.523438	55.381107
456.258820	1192.038452	18419.498047	10743.653320	55.444134
456.615051	1198.577271	18497.513672	10792.024414	55.456863
456.971252	1197.314087	18513.041016	10782.811523	55.357174
457.327393	1197.239746	18744.939453	10917.596680	55.393913
457.683502	1197.314087	18999.947266	11076.975586	55.495506
458.039612	1199.468750	19491.087891	11359.698242	55.545818
458.395630	1192.038452	19929.253906	11594.122070	55.515636
458.751648	1187.431763	20402.785156	11855.518555	55.518555
459.107605	1184.756836	21065.044922	12213.137695	55.473946
459.463562	1181.710449	21724.853516	12539.178711	55.285938
459.819458	1187.431763	22339.039063	12854.221680	55.157936
460.175323	1186.688843	22813.833984	13089.390625	55.035938
460.531158	1194.267578	23304.009766	13367.801758	55.059593
460.886932	1187.951904	23619.498047	13565.670898	55.179962
461.242676	1183.939575	23773.601563	13685.668945	55.342701
461.598419	1186.020020	23607.091797	13625.187500	55.479809
461.954102	1188.917847	23261.359375	13430.067383	55.458973
462.309723	1195.456543	22688.708984	13097.636719	55.376354
462.665344	1201.177734	22049.775391	12748.117188	55.384731
463.020905	1204.447144	21456.396484	12457.371094	55.564644
463.376373	1201.623657	20965.033203	12192.481445	55.612152
463.731873	1192.484253	20546.187500	11972.174805	55.698334
464.087341	1183.270752	20269.412109	11766.208008	55.448284
464.442749	1184.162476	20066.416016	11690.938477	55.643658
464.798126	1187.060181	19931.109375	11624.883789	55.686066
465.153503	1189.363647	19974.279297	11674.221680	55.815308
465.508820	1185.351196	20038.849609	11717.835938	55.864883
465.864105	1184.311157	20240.431641	11801.649414	55.716156
466.219330	1187.283203	20501.087891	11970.093750	55.829552
466.574524	1193.078857	20703.708984	12061.114258	55.703144
466.929657	1191.072632	20853.578125	12196.346680	55.970863
467.284790	1191.221191	20993.492188	12258.909180	55.890999
467.639893	1192.187134	21143.509766	12358.920898	55.969891
467.994934	1197.834229	21294.865234	12419.030273	55.835094
468.349945	1197.685547	21318.044922	12454.843750	55.949093
468.704926	1198.874390	21277.921875	12447.934570	56.023876
469.059875	1200.880493	21083.470703	12359.809570	56.124119
469.414764	1200.731812	20864.724609	12225.100586	56.063740
469.769653	1194.044556	20672.429688	12112.234375	56.052849
470.124451	1189.289185	20564.466797	12042.390625	56.015495
470.479248	1186.837280	20408.431641	11968.237305	56.090042
470.834015	1187.431763	20284.123047	11911.023438	56.154186
471.188721	1192.632935	20325.955078	11928.335938	56.109978
471.543365	1196.050903	20419.949219	11983.246094	56.113464
471.898010	1204.670044	20584.455078	12059.703125	56.012146
472.252625	1196.273804	20746.210938	12189.213867	56.230053
472.607178	1196.199585	21004.337891	12323.997070	56.177906
472.961700	1190.255249	21198.267578	12454.101563	56.296680
473.316193	1200.360474	21427.419922	12574.622070	56.232899
473.670654	1204.372681	21546.673828	12688.898438	56.456375
474.025055	1206.007446	21781.841797	12820.117188	56.445389
474.379456	1196.496704	21943.154297	12911.584961	56.467350
474.733795	1189.066528	22133.888672	13002.159180	56.401016
475.088104	1184.236694	22259.681641	13096.671875	56.522820
475.442383	1191.592773	22292.154297	13127.432617	56.566452
475.796570	1193.375977	22403.533203	13178.331055	56.505737
476.150787	1197.834106	22598.650391	13305.686523	56.576591
476.504944	1189.809448	22869.857422	13465.585938	56.622456
476.859070	1186.391602	23143.068359	13620.432617	56.629887
477.213135	1183.939575	23397.851563	13725.421875	56.457783
477.567200	1187.357544	23878.367188	13951.674805	56.252750
477.921173	1194.044800	24267.937500	14210.469727	56.411915
478.275146	1197.982788	24781.220703	14499.953125	56.404343
478.629089	1201.177856	25065.281250	14692.100586	56.532284
478.983002	1198.800171	25522.615234	14930.018555	56.451748
479.336823	1199.914673	25902.375000	15178.633789	56.588364
479.690643	1198.131348	26434.603516	15468.042969	56.544796
480.044403	1201.029175	26999.603516	15784.200195	56.527042
480.398163	1199.989014	27726.062500	16195.541992	56.531368
480.751862	1200.434814	28640.357422	16746.642578	56.655437
481.105499	1198.205688	29801.708984	17429.486328	56.745777
481.459137	1191.666992	31363.029297	18348.833984	56.865738
481.812744	1182.453369	33313.847656	19501.193359	57.011967
482.166290	1185.722778	35658.246094	20932.486328	57.282616
482.519806	1196.645386	38424.316406	22570.640625	57.414268
482.873291	1201.920898	41492.273438	24396.037109	57.567425
483.226715	1197.239746	44907.968750	26366.990234	57.582542
483.580139	1193.673218	48077.050781	28304.281250	57.825626
483.933502	1194.490601	50999.972656	30265.726563	58.369553
484.286804	1197.239746	53370.605469	32057.833984	59.150089
484.640106	1193.896118	55267.406250	33676.515625	60.071220
484.993347	1198.354370	56492.355469	34820.933594	60.806919
485.346558	1200.211792	56989.519531	35415.128906	61.328808
485.699738	1200.583374	56829.097656	35271.281250	61.246826
486.052887	1196.199463	56130.207031	34617.046875	60.838173
486.405975	1193.004517	55109.812500	33627.777344	60.157074
486.759064	1187.877563	53815.156250	32530.029297	59.554958
487.112061	1194.416138	52516.050781	31413.478516	58.881725
487.464996	1192.410034	51351.128906	30518.654297	58.466892
487.817963	1194.861938	50636.113281	29995.931641	58.253120
488.170868	1187.877563	50270.546875	29707.861328	58.106018
488.523743	1191.666992	50230.718750	29570.476563	57.869816
488.876587	1194.936401	50122.832031	29456.421875	57.761501
489.229401	1200.434692	49862.031250	29342.291016	57.831753
489.582153	1198.800171	49301.718750	29102.000000	58.007290
489.934845	1198.651489	48574.667969	28651.947266	57.947666
490.287537	1201.623657	47780.738281	28141.859375	57.837589
490.640198	1201.029175	47069.582031	27643.880859	57.649193
490.992798	1200.360474	46402.125000	27215.974609	57.554417
491.345337	1192.261353	45962.769531	26926.265625	57.479813
491.697876	1193.301758	45570.453125	26700.087891	57.477291
492.050354	1192.632935	45538.277344	26700.531250	57.520641
492.402832	1192.261353	45469.105469	26623.705078	57.437344
492.755219	1189.586548	45234.824219	26522.505859	57.515682
493.107605	1188.694946	44622.203125	26123.576172	57.409317
493.459930	1188.769165	43617.703125	25580.794922	57.489132
493.812225	1191.444214	42237.976563	24722.599609	57.328003
494.164490	1191.221313	40533.246094	23755.695313	57.354637
494.516724	1186.763062	38682.589844	22653.634766	57.251358
494.868896	1185.202637	36854.890625	21594.970703	57.218800
495.221039	1185.425537	35276.035156	20676.439453	57.174141
495.573120	1197.239746	33902.472656	19947.830078	57.332081
495.925201	1201.623657	33037.886719	19443.240234	57.298237
496.277222	1210.614258	32479.724609	19096.466797	57.199749
496.629211	1198.874390	32256.744141	18902.833984	57.003136
496.981140	1195.902344	32131.171875	18800.000000	56.906235
497.333069	1187.134521	32124.187500	18791.529297	56.903915
497.684967	1187.803223	32122.923828	18789.152344	56.897625
498.036804	1193.673218	32135.705078	18816.271484	56.953590
498.388580	1196.868286	32045.203125	18748.732422	56.897282
498.740326	1201.400757	31906.554688	18685.427734	56.941669
499.092072	1199.245972	31611.943359	18565.279297	57.101261
499.443756	1193.598877	31315.845703	18431.162109	57.225357
499.795410	1187.729004	30982.748047	18265.095703	57.316181
500.147003	1179.258423	30663.843750	18054.296875	57.233429
500.498566	1181.636108	30249.455078	17826.634766	57.262634
500.850098	1186.614380	29835.218750	17583.886719	57.235847
501.201599	1186.391602	29451.666016	17406.824219	57.386433
501.553009	1188.323364	29125.328125	17236.521484	57.444237
501.904449	1189.363647	28922.111328	17142.900391	57.525986
502.255859	1198.502808	28717.037109	16987.384766	57.375443
502.607178	1197.611206	28630.322266	16940.500000	57.387287
502.958405	1205.115845	28489.296875	16862.630859	57.386784
503.309692	1200.286133	28425.025391	16837.443359	57.437309
503.660919	1197.611206	28373.830078	16797.541016	57.402870
504.012115	1182.602173	28383.865234	16796.054688	57.399731
504.363251	1181.190308	28437.806641	16832.091797	57.420555
504.714294	1183.865234	28488.630859	16845.169922	57.357403
505.065369	1194.267700	28519.984375	16838.929688	57.252522
505.416443	1195.233521	28518.201172	16851.261719	57.299885
505.767395	1195.084961	28519.759766	16886.480469	57.425732
506.118317	1186.985962	28456.900391	16868.500000	57.504814
506.469238	1189.066406	28489.296875	16861.888672	57.409122
506.820160	1190.106689	28490.486328	16831.572266	57.293953
507.170929	1195.382202	28570.585938	16881.281250	57.299664
507.521729	1183.790894	28589.533203	16940.054688	57.492565
507.872498	1184.905396	28690.880859	17023.941406	57.583984
508.223236	1190.106567	28860.587891	17148.251953	57.672092
508.573883	1201.995117	29079.412109	17255.990234	57.587811
508.924500	1200.731934	29276.609375	17395.529297	57.682247
509.275116	1197.685547	29428.412109	17463.814453	57.618526
509.625702	1192.707153	29622.859375	17572.593750	57.614487
509.976196	1188.397705	29880.990234	17695.787109	57.531883
510.326660	1184.236816	30155.166016	17836.814453	57.480305
510.677124	1185.796997	30384.611328	17999.167969	57.582375
511.027557	1195.159302	30530.244141	18121.099609	57.698624
511.377869	1197.091064	30751.740234	18257.443359	57.724766
511.728180	1198.205688	30929.619141	18315.917969	57.574501
512.078430	1190.701050	31087.142578	18362.728516	57.438366
512.428650	1189.660889	31187.525391	18401.664063	57.377430
512.778931	1183.642456	31262.275391	18456.648438	57.426167
513.129028	1182.676392	31323.724609	18483.320313	57.398945
513.479126	1184.905518	31350.994141	18534.664063	57.514114
513.829285	1195.605103	31277.210938	18525.376953	57.609196
514.179382	1199.543091	31193.992188	18521.884766	57.751823
514.529297	1202.663818	31083.650391	18453.005859	57.730164
514.879272	1198.502930	31123.103516	18453.822266	57.662659
515.229187	1198.800171	31026.658203	18383.533203	57.613029
515.579163	1191.741333	31075.552734	18421.724609	57.656578
515.928955	1193.227417	31058.388672	18461.699219	57.821461
516.278748	1196.645386	31310.794922	18599.531250	57.789730
516.628540	1200.880493	31580.365234	18741.078125	57.736980
516.978333	1204.521362	32052.337891	18975.501953	57.608551
517.327942	1192.038574	32556.851563	19274.052734	57.650635
517.677612	1196.199585	33111.820313	19611.013672	57.698437
518.027222	1189.289429	33628.222656	19916.994141	57.732185
518.376831	1197.239746	34249.613281	20285.162109	57.750530
518.726379	1193.301636	34762.527344	20613.208984	57.850330
519.075867	1192.261475	35272.394531	20895.113281	57.813305
519.425293	1190.626831	35616.785156	21092.908203	57.811504
519.774658	1181.710449	35901.515625	21241.068359	57.774971
520.124084	1182.602051	36011.929688	21326.589844	57.836281
520.473389	1179.555542	35945.429688	21295.607422	57.861488
520.822693	1181.115967	35679.722656	21169.736328	57.940372
521.171997	1186.911621	35323.218750	20947.869141	57.888382
521.521240	1195.902344	34904.964844	20729.494141	57.947598
521.870361	1203.332642	34518.144531	20501.085938	57.925446
522.219482	1195.084839	34135.933594	20286.128906	57.955536
522.568604	1187.877563	33831.371094	20101.560547	57.940132
522.917664	1190.255249	33665.671875	20003.408203	57.930443
523.266724	1198.057129	33716.941406	19994.640625	57.802055
523.615662	1200.657593	33896.085938	20134.402344	57.909454
523.964600	1196.496704	34255.566406	20344.083984	57.919319
524.313538	1199.171631	34748.933594	20689.519531	58.093849
524.662354	1198.279907	35397.152344	21076.488281	58.125336
525.011169	1194.639160	36269.089844	21577.437500	58.112953
525.359985	1184.608276	37217.566406	22162.273438	58.217999
525.708740	1185.351196	38407.000000	22839.468750	58.176136
526.057434	1190.552490	39685.007813	23603.968750	58.225048
526.406067	1196.571045	41259.406250	24541.742188	58.271393
526.754700	1196.868164	43039.777344	25572.837891	58.255913
527.103333	1196.348145	45008.730469	26801.734375	58.443264
527.451782	1191.741333	47108.968750	28168.607422	58.751076
527.800293	1186.020020	49143.449219	29554.724609	59.153931
528.148743	1185.648438	51076.285156	30913.945313	59.586926
528.497131	1183.642456	52769.937500	32067.494141	59.868324
528.845642	1185.425659	54124.480469	33108.250000	60.301086
529.193909	1183.270874	55173.707031	33972.687500	60.731899
529.542175	1185.574219	55840.425781	34648.550781	61.225994
529.890503	1188.026245	56193.957031	35026.304688	61.517509
530.238770	1193.227417	56118.988281	35033.062500	61.610134
530.586914	1200.732056	55699.769531	34709.699219	61.485432
530.934998	1196.868286	54910.300781	34030.718750	61.127823
531.283142	1189.437988	53879.355469	33182.109375	60.718773
531.631226	1186.763184	52532.468750	32067.494141	60.142769
531.979248	1187.208984	50958.511719	30894.701172	59.687992
532.327148	1187.134644	49316.050781	29631.181641	59.099701
532.675110	1184.831177	47841.218750	28615.240234	58.792397
533.023071	1187.357544	46835.386719	27949.931641	58.628105
533.370850	1189.958130	46185.750000	27575.451172	58.639908
533.718689	1194.713501	46025.703125	27455.671875	58.577694
534.066467	1200.360474	46054.015625	27417.257813	58.449852
534.414246	1200.063354	46149.640625	27423.203125	58.339012
534.761963	1198.651489	46113.675781	27380.921875	58.292900
535.109619	1201.920776	45973.843750	27278.906250	58.244064
535.457153	1204.447144	45632.792969	27051.244141	58.176365
535.804749	1205.487183	45094.843750	26728.623047	58.153362
536.152344	1195.010620	44276.027344	26299.968750	58.273834
536.499817	1192.484375	43374.066406	25755.626953	58.231915
536.847229	1185.648560	42300.464844	25141.439453	58.265591
537.194641	1187.952026	41343.593750	24515.662109	58.093235
537.542114	1188.620605	40532.503906	24053.572266	58.115646
537.889404	1189.735229	39933.332031	23645.501953	57.959946
538.236694	1188.992065	39428.292969	23396.515625	58.075130
538.583984	1186.094360	39068.296875	23186.388672	58.075542
538.931213	1179.184204	38948.746094	23169.445313	58.222176
539.278381	1182.825073	38930.687500	23172.195313	58.253288
539.625488	1182.081909	39066.886719	23292.416016	58.362011
539.972595	1193.376099	39317.511719	23488.798828	58.481121
540.319641	1188.992065	39846.621094	23834.603516	58.579929
540.666687	1196.868286	40537.261719	24275.515625	58.663994
541.013611	1189.735229	41506.464844	24815.474609	58.600338
541.360596	1189.437988	42589.425781	25394.587891	58.466564
541.707458	1188.249146	43753.675781	26062.718750	58.438202
542.054260	1199.691772	44811.082031	26689.240234	58.446999
542.401062	1205.710327	45728.425781	27287.750000	58.581421
542.747864	1199.543091	46354.277344	27670.037109	58.621746
543.094666	1192.261353	46542.332031	27796.427734	58.664001
543.441284	1189.066406	46243.859375	27609.923828	58.641613
543.787903	1187.357544	45619.488281	27223.994141	58.598671
544.134460	1189.586548	44665.519531	26655.281250	58.574234
544.481079	1187.580444	43511.230469	25927.562500	58.454277
544.827637	1194.787720	42058.535156	25041.281250	58.356113
545.174072	1190.998413	40494.460938	24084.263672	58.247456
545.520508	1193.078735	38985.968750	23211.427734	58.260559
545.866943	1192.409912	37707.222656	22445.218750	58.203251
546.213318	1193.896118	36684.371094	21870.708984	58.260170
546.559631	1195.679443	35888.066406	21364.781250	58.136967
546.905823	1198.577271	35163.761719	20941.478516	58.126877
547.252136	1196.348145	34579.667969	20544.478516	57.957478
547.598389	1194.713501	34016.003906	20222.005859	57.972412
547.944458	1192.038574	33575.019531	19957.933594	57.949867
548.290588	1192.410156	32968.562500	19671.792969	58.154877
548.636658	1198.428589	32392.642578	19338.099609	58.150757
548.982727	1194.713501	31723.025391	18930.773438	58.097088
549.328735	1198.131348	31159.960938	18560.966797	57.949852
549.674622	1185.202637	30452.970703	18174.890625	58.049141
550.020569	1182.453491	29748.876953	17806.052734	58.192791
550.366455	1180.521606	28950.421875	17349.091797	58.223366
550.712280	1184.905396	28276.271484	16933.888672	58.132851
551.058044	1188.100586	27702.802734	16632.515625	58.248493
551.403748	1184.088257	27268.947266	16387.912109	58.286011
551.749512	1186.985962	26932.880859	16251.491211	58.512260
552.095154	1187.283203	26684.412109	16113.511719	58.540821
552.440735	1191.072632	26570.947266	16046.711914	58.533146
552.786316	1190.923950	26496.273438	15951.976563	58.331749
553.131897	1197.239868	26473.908203	15894.317383	58.144836
553.477417	1195.382202	26453.400391	15864.893555	58.078636
553.822815	1200.806274	26416.919922	15850.999023	58.098534
554.168213	1194.416382	26381.849609	15816.894531	58.054657
554.513672	1187.506104	26271.955078	15772.386719	58.143116
554.859009	1181.116089	26126.250000	15689.019531	58.159248
555.204285	1182.379272	25918.500000	15590.940430	58.249073
555.549500	1196.496704	25726.130859	15446.421875	58.092690
555.894714	1199.766113	25533.460938	15308.515625	57.980301
556.239990	1201.400757	25317.984375	15144.899414	57.817055
556.585022	1208.905396	25047.593750	15008.925781	57.889179
556.930115	1201.623657	24765.615234	14882.090820	58.056660
557.275146	1191.444092	24438.388672	14746.713867	58.309895
557.620178	1181.859009	24240.593750	14629.835938	58.320534
557.965149	1186.317139	24020.507813	14519.644531	58.391937
558.310059	1196.719604	23873.017578	14429.070313	58.353222
558.654968	1191.889771	23698.927734	14343.472656	58.433205
558.999756	1191.815552	23586.208984	14284.773438	58.465340
559.344604	1185.945679	23539.177734	14265.230469	58.511829
559.689331	1188.546265	23461.603516	14244.574219	58.618034
560.033997	1188.917847	23393.990234	14177.703125	58.494675
560.378723	1196.273804	23334.099609	14149.465820	58.511581
560.723389	1196.199585	23307.796875	14116.551758	58.432468
561.067932	1196.570923	23311.068359	14137.578125	58.518204
561.412476	1203.926880	23239.884766	14098.643555	58.516708
561.757019	1199.988892	23193.669922	14047.820313	58.416008
562.101501	1197.314087	23184.009766	14028.502930	58.358875
562.445862	1190.552490	23197.755859	13996.031250	58.187668
562.790222	1199.097290	23224.505859	13983.102539	58.042080
563.134644	1195.233521	23211.054688	13974.855469	58.047447
563.478943	1193.821777	23241.443359	14009.184570	58.125832
563.823181	1181.784668	23236.539063	14058.520508	58.385311
564.167358	1187.060181	23265.814453	14056.440430	58.288525
564.511536	1176.509277	23339.302734	14072.192383	58.186184
564.855774	1180.670288	23410.781250	14097.976563	58.107250
565.199768	1179.630005	23524.912109	14176.438477	58.163548
565.543823	1187.060181	23615.484375	14229.639648	58.152008
565.887817	1195.084961	23824.052734	14324.969727	58.022461
566.231812	1205.710205	24010.328125	14406.627930	57.887039
566.575745	1212.694702	24150.759766	14492.745117	57.895256
566.919617	1207.790771	24251.515625	14582.354492	58.039940
567.263428	1200.806274	24326.859375	14669.585938	58.240719
567.607239	1191.741333	24455.255859	14751.096680	58.285931
567.950989	1197.016846	24462.166016	14787.503906	58.415649
568.294678	1193.598999	24469.818359	14791.739258	58.420746
568.638367	1195.753662	24435.640625	14795.901367	58.520714
568.981995	1192.484375	24397.818359	14735.492188	58.361614
569.325623	1190.701050	24279.900391	14671.666992	58.386459
569.669128	1198.057007	24107.218750	14586.291992	58.440529
570.012573	1197.462646	23969.984375	14512.362305	58.469147
570.356140	1203.629761	23908.384766	14474.764648	58.450901
570.699524	1198.651489	23881.265625	14436.424805	58.360882
571.042908	1195.456543	23911.134766	14460.497070	58.395973
571.386230	1188.620605	23980.757813	14464.137695	58.246040
571.729492	1189.883789	24080.322266	14498.541992	58.140690
572.072815	1195.530762	24155.367188	14547.284180	58.152653
572.416016	1193.152954	24237.398438	14589.339844	58.132458
572.759094	1195.902344	24339.044922	14626.120117	58.031090
573.102234	1186.317261	24462.166016	14639.046875	57.796944
573.445374	1191.667114	24532.751953	14673.301758	57.759251
573.788391	1177.772461	24543.898438	14692.101563	57.837273
574.131409	1179.184204	24545.458984	14684.223633	57.797142
574.474365	1177.846680	24530.375000	14671.963867	57.784397
574.817261	1181.041748	24462.462891	14657.698242	57.885880
575.160156	1187.729004	24293.201172	14607.914063	58.082279
575.502930	1187.951782	24065.537109	14488.807617	58.139244
575.845703	1186.168579	23866.851563	14323.186523	57.921612
576.188477	1193.895996	23668.685547	14167.374023	57.724583
576.531250	1200.954956	23447.708984	14003.239258	57.546753
576.873901	1204.892944	23158.671875	13874.398438	57.709908
577.216431	1192.855835	22908.865234	13744.368164	57.798431
577.559082	1191.072632	22646.353516	13584.395508	57.763508
577.901611	1200.434692	22346.171875	13427.022461	57.820583
578.244080	1202.217896	21991.822266	13253.301758	57.966877
578.586487	1198.131348	21639.181641	13099.049805	58.220676
578.928955	1203.035400	21287.060547	12910.543945	58.292641
579.271301	1211.357300	20994.158203	12710.520508	58.127071
579.613647	1215.443848	20660.019531	12529.000000	58.183613
579.955872	1208.756714	20338.064453	12352.084961	58.252644
580.298157	1203.629761	20019.380859	12186.538086	58.370819
580.640320	1206.081787	19760.361328	12038.303711	58.381260
580.982483	1205.487305	19584.710938	11904.261719	58.211246
581.324524	1207.122070	19360.613281	11797.414063	58.337490
581.666626	1198.800171	19215.427734	11694.729492	58.256908
582.008728	1196.719727	19068.603516	11597.168945	58.194481
582.350647	1194.341919	18970.375000	11520.637695	58.091114
582.692566	1196.719727	18852.755859	11449.008789	58.066769
583.034424	1182.750732	18738.328125	11392.464844	58.156525
583.376343	1178.664185	18652.955078	11358.731445	58.257401
583.718201	1178.218262	18593.289063	11321.432617	58.243893
584.059937	1193.747681	18539.345703	11285.023438	58.177731
584.401611	1190.924194	18410.208984	11182.261719	58.024117
584.743347	1187.803345	18320.970703	11136.565430	58.067265
585.085022	1179.109863	18221.404297	11093.321289	58.174152
585.426514	1182.973633	18183.138672	11071.105469	58.164921
585.768127	1184.979858	18104.302734	11036.852539	58.228531
586.109619	1191.221191	18055.783203	11011.291992	58.229027
586.451172	1190.626831	18032.082031	10985.136719	58.157146
586.792542	1196.199585	17999.240234	10955.713867	58.081837
587.133850	1196.051025	17970.857422	10946.500000	58.125553
587.475220	1200.732056	17912.158203	10949.323242	58.334885
587.816589	1199.914673	17873.369141	10965.446289	58.569332
588.157776	1202.069458	17889.867188	10953.335938	58.433517
588.498962	1203.555542	17941.208984	10987.143555	58.452564
588.840210	1201.103394	17988.093750	10990.265625	58.313980
589.181335	1199.023071	17985.865234	11005.421875	58.417171
589.522400	1196.942505	18006.447266	10981.199219	58.206696
589.863403	1191.221191	18014.398438	10968.790039	58.119629
590.204407	1189.437866	18026.361328	10968.270508	58.079689
590.545410	1183.196533	18042.337891	10998.809570	58.221313
590.886353	1192.410156	18050.509766	11005.718750	58.211239
591.227112	1194.936401	18054.669922	10986.473633	58.076462
591.567932	1198.948730	18029.853516	10960.320313	57.996712
591.908752	1196.942505	17982.150391	10917.372070	57.910694
592.249512	1196.050903	17967.958984	10926.289063	58.015095
592.590149	1188.694946	17911.041016	10868.184570	57.883560
592.930786	1190.329590	17859.103516	10860.160156	58.011646
593.271423	1193.301636	17779.970703	10817.733398	58.025101
593.612000	1195.753662	17704.408203	10813.126953	58.256554
593.952576	1195.382202	17671.119141	10790.687500	58.239010
594.292969	1192.335815	17669.708984	10779.617188	58.184525
594.633484	1191.667114	17713.173828	10779.467773	58.032246
594.973877	1189.512329	17790.966797	10802.500977	57.904491
595.314209	1185.202637	17897.369141	10852.803711	57.847687
595.654480	1190.106689	18043.748047	10932.752930	57.807369
595.994812	1185.871460	18174.816406	11059.215820	58.116291
596.335022	1190.106567	18336.871094	11199.128906	58.372662
596.675171	1194.416138	18503.830078	11310.359375	58.441860
597.015320	1196.719604	18679.183594	11384.514648	58.274361
597.355408	1201.549316	18765.078125	11370.024414	57.895393
597.695496	1195.679321	18803.937500	11371.957031	57.792641
598.035461	1197.388306	18764.482422	11333.988281	57.702202
598.375366	1199.914673	18733.796875	11335.473633	57.805557
598.715271	1198.502930	18659.121094	11303.226563	57.871513
599.055176	1199.320190	18535.408203	11232.788086	57.876194
599.395081	1195.233521	18350.990234	11142.881836	57.984322
599.734802	1200.657715	18136.253906	11022.510742	57.995323
600.074524	1195.828003	17917.134766	10900.581055	58.038246
600.414246	1197.165527	17611.601563	10695.282227	57.864414
600.753906	1191.592773	17274.416016	10493.699219	57.838764
601.093506	1190.106689	16968.291016	10284.313477	57.637856
601.433044	1191.072632	16729.185547	10190.618164	57.919167
601.772583	1197.239746	16577.679688	10088.303711	57.807610
602.112122	1208.756714	16494.908203	10069.356445	57.964882
602.451538	1205.115845	16505.681641	10075.522461	57.974369
602.790894	1199.765991	16597.445313	10139.051758	58.056061
603.130310	1193.524536	16725.023438	10221.304688	58.125622
603.469604	1190.775391	16915.830078	10311.434570	58.000809
603.808838	1193.821777	17115.259766	10435.668945	58.046566
604.148010	1192.112793	17354.291016	10548.459961	57.890388
604.487305	1194.713379	17581.880859	10659.988281	57.760288
604.826416	1193.524536	17785.025391	10731.541992	57.487373
605.165527	1196.942505	17921.890625	10808.221680	57.466724
605.504456	1200.211914	18023.314453	10872.715820	57.495365
605.843445	1199.023071	18096.130859	10933.421875	57.609852
606.182434	1196.645264	18122.804688	10941.372070	57.571987
606.521423	1197.908447	18059.351563	10890.549805	57.484055
606.860229	1194.267578	17919.216797	10842.699219	57.688854
607.199036	1198.502930	17744.529297	10753.981445	57.750893
607.537903	1195.085083	17583.218750	10655.753906	57.728779
607.876648	1203.183960	17370.787109	10527.209961	57.671047
608.215271	1198.725952	17159.841797	10406.320313	57.687660
608.553955	1194.713501	16917.021484	10269.675781	57.720291
608.892578	1190.403809	16675.462891	10130.581055	57.734219
609.231140	1195.902222	16497.507813	10041.195313	57.806305
609.569641	1198.131470	16384.343750	9971.498047	57.771919
609.908081	1204.818726	16353.879883	9928.403320	57.584988
610.246521	1204.669922	16309.745117	9883.525391	57.456554
610.584961	1212.991821	16299.043945	9845.557617	57.222164
610.923340	1207.865112	16269.546875	9797.112305	57.027145
611.261597	1205.561768	16194.426758	9756.244141	57.046898
611.599854	1196.125244	16055.629883	9718.795898	57.355011
611.938110	1196.422485	15928.942383	9683.205078	57.605778
612.276245	1195.753662	15754.925781	9594.933594	57.689957
612.614319	1198.725830	15549.032227	9469.808594	57.636978
612.952393	1198.651489	15299.747070	9326.106445	57.637047
613.290466	1193.673218	15057.965820	9174.528320	57.564098
613.628479	1186.465942	14767.368164	9004.300781	57.564915
613.966370	1184.682739	14472.684570	8844.252930	57.642754
614.304260	1181.116089	14218.715820	8709.170898	57.741108
614.642151	1187.803345	14041.801758	8594.000977	57.617855
614.979980	1193.598877	13915.635742	8495.030273	57.392002
615.317749	1201.474976	13780.627930	8399.922852	57.225216
615.655396	1199.543091	13672.145508	8345.532227	57.293491
615.993164	1195.456543	13586.624023	8297.162109	57.312641
616.330811	1193.450317	13544.270508	8276.803711	57.351280
616.668396	1192.261353	13516.704102	8269.967773	57.428207
617.005859	1196.125122	13456.890625	8282.450195	57.796761
617.343445	1196.570923	13440.543945	8298.573242	58.004070
617.680908	1190.626831	13416.174805	8286.833008	58.044075
618.018311	1182.973633	13451.022461	8270.709961	57.773949
618.355652	1182.453491	13461.499023	8274.425781	57.756702
618.692993	1181.487671	13457.188477	8276.059570	57.793617
619.030273	1187.431885	13447.604492	8284.382813	57.886223
619.367554	1187.654785	13410.453125	8262.461914	57.882053
619.704712	1201.921021	13414.464844	8268.183594	57.860695
620.041870	1199.394653	13394.402344	8260.531250	57.901863
620.379028	1195.530762	13372.781250	8229.769531	57.765411
620.716064	1189.140747	13295.282227	8174.042969	57.697182
621.053040	1189.437988	13253.971680	8118.240723	57.431171
621.389954	1192.112915	13185.835938	8082.204590	57.447483
621.726929	1190.106567	13155.296875	8057.238281	57.392582
622.063843	1190.181030	13065.984375	8050.179688	57.764500
622.400635	1193.078735	13023.855469	8014.812012	57.660912
622.737427	1195.084961	12977.713867	7994.378418	57.706081
623.074219	1198.948730	12942.938477	7944.298340	57.436607
623.410889	1203.406860	12876.437500	7906.404785	57.422947
623.747559	1207.344849	12855.262695	7879.283691	57.280098
624.084167	1209.276733	12812.910156	7873.710938	57.434025
624.420715	1204.372803	12844.859375	7892.435547	57.455181
624.757324	1200.806274	12831.411133	7937.462402	57.921806
625.093750	1190.924072	12877.331055	7952.992188	57.862679
625.430176	1193.524658	12932.686523	7983.753418	57.842533
625.766602	1187.729004	12987.223633	7974.837402	57.520332
626.102905	1187.134521	13049.713867	8025.808594	57.649132
626.439209	1189.734985	13100.757813	8070.761719	57.770245
626.775452	1195.604980	13208.125000	8131.392090	57.737988
627.111694	1199.171509	13281.684570	8155.466797	57.573250
627.447876	1190.180908	13340.532227	8170.326660	57.448093
627.783997	1186.985962	13355.020508	8178.500488	57.458046
628.120056	1187.283203	13384.000000	8198.933594	57.488014
628.456055	1187.357544	13405.473633	8197.225586	57.372742
628.792053	1179.778687	13396.557617	8191.578125	57.394825
629.128052	1182.230591	13329.090820	8151.156738	57.372242
629.463928	1189.437988	13240.448242	8093.572266	57.290920
629.799744	1200.360474	13180.187500	8032.495605	57.030331
630.135559	1191.815552	13096.002930	7975.802734	56.988243
630.471375	1193.821777	12982.765625	7936.050781	57.191124
630.807068	1192.558594	12805.480469	7846.961426	57.301712
631.142700	1201.474976	12674.781250	7769.018066	57.241936
631.478333	1192.261353	12530.411133	7667.075684	57.106449
631.813965	1187.951782	12392.579102	7598.939453	57.217323
632.149475	1186.465820	12242.635742	7530.357910	57.378750
632.484924	1192.112793	12138.539063	7474.705566	57.394012
632.820435	1197.313965	12063.714844	7431.386719	57.370174
633.155884	1200.063354	12009.325195	7388.216309	57.248615
633.491150	1200.434692	11957.686523	7369.789063	57.350655
633.826477	1197.388306	11871.122070	7327.808594	57.434639
634.161804	1196.348022	11807.965820	7282.558594	57.354218
634.497009	1197.165405	11731.285156	7223.859375	57.211174
634.832153	1197.016724	11687.817383	7185.222168	57.080540
635.167297	1201.474976	11617.082031	7142.126465	57.036053
635.502380	1193.153076	11567.002930	7106.386719	57.001343
635.837463	1193.896118	11490.098633	7068.863770	57.059563
636.172424	1178.886963	11435.187500	7032.083496	57.069271
636.507324	1186.168579	11361.554688	6990.103027	57.038963
636.842224	1188.620728	11301.221680	6953.545410	57.007343
637.177124	1199.245972	11181.148438	6901.831543	57.129246
637.511963	1195.085083	11060.109375	6855.243652	57.376022
637.846741	1190.701172	10935.502930	6776.334473	57.319107
638.181396	1184.088257	10805.102539	6698.464844	57.315956
638.516113	1188.992188	10682.280273	6635.307129	57.370163
638.850769	1189.289429	10595.270508	6575.345215	57.262028
639.185303	1193.301758	10533.079102	6525.636719	57.092743
639.519836	1187.283203	10459.668945	6467.978027	56.950768
639.854370	1186.688843	10376.301758	6438.033203	57.144344
640.188843	1187.728882	10286.766602	6379.854004	57.062351
640.523254	1188.026245	10199.237305	6330.591797	57.068527
640.857605	1198.948730	10102.791992	6271.520996	56.970589
641.191895	1202.589478	10032.353516	6245.812500	57.116173
641.526184	1200.137573	9998.025391	6200.041504	56.830730
641.860413	1187.580444	9957.233398	6166.605469	56.775620
642.194580	1184.756836	9901.877930	6151.521973	56.977127
642.528748	1189.363647	9821.111328	6121.503906	57.139530
642.862793	1202.143677	9722.139648	6079.003418	57.240166
643.196838	1200.880615	9656.605469	6022.458496	57.021465
643.530823	1198.651489	9591.589844	5992.439941	57.116928
643.864746	1192.335815	9570.487305	5982.334473	57.172501
644.198669	1194.564819	9555.627930	5971.337891	57.131165
644.532532	1199.097290	9532.073242	5961.530762	57.151657
644.866333	1198.205688	9488.606445	5919.846191	56.953106
645.200073	1194.490601	9442.686523	5901.716309	57.069756
645.533813	1195.010620	9444.543945	5879.500000	56.784901
645.867554	1200.434814	9438.451172	5871.475098	56.701027
646.201172	1202.292358	9443.653320	5866.571777	56.595982
646.534729	1198.280029	9417.053711	5866.348145	56.797626
646.868225	1197.908569	9422.477539	5872.367188	56.835297
647.201782	1200.732056	9420.693359	5867.611816	56.774963
647.535217	1202.292358	9446.846680	5865.382813	56.559639
647.868591	1198.577271	9442.686523	5880.837402	56.795223
648.201965	1195.679443	9434.959961	5887.970703	56.950253
648.535278	1196.868286	9390.081055	5878.236816	57.137154
648.868591	1196.422485	9396.025391	5877.122559	57.084476
649.201782	1197.759888	9361.994141	5850.002441	56.983208
649.534912	1198.131348	9346.836914	5848.144531	57.064442
649.868103	1192.410034	9294.527344	5812.330078	57.021145
650.201172	1188.100464	9269.264648	5796.949219	57.031990
650.534180	1178.589722	9218.589844	5764.851074	57.043049
650.867188	1183.716675	9172.448242	5743.823730	57.081741
651.200134	1187.729004	9160.484375	5727.848145	56.945423
651.533020	1201.623657	9119.395508	5713.507813	56.984268
651.865845	1200.954956	9092.720703	5693.371582	56.925365
652.198608	1199.914673	9027.557617	5675.464844	57.176220
652.531433	1191.146973	9004.300781	5656.517578	57.151962
652.864136	1189.809448	8974.059570	5641.954590	57.194271
653.196777	1234.168213	8993.526367	5673.830078	57.216873
653.529358	1238.923584	8953.477539	5645.520996	57.120579
653.861938	1239.220825	8894.704102	5591.726074	56.854744
654.194519	1196.348145	8775.374023	5495.800781	56.728302
654.526978	1189.214966	8719.795898	5468.382813	56.823875
654.859375	1189.437988	8671.276367	5446.389160	56.897129
655.191833	1193.227417	8631.524414	5429.522949	56.952492
655.524170	1198.948730	8592.960938	5402.996582	56.857464
655.856445	1199.765991	8540.131836	5381.523438	56.969334
656.188660	1194.044556	8502.237305	5362.799316	57.042213
656.520874	1194.341919	8472.368164	5333.078125	56.866192
656.853088	1194.119019	8476.305664	5318.291504	56.633709
657.185181	1193.747559	8462.113281	5292.730957	56.394844
657.517212	1188.546387	8463.749023	5295.257324	56.448063
657.849243	1193.078735	8479.203125	5313.462402	56.551102
658.181274	1191.369751	8546.967773	5341.027832	56.414967
658.513123	1201.474976	8615.771484	5386.873047	56.450375
658.844971	1196.422485	8700.476563	5426.179199	56.366287
659.176819	1191.890015	8788.525391	5476.854004	56.406075
659.508667	1192.855835	8864.833984	5527.603027	56.501038
659.840393	1201.177734	8910.307617	5582.586426	56.834023
660.172058	1213.660645	8963.508789	5611.416016	56.746342
660.503662	1204.967285	8970.715820	5598.561035	56.576565
660.835266	1195.976563	8981.416016	5583.106934	56.350452
661.166931	1189.437988	8940.176758	5561.929688	56.413872
661.498413	1190.552368	8944.487305	5565.273438	56.419369
661.829773	1196.125244	8897.750000	5535.850098	56.348167
662.161194	1199.394531	8808.512695	5492.902832	56.425835
662.492615	1204.372925	8705.677734	5404.854004	55.996670
662.823975	1200.063232	8564.725586	5327.653809	56.045895
663.155212	1199.245850	8425.408203	5246.738281	56.011646
663.486450	1190.923950	8266.400391	5185.438477	56.455769
663.817627	1194.044556	8130.872559	5118.269043	56.570877
664.148743	1190.106689	8024.024902	5045.154785	56.410511
664.479858	1190.626831	7899.121582	4981.031738	56.501572
664.810913	1189.437988	7831.061035	4930.060059	56.320904
665.141907	1189.363647	7762.479004	4904.054199	56.513393
665.472778	1191.146973	7705.786621	4862.147461	56.350018
665.803711	1198.428589	7647.310059	4832.054688	56.345058
666.134583	1201.623657	7571.744141	4794.011719	56.394352
666.465454	1205.412964	7529.688965	4798.172363	56.809021
666.796143	1199.543091	7475.894043	4769.269043	56.875820
667.126831	1203.555298	7473.664063	4762.209473	56.755859
667.457458	1204.967163	7453.974609	4735.906738	56.504005
667.788147	1203.926880	7437.033203	4740.811035	56.743523
668.118774	1192.484253	7406.644043	4722.532715	56.806526
668.449219	1183.642334	7390.594238	4706.854980	56.762363
668.779663	1187.431763	7380.563965	4698.309570	56.689857
669.110107	1194.861938	7356.860840	4690.582031	56.730293
669.440552	1206.156128	7334.792969	4674.310059	56.589321
669.770874	1201.995117	7310.124512	4650.235840	56.453300
670.101135	1199.988892	7273.195313	4630.248047	56.481850
670.431396	1188.769165	7234.781250	4610.038086	56.587200
670.761597	1186.911621	7195.327637	4580.317383	56.477543
671.091797	1188.546265	7174.150879	4561.146973	56.345196
671.421875	1193.153076	7136.702637	4547.476074	56.436356
671.751892	1195.010620	7117.754395	4543.983398	56.544277
672.081909	1198.205688	7104.230957	4530.088379	56.414974
672.411865	1194.193237	7076.813965	4505.939941	56.297131
672.741821	1190.626831	7037.210938	4474.287109	56.163738
673.071716	1182.899414	6976.579590	4449.989746	56.390587
673.401550	1189.066406	6928.580078	4428.070801	56.433430
673.731262	1184.533936	6897.744629	4400.949707	56.297863
674.060974	1189.809448	6848.705078	4385.644043	56.474525
674.390625	1191.146851	6823.441895	4370.931641	56.456287
674.720276	1198.725830	6768.457520	4346.188965	56.510143
675.049927	1198.205688	6755.528809	4315.428223	56.092159
675.379395	1195.679565	6725.585449	4297.595215	56.093460
675.708923	1190.329590	6707.083984	4293.285645	56.246044
676.038330	1188.026245	6681.152344	4279.687988	56.282372
676.367737	1184.459717	6640.880371	4250.413086	56.189827
676.697083	1193.227417	6596.149902	4208.283691	55.804173
677.026428	1193.153076	6553.128906	4183.614746	55.792450
677.355652	1196.273926	6537.302246	4182.797363	55.916637
677.684875	1192.335815	6519.544434	4197.360840	56.408997
678.013977	1193.747559	6537.970703	4193.793945	56.136250
678.343079	1189.437988	6548.967285	4182.054199	55.837296
678.672180	1186.985962	6577.945313	4183.391602	55.582050
679.001221	1184.608276	6594.365723	4199.366699	55.728161
679.330139	1188.249023	6608.186035	4239.490234	56.296619
679.659058	1193.004395	6621.709473	4250.709961	56.324768
679.987976	1202.886841	6643.332031	4265.050781	56.285172
680.316772	1206.304688	6680.482910	4258.585938	55.757797
680.645630	1203.704102	6719.417969	4282.586426	55.820198
680.974304	1195.753784	6741.337402	4300.938477	55.993828
681.302979	1188.992188	6780.197266	4320.926270	56.015369
681.631653	1183.122192	6789.113281	4327.019043	56.081020
681.960266	1183.047852	6806.128906	4326.201660	55.897358
682.288757	1186.242798	6801.894531	4330.882324	55.997768
682.617249	1197.239868	6812.147949	4329.916992	55.792137
682.945679	1199.023071	6793.349121	4315.353516	55.705200
683.274109	1207.419312	6772.767090	4296.109375	55.498600
683.602478	1201.326416	6708.718262	4266.313477	55.652245
683.930725	1197.314087	6645.857910	4235.923828	55.769211
684.259033	1188.323364	6565.091309	4198.401367	55.983040
684.587280	1191.146973	6510.627441	4162.958984	55.866585
684.915344	1194.639160	6446.801270	4131.008301	55.907818
685.243469	1199.691772	6385.427246	4077.659180	55.497765
685.571533	1199.171509	6335.495605	4055.071045	55.602009
685.899536	1196.868286	6284.375488	4047.566162	56.033291
686.227539	1196.496704	6218.988770	4040.804688	56.631409
686.555420	1190.923950	6164.079590	4022.006592	56.927284
686.883301	1191.890015	6159.992188	3999.418213	56.511086
687.211121	1188.397583	6161.181641	3996.000732	56.459377
687.538940	1189.586548	6164.228027	4000.012695	56.495049
687.866638	1187.877563	6135.621094	3986.637939	56.566395
688.194336	1185.945801	6136.958984	3981.436768	56.463009
688.521973	1187.283203	6125.664551	3957.957275	56.104904
688.849609	1190.478149	6112.810547	3942.205078	55.902908
689.177063	1190.998291	6071.498535	3925.412842	56.027344
689.504578	1192.484497	6021.195313	3900.075439	56.072746
689.832031	1196.496826	5973.046875	3879.047852	56.160851
690.159485	1201.252075	5909.146484	3841.450928	56.080242
690.486816	1201.549316	5858.323730	3801.178711	55.824680
690.814087	1198.800171	5792.343262	3761.575439	55.790821
691.141296	1191.592773	5738.027832	3716.844971	55.543568
691.468506	1189.363770	5675.613281	3680.139404	55.520222
691.795715	1181.636108	5593.434082	3639.421631	55.709389
692.122803	1184.459595	5526.042480	3603.310303	55.713562
692.449829	1196.125244	5466.674316	3581.539795	55.857330
692.776855	1199.765991	5404.111328	3555.533936	56.031746
693.103821	1196.199341	5352.842285	3535.695068	56.283295
693.430664	1186.985840	5297.338379	3491.707764	56.071148
693.757568	1185.351318	5272.372559	3474.692627	56.014912
694.084351	1191.369751	5222.292480	3443.708252	55.876495
694.411133	1195.530884	5191.679199	3430.333984	55.923927
694.737854	1193.376099	5148.435059	3400.092529	55.794773
695.064575	1190.403809	5141.673828	3384.934814	55.539890
695.391174	1191.815674	5114.181641	3369.702881	55.524834
695.717773	1198.725830	5106.603027	3360.563232	55.319992
696.044250	1200.211792	5089.067871	3358.185547	55.491219
696.370789	1189.214966	5099.470215	3358.556885	55.478264
696.697205	1185.202637	5115.593750	3367.547852	55.524887
697.023621	1180.967529	5169.314453	3381.442627	55.172611
697.349915	1188.323364	5212.410156	3412.947021	55.282692
697.676208	1192.187256	5277.201660	3447.869141	55.218456
698.002380	1200.211914	5347.492188	3484.871826	55.088150
698.328674	1198.577271	5428.928223	3530.048096	55.112938
698.654724	1197.685547	5519.726074	3580.202393	55.124817
698.980896	1198.502808	5588.158691	3643.136719	55.690784
699.306946	1197.982788	5652.207520	3664.239014	55.368927
699.632935	1197.833984	5676.728027	3674.641357	55.299530
699.958862	1199.840210	5686.684082	3651.087158	54.631878
700.284729	1200.880615	5678.511230	3655.099609	54.810658
700.610596	1201.400757	5653.545410	3645.662842	54.900784
700.936340	1191.889893	5608.295410	3632.214111	55.255894
701.262146	1194.193237	5517.051270	3591.496094	55.456432
701.587830	1191.964233	5429.300293	3545.948486	55.553406
701.913513	1195.530762	5318.068848	3483.460205	55.498077
702.239075	1190.255371	5215.679688	3422.829102	55.461823
702.564697	1187.134521	5095.160156	3353.133057	55.424370
702.890137	1186.317139	4972.783691	3284.700439	55.417980
703.215698	1191.295532	4867.273926	3218.794189	55.155346
703.541016	1195.902344	4792.599609	3163.735596	54.712231
703.866455	1196.719604	4716.662109	3118.634033	54.600735
704.191711	1188.546265	4653.355957	3095.005615	55.023495
704.517029	1188.992188	4583.957520	3064.021240	55.229698
704.842163	1180.001587	4534.992188	3040.838867	55.464752
705.167419	1183.568115	4497.617676	3006.139404	54.995293
705.492493	1183.791016	4454.225098	2982.882813	55.010796
705.817566	1192.855957	4418.262207	2964.752930	54.935623
706.142578	1193.673218	4377.470215	2949.075195	55.135490
706.467590	1198.131348	4355.253906	2941.050537	55.205940
706.792480	1191.518433	4350.499023	2931.242432	55.072327
707.117371	1191.295532	4345.817871	2928.121826	55.058296
707.442200	1186.540039	4357.111816	2918.982422	54.641323
707.766907	1197.536987	4354.659668	2915.564453	54.417511
708.091675	1200.434692	4357.780273	2915.118896	54.307774
708.416321	1205.635986	4338.684570	2913.038330	54.496517
708.741028	1193.450317	4348.715332	2919.725342	54.710934
709.065552	1188.992188	4359.415039	2924.332031	54.735279
709.390137	1185.425659	4383.117676	2926.709717	54.454403
709.714600	1194.862183	4390.547852	2929.161865	54.270035
710.039063	1200.509155	4416.256348	2941.050049	54.125553
710.363403	1196.942505	4443.822754	2968.022217	54.547119
710.687744	1190.849731	4480.082520	2998.709229	54.962952
711.012085	1190.106689	4524.961426	3019.216797	54.848270
711.336304	1195.010742	4558.917480	3040.764404	54.869347
711.660461	1197.165527	4586.483887	3054.956299	54.813110
711.984619	1198.800171	4588.193359	3075.909912	55.381886
712.308716	1190.626831	4593.542480	3060.603516	54.952190
712.632751	1183.791016	4590.124512	3057.408447	55.003933
712.956726	1179.332886	4582.843262	3036.232422	54.558365
713.280701	1180.373047	4557.729004	3045.148438	55.214062
713.604553	1187.431763	4516.268066	3023.600830	55.159485
713.928467	1194.713501	4463.661621	2990.610352	54.938065
714.252258	1199.691772	4426.733887	2956.282471	54.433464
714.575989	1203.555542	4383.415039	2935.848877	54.477043
714.899719	1202.440918	4343.588867	2911.477783	54.408035
715.223267	1203.183960	4294.399902	2892.604736	54.652309
715.546936	1198.577148	4258.734863	2869.274170	54.595127
715.870422	1200.731934	4230.202637	2861.546143	54.821926
716.193970	1205.784546	4207.392090	2842.302002	54.521370
716.517395	1211.654419	4192.976563	2829.076172	54.251827
716.840820	1208.013550	4160.506348	2818.227783	54.537449
717.164124	1193.450195	4122.091797	2799.280518	54.831917
717.487488	1192.484375	4081.671143	2781.224854	54.989193
717.810730	1186.837402	4061.535156	2766.364502	54.945850
718.133972	1191.444214	4028.098877	2739.690186	54.579994
718.457092	1188.917969	3989.461670	2711.529053	54.368408
718.780212	1194.119019	3933.808838	2674.823486	54.046425
719.103210	1196.570923	3890.565186	2651.269531	53.997837
719.426208	1199.988892	3846.875000	2628.978760	53.987583
719.749207	1196.645386	3808.163330	2601.561279	53.796906
720.072083	1199.023071	3758.974609	2582.242432	54.033028
720.394958	1195.828003	3722.417725	2558.391357	53.928947
720.717773	1190.849731	3686.677734	2548.286133	54.388218
721.040527	1192.781616	3669.737061	2536.546387	54.250660
721.363281	1192.633057	3652.721436	2508.608643	53.493019
721.685913	1195.902344	3628.424561	2490.924561	53.237839
722.008545	1199.989014	3603.161865	2469.450928	52.824413
722.331055	1199.394531	3555.607666	2474.057861	54.097965
722.653503	1205.115845	3531.087891	2459.717529	53.938808
722.976013	1194.936401	3499.137939	2454.516357	54.664486
723.298401	1192.112915	3494.382568	2444.039551	54.377934
723.620789	1187.060181	3481.008057	2434.900146	54.397053
723.943115	1184.459595	3480.636719	2420.857178	53.845913
724.265381	1190.626831	3466.073242	2417.290771	53.908718
724.587585	1194.341919	3460.054688	2419.668213	54.081268
724.909790	1197.759888	3462.878174	2431.259277	54.456295
725.231873	1198.057007	3469.416992	2426.801025	54.097286
725.553894	1196.793945	3475.881592	2426.949707	53.975800
725.875916	1217.672974	3490.072998	2448.497559	54.164085
726.197937	1208.905273	3494.977295	2445.525391	54.093662
726.519775	1212.026001	3493.936768	2450.503662	54.273716
726.841675	1188.843628	3491.930664	2426.875244	53.755314
727.163513	1195.382202	3504.264893	2440.472900	53.926109
727.485291	1180.595825	3535.100342	2445.005127	53.701717
727.806946	1188.472046	3538.518311	2454.739014	53.882637
728.128662	1189.363770	3550.852539	2458.974365	53.763142
728.450256	1202.663940	3545.576904	2464.770020	53.869095
728.771790	1199.914673	3544.833984	2462.169189	53.829334
729.093323	1196.273804	3547.211914	2469.599365	54.162449
729.414795	1192.112915	3542.976563	2469.822510	54.350643
729.736145	1190.775391	3550.852783	2479.259033	54.594975
730.057495	1205.115845	3541.936523	2472.125977	54.219395
730.378845	1209.053833	3545.577393	2465.438477	53.771542
730.700134	1205.784546	3543.942627	2462.094971	53.730770
731.021301	1189.140747	3559.546143	2461.426270	53.673756
731.342468	1184.682617	3562.815674	2475.766602	54.289814
731.663574	1189.066528	3555.310791	2473.760498	54.292538
731.984680	1194.193359	3551.744141	2471.457031	54.177567
732.305664	1193.673218	3557.390869	2459.568604	53.555267
732.626648	1196.348145	3572.029053	2463.803955	53.351265
732.947571	1194.862061	3582.134033	2472.794678	53.531086
733.268433	1202.589478	3565.639404	2481.116455	54.104954
733.589233	1196.942505	3559.249023	2480.596436	54.339005
733.909973	1193.227417	3533.688721	2463.060791	54.255684
734.230713	1185.276978	3508.128906	2438.614990	53.956860
734.551331	1182.899292	3469.491455	2412.906494	53.792152
734.871948	1186.465820	3435.832031	2401.612549	54.021740
735.192505	1185.871460	3407.448242	2384.968750	53.975060
735.513062	1188.397827	3388.872314	2363.420898	53.398621
735.833435	1185.574219	3346.148438	2334.294189	53.167347
736.153931	1190.255249	3313.604248	2317.353271	53.081146
736.474304	1191.741333	3258.917236	2306.430664	53.923298
736.794617	1194.490479	3247.028564	2300.635010	53.891548
737.114807	1190.701050	3227.115479	2290.530029	54.008110
737.434998	1186.317261	3218.793701	2279.384521	53.780071
737.755188	1185.128418	3189.889893	2270.691162	54.149223
738.075256	1187.134521	3191.599365	2267.644775	53.905174
738.395325	1195.902344	3202.893311	2271.434326	53.589279
738.715271	1202.961060	3233.505859	2277.601318	52.923740
739.035278	1202.961060	3250.075439	2275.446533	52.390110
739.355164	1190.626831	3269.765625	2276.263672	52.215702
739.675049	1182.453491	3275.041016	2286.294678	52.750065
739.994873	1185.054077	3275.115234	2301.749756	53.428856
740.314636	1197.834106	3271.028564	2310.814697	53.684334
740.634277	1201.326294	3247.772217	2305.390381	53.950317
740.953979	1204.372681	3227.710205	2291.941650	53.751240
741.273499	1199.691772	3200.069580	2270.765381	53.543568
741.593140	1196.868286	3176.441406	2247.360107	53.066582
741.912598	1195.010742	3145.234375	2235.323242	53.343243
742.232117	1191.072632	3098.274658	2220.165283	53.958241
742.551453	1196.422363	3067.290283	2202.778320	53.790859
742.870850	1192.335815	3034.077148	2175.212158	53.366688
743.190063	1202.292358	3023.452148	2156.710693	52.407173
743.509338	1196.719727	2986.746338	2136.574951	52.505096
743.828552	1193.227417	2963.638428	2120.153564	52.356552
744.147705	1183.790894	2930.425049	2104.327393	52.703453
744.466797	1183.939575	2915.787354	2092.661865	52.471256
744.785828	1189.735229	2896.988525	2084.785645	52.426338
745.104858	1194.861938	2878.264404	2077.801025	52.449673
745.423706	1195.976685	2866.598877	2080.476318	52.944324
745.742615	1193.673218	2855.304932	2073.640381	52.958015
746.061401	1196.422363	2841.484619	2066.358887	52.881680
746.380249	1197.759888	2828.407227	2055.807861	52.620083
746.698975	1199.320190	2815.404297	2045.925415	52.386211
747.017639	1197.314087	2805.670654	2043.770874	52.628677
747.336304	1199.543091	2794.896729	2037.900879	52.549965
747.654907	1199.766113	2794.599609	2042.581909	52.846634
747.973389	1196.793823	2794.451172	2032.402344	52.302113
748.291931	1196.199585	2798.760742	2019.473633	51.372395
748.610352	1194.490601	2799.503662	2010.557251	50.844860
748.928711	1197.685547	2798.314697	2010.705933	50.793800
749.247070	1202.218018	2788.581299	2019.250610	51.503498
749.565308	1199.988892	2783.825439	2019.770630	51.759239
749.883545	1197.091064	2781.968018	2020.365112	51.945614
750.201782	1191.072632	2776.915771	2014.049438	51.895222
750.519836	1190.923950	2762.649414	2012.414917	52.266823
750.837952	1192.632935	2757.522705	2008.253906	52.120026
751.155884	1190.329468	2752.247070	2012.489258	52.637848
751.473877	1191.295532	2748.531982	2003.126953	52.132828
751.791809	1193.896118	2733.077148	1995.994019	52.111992
752.109619	1191.890015	2716.135986	1988.638062	52.271618
752.427490	1199.320190	2706.104736	1991.684204	52.586418
752.745300	1195.828003	2697.783203	1984.551392	52.513111
753.062988	1199.765991	2701.349854	1969.616577	51.269238
753.380615	1187.505981	2696.742920	1961.146118	51.260349
753.698303	1186.837402	2694.959717	1958.396851	51.160271
754.015808	1185.871460	2682.922607	1961.369019	51.801674
754.333374	1189.066406	2679.356201	1972.514282	52.570171
754.650757	1184.385376	2693.324951	1975.114868	52.402992
754.968262	1184.162476	2705.213623	1972.588501	51.834286
755.285583	1184.682617	2710.191650	1956.242065	50.577179
755.602905	1186.985962	2683.368408	1953.864380	51.248825
755.920105	1180.893188	2667.541748	1952.155396	51.879257
756.237305	1184.534058	2643.988037	1951.412476	52.545570
756.554443	1193.598877	2645.399658	1952.378296	52.264706
756.871582	1197.388306	2650.378174	1958.545288	52.385567
757.188599	1195.084961	2661.895020	1962.929199	52.347897
757.505615	1190.181030	2669.548096	1972.068481	52.852837
757.822510	1197.016846	2672.297363	1973.034546	52.601364
758.139465	1201.103516	2683.888428	1971.919922	51.984371
758.456238	1196.719604	2698.229004	1965.381226	51.192596
758.773010	1194.193359	2706.030762	1975.635132	51.688217
759.089783	1189.512207	2716.878906	1975.040649	51.430244
759.406433	1192.261597	2725.944092	1980.687500	51.407375
759.723145	1186.688843	2741.918945	1976.229492	50.766808
760.039673	1192.484375	2747.566162	1993.021851	51.478802
760.356201	1192.558594	2750.389648	1986.706055	50.977764
760.672668	1193.598877	2746.005859	1984.625610	50.954857
760.989136	1189.215088	2736.792236	1979.647461	51.075474
761.305481	1186.094360	2738.872803	1987.300659	51.598236
761.621826	1189.140747	2735.454834	1995.473755	52.145485
761.938049	1191.072632	2738.055420	1999.932007	52.286255
762.254333	1187.803223	2746.897461	2006.842163	52.532997
762.570496	1185.425537	2781.447998	2017.318726	52.122898
762.886597	1177.921021	2858.574219	2040.426880	51.319679
763.202637	1183.419434	2950.560791	2091.992920	51.414871
763.518677	1181.561890	3089.655518	2155.224854	51.028049
763.834656	1192.187134	3205.865234	2229.824707	51.529465
764.150574	1189.883667	3314.495850	2286.963623	51.636711
764.466370	1195.976563	3361.975342	2324.560547	52.104553
764.782288	1188.620605	3390.359131	2334.888672	52.061951
765.097961	1195.902222	3366.582031	2324.932129	52.012737
765.413696	1194.564819	3316.501953	2294.542480	51.838375
765.729309	1199.394531	3231.127930	2258.654297	52.135765
766.044861	1193.450317	3127.772705	2204.190186	52.252918
766.360474	1200.509155	3022.560547	2145.565430	51.867706
766.675903	1203.258301	2910.214844	2087.163330	51.782516
766.991394	1199.840454	2824.023682	2041.987427	51.850491
767.306763	1185.351318	2746.228516	2010.037109	52.834766
767.622131	1175.097534	2686.637695	1977.269653	53.069851
767.937378	1181.710571	2638.563721	1946.285522	52.481266
768.252625	1187.431885	2594.948242	1915.301147	51.713024
768.567810	1194.416260	2557.277100	1881.493286	50.414322
768.882996	1190.255249	2510.986328	1863.958008	51.009834
769.197998	1195.679321	2461.500732	1843.301758	51.162228
769.513062	1198.279907	2437.574951	1837.208984	51.555847
769.828064	1200.880737	2410.974609	1820.788086	51.228039
770.142944	1198.057129	2397.080078	1815.586914	51.502750
770.457825	1190.923950	2360.448730	1800.503540	52.121990
770.772705	1188.174805	2335.780273	1790.249878	52.463593
771.087402	1192.261597	2310.888916	1775.612305	52.148800
771.402100	1192.112915	2293.353516	1769.593750	52.439117
771.716736	1191.890015	2288.598145	1756.144897	51.449867
772.031372	1192.112915	2271.359863	1749.680542	51.662655
772.345947	1194.342041	2262.889404	1738.757935	50.949158
772.660461	1194.490601	2237.180420	1733.110962	51.656815
772.974854	1189.883789	2235.248779	1728.875610	51.560158
773.289246	1195.233521	2220.313721	1714.015259	50.608894
773.603638	1200.657715	2211.174561	1702.126587	49.624989
773.917908	1197.834229	2192.524658	1698.188599	50.302521
774.232178	1195.902344	2182.642334	1699.154663	51.001511
774.546265	1190.255249	2174.320557	1694.845093	51.276054
774.860474	1195.605103	2165.329834	1686.820313	50.655117
775.174561	1192.707153	2156.339111	1676.492310	50.204350
775.488586	1195.679321	2147.571533	1673.520142	50.199047
775.802551	1186.094360	2136.426270	1658.362427	49.695065
776.116516	1185.871460	2129.962158	1655.464722	49.740269
776.430359	1187.357544	2133.379883	1657.619507	49.709393
776.744202	1197.759888	2132.190918	1659.997070	49.467236
777.057922	1199.023071	2112.946533	1651.377930	49.495922
777.371704	1196.793945	2096.079834	1637.334595	48.987831
777.685303	1194.341919	2092.736084	1630.350220	48.531960
777.998962	1197.388306	2091.770264	1636.220215	49.065380
778.312500	1201.177856	2082.408203	1628.864258	48.532871
778.626038	1202.663818	2074.234619	1633.471069	49.428829
778.939453	1195.902222	2080.401855	1629.310181	49.000355
779.252869	1195.084839	2085.528809	1639.415161	49.899864
779.566223	1192.781494	2076.389648	1634.808472	50.025227
779.879578	1195.530762	2073.937744	1635.848633	50.126865
780.192749	1196.570923	2064.426758	1639.415405	51.027424
780.505920	1195.530884	2067.621826	1637.557617	50.685852
780.819031	1195.902344	2060.042969	1633.619751	50.653492
781.132141	1195.456543	2062.940674	1626.338013	49.670242
781.445190	1195.976563	2062.420654	1616.604370	48.546444
781.758118	1201.920776	2055.659180	1605.533203	47.275890
782.071045	1193.524658	2040.798462	1596.765503	47.592743
782.383911	1190.701050	2019.027832	1590.375488	48.250816
782.696838	1184.831177	2009.814331	1594.462036	49.653240
783.009583	1188.174805	1996.959961	1583.836792	48.920528
783.322266	1189.809570	1989.901245	1586.511719	49.582088
783.634888	1189.363647	1973.554565	1582.127930	50.085289
783.947510	1193.747559	1967.907593	1581.384766	50.071972
784.260132	1194.936401	1955.647461	1579.675781	50.576283
784.572571	1202.812622	1949.554688	1574.251587	49.741268
784.885010	1200.211914	1948.886108	1577.297974	50.367176
785.197449	1204.447144	1948.068726	1568.084595	48.900875
785.509766	1203.704102	1943.833618	1564.146484	48.699905
785.822083	1206.081787	1936.477539	1559.614136	48.402847
786.134277	1200.509155	1932.167969	1560.728638	49.233261
786.446533	1193.078735	1927.189575	1559.911255	49.969635
786.758606	1190.552368	1929.195923	1558.202271	49.773655
787.070740	1186.763062	1935.883179	1561.100098	49.970230
787.382690	1184.459839	1952.229858	1564.740845	49.530586
787.694641	1183.642334	1961.889038	1572.468384	49.961800
788.006653	1192.112793	1983.511230	1577.818359	48.737217
788.318481	1200.657715	2004.984497	1590.003906	48.406467
788.630310	1204.298462	2023.634399	1601.446655	48.471962
788.942017	1204.818726	2038.049194	1610.065552	48.635624
789.253784	1199.543091	2049.194580	1614.375366	48.823814
789.565430	1203.555420	2046.445679	1610.511353	48.281010
789.877014	1191.592773	2034.854126	1606.053223	49.149704
790.188538	1191.444214	2020.365234	1593.273315	48.476162
790.500061	1190.329468	1997.925781	1585.174316	48.891365
790.811462	1198.577148	1981.430664	1582.350952	49.022427
791.122925	1198.057007	1959.213989	1576.852417	49.765739
791.434204	1198.279907	1950.892212	1568.604858	49.205276
791.745483	1198.577148	1936.551758	1553.521362	48.097076
792.056702	1200.434692	1916.935913	1542.078735	47.682270
792.367920	1196.868286	1906.087769	1535.985840	47.815601
792.678955	1191.295532	1893.084595	1534.871460	48.957150
792.990112	1189.363647	1883.796875	1539.775269	50.460087
793.301086	1184.013794	1881.270630	1535.540039	50.415604
793.612122	1183.865234	1868.861938	1529.298462	50.428452
793.922974	1183.642456	1856.304810	1517.632935	49.652023
794.233826	1182.156372	1838.249390	1508.939819	49.807487
794.544556	1182.973633	1834.831421	1509.162598	50.039898
794.855286	1186.317261	1853.332642	1508.865356	48.356918
795.166016	1186.985962	1858.905396	1511.688965	48.324692
795.476624	1187.729004	1872.131348	1518.079102	48.268406
795.787292	1186.540161	1871.239868	1522.165649	49.017910
796.097778	1188.992065	1885.431641	1538.958008	50.250725
796.408264	1195.828003	1895.313843	1541.038452	49.352028
796.718689	1191.221069	1915.970093	1548.840210	49.343861
797.029053	1193.153076	1917.307251	1539.032227	47.763191
797.339355	1187.580444	1919.016235	1538.809204	48.019085
797.649658	1187.580444	1907.202148	1541.038452	49.117195
797.959839	1186.911621	1912.031860	1537.694946	48.375885
798.270020	1192.781616	1908.167969	1529.075806	47.008751
798.580078	1199.320190	1893.827637	1519.936523	46.164562
798.890137	1195.976685	1868.936401	1524.171509	48.768867
799.200195	1193.004517	1846.793945	1526.177734	50.960323
799.510071	1193.301758	1834.385620	1522.537109	51.356049
799.820007	1198.057129	1831.636353	1518.450562	50.568802
800.129883	1202.440918	1831.562134	1517.410156	50.064953
800.439575	1192.112915	1829.109985	1510.054199	49.912518
800.749329	1189.586548	1825.543457	1496.754028	48.300045
801.058960	1189.289307	1811.946167	1486.871704	47.792358
801.368591	1201.103394	1810.088501	1488.506348	47.193756
801.678162	1205.858887	1797.605835	1485.236938	47.212421
801.987671	1201.846558	1800.949341	1482.339233	46.818790
802.297119	1193.673218	1790.918579	1479.292969	47.822849
802.606506	1183.122192	1785.271484	1483.973999	49.962994
802.915894	1181.338989	1776.801147	1484.345337	50.885910
803.225159	1179.109863	1773.160156	1480.333008	50.706673
803.534424	1187.208862	1768.478882	1476.097778	49.699608
803.843628	1183.493652	1762.757446	1468.147461	49.140617
804.152771	1186.614380	1758.893921	1460.196899	47.805748
804.461792	1189.512207	1765.061157	1453.881348	45.933388
804.770874	1192.632935	1777.841187	1461.683105	45.975117
805.079773	1190.998291	1782.893921	1466.364258	46.522724
805.388733	1186.763062	1787.203491	1471.565430	47.432243
805.697571	1187.803345	1792.999023	1473.645874	47.231422
806.006470	1198.948730	1801.543579	1477.881226	46.288563
806.315125	1199.988892	1809.717163	1484.939819	46.734085
806.623901	1195.530762	1811.500366	1484.939819	46.984306
806.932495	1191.815552	1810.683105	1486.945923	47.688778
807.241150	1197.908569	1805.481934	1484.345337	47.144390
807.549622	1202.143677	1792.033203	1485.236938	47.990894
807.858154	1200.657593	1785.197144	1483.305176	48.353886
808.166565	1192.261475	1769.370728	1483.007935	50.379795
808.474915	1190.181030	1767.513184	1476.097778	49.523788
808.783264	1186.688843	1753.172729	1472.457031	50.445953
809.091492	1188.100464	1754.881836	1461.385742	48.217052
809.399719	1189.809448	1748.268677	1445.113647	45.715816
809.707825	1196.496704	1753.544312	1438.129028	43.377319
810.015930	1198.131348	1741.729980	1435.454468	43.657784
810.323975	1197.759766	1728.058228	1442.364624	46.125885
810.632080	1186.317261	1717.581665	1443.999146	48.503510
810.939880	1186.317261	1720.405273	1445.782227	48.580936
811.247864	1184.682495	1718.770508	1437.757690	47.384548
811.555664	1189.289307	1716.095581	1438.500610	47.306061
811.863464	1191.221191	1710.151367	1431.516235	46.305855
812.171143	1194.936401	1705.098633	1434.488281	46.956020
812.478882	1199.766113	1702.423828	1424.829102	44.774601
812.786438	1202.143677	1692.244507	1426.315063	45.739849
813.094055	1203.926880	1682.807983	1424.085938	45.973637
813.401489	1196.050903	1672.405640	1416.209839	46.217434
813.708984	1190.106689	1664.009399	1416.135620	47.695217
814.016357	1186.763062	1665.421265	1417.250122	48.152744
814.323730	1183.865356	1667.873169	1418.958984	48.572281
814.630981	1181.636230	1675.823608	1419.479126	48.128078
814.938232	1184.756958	1675.154785	1412.420410	46.424236
815.245361	1186.911743	1670.250977	1421.188110	48.470383
815.552490	1194.044800	1667.576172	1428.172729	49.442959
815.859619	1197.091187	1670.770996	1436.865845	50.619564
816.166565	1203.035400	1680.281860	1436.123047	48.840099
816.473572	1200.063354	1682.659546	1430.253052	47.698200
816.780457	1195.605103	1681.470581	1422.674194	46.734970
817.087341	1193.450317	1681.396118	1419.702148	46.368229
817.394043	1191.815674	1683.699585	1421.188110	46.631416
817.700806	1195.530762	1688.380737	1424.234497	46.404331
818.007507	1195.753784	1691.055664	1426.389282	46.564632
818.314209	1197.908569	1699.080444	1430.624634	46.434383
818.620667	1196.645386	1713.495117	1439.689453	47.024124
818.927246	1202.589478	1726.126465	1448.234375	46.920258
819.233704	1202.886597	1755.030273	1450.760742	44.893051
819.540161	1203.183960	1780.813354	1465.398315	45.394913
819.846497	1193.301636	1818.187622	1482.265015	46.242577
820.152832	1187.060181	1853.927246	1510.128418	48.445671
820.458984	1183.419434	1904.378784	1527.886719	47.779015
820.765259	1193.747437	1962.409180	1558.425293	47.443218
821.071350	1196.199585	2045.999634	1595.205078	46.952869
821.377502	1195.679443	2183.905518	1665.792847	47.571442
821.683472	1182.453613	2452.138428	1804.813110	49.016850
821.989441	1182.899292	2901.744141	2038.569458	49.781700
822.295349	1182.750732	3540.895752	2363.792480	50.083508
822.601196	1186.540161	4261.112793	2714.798584	49.706367
822.907043	1189.512329	4872.178223	3026.126953	49.871876
823.212769	1188.472046	5240.347656	3213.295654	49.972504
823.518494	1198.428711	5263.456543	3244.948486	50.344543
823.824097	1195.828003	5055.333984	3133.345703	50.201187
824.129700	1193.227417	4704.179199	2958.363037	50.275131
824.435242	1190.329590	4351.093262	2773.051758	50.074043
824.740723	1191.146973	4012.495117	2601.189453	49.977615
825.046082	1196.570923	3684.894775	2445.376709	50.186630
825.351501	1193.004517	3356.476563	2278.641602	50.180313
825.656799	1197.462646	3051.092529	2132.265381	50.430927
825.962036	1196.125122	2803.961670	1994.805176	49.674206
826.267212	1198.205688	2645.399658	1909.802856	49.170822
826.572449	1190.701050	2581.648193	1874.286133	49.145294
826.877502	1197.536987	2610.774658	1891.747437	49.121990
827.182495	1198.280029	2735.305908	1956.167603	49.308704
827.487488	1200.360474	2882.648438	2028.761597	49.242527
827.792419	1197.982788	3015.427490	2088.872314	49.018795
828.097290	1199.691772	3036.677734	2098.606201	48.934204
828.402100	1194.564819	2971.885986	2078.841553	49.753345
828.706848	1193.153076	2828.481689	2016.055664	50.320320
829.011597	1189.140747	2675.269775	1946.359741	50.952438
829.316223	1198.502808	2529.041748	1855.338867	49.366165
829.620789	1194.193237	2403.841553	1792.330200	49.447178
829.925354	1197.462646	2276.709717	1721.891235	48.592079
830.229797	1201.697876	2160.425781	1658.065308	47.601349
830.534302	1207.121948	2033.293945	1597.359863	47.234463
830.838562	1207.716431	1945.245117	1546.908203	45.990314
831.142944	1200.063354	1860.540039	1511.614624	47.170670
831.447144	1195.159302	1818.038940	1477.286743	45.294056
831.751404	1192.410034	1770.262329	1457.670776	45.904594
832.055542	1193.227417	1756.739258	1445.113647	44.699368
832.359619	1186.168579	1743.587524	1446.228149	46.654240
832.663635	1178.441040	1756.070313	1455.070313	47.890453
832.967651	1174.280151	1775.611938	1472.011230	49.511948
833.271545	1182.602051	1829.778931	1498.388672	48.794483
833.575439	1192.855957	1920.130981	1533.310913	46.812408
833.879211	1193.970337	2041.541626	1591.787109	46.936085
834.183044	1190.626831	2166.370117	1653.235474	47.410896
834.486694	1188.694946	2270.542725	1710.077148	48.193676
834.790344	1193.673096	2300.189209	1729.247192	48.401833
835.093933	1194.861938	2276.040771	1718.324829	48.415939
835.397522	1187.580444	2210.431641	1690.238403	49.142822
835.700928	1186.168579	2148.686279	1652.344116	48.432930
836.004395	1190.478149	2090.061279	1612.071899	46.865459
836.307739	1189.215088	2022.891602	1572.245605	45.944740
836.611023	1186.614502	1952.155396	1544.233398	46.714539
836.914307	1188.397827	1882.385132	1516.295532	47.248371
837.217529	1191.444214	1815.884155	1484.716919	46.965717
837.520691	1195.753784	1760.454468	1450.017578	45.026295
837.823730	1190.106567	1706.510620	1425.274780	45.539574
838.126831	1194.936401	1664.232422	1404.618530	44.680141
838.429749	1189.883667	1630.796021	1391.466919	45.719574
838.732727	1193.821777	1600.406250	1366.724243	42.525597
839.035522	1196.125122	1587.106079	1357.510620	41.277073
839.338379	1200.137573	1579.675781	1344.210327	37.960014
839.641113	1196.645386	1590.003906	1358.179321	41.065319
839.943848	1194.936401	1607.836548	1365.163818	41.227261
840.246460	1189.289429	1633.842651	1387.008789	44.475971
840.549072	1193.375977	1650.709351	1394.959351	44.077991
840.851563	1190.998291	1655.836060	1404.692871	45.971863
841.154053	1197.239746	1658.511108	1398.377319	43.605042
841.456482	1195.902222	1653.681274	1397.782715	44.099983
841.758850	1200.880493	1635.922974	1389.460938	43.347591
842.061157	1201.995117	1610.957397	1380.841797	43.731827
842.363403	1203.183960	1580.121704	1359.442627	41.454769
842.665588	1201.177734	1567.341675	1355.281616	42.086033
842.967712	1193.375977	1549.509155	1347.851440	43.375759
843.269775	1191.518433	1539.626831	1344.507813	43.948776
843.571777	1189.512329	1518.598999	1329.052856	42.402363
843.873840	1192.261475	1503.441406	1319.616333	40.926437
844.175659	1189.958130	1490.884155	1309.659790	39.777771
844.477600	1194.639160	1477.955444	1304.532837	38.788338
844.779297	1196.868164	1466.215698	1293.536133	35.889679
845.081116	1201.252075	1456.853516	1291.084106	35.145355
845.382751	1197.536987	1456.184692	1282.836548	32.979053
845.684387	1194.416260	1453.807007	1287.071777	35.720440
845.985962	1195.084961	1442.884644	1287.814819	37.421299
846.287537	1196.496704	1431.516235	1291.678589	40.499565
846.588989	1202.589478	1427.949707	1290.712524	39.103195
846.890381	1198.428589	1425.423340	1286.105835	38.625229
847.191711	1195.382202	1422.897095	1284.471191	39.157433
847.493042	1190.998169	1417.175781	1277.709595	38.337757
847.794250	1190.180908	1410.414429	1278.749756	40.215881
848.095459	1181.041626	1416.061157	1273.028442	39.140072
848.396606	1184.459839	1410.339844	1271.765381	38.651291
848.697693	1186.911621	1417.101563	1264.855225	33.860561
848.998657	1195.828003	1403.949829	1266.266968	33.845062
849.299622	1192.112793	1403.652710	1270.873657	37.232151
849.600464	1191.666992	1396.222290	1277.783813	42.099529
849.901367	1193.450317	1401.349243	1270.947998	37.276615
850.202087	1195.605103	1396.371094	1271.170898	37.638744
850.502808	1192.558716	1388.643555	1264.706665	36.794250
850.803467	1192.261475	1385.299805	1275.480347	43.110023
851.104065	1189.437988	1387.157349	1275.034546	43.291946
851.404663	1187.134644	1395.702271	1276.446289	42.821434
851.705139	1184.013794	1390.278198	1264.780884	39.157066
852.005615	1181.116089	1394.439087	1265.301025	39.463600
852.306030	1188.769165	1396.222534	1264.112183	36.318050
852.606384	1187.580444	1398.748657	1263.369263	35.890259
852.906616	1196.719604	1396.965454	1256.236206	29.721766
853.206909	1197.165405	1395.999512	1256.830566	30.007509
853.506958	1201.029175	1398.451538	1255.790405	27.738110
853.807129	1194.341919	1394.216187	1258.168091	31.933161
854.107178	1191.518433	1387.231812	1257.053467	33.485210
854.407166	1190.701172	1380.990234	1258.539551	35.650173
854.707092	1191.518433	1382.104858	1255.641724	33.645256
855.007019	1193.004517	1388.792114	1256.533325	32.447823
855.306763	1193.227417	1392.730103	1260.768555	33.854752
855.606567	1193.896118	1386.711792	1262.180298	35.414227
855.906250	1190.255371	1378.612671	1262.551880	38.382641
856.205933	1189.660767	1376.978027	1265.895508	40.698193
856.505493	1179.630005	1382.773560	1268.273193	43.635738
856.805054	1173.611450	1386.860229	1271.171021	45.749180
857.104492	1167.741577	1384.631226	1274.217407	49.092167
857.403931	1174.503174	1385.151367	1268.867554	44.797146
857.703308	1182.825073	1385.819946	1264.186523	40.080544
858.002563	1191.221313	1386.191528	1253.784180	32.088421
858.301819	1197.982788	1389.460938	1254.453003	29.491728
858.601013	1194.193237	1395.702271	1254.675903	30.014866
858.900208	1196.348145	1394.885132	1259.282593	31.699104
859.199219	1194.639160	1389.015137	1261.660156	34.480083
859.498291	1194.416260	1377.646851	1263.889282	37.915623
859.797302	1192.038574	1374.748901	1263.443481	39.080936
860.096191	1196.496704	1372.073853	1262.848999	37.790962
860.395020	1196.050903	1375.566284	1253.784180	32.160629
860.693787	1196.422485	1390.723999	1254.155640	29.713179
860.992554	1195.085083	1394.959351	1254.155640	29.553858
861.291260	1198.205688	1391.169922	1264.483765	34.347336
861.589844	1195.976563	1367.467285	1264.632324	40.034679
861.888428	1187.060303	1357.436523	1267.307129	47.099781
862.186890	1185.276978	1360.408569	1264.780884	45.396667
862.485413	1180.298706	1366.501343	1260.917114	43.296062
862.783813	1192.335815	1369.176270	1257.722168	36.974770
863.082153	1198.428589	1369.101929	1258.390869	35.132774
863.380371	1204.521362	1372.891479	1264.855347	35.834141
863.678589	1195.828003	1373.040039	1263.963745	38.448711
863.976746	1196.050781	1371.182495	1256.756348	34.662807
864.274902	1198.131348	1370.290649	1252.000977	31.290571
864.572937	1201.995117	1369.770874	1256.533325	32.506607
864.870911	1200.657593	1371.405273	1265.524048	37.989655
865.168884	1192.930054	1370.810913	1263.740723	39.807919
865.466736	1194.639038	1367.764526	1256.979126	36.008614
865.764587	1189.437988	1368.359009	1251.926636	34.925270
866.062317	1195.010620	1371.851196	1254.452759	33.613403
866.360107	1191.295532	1367.318726	1258.242188	38.032860
866.657715	1196.942505	1363.157593	1255.715942	35.359871
866.955322	1196.050903	1356.693237	1255.047241	36.725273
867.252808	1190.478149	1365.535278	1256.161743	37.521233
867.550293	1192.558716	1368.136108	1261.288574	39.145050
867.847717	1193.598877	1372.891235	1262.700439	38.541275
868.145081	1197.685547	1371.776733	1262.477539	37.217274
868.442383	1198.279907	1361.374390	1261.883179	38.997807
868.739624	1194.490601	1365.015137	1257.945068	37.211342
869.036804	1194.193237	1370.142090	1259.059570	36.866585
869.333984	1189.586548	1373.411499	1255.715942	35.974113
869.631042	1197.908447	1360.185547	1252.075317	33.379246
869.928101	1204.372681	1361.968872	1253.041138	30.881746
870.224976	1202.589478	1372.668579	1251.257813	28.615118
870.521851	1197.536987	1380.916016	1259.133911	33.589951
870.818726	1186.911743	1380.767578	1260.099976	37.753948
871.115479	1188.917847	1382.402222	1261.214355	37.365555
871.412231	1190.181152	1389.238159	1259.208130	34.676991
871.708862	1193.004517	1388.717773	1262.923218	35.725071
872.005493	1194.564941	1391.392578	1270.056396	38.354092
872.302063	1191.815552	1394.439087	1269.759155	38.467201
872.598572	1195.605103	1398.005737	1260.248413	31.938293
872.895020	1192.930176	1397.931274	1255.641724	30.590836
873.191406	1195.753784	1400.606079	1266.192505	34.385128
873.487671	1186.094360	1403.132446	1266.118286	36.870914
873.783997	1183.345215	1402.612671	1266.638550	37.987095
874.080200	1177.921021	1397.114136	1260.917114	37.864372
874.376343	1186.465820	1398.005737	1258.242310	33.930470
874.672424	1195.084961	1400.531860	1258.539429	30.886066
874.968445	1193.673218	1398.748657	1249.177368	27.065235
875.264465	1193.524658	1399.937500	1255.790405	30.165636
875.560364	1186.688721	1400.680542	1263.889282	36.076408
875.856201	1184.831177	1398.971680	1268.718872	39.174137
876.152039	1190.181030	1394.290649	1265.226685	36.767330
876.447754	1188.026245	1385.522827	1259.802612	36.343094
876.743469	1194.639160	1390.278198	1262.403198	34.637280
877.039063	1192.781616	1393.324585	1271.913940	39.459038
877.334595	1199.914673	1397.262695	1266.489868	33.734921
877.630127	1199.617554	1392.581543	1264.632324	33.692696
877.925537	1191.890015	1385.448608	1257.350586	33.819511
878.221008	1188.992188	1383.293579	1256.161743	34.569775
878.516296	1182.750610	1391.541382	1262.477539	38.185081
878.811646	1185.574219	1395.256470	1269.536255	40.042511
879.106812	1182.973633	1409.745483	1283.505249	44.331612
879.401978	1191.295532	1419.330688	1288.334961	42.554592
879.697083	1193.078735	1441.324219	1291.827148	39.778534
879.992126	1196.125122	1462.203247	1300.223267	39.123150
880.287109	1197.091064	1500.469116	1306.687622	36.125408
880.582031	1196.199585	1559.316895	1337.077393	38.796776
880.876892	1191.741333	1671.588257	1388.866333	41.080811
881.171753	1186.242920	1862.694946	1491.775513	45.166927
881.466492	1187.728882	2151.509521	1628.344116	45.717377
881.761230	1195.010620	2502.441650	1795.748169	45.947933
882.055786	1189.660889	2820.010986	1944.428101	46.294792
882.350403	1189.215088	3014.164307	2045.034058	46.895496
882.644958	1181.636230	3064.615479	2084.934570	47.971764
882.939453	1187.431763	3004.281982	2074.606201	48.830357
883.233826	1185.202637	2906.648193	2036.860352	49.473404
883.528137	1189.214966	2784.940186	1977.715454	49.413300
883.822449	1195.159302	2669.473877	1907.127930	48.291500
884.116577	1197.016846	2550.886719	1834.311401	47.072067
884.410828	1198.205688	2418.033447	1760.082886	46.062012
884.704956	1195.084961	2264.152588	1690.238281	46.316372
884.999023	1200.880615	2093.702148	1621.359741	47.095539
885.292969	1199.765991	1944.948120	1553.223999	47.432430
885.586914	1202.589478	1822.274414	1500.023438	47.997612
885.880798	1193.450317	1735.563110	1445.187988	46.436401
886.174622	1193.970337	1668.616211	1410.265625	45.569824
886.468384	1196.645386	1627.601196	1375.120483	41.413780
886.762085	1196.719604	1588.666504	1352.012207	39.620827
887.055664	1192.707397	1545.868164	1338.563477	41.300194
887.349304	1185.648560	1517.112915	1327.863892	42.905167
887.642822	1185.128540	1498.760132	1328.012573	45.557922
887.936340	1189.289429	1488.357788	1307.727905	39.602478
888.229736	1191.444214	1466.066895	1299.405884	39.312729
888.523071	1192.930176	1450.240601	1286.180176	36.240273
888.816284	1195.902222	1438.872192	1287.740356	37.798141
889.109619	1197.834106	1433.968262	1290.638306	39.301472
889.402710	1201.400757	1420.519531	1286.774536	38.962330
889.695862	1196.570923	1415.318359	1282.242065	39.164410
889.988892	1186.911743	1405.064453	1266.786987	36.614372
890.281921	1172.051025	1397.188477	1254.304199	36.534649
>>>>>End Processed Spectral Data<<<<<
