Jaz Data File
++++++++++++++++++++++++++++++++++++
Date: Fri Jun 04 16:39:07 2021
User: jaz
Dark Spectrum Present: Yes
Reference Spectrum Present: Yes
Processed Spectrum Present: Yes
Spectrometers: JAZA3586
Integration Time (usec): 24500 (JAZA3586)
Spectra Averaged: 10 (JAZA3586)
Boxcar Smoothing: 1 (JAZA3586)
Correct for Electrical Dark: No (JAZA3586)
Strobe/Lamp Enabled: Yes (JAZA3586)
Correct for Detector Non-linearity: No (JAZA3586)
Correct for Stray Light: No (JAZA3586)
Number of Pixels in Processed Spectrum: 2048
>>>>>Begin Processed Spectral Data<<<<<
W	D	R	S	P
191.335022	0.000000	0.000000	0.000000	0.000000
191.713211	234.722305	237.694412	239.774857	169.998978
192.091385	468.330078	472.342407	474.645752	157.406677
192.469528	711.002747	710.185364	713.677551	-327.240143
192.847641	720.513489	715.535156	714.866455	113.432236
193.225739	732.476257	730.321472	727.497864	231.038971
193.603790	736.860046	741.615417	745.033386	171.875961
193.981842	742.209778	745.999268	750.531738	219.606354
194.359863	749.714417	747.931152	751.794922	-116.668381
194.737854	753.281006	751.571960	742.581360	626.059753
195.115829	747.039551	756.253113	746.073669	-10.483256
195.493774	744.364685	757.144714	742.358459	-15.698130
195.871704	749.268555	759.448059	744.884766	-43.064857
196.249603	759.002258	755.435791	749.342957	270.836670
196.627457	760.636963	752.909485	757.441895	41.346844
197.005310	755.881531	750.606140	762.048767	-116.905777
197.383133	752.166443	758.853760	754.692688	37.776661
197.760910	752.389343	761.008484	754.989929	30.172218
198.138687	755.287109	762.420227	752.389343	-40.624119
198.516449	752.240723	760.859863	753.058105	9.483345
198.894180	751.274841	756.847473	752.686523	25.332413
199.271866	746.296570	753.726746	754.915710	116.001839
199.649536	747.931152	745.553467	753.058105	-215.627884
200.027191	745.330566	743.918762	746.147949	-57.896328
200.404816	742.061218	748.822815	746.965271	72.528030
200.782410	740.872375	757.516296	757.590515	100.445923
201.159988	741.615479	771.856628	765.615234	79.361252
201.537537	743.101563	774.977356	761.825867	58.741451
201.915070	746.668030	783.076355	762.420227	43.265373
202.292557	738.271790	776.314758	764.500671	68.945412
202.670029	741.838379	782.556213	765.095154	57.116924
203.047485	737.751770	773.491272	758.928040	59.251720
203.424911	742.655762	778.766846	754.767029	33.538918
203.802292	737.677429	770.742126	756.104492	55.730324
204.179688	736.042786	779.286926	762.643066	61.511871
204.557037	742.358459	782.481934	766.729797	60.740849
204.934357	742.358459	784.562439	755.584290	31.337873
205.311661	743.324463	778.692566	754.098328	30.462093
205.688934	732.030457	775.125977	749.714417	41.034336
206.066177	735.225403	778.692566	758.779358	54.187927
206.443390	736.340027	784.785339	760.191162	49.233112
206.820587	742.284180	788.723389	759.893860	37.919853
207.197769	739.312195	785.676941	768.141541	62.179455
207.574921	737.305908	784.488098	761.677246	51.653683
207.952042	735.225403	780.773010	768.513000	73.083084
208.329147	738.271790	777.726563	763.906250	64.971764
208.706223	746.816589	772.748291	775.571777	110.888161
209.083267	751.720642	772.971191	772.302551	96.853539
209.460297	741.764099	775.125977	774.605957	98.441277
209.837280	732.476257	776.983459	767.250000	78.130600
210.214264	727.052063	778.915344	760.562683	64.613380
210.591217	727.275085	770.890686	757.219055	68.654266
210.968124	726.309082	769.999023	757.070496	70.408455
211.345016	731.064453	772.525391	757.590515	63.978443
211.721893	742.878601	779.509827	755.955872	35.699791
212.098724	746.965271	777.800842	749.194336	7.228875
212.475555	745.181946	776.983582	756.847595	36.682545
212.852356	737.528809	783.670715	756.996094	42.190033
213.229126	732.476257	784.933899	762.940369	58.073734
213.605865	729.504089	784.413818	756.327454	48.849930
213.982590	729.355469	781.144531	754.246887	48.063080
214.359283	726.531921	778.320984	748.302734	42.037472
214.735931	722.593933	775.794678	750.903320	53.212391
215.112579	726.383484	769.924805	745.256348	43.344719
215.489197	734.482422	771.708069	748.748535	38.323345
215.865799	739.163513	761.231262	749.788757	48.148293
216.242355	740.872375	756.921692	756.253113	95.834221
216.618896	738.197571	758.927979	753.652527	74.552109
216.995407	736.860046	766.655457	740.129395	10.972657
217.371902	734.036560	771.410828	735.522644	3.976222
217.748367	731.138855	767.472839	741.020996	27.198067
218.124802	726.754883	769.404602	756.773254	70.383514
218.501236	720.810730	764.203430	759.150879	88.356216
218.877609	726.680603	767.175598	753.206726	65.504692
219.253983	730.990234	767.621399	745.999268	40.973400
219.630295	736.414307	768.513000	745.627747	28.703472
220.006592	731.361633	767.398499	739.237732	21.855671
220.382889	731.956055	768.884521	746.519348	39.436497
220.759140	731.733154	773.416992	750.680359	45.454559
221.135391	734.853943	773.714172	760.414063	65.774498
221.511581	736.414307	767.844299	760.265442	75.886543
221.887772	730.247131	762.197266	758.556458	88.604721
222.263931	726.680664	763.014648	762.940369	99.795563
222.640060	721.627991	770.073425	760.636963	80.521461
223.016159	727.572266	773.194153	760.859863	72.964096
223.392212	730.692932	771.336609	747.856873	42.230286
223.768265	734.631042	769.701843	746.668030	34.321964
224.144302	739.014832	768.736023	745.702087	22.499958
224.520294	741.615417	766.358215	754.469788	51.951965
224.896286	742.284180	761.380066	752.983704	56.030518
225.272217	745.553528	764.500671	757.144714	61.176434
225.648148	747.782715	772.302490	759.522400	47.878437
226.024048	749.045715	777.726563	761.900085	44.818657
226.399902	737.008728	783.819397	762.197327	53.809525
226.775772	730.618652	778.395325	756.773254	54.743458
227.151581	730.395752	777.206482	756.698975	56.190586
227.527374	737.974609	774.160095	762.866028	68.788406
227.903137	734.556702	774.308594	764.500671	75.327156
228.278870	734.631042	769.850403	761.974365	77.637192
228.654572	725.120300	775.348877	750.383118	50.295708
229.030273	726.754883	784.562500	749.417297	39.203163
229.405930	725.343201	791.175354	747.782532	34.085670
229.781555	723.708496	789.169189	751.200500	41.997730
230.157181	725.194580	786.494324	752.463684	44.484859
230.532761	719.250305	783.968018	754.321289	54.190704
230.908325	726.606262	784.413818	750.085938	40.616966
231.283859	726.903503	780.104248	759.150879	60.614517
231.659332	735.745544	779.807068	765.392334	67.284988
232.034821	736.340027	779.509949	765.169434	66.781235
232.410263	733.739319	776.686340	757.070496	54.325481
232.785690	726.829163	774.828796	749.268555	46.749088
233.161087	726.086182	766.729797	757.367615	76.965179
233.536469	732.996338	774.977356	758.779297	61.415756
233.911804	735.745544	775.200256	759.076599	59.133759
234.287140	735.671204	777.726563	753.875427	43.286335
234.662430	741.764099	776.166260	754.098328	35.853062
235.037704	744.884766	777.355164	747.336731	7.551387
235.412933	741.689758	781.218811	747.411072	14.473692
235.788162	731.658936	779.212646	747.708252	33.749870
236.163345	727.275085	773.937195	751.794922	52.547638
236.538513	732.253357	771.708069	749.342957	43.314472
236.913635	726.234802	775.348938	748.971436	46.293461
237.288742	724.748718	783.447937	756.921814	54.810093
237.663834	727.052185	782.333313	763.088928	65.188148
238.038879	726.754883	773.639893	761.974426	75.118988
238.413910	728.538147	772.822571	762.791809	77.349236
238.788910	724.228516	773.937195	758.482239	68.908936
239.163879	733.962219	775.720398	756.401672	53.736668
239.538834	739.757996	768.290222	750.531799	37.760124
239.913757	741.689758	763.906311	755.807312	63.545204
240.288651	742.209900	771.485168	759.968262	60.659946
240.663528	741.615417	779.881348	761.528625	52.039001
241.038361	743.324402	791.918396	757.739197	29.663738
241.413177	738.569031	783.670715	759.968262	47.446632
241.787979	733.962219	784.785339	761.677246	54.532322
242.162735	732.401917	779.435547	759.819641	58.293873
242.537476	730.395813	794.370422	753.949768	36.817661
242.912170	735.522644	798.382751	755.212891	31.323915
243.286865	725.863281	805.664368	754.024109	35.288776
243.661514	721.256531	802.097839	752.909485	39.154430
244.036148	714.346375	802.543701	749.937317	40.353767
244.410751	722.148193	802.915222	750.234619	34.774616
244.785339	732.922058	803.286804	755.287109	31.784456
245.159882	738.940613	799.051453	758.259277	32.138405
245.534378	739.014893	794.816162	763.757629	44.340813
245.908890	738.271790	791.175293	758.779358	38.764103
246.283356	728.909668	791.621155	755.658691	42.654106
246.657791	726.086182	802.915222	748.302734	28.916868
247.032196	719.696106	809.379456	745.776367	29.080383
247.406586	720.141907	821.565186	751.646301	31.062292
247.780960	720.290588	824.165833	758.927979	37.195957
248.155289	720.662109	822.977051	768.364441	46.623035
248.529602	725.863281	819.856262	765.615234	42.292469
248.903870	730.024231	817.998718	773.194092	49.070885
249.278122	731.733215	818.593079	764.352051	37.553406
249.652344	732.996399	816.141113	765.838074	39.499413
250.026550	735.671204	813.391846	757.664795	28.298262
250.400711	734.631042	809.453857	756.698914	29.493505
250.774857	731.956116	810.642639	752.092102	25.590134
251.148987	725.640381	808.785156	754.692688	34.941830
251.523071	727.572266	813.317627	759.745300	37.521603
251.897125	734.556702	819.336121	760.116882	30.149040
252.271164	731.956055	817.255676	757.516296	29.965246
252.645187	731.138733	816.438293	755.658691	28.745703
253.019165	726.160461	814.283508	753.206726	30.691477
253.393112	731.287415	820.376282	754.395508	25.938250
253.767044	731.881836	827.509460	755.064270	24.242403
254.140930	734.779602	828.178162	755.064270	21.718395
254.514801	736.488586	824.314392	749.268555	14.551496
254.888657	736.934387	819.410400	755.881531	22.972914
255.262466	728.686829	816.141113	763.683350	40.016930
255.636276	725.640381	817.998596	758.779480	35.881050
256.010010	728.538269	823.274170	751.943542	24.705812
256.383759	731.658936	823.571350	740.798096	9.943336
256.757446	734.259521	830.704407	750.234619	16.563965
257.131134	727.720886	831.596008	754.692688	25.965603
257.504791	730.395752	839.472168	758.482178	25.749311
257.878418	726.680664	837.391602	763.534729	33.288548
258.252014	729.875671	847.793945	759.002258	24.700655
258.625580	730.024231	853.441101	759.150879	23.600216
258.999115	732.476257	867.112732	753.578186	15.673263
259.372650	729.206848	873.874329	753.429626	16.743761
259.746124	730.618652	899.434387	757.219055	15.757064
260.119598	733.293518	920.313477	753.058105	10.568171
260.493042	744.141785	938.963562	759.819641	8.047281
260.866425	742.209900	934.208191	759.522461	9.017039
261.239838	745.033386	931.236023	763.980652	10.175616
261.613159	737.751709	921.056580	757.962097	11.025559
261.986511	734.482422	913.031799	757.293274	12.775655
262.359802	727.200745	894.530457	756.550293	17.539949
262.733063	726.234863	885.316895	755.287170	18.262470
263.106293	726.309082	884.202332	750.977539	15.623504
263.479523	727.349365	886.877258	750.680359	14.625025
263.852692	730.618652	888.214661	757.293274	16.925949
264.225861	737.751709	881.378906	759.670959	15.261211
264.598969	737.677429	885.688477	758.333496	13.955760
264.972076	739.460693	890.963928	753.132324	9.023986
265.345154	734.259521	902.109375	756.327393	13.147388
265.718201	740.649475	903.966980	759.968201	11.828938
266.091217	739.460693	907.310547	764.426453	14.873864
266.464203	740.500977	910.356934	764.872253	14.348203
266.837158	735.894104	922.393982	758.556458	12.151404
267.210114	729.281250	927.818054	754.915588	12.911631
267.583038	724.377258	939.706543	753.578186	13.561057
267.955902	720.736328	941.118164	759.225098	17.464584
268.328766	718.507324	947.285339	762.866028	19.389408
268.701569	718.358704	949.737366	766.358215	20.745003
269.074371	719.696106	959.396790	764.649231	18.753859
269.447144	723.782776	972.102539	756.698914	13.255545
269.819885	730.915833	981.984863	755.510071	9.795807
270.192596	730.544373	980.572998	755.287170	9.895986
270.565277	736.414246	988.671936	762.866028	10.486016
270.937927	731.213074	1000.114563	762.494446	11.633023
271.310577	733.813660	1036.225708	762.791687	9.582299
271.683136	730.618652	1056.881836	766.135254	10.885875
272.055725	733.813660	1076.869263	759.968079	7.623959
272.428284	732.253235	1078.652588	757.441895	7.271566
272.800812	730.841553	1081.476074	757.739075	7.671099
273.173279	730.841553	1078.801147	761.528564	8.819131
273.545776	729.727051	1080.435913	764.352051	9.872862
273.918152	729.281189	1073.674316	761.379944	9.320382
274.290558	734.185120	1064.609375	762.123047	8.455169
274.662964	736.934387	1053.835449	759.002258	6.963647
275.035278	744.587585	1049.451660	755.732971	3.655854
275.407593	741.912659	1057.996460	754.098328	3.855202
275.779907	741.912659	1066.689819	757.516296	4.804413
276.152161	737.231628	1078.206665	758.556458	6.254074
276.524384	731.064453	1083.556519	763.386169	9.169488
276.896606	723.857117	1100.126099	763.980652	10.663525
277.268799	726.754883	1112.534546	765.763855	10.111723
277.640930	732.401855	1129.401245	762.866028	7.673607
278.013031	739.089172	1128.658325	761.231384	5.683769
278.385162	734.779602	1133.413696	760.934143	6.561039
278.757233	733.590820	1134.082397	761.008484	6.846003
279.129272	725.789001	1130.292969	759.819641	8.412931
279.501282	725.120300	1138.614868	757.739075	7.888562
279.873230	722.965515	1154.515747	755.881592	7.627403
280.245178	731.287354	1174.948975	758.556458	6.146374
280.617126	725.417480	1190.701172	759.522400	7.329919
280.988983	727.052063	1203.555542	761.379944	7.204120
281.360870	727.126465	1232.459351	764.575012	7.410669
281.732697	730.470032	1257.424927	771.782410	7.839832
282.104492	727.349426	1283.579590	765.763855	6.906211
282.476288	723.931458	1308.099487	759.893982	6.156195
282.848053	735.522644	1320.805054	752.983826	2.983377
283.219757	740.575195	1323.554321	765.541016	4.282455
283.591461	739.460632	1315.158203	772.971252	5.820872
283.963135	732.179016	1321.771118	773.937195	7.082554
284.334747	728.389587	1330.910278	774.011414	7.571827
284.706360	730.172852	1347.628418	761.082764	5.006014
285.077942	727.275085	1367.095703	764.129211	5.760072
285.449524	728.315247	1379.430054	757.813477	4.530419
285.821014	727.943787	1393.770508	763.980530	5.412331
286.192535	731.807434	1411.157227	759.373779	4.057754
286.563995	736.785828	1446.228149	757.664795	2.943011
286.935425	734.185242	1468.518921	756.476013	3.035510
287.306824	731.064453	1487.763306	761.751465	4.055380
287.678223	727.423645	1474.166016	767.992859	5.432826
288.049561	732.476257	1462.351929	777.132141	6.118287
288.420898	727.869446	1436.048828	767.472839	5.592283
288.792145	728.761047	1424.977661	759.596680	4.429029
289.163452	727.200867	1432.333618	759.373779	4.562675
289.534668	726.160461	1451.280884	761.231384	4.836565
289.905914	724.525879	1481.150391	758.779480	4.527160
290.277039	730.692932	1508.493774	754.692688	3.085591
290.648193	736.860046	1546.759766	757.441956	2.541291
291.019318	737.900330	1590.747070	772.079590	4.007668
291.390381	725.566101	1606.796387	771.039307	5.160195
291.761475	721.776672	1592.010132	774.457214	6.053610
292.132507	717.244141	1570.908203	764.352051	5.518320
292.503510	720.885010	1553.892944	762.494568	4.995098
292.874481	723.634216	1554.858765	766.729797	5.184589
293.245422	722.668274	1553.149902	763.906250	4.965549
293.616364	719.176025	1580.493164	770.221985	5.926500
293.987213	721.107910	1610.511353	761.454285	4.536341
294.358093	726.383362	1655.093140	761.379944	3.768301
294.728943	737.900391	1706.064819	757.813477	2.056787
295.099731	736.785828	1745.519653	762.568848	2.555979
295.470490	737.305969	1773.977539	759.002258	2.092880
295.841248	737.900391	1790.175415	757.144714	1.828830
296.211975	741.318298	1813.952148	756.401672	1.406200
296.582642	743.695984	1860.911621	762.717468	1.702580
296.953308	733.813721	1909.134155	763.163269	2.497153
297.323883	729.058289	1959.362793	762.791748	2.741879
297.694519	724.748718	1980.687500	768.884521	3.514169
298.065063	736.340027	1975.040527	769.404602	2.669296
298.435608	737.974609	1957.133667	764.277771	2.157484
298.806122	743.250183	1912.180542	759.522461	1.392066
299.176575	743.621643	1859.128418	754.395508	0.965827
299.547028	744.290344	1809.345703	754.692688	0.976695
299.917450	743.027161	1784.825562	755.361511	1.183948
300.287872	731.361755	1781.184937	766.358215	3.333557
300.658234	728.166687	1773.457397	768.661621	3.874035
301.028564	727.795166	1778.212524	766.581116	3.692432
301.398865	728.983948	1789.581055	755.658691	2.515068
301.769135	733.293518	1800.280640	752.909485	1.838445
302.139374	730.098450	1802.658325	755.138489	2.334605
302.509583	732.550476	1801.395142	751.200500	1.744877
302.879791	733.888000	1799.463257	754.841309	1.966385
303.249939	735.596985	1789.952515	754.544128	1.797036
303.620087	744.364685	1769.593750	767.770020	2.282937
303.990173	746.073547	1766.547241	761.751465	1.536337
304.360260	743.027161	1755.179077	760.562683	1.732499
304.730286	734.036621	1775.537720	752.686523	1.790675
305.100281	730.395752	1785.271484	755.732971	2.401915
305.470276	733.442139	1799.983398	761.602844	2.640377
305.840179	732.476257	1797.977173	765.466614	3.096230
306.210144	735.819824	1801.098022	765.986755	2.831836
306.579987	736.191406	1817.221680	766.283936	2.783690
306.949890	738.049011	1827.995605	767.472839	2.699566
307.319702	735.448303	1842.410156	773.342773	3.423286
307.689484	729.578430	1860.391479	765.020813	3.134239
308.059265	734.853943	1888.254883	761.082764	2.274042
308.429016	730.321472	1928.526978	762.643066	2.697500
308.798737	739.609314	1979.721802	763.460449	1.923304
309.168396	730.693054	2026.681030	767.992920	2.878103
309.538055	731.287415	2058.854248	763.906250	2.457039
309.907684	720.439209	2069.330811	765.986633	3.376656
310.277313	724.525879	2089.912598	774.011414	3.624287
310.646851	725.417480	2111.906250	778.618164	3.837080
311.016388	733.367859	2136.203125	781.070251	3.400427
311.385895	734.779541	2137.466064	774.011414	2.796910
311.755371	737.677429	2142.444580	768.810242	2.216226
312.124817	729.801270	2142.816162	766.952698	2.629231
312.494232	724.748779	2144.450928	763.237549	2.711045
312.863617	729.875671	2126.246826	763.757629	2.426429
313.232971	739.014893	2119.187744	764.649231	1.857328
313.602295	740.946777	2107.002197	768.067200	1.985309
313.971619	735.225403	2114.209717	765.095154	2.166069
314.340820	729.429871	2124.909180	764.872253	2.539800
314.710083	725.937561	2148.463135	763.831970	2.663882
315.079285	727.943665	2180.487549	763.237549	2.429798
315.448486	732.179016	2205.379150	761.305664	1.977100
315.817596	727.275085	2204.561523	759.745361	2.197968
316.186707	723.931396	2166.221436	766.061035	2.921024
316.555786	722.148132	2112.797607	769.033203	3.371452
316.924866	739.386414	2075.200439	772.674011	2.491934
317.293884	740.278015	2064.352295	772.079529	2.401792
317.662872	742.284180	2065.912842	768.736023	1.998434
318.031830	732.179016	2081.070801	769.776184	2.787263
318.400757	737.603088	2088.426758	767.101318	2.183722
318.769684	736.117004	2105.293213	772.376770	2.648291
319.138550	740.649475	2125.354736	771.782410	2.248344
319.507416	739.609192	2139.695313	775.571777	2.568598
319.876190	738.940613	2156.636475	768.438782	2.080712
320.244995	739.757874	2152.401367	771.708069	2.261731
320.613770	739.460693	2139.398193	774.531555	2.505173
320.982483	739.460693	2119.262451	786.420105	3.403345
321.351166	739.014832	2095.485352	784.339539	3.341371
321.719818	733.144958	2091.993164	776.463440	3.187882
322.088440	731.361633	2093.850586	770.965027	2.906694
322.457062	727.423645	2121.491455	769.999084	3.054044
322.825623	733.144958	2147.720215	775.125977	2.967747
323.194183	732.179016	2188.958008	773.862854	2.861370
323.562653	735.819885	2233.614258	776.760681	2.733406
323.931183	721.479492	2286.517578	778.618225	3.650948
324.299591	722.519714	2340.238525	784.265198	3.816824
324.668060	713.231750	2393.662109	784.933899	4.266892
325.036407	722.445313	2434.528564	784.265320	3.610806
325.404755	724.525879	2452.955811	780.921570	3.262828
325.773102	730.618652	2464.101074	776.166199	2.627517
326.141388	733.293518	2477.252441	778.915466	2.615999
326.509674	730.544250	2485.722900	777.355164	2.667017
326.877899	731.510254	2495.531006	777.875183	2.628366
327.246124	727.052063	2502.069580	771.410889	2.499064
327.614288	728.166687	2508.831299	772.599670	2.495303
327.982422	724.377258	2498.280273	778.841125	3.070284
328.350525	727.795166	2480.447754	780.029968	2.980328
328.718628	730.841553	2475.618164	780.624451	2.853253
329.086700	738.791931	2477.104248	772.302429	1.927761
329.454712	732.773438	2490.552979	770.147644	2.126217
329.822693	729.132629	2488.175537	767.992859	2.209169
330.190674	726.903564	2503.927490	773.045471	2.596583
330.558563	732.476257	2524.137695	771.485107	2.177245
330.926483	726.977844	2556.162109	769.553284	2.327564
331.294312	726.829163	2578.229980	769.033203	2.279573
331.662231	737.083008	2604.458984	773.639954	1.957664
332.029999	743.398743	2636.854980	781.293152	2.001335
332.397766	736.785828	2676.309814	779.064026	2.179823
332.765503	730.470032	2718.216553	774.382996	2.209183
333.133240	730.841553	2771.937500	767.101257	1.776482
333.500916	741.466858	2816.964844	759.819641	0.884259
333.868561	743.027161	2857.385498	765.615234	1.068318
334.236176	746.519470	2873.434814	768.810242	1.048033
334.603790	738.940613	2889.558594	779.212646	1.872580
334.971344	740.723816	2890.227295	771.559387	1.434544
335.338867	737.825989	2879.378906	770.890808	1.543965
335.706360	735.522644	2871.948975	765.466614	1.401592
336.073853	729.727051	2871.057373	770.816406	1.918870
336.441284	729.058289	2885.917725	762.643127	1.557118
336.808655	735.596985	2869.125000	760.934143	1.187571
337.176086	736.117004	2835.243164	759.819641	1.129167
337.543396	732.922058	2761.311768	769.256104	1.791275
337.910706	731.658875	2715.615967	773.416992	2.104789
338.277954	726.234863	2720.668213	777.354980	2.563140
338.645264	728.761047	2801.287109	777.132141	2.333920
339.012421	725.640320	2928.938721	781.441711	2.532630
339.379669	720.587708	3041.804688	780.624451	2.586434
339.746796	721.553711	3142.039063	781.887512	2.492632
340.113953	728.686768	3204.527588	785.379822	2.289850
340.481018	739.757874	3231.945313	782.927795	1.732210
340.848114	737.974609	3236.329346	779.212646	1.650608
341.215118	738.494812	3222.731689	765.838135	1.100673
341.582153	737.008728	3233.951416	767.324219	1.214104
341.949066	734.110840	3242.570557	772.525391	1.531400
342.316010	727.200684	3254.830811	787.608826	2.389912
342.682922	723.559875	3274.074951	799.348694	2.971510
343.049835	729.355530	3300.006836	808.562256	3.081193
343.416656	731.807556	3341.913330	817.924316	3.299359
343.783478	735.374023	3393.479736	837.763184	3.851960
344.150269	733.739441	3490.296143	872.834045	5.045955
344.516998	726.829285	3600.412842	910.951355	6.407403
344.883728	723.782776	3714.541748	959.991150	7.897941
345.250427	725.120300	3771.457764	994.541809	8.844112
345.617065	731.138855	3817.525146	1024.040039	9.490102
345.983704	733.145020	3830.528320	1006.058777	8.811107
346.350281	738.866272	3835.060547	963.334778	7.249820
346.716827	739.534973	3793.302734	898.171326	5.194775
347.083405	745.702148	3741.736328	841.849792	3.209164
347.449860	741.392578	3681.179688	812.351563	2.413746
347.816376	741.987000	3639.570313	794.964844	1.828346
348.182770	737.305969	3602.864502	787.311584	1.745057
348.549194	739.609375	3588.152588	780.698730	1.442469
348.915558	739.683594	3599.446533	778.320984	1.351070
349.281921	735.596985	3623.669678	777.949524	1.466464
349.648193	723.039795	3660.003662	771.410889	1.646976
350.014526	715.683838	3693.291260	771.633789	1.879024
350.380737	715.089355	3740.696289	778.172363	2.084970
350.746948	719.176025	3793.154053	786.197083	2.180271
351.113159	722.148132	3841.525146	788.797668	2.136630
351.479309	723.188416	3882.540039	795.484924	2.288334
351.845428	728.315247	3920.285889	796.970947	2.150887
352.211517	723.708496	3929.871094	796.376526	2.266511
352.577576	725.046082	3966.353516	791.769775	2.058543
352.943604	723.039795	3998.898193	792.067078	2.107151
353.309601	733.665100	4078.402344	795.187683	1.839385
353.675537	739.832214	4157.386230	782.333313	1.243612
354.041473	742.209900	4284.071777	776.760681	0.975498
354.407379	743.027161	4396.640625	783.225037	1.100222
354.773254	741.466980	4482.312012	802.246521	1.624754
355.139038	742.284180	4540.861816	821.268005	2.079300
355.504913	741.615479	4626.087402	835.385498	2.413971
355.870636	732.253235	4728.477051	857.156250	3.125526
356.236389	729.504089	4845.577637	883.682312	3.745759
356.602081	728.835388	4943.806152	915.186584	4.421174
356.967804	735.448303	5051.247559	941.341125	4.770677
357.333405	734.779602	5159.135254	958.579407	5.058360
357.699036	733.144958	5311.084473	961.848694	4.995779
358.064606	730.841553	5491.119629	961.923035	4.854369
358.430176	734.185242	5608.518066	960.065491	4.634075
358.795654	733.219238	5662.981934	956.498962	4.529219
359.161163	738.346130	5632.443848	942.752930	4.176598
359.526581	734.928223	5611.416016	913.254700	3.656863
359.892029	737.008728	5634.746582	870.084778	2.717092
360.257416	730.693054	5726.808105	834.196594	2.071680
360.622772	732.327637	5919.623535	826.320557	1.811983
360.988098	728.315369	6162.964844	838.060364	2.019357
361.353394	735.076843	6449.179199	865.478088	2.282095
361.718658	724.971680	6712.136230	889.700867	2.751372
362.083893	722.593933	6919.143066	928.783997	3.327498
362.449097	715.386536	7072.505371	979.458496	4.153957
362.814209	732.773438	7076.070801	1038.974976	4.827167
363.179382	731.956055	6912.753906	1091.358276	5.814819
363.544434	730.395752	6573.709473	1138.540527	6.984818
363.909546	728.018066	6196.771973	1174.725952	8.168367
364.274536	727.943787	5903.201660	1224.434570	9.593547
364.639587	734.185242	5701.470215	1288.409058	11.157479
365.004517	729.132629	5594.028809	1365.460938	13.079998
365.369507	734.110840	5514.524902	1425.274780	14.458244
365.734344	732.327637	5468.457031	1460.940063	15.384132
366.099274	727.795166	5431.454590	1442.290161	15.190195
366.464081	727.349365	5398.835938	1381.584839	14.004868
366.828918	726.234863	5378.551270	1273.028442	11.753147
367.193665	730.693054	5381.746094	1165.958252	9.358422
367.558411	729.206848	5401.807617	1050.714722	6.880705
367.923126	729.578369	5413.398926	951.223389	4.732142
368.287781	732.550537	5401.659180	878.852600	3.133405
368.652435	735.076843	5365.919434	847.125427	2.419615
369.017059	733.962219	5340.285156	830.630127	2.098592
369.381653	739.386414	5309.003906	827.137878	1.920324
369.746185	738.049011	5287.158691	824.462952	1.899579
370.110687	734.928223	5296.074707	832.041809	2.129148
370.475220	732.401917	5327.728027	835.088196	2.234581
370.839661	735.819824	5384.346191	844.821960	2.344875
371.204041	746.445129	5449.584473	869.713379	2.620978
371.568451	737.603088	5539.267578	905.229980	3.491016
371.932770	728.166687	5621.297363	957.687744	4.690679
372.297150	732.327637	5661.718750	1024.708862	5.931386
372.661377	734.853943	5667.291504	1113.129028	7.669131
373.025696	743.621582	5686.907715	1198.800171	9.208016
373.389862	735.225403	5688.914063	1263.666382	10.667626
373.754059	731.733154	5698.053223	1300.594849	11.454390
374.118225	726.457703	5699.687500	1293.833130	11.408590
374.482361	717.764343	5735.798828	1246.056519	10.527870
374.846436	721.405090	5790.856934	1142.552979	8.307563
375.210510	724.823059	5879.054199	1035.779907	6.033041
375.574524	731.213074	5988.873535	933.242188	3.842567
375.938538	728.761047	6134.655762	866.444031	2.546905
376.302460	726.829285	6289.873535	830.407227	1.861893
376.666412	726.309082	6452.373535	806.258789	1.396242
377.030304	728.389587	6607.145996	802.097839	1.253807
377.394196	725.268860	6757.015137	795.856445	1.170268
377.757996	727.795166	6889.421875	802.915222	1.219159
378.121796	733.665039	6934.895996	805.887268	1.164643
378.485565	736.562805	6936.753418	813.391907	1.239141
378.849304	733.070618	6836.444824	818.964600	1.407320
379.212982	728.463867	6727.813965	824.834473	1.606351
379.576630	731.510254	6549.486816	832.339050	1.733056
379.940277	729.801331	6433.203125	846.159363	2.040151
380.303864	724.525818	6312.238770	856.115967	2.354991
380.667450	722.742615	6298.567871	856.190247	2.393325
381.030945	730.544434	6288.982422	847.868347	2.110735
381.394501	741.615540	6365.365234	831.893250	1.605294
381.757935	742.878601	6368.560547	811.385742	1.217757
382.121399	737.751709	6376.808594	793.850281	0.994822
382.484741	733.962219	6389.811035	780.327148	0.819770
382.848145	732.996338	6440.560059	783.076355	0.877433
383.211487	734.556641	6509.513184	786.791504	0.904507
383.574768	728.463867	6596.447266	796.153625	1.153544
383.938019	733.590820	6688.285156	791.101074	0.965797
384.301270	727.423645	6805.757813	795.484863	1.119735
384.664459	731.287415	6885.187500	799.422913	1.107192
385.027649	732.922058	6949.162109	804.104004	1.145096
385.390778	736.488586	7000.282715	813.317566	1.226557
385.753876	736.042786	7025.321777	828.475281	1.469684
386.116943	723.188293	7071.092285	849.948730	1.996886
386.479980	727.572266	7084.838379	871.942383	2.270947
386.842987	728.092346	7139.896973	896.313660	2.623619
387.205994	733.665039	7189.011230	906.716064	2.680740
387.568909	728.463867	7263.017090	896.016541	2.564103
387.931793	722.593933	7311.164551	868.301575	2.211521
388.294678	732.030457	7347.053223	842.444336	1.669138
388.657471	736.191406	7350.322266	816.512634	1.214388
389.020294	741.912659	7326.694824	798.531311	0.859841
389.383057	731.956116	7336.947754	791.992676	0.908957
389.745819	737.157288	7339.027832	792.215576	0.833980
390.108521	739.980774	7380.712402	791.026794	0.768681
390.471191	739.163391	7442.308594	791.249695	0.777043
390.833801	735.671204	7591.583496	788.649109	0.772733
391.196442	733.739319	7776.522949	787.608826	0.764889
391.558960	734.928223	7959.976563	784.859680	0.691088
391.921509	733.516418	8136.593750	791.992737	0.789892
392.284027	734.333801	8269.967773	793.478699	0.784870
392.646484	739.237793	8379.563477	799.868713	0.793565
393.008911	744.290344	8373.767578	806.258789	0.812224
393.371307	745.330627	8352.888672	814.506409	0.909303
393.733673	744.884766	8266.548828	816.809814	0.956239
394.096008	734.556702	8242.251953	810.345459	1.009481
394.458344	733.070618	8239.428711	811.460022	1.044307
394.820587	726.234802	8270.785156	815.026550	1.176899
395.182831	729.132629	8315.885742	809.305176	1.056744
395.545013	730.024231	8295.304688	795.633545	0.867242
395.907196	730.618652	8214.909180	779.658447	0.655236
396.269287	723.782776	8054.563965	778.395325	0.744976
396.631409	716.203918	7934.787598	784.042297	0.939774
396.993469	716.203918	7832.175293	795.336243	1.112038
397.355530	724.377258	7760.101563	797.045227	1.032843
397.717499	730.172852	7739.966309	796.748047	0.949745
398.079468	731.436035	7705.267090	792.958557	0.882191
398.441376	728.984070	7713.439941	795.856445	0.957446
398.803284	724.228699	7696.201172	798.754211	1.068930
399.165131	723.559875	7743.234375	806.035950	1.174927
399.526978	723.857117	7753.637207	810.939941	1.238770
399.888763	727.646545	7758.169922	813.837708	1.225957
400.250519	727.052185	7760.473145	815.695251	1.260312
400.612244	735.596924	7800.670410	814.060608	1.110586
400.973938	733.293518	7827.568359	817.032715	1.180377
401.335602	735.374023	7845.252441	810.419739	1.055513
401.697205	732.699036	7872.967285	812.797546	1.121786
402.058807	735.671204	7940.285645	803.286682	0.938502
402.420349	738.940613	8060.285156	802.989441	0.874823
402.781860	732.327637	8162.376953	800.611816	0.919027
403.143341	725.937561	8279.180664	809.156555	1.101765
403.504822	724.823059	8394.795898	821.490906	1.260342
403.866241	726.383484	8574.163086	829.961426	1.319838
404.227631	732.699158	8723.659180	838.431885	1.323154
404.588959	735.002502	8902.803711	842.964355	1.321798
404.950287	736.711487	9025.550781	859.459534	1.480883
405.311554	736.785828	9134.924805	874.394348	1.638560
405.672821	734.333801	9179.060547	891.186768	1.857407
406.034027	739.460693	9167.098633	893.638855	1.829435
406.395203	741.912598	9097.700195	889.552185	1.766914
406.756348	738.791931	9006.975586	875.137451	1.649038
407.117493	734.853821	8949.093750	860.054016	1.524185
407.478516	733.367859	8943.669922	855.150085	1.483286
407.839600	734.482422	8933.565430	855.670105	1.478064
408.200592	732.996338	8921.230469	874.542969	1.728659
408.561554	734.259460	8890.469727	898.468506	2.013301
408.922485	732.773438	8909.936523	935.322571	2.477010
409.283417	731.881836	8926.952148	971.062256	2.918589
409.644257	731.287415	9036.473633	1011.780212	3.377321
410.005096	737.380188	9146.367188	1044.993408	3.658148
410.365906	736.117004	9286.055664	1068.250244	3.884627
410.726715	727.423584	9396.098633	1069.884888	3.950561
411.087433	719.473206	9493.436523	1044.399048	3.703296
411.448120	718.433044	9568.629883	1011.557190	3.312063
411.808807	724.674500	9579.774414	1001.823547	3.129824
412.169434	724.005676	9522.934570	1017.352844	3.333896
412.530029	726.160461	9458.811523	1068.250122	3.917363
412.890564	730.024231	9433.696289	1123.159790	4.516893
413.251099	734.036621	9420.693359	1199.023071	5.352882
413.611572	733.739319	9461.262695	1255.418823	5.977406
413.972076	727.126465	9483.924805	1298.365845	6.523381
414.332489	730.024231	9560.977539	1288.037720	6.318837
414.692871	736.191406	9687.885742	1252.223755	5.764633
415.053223	735.671204	9819.773438	1179.778564	4.888841
415.413574	736.562927	10034.062500	1127.543823	4.205226
415.773834	729.504089	10168.252930	1106.515991	3.994299
416.134094	733.442078	10338.257813	1155.332886	4.392493
416.494263	728.835388	10454.244141	1245.090698	5.308314
416.854462	732.699036	10709.623047	1376.160645	6.449499
417.214630	730.024231	10957.570313	1520.753784	7.731371
417.574738	731.510254	11260.206055	1680.430298	9.012703
417.934784	729.504089	11535.051758	1834.162598	10.223067
418.294861	731.213074	11897.054688	1958.619751	10.992515
418.654846	735.671204	12291.231445	2047.263062	11.350308
419.014832	734.036560	12734.372070	2078.767334	11.205775
419.374756	736.117004	13176.918945	2080.476318	10.806051
419.734680	731.733215	13698.300781	2080.996338	10.405708
420.094543	732.178955	14186.395508	2131.076416	10.397465
420.454376	730.395691	14630.799805	2262.295166	11.020538
420.814148	728.018005	15044.666992	2476.806885	12.215071
421.173920	719.027405	15502.519531	2742.067627	13.684455
421.533691	714.123474	15985.932617	3042.176025	15.244117
421.893341	719.324707	16308.555664	3328.241455	16.735378
422.253021	729.727051	16513.556641	3607.694336	18.233643
422.612640	734.631042	16533.248047	3806.751221	19.445499
422.972260	731.138855	16521.507813	3919.988525	20.194902
423.331757	730.544373	16427.736328	3931.505615	20.391935
423.691315	728.835449	16457.087891	3898.886719	20.155140
424.050781	727.720886	16589.123047	3916.942383	20.106806
424.410248	722.222412	16720.712891	3990.650391	20.429602
424.769653	723.039795	16876.748047	4180.419434	21.403009
425.128998	728.835388	16896.216797	4426.807129	22.873039
425.488373	736.414246	16812.179688	4689.541504	24.590599
425.847656	744.364563	16581.916016	4887.484375	26.160101
426.206940	738.494812	16335.602539	5008.077637	27.374197
426.566193	740.500916	16032.372070	5032.300293	28.065887
426.925385	738.569031	15719.038086	5031.854980	28.659224
427.284576	737.305908	15281.097656	4976.499512	29.147785
427.643677	734.408020	14951.937500	4989.650879	29.929550
428.002777	728.761047	14609.698242	5030.888672	30.993061
428.361847	734.556702	14295.546875	5146.577637	32.534653
428.720856	739.906494	13951.227539	5304.991699	34.554340
429.079865	741.243958	13744.592773	5555.391113	37.022362
429.438812	740.352295	13607.206055	5841.605469	39.646469
429.797760	735.745605	13554.004883	6110.209473	41.928188
430.156616	730.692932	13375.752930	6246.183594	43.617752
430.515503	727.795166	13286.367188	6305.031250	44.409798
430.874268	720.885010	13236.137695	6299.458984	44.574203
431.233093	719.547546	13281.016602	6331.111816	44.672836
431.591827	718.581543	13311.778320	6385.576172	45.000443
431.950562	724.600098	13361.932617	6507.432129	45.759911
432.309204	730.990173	13402.278320	6680.037598	46.949036
432.667877	736.488525	13498.277344	6934.524902	48.567142
433.026459	735.076843	13618.425781	7228.466309	50.401413
433.385010	734.853821	13769.706055	7496.029785	51.869984
433.743561	729.949951	13953.828125	7731.346191	52.945107
434.102051	728.166687	14108.600586	7899.642578	53.596741
434.460510	725.491699	14255.870117	8028.558105	53.975327
434.818939	727.795166	14282.989258	8105.609375	54.427952
435.177338	732.104675	14299.113281	8188.902344	54.962727
435.535675	734.853943	14267.756836	8299.836914	55.900665
435.894012	735.671204	14238.852539	8428.231445	56.968502
436.252289	736.488586	14254.976563	8671.648438	58.698574
436.610535	731.733215	14225.703125	8906.370117	60.579926
436.968719	736.711426	14326.010742	9230.032227	62.500061
437.326935	737.603088	14397.637695	9498.711914	64.136795
437.685028	745.702148	14568.981445	9741.754883	65.079002
438.043152	742.284180	14700.051758	9915.474609	65.721046
438.401215	739.237793	14914.414063	10070.024414	65.824844
438.759277	737.157410	15086.500000	10204.289063	65.976067
439.117249	732.253357	15465.963867	10417.687500	65.736557
439.475250	737.677429	15744.152344	10579.444336	65.583466
439.833130	739.460693	16142.636719	10824.344727	65.472755
440.191071	741.689758	16375.948242	11017.606445	65.726921
440.548889	740.278015	16688.166016	11288.589844	66.142372
440.906708	735.596924	17007.000000	11580.897461	66.652519
441.264496	735.225403	17249.080078	11837.687500	67.231194
441.622223	736.488586	17406.230469	12041.721680	67.818886
441.979950	737.528809	17422.279297	12176.877930	68.561707
442.337616	736.042786	17422.650391	12301.484375	69.309723
442.695251	736.711426	17278.056641	12298.882813	69.898621
443.052887	736.488586	17108.126953	12253.261719	70.345879
443.410461	735.968445	16918.210938	12199.762695	70.841812
443.768005	731.287415	16818.943359	12186.092773	71.202454
444.125458	730.098572	16754.076172	12159.195313	71.324966
444.482941	731.213135	16791.300781	12193.968750	71.374176
444.840393	730.395752	16891.240234	12258.538086	71.333786
445.197754	731.287354	17137.402344	12471.562500	71.560364
445.555084	734.259460	17418.787109	12659.028320	71.472015
445.912415	734.705383	17770.609375	12950.147461	71.704102
446.269714	738.643372	18044.861328	13092.734375	71.385269
446.626953	737.528809	18350.767578	13279.381836	71.206970
446.984161	730.321472	18676.509766	13396.112305	70.576500
447.341309	729.727051	18923.492188	13524.729492	70.326302
447.698456	726.829285	19070.908203	13565.374023	69.987411
448.055542	727.646545	19133.917969	13570.945313	69.776756
448.412598	723.931458	19063.923828	13512.247070	69.729118
448.769653	723.634277	18944.890625	13412.979492	69.640343
449.126617	727.275085	18663.060547	13260.434570	69.877953
449.483582	732.401917	18453.898438	13163.247070	70.145569
449.840515	735.671204	18120.054688	13030.170898	70.721519
450.197388	737.528809	17871.587891	12953.268555	71.295074
450.554230	731.584656	17661.533203	12867.151367	71.681053
450.911041	728.166687	17491.009766	12833.121094	72.213013
451.267822	725.640320	17342.107422	12788.613281	72.596497
451.624573	725.789001	17128.857422	12693.727539	72.961586
451.981262	724.154297	17034.863281	12620.614258	72.936501
452.337921	730.767273	16923.556641	12536.949219	72.910118
452.694580	731.584534	16862.705078	12512.058594	73.029480
453.051147	735.596924	16855.125000	12515.625000	73.079239
453.407715	731.138733	16747.388672	12422.596680	72.997475
453.764221	729.058289	16788.625000	12388.195313	72.599327
454.120728	730.692932	16549.074219	12191.812500	72.454437
454.477142	726.754883	16497.431641	12123.379883	72.264656
454.833557	732.327637	16313.831055	11940.745117	71.934120
455.189911	732.922058	16171.020508	11807.668945	71.736473
455.546265	741.169617	15981.104492	11620.127930	71.384544
455.902557	732.401917	15854.640625	11502.507813	71.220314
456.258820	727.423645	15866.528320	11480.811523	71.030540
456.615051	727.200745	15928.421875	11528.290039	71.054092
456.971252	740.129395	15916.385742	11546.420898	71.205254
457.327393	746.296570	16121.536133	11706.617188	71.285530
457.683502	739.014893	16354.028320	11939.555664	71.729309
458.039612	731.881836	16780.451172	12317.311523	72.189796
458.395630	728.835449	17191.494141	12655.610352	72.447449
458.751648	726.754883	17683.750000	13027.273438	72.539490
459.107605	725.640381	18303.806641	13507.640625	72.715210
459.463562	725.417480	18956.927734	14004.948242	72.838348
459.819458	727.497986	19533.738281	14504.262695	73.256348
460.175323	734.110901	20068.494141	14892.643555	73.229813
460.531158	736.117126	20545.148438	15235.847656	73.197578
460.886932	733.442200	20857.589844	15360.526367	72.684235
461.242676	725.640381	20965.107422	15386.682617	72.437889
461.598419	718.061523	20737.591797	15210.508789	72.391541
461.954102	721.851013	20328.630859	14875.553711	72.187805
462.309723	726.829285	19702.853516	14387.086914	71.986938
462.665344	726.903503	19064.888672	13842.077148	71.519165
463.020905	728.909729	18530.951172	13424.570313	71.315758
463.376373	726.977844	18105.046875	13098.231445	71.188889
463.731873	733.070618	17779.304688	12852.661133	71.098351
464.087341	737.380188	17472.878906	12663.708008	71.263657
464.442749	739.832214	17360.310547	12581.530273	71.247635
464.798126	741.020996	17226.640625	12560.057617	71.693016
465.153503	742.061279	17365.064453	12704.651367	71.964066
465.508820	739.163391	17378.291016	12807.559570	72.530228
465.864105	740.278015	17549.484375	12981.948242	72.827171
466.219330	733.962219	17795.576172	13185.092773	72.977455
466.574524	734.036621	18008.156250	13375.382813	73.180840
466.929657	729.281250	18198.816406	13538.549805	73.323463
467.284790	731.584534	18316.140625	13688.864258	73.685562
467.639893	720.290527	18483.990234	13836.281250	73.835915
467.994934	726.160461	18639.507813	13973.592773	73.952858
468.349945	724.897400	18651.171875	14004.874023	74.081070
468.704926	734.556702	18595.148438	13990.979492	74.221634
469.059875	725.937561	18366.220703	13859.909180	74.454430
469.414764	724.748718	18173.703125	13692.282227	74.316963
469.769653	727.646545	17958.744141	13542.785156	74.372154
470.124451	739.609192	17895.216797	13474.723633	74.232956
470.479248	742.878601	17787.103516	13383.257813	74.162239
470.834015	744.438965	17752.183594	13340.237305	74.059196
471.188721	731.881836	17828.494141	13350.342773	73.806786
471.543365	725.566101	17879.167969	13408.446289	73.937126
471.898010	718.953125	17982.968750	13449.758789	73.741859
472.252625	722.371033	18120.873047	13541.002930	73.676643
472.607178	729.058289	18408.349609	13697.929688	73.356285
472.961700	731.807434	18638.541016	13831.600586	73.155678
473.316193	728.018066	18915.541016	13972.254883	72.820450
473.670654	722.668274	19036.654297	14063.202148	72.843422
474.025055	727.200745	19274.646484	14232.092773	72.812675
474.379456	729.578430	19402.298828	14365.317383	73.024918
474.733795	733.665039	19576.537109	14481.674805	72.961334
475.088104	727.126465	19636.648438	14578.862305	73.252708
475.442383	728.909668	19631.966797	14618.168945	73.476265
475.796570	730.098450	19709.242188	14719.666992	73.710213
476.150787	735.299744	19914.244141	14873.027344	73.714836
476.504944	736.637207	20175.564453	15074.461914	73.758308
476.859070	735.076843	20437.408203	15275.598633	73.801018
477.213135	736.339905	20716.787109	15472.575195	73.753281
477.567200	735.745544	21162.974609	15783.012695	73.662796
477.921173	744.661865	21562.873047	16076.062500	73.644180
478.275146	741.169678	22025.927734	16392.593750	73.533485
478.629089	738.494812	22312.437500	16572.033203	73.391953
478.983002	725.268860	22719.765625	16860.550781	73.360542
479.336823	711.745789	23072.181641	17095.494141	73.271149
479.690643	717.244141	23455.806641	17395.603516	73.348343
480.044403	721.182190	23912.326172	17710.500000	73.257782
480.398163	733.293640	24545.162109	18192.873047	73.323013
480.751862	723.708496	25414.130859	18839.380859	73.371254
481.105499	719.993347	26489.513672	19636.203125	73.405365
481.459137	720.290588	27865.005859	20702.818359	73.614799
481.812744	728.166687	29599.156250	22031.572266	73.788277
482.166290	728.909668	31767.978516	23676.486328	73.931267
482.519806	730.470032	34455.289063	25647.587891	73.883614
482.873291	735.151062	37544.871094	27931.431641	73.883423
483.226715	738.569031	41051.210938	30583.593750	74.033913
483.580139	738.420410	44443.500000	33257.972656	74.406807
483.933502	732.104675	47737.863281	35987.781250	75.002892
484.286804	732.104736	50474.949219	38447.421875	75.820587
484.640106	727.646484	52568.730469	40567.503906	76.849968
484.993347	726.754883	53736.988281	41900.640625	77.671577
485.346558	717.838562	53940.878906	42261.753906	78.056259
485.699738	723.485596	53275.644531	41555.132813	77.697372
486.052887	722.148132	52015.699219	40218.949219	77.001495
486.405975	734.110840	50471.832031	38626.488281	76.184387
486.759064	732.476257	48882.277344	37144.449219	75.622269
487.112061	733.888000	47490.437500	36020.621094	75.469070
487.464996	732.179016	46687.968750	35395.660156	75.427887
487.817963	736.340027	46510.531250	35243.937500	75.386581
488.170868	734.705322	46599.917969	35334.808594	75.438660
488.523743	726.754883	46685.812500	35423.230469	75.494316
488.876587	725.045959	46498.050781	35386.671875	75.725037
489.229401	724.600159	46092.355469	34985.062500	75.517204
489.582153	726.754883	45307.644531	34303.410156	75.316254
489.934845	719.770447	44265.843750	33363.929688	74.964645
490.287537	714.123352	43194.402344	32402.150391	74.594681
490.640198	721.627991	42324.464844	31630.521484	74.295158
490.992798	719.398926	41751.812500	31085.953125	74.006256
491.345337	724.080017	41634.859375	30975.169922	73.944054
491.697876	719.547546	41709.015625	31048.728516	73.992622
492.050354	726.754944	42139.156250	31442.236328	74.169762
492.402832	731.881836	42349.949219	31694.125000	74.396156
492.755219	732.104736	42224.007813	31695.164063	74.624344
493.107605	732.699158	41521.699219	31187.080078	74.663223
493.459930	737.380188	40283.222656	30305.033203	74.768044
493.812225	745.776367	38559.324219	29088.400391	74.953629
494.164490	744.884766	36603.601563	27681.031250	75.117424
494.516724	740.055115	34629.972656	26156.859375	74.998131
494.868896	727.423645	32918.777344	24736.046875	74.580971
495.221039	723.485596	31504.205078	23609.617188	74.352165
495.573120	725.640381	30437.517578	22771.703125	74.199493
495.925201	731.510254	29779.937500	22292.970703	74.225914
496.277222	730.395752	29422.169922	22039.302734	74.268349
496.629211	736.042786	29331.373047	22010.619141	74.398781
496.981140	733.070618	29320.744141	22012.478516	74.435608
497.333069	737.751709	29407.755859	22061.369141	74.376053
497.684967	732.773438	29471.951172	22125.195313	74.436447
498.036804	739.163391	29554.650391	22181.515625	74.412598
498.388580	744.661865	29445.796875	22149.640625	74.578857
498.740326	741.318176	29278.468750	22042.052734	74.642120
499.092072	735.819824	28940.462891	21834.154297	74.804474
499.443756	728.389648	28645.408203	21603.369141	74.775101
499.795410	730.470032	28328.208984	21352.818359	74.724777
500.147003	737.825989	28012.796875	21063.187500	74.520195
500.498566	736.191406	27610.000000	20799.783203	74.658539
500.850098	734.779602	27247.849609	20502.275391	74.557549
501.201599	728.092285	26916.755859	20261.906250	74.588814
501.553009	727.423645	26673.931641	20022.429688	74.364555
501.904449	721.702332	26449.687500	19873.896484	74.441093
502.255859	727.052185	26275.373047	19755.755859	74.481232
502.607178	729.652649	26182.791016	19694.529297	74.508995
502.958405	734.779602	26059.375000	19623.570313	74.586746
503.309692	729.801270	26003.576172	19599.126953	74.659706
503.660919	727.869446	26016.056641	19591.697266	74.595413
504.012115	727.052063	26085.306641	19619.708984	74.502983
504.363251	720.885010	26164.958984	19699.732422	74.590446
504.714294	717.689941	26183.166016	19745.279297	74.719162
505.065369	716.129639	26217.197266	19802.716797	74.846230
505.416443	724.005676	26240.601563	19830.728516	74.879593
505.767395	732.401917	26258.507813	19832.363281	74.825203
506.118317	737.825989	26217.046875	19787.185547	74.764290
506.469238	737.974609	26224.625000	19773.958984	74.690018
506.820160	739.089172	26244.835938	19818.689453	74.805099
507.170929	741.020996	26282.210938	19860.224609	74.856354
507.521729	735.002502	26317.578125	19909.117188	74.949898
507.872498	729.949951	26413.056641	19992.707031	75.001663
508.223236	726.680664	26596.210938	20151.865234	75.089043
508.573883	733.144958	26757.078125	20265.250000	75.054390
508.924500	737.083008	26943.947266	20409.248047	75.064934
509.275116	738.569031	27163.513672	20566.546875	75.035080
509.625702	739.609192	27428.255859	20753.271484	74.989426
509.976196	744.141785	27677.615234	20912.279297	74.881310
510.326660	743.472961	27917.166016	21063.707031	74.779068
510.677124	745.033386	28120.087891	21235.123047	74.849495
511.027557	737.900330	28321.892578	21386.031250	74.855484
511.377869	735.671204	28543.462891	21530.699219	74.781296
511.728180	729.875671	28724.689453	21629.001953	74.653564
512.078430	731.138855	28840.306641	21705.384766	74.617104
512.428650	731.956116	28953.544922	21800.195313	74.652916
512.778931	727.720886	29057.865234	21921.531250	74.810104
513.129028	723.188293	29134.023438	22023.697266	74.973190
513.479126	717.318420	29155.791016	22090.494141	75.155853
513.829285	717.541443	29096.349609	22069.171875	75.237938
514.179382	717.392761	29047.087891	22030.681641	75.233032
514.529297	722.296692	28904.650391	21910.906250	75.183960
514.879272	726.309082	28891.720703	21891.291016	75.145294
515.229187	729.875671	28760.353516	21788.677734	75.128235
515.579163	730.544373	28791.041016	21798.486328	75.080429
515.928955	736.191406	28828.341797	21798.931641	74.977318
516.278748	733.739441	29056.375000	21940.775391	74.876633
516.628540	730.247131	29323.195313	22161.826172	74.954071
516.978333	725.566101	29779.041016	22503.250000	74.957245
517.327942	730.024231	30329.179688	22947.429688	75.060944
517.677612	730.692932	30971.304688	23413.900391	75.009087
518.027222	730.098450	31562.458984	23869.974609	75.050613
518.376831	731.584656	32263.578125	24392.541016	75.037933
518.726379	738.271790	32891.285156	24918.828125	75.204636
519.075867	739.163391	33421.285156	25332.250000	75.249359
519.425293	736.637207	33805.660156	25641.572266	75.311981
519.774658	729.132568	34004.121094	25783.044922	75.293526
520.124084	722.445374	34035.550781	25849.468750	75.426842
520.473389	716.055359	33784.109375	25670.328125	75.463387
520.822693	718.730225	33445.878906	25404.468750	75.428932
521.171997	721.107910	32992.042969	25032.361328	75.334831
521.521240	725.343079	32582.634766	24734.259766	75.363960
521.870361	734.333801	32192.546875	24425.830078	75.311005
522.219482	734.259521	31882.851563	24172.458984	75.246414
522.568604	735.002502	31585.937500	23937.884766	75.209656
522.917664	722.668274	31407.982422	23788.462891	75.168839
523.266724	725.714661	31446.171875	23786.455078	75.066399
523.615662	729.429871	31728.447266	23963.443359	74.950806
523.964600	731.435974	32172.111328	24296.841797	74.951973
524.313538	726.606262	32714.896484	24718.955078	75.003540
524.662354	724.080017	33432.808594	25223.470703	74.901688
525.011169	730.395752	34276.515625	25856.531250	74.900269
525.359985	733.888000	35308.878906	26620.955078	74.872223
525.708740	730.024231	36468.890625	27527.523438	74.981392
526.057434	725.937561	37830.714844	28536.849609	74.952377
526.406067	731.584656	39328.726563	29722.724609	75.112144
526.754700	732.476257	40954.097656	31008.531250	75.273087
527.103333	734.556641	42805.500000	32432.023438	75.342896
527.451782	736.042725	44880.777344	34036.371094	75.434425
527.800293	741.541199	47032.582031	35759.816406	75.648064
528.148743	743.027161	49121.531250	37654.167969	76.296570
528.497131	737.751709	50966.542969	39477.480469	77.126541
528.845642	739.683594	52533.285156	41170.468750	78.061348
529.193909	741.020996	53700.582031	42640.996094	79.116920
529.542175	737.825989	54525.417969	43708.949219	79.890404
529.890503	735.299744	54858.144531	44203.511719	80.313980
530.238770	732.327637	54649.500000	43910.605469	80.082611
530.586914	732.847717	53827.265625	42958.269531	79.528931
530.934998	736.042786	52508.468750	41530.910156	78.796516
531.283142	735.894226	50954.800781	39876.859375	77.940697
531.631226	739.534973	49159.425781	38140.402344	77.242775
531.979248	738.420410	47390.050781	36463.167969	76.577705
532.327148	734.705322	45789.941406	34989.449219	76.028328
532.675110	733.219238	44670.949219	33905.816406	75.499115
533.023071	730.915833	44099.406250	33408.808594	75.349388
533.370850	728.835449	43993.750000	33281.527344	75.240395
533.718689	727.126465	44245.488281	33478.207031	75.258072
534.066467	730.321472	44500.792969	33626.070313	75.155121
534.414246	730.618652	44597.160156	33704.753906	75.169220
534.761963	731.213074	44428.566406	33601.175781	75.221863
535.109619	729.206848	44122.738281	33399.070313	75.287407
535.457153	730.321472	43475.488281	32957.343750	75.393364
535.804749	729.875671	42666.777344	32380.458984	75.471916
536.152344	725.640381	41706.562500	31685.431641	75.546837
536.499817	730.990173	40799.027344	31042.041016	75.648949
536.847229	726.309082	39902.343750	30396.427734	75.735382
537.194641	729.058289	39125.656250	29815.900391	75.753693
537.542114	729.801331	38517.046875	29354.255859	75.751633
537.889404	734.259460	38062.535156	28932.884766	75.542259
538.236694	736.414307	37618.425781	28558.177734	75.434509
538.583984	733.219238	37218.605469	28233.546875	75.373543
538.931213	734.036621	36920.722656	28034.568359	75.443573
539.278381	735.225403	36747.601563	27858.390625	75.316238
539.625488	736.637207	36838.250000	27862.478516	75.137482
539.972595	740.352295	37159.906250	28054.921875	74.999741
540.319641	734.036621	37871.355469	28556.392578	74.917511
540.666687	728.835388	38818.269531	29266.505859	74.922798
541.013611	728.166687	40065.144531	30231.697266	75.002029
541.360596	724.748718	41400.957031	31347.203125	75.283455
541.707458	727.646667	42812.039063	32508.406250	75.516739
542.054260	723.411316	43990.332031	33532.746094	75.830070
542.401062	727.572266	44976.703125	34330.609375	75.940559
542.747864	725.046082	45421.031250	34770.109375	76.170296
543.094666	727.349365	45414.042969	34838.468750	76.333954
543.441284	724.600159	44779.871094	34374.148438	76.380302
543.787903	728.463867	43805.832031	33586.761719	76.277405
544.134460	729.429871	42482.730469	32546.224609	76.201866
544.481079	739.163513	41053.812500	31450.259766	76.178505
544.827637	738.717590	39477.925781	30239.423828	76.152069
545.174072	743.175781	37955.242188	28955.843750	75.815910
545.520508	734.779602	36584.355469	27878.603516	75.715889
545.866943	731.733215	35508.156250	27019.740234	75.591469
546.213318	724.897400	34689.191406	26376.054688	75.523895
546.559631	724.674377	34014.894531	25791.515625	75.297920
546.905823	723.485596	33440.609375	25296.359375	75.107071
547.252136	727.572266	32986.917969	24951.966797	75.092644
547.598389	733.516418	32536.937500	24628.974609	75.134865
547.944458	727.720886	32159.181641	24341.572266	75.128075
548.290588	724.525818	31614.546875	23920.275391	75.091400
548.636658	723.114075	31043.455078	23505.218750	75.138023
548.982727	738.197510	30292.697266	23014.671875	75.374222
549.328735	741.243958	29592.244141	22513.056641	75.462936
549.674622	737.900330	28838.369141	21982.087891	75.600830
550.020569	734.631042	28162.142578	21465.537109	75.584351
550.366455	733.293518	27458.125000	20941.107422	75.614372
550.712280	733.665039	26853.078125	20475.750000	75.583954
551.058044	739.832214	26360.822266	20091.605469	75.530937
551.403748	743.175781	25974.078125	19762.220703	75.379967
551.749512	741.392578	25736.234375	19573.044922	75.342155
552.095154	731.807556	25525.437500	19407.052734	75.322754
552.440735	726.383484	25467.851563	19415.298828	75.536812
552.786316	729.727051	25387.828125	19393.828125	75.691559
553.131897	733.813721	25478.923828	19419.833984	75.513992
553.477417	737.380188	25503.296875	19407.201172	75.385139
553.822815	733.219238	25551.517578	19398.136719	75.206276
554.168213	729.429749	25495.642578	19366.037109	75.250130
554.513672	726.234802	25349.634766	19316.033203	75.496475
554.859009	728.389587	25149.759766	19176.193359	75.539597
555.204285	730.247131	24914.818359	19047.501953	75.739426
555.549500	738.940491	24691.091797	18846.513672	75.598946
555.894714	742.581360	24449.384766	18630.517578	75.454865
556.239990	739.460632	24130.255859	18387.248047	75.447571
556.585022	732.179016	23850.056641	18158.173828	75.378868
556.930115	728.166687	23597.205078	18000.724609	75.528137
557.275146	728.092346	23388.564453	17814.818359	75.403221
557.620178	726.309082	23222.052734	17677.583984	75.353256
557.965149	730.767273	23018.462891	17503.490234	75.255524
558.310059	726.531982	22841.400391	17388.322266	75.342026
558.654968	727.646484	22659.876953	17283.705078	75.487343
558.999756	724.080017	22546.046875	17186.589844	75.440086
559.344604	728.240906	22512.087891	17126.626953	75.277733
559.689331	730.395691	22486.679688	17092.523438	75.206451
560.033997	723.931396	22458.294922	17092.447266	75.311684
560.378723	731.510315	22394.544922	17098.095703	75.550751
560.723389	726.606384	22378.048828	17084.945313	75.553108
561.067932	732.253357	22398.630859	17130.419922	75.684853
561.412476	724.600098	22433.478516	17153.376953	75.677689
561.757019	728.018066	22427.162109	17184.732422	75.840385
562.101501	731.213074	22432.958984	17165.117188	75.726181
562.445862	735.225403	22382.728516	17125.291016	75.713425
562.790222	731.807434	22349.587891	17096.683594	75.700996
563.134644	731.213135	22315.263672	17069.414063	75.695717
563.478943	731.064514	22351.671875	17071.943359	75.580109
563.823181	739.534973	22393.501953	17025.501953	75.210083
564.167358	737.305908	22424.337891	17041.179688	75.177986
564.511536	735.002502	22480.287109	17059.310547	75.070564
564.855774	731.361633	22498.416016	17098.986328	75.194489
565.199768	734.779602	22582.751953	17155.607422	75.159508
565.543823	730.098633	22723.705078	17247.890625	75.102707
565.887817	730.247131	22995.726563	17434.316406	75.022278
566.231812	728.761047	23234.460938	17606.548828	74.993393
566.575745	734.853943	23419.697266	17763.773438	75.067390
566.919617	725.937683	23540.068359	17924.119141	75.383904
567.263428	727.126465	23654.046875	18019.154297	75.422371
567.607239	725.045959	23717.353516	18117.457031	75.644478
567.950989	733.962219	23736.525391	18071.982422	75.374298
568.294678	728.092468	23709.330078	18080.677734	75.507622
568.638367	728.463867	23638.593750	17989.431641	75.342087
568.981995	724.377258	23499.201172	17899.748047	75.413849
569.325623	732.253357	23325.330078	17742.521484	75.289734
569.669128	733.739441	23156.591797	17624.974609	75.330444
570.012573	728.984070	23044.990234	17517.238281	75.229652
570.356140	726.234802	23037.111328	17498.068359	75.173355
570.699524	729.504089	23018.833984	17439.072266	74.966667
571.042908	736.191406	23109.556641	17506.390625	74.956085
571.386230	739.609314	23203.328125	17528.382813	74.737282
571.729492	736.117004	23395.250000	17639.242188	74.597404
572.072815	738.494812	23540.216797	17677.880859	74.289940
572.416016	731.807434	23679.087891	17775.068359	74.271378
572.759094	732.327637	23795.968750	17847.439453	74.208191
573.102234	727.869446	23866.703125	17933.333984	74.357529
573.445374	731.881836	23930.900391	17954.880859	74.240204
573.788391	731.584534	23913.812500	17958.671875	74.311615
574.131409	732.476257	23888.771484	17950.125000	74.354073
574.474365	731.807434	23841.513672	17923.896484	74.393372
574.817261	731.956055	23725.601563	17866.906250	74.520370
575.160156	734.556702	23565.630859	17754.708984	74.548187
575.502930	734.036621	23317.013672	17629.806641	74.816399
575.845703	728.984070	23056.728516	17518.648438	75.196419
576.188477	729.875671	22828.546875	17411.654297	75.487701
576.531250	728.018066	22593.673828	17264.683594	75.628494
576.873901	732.030457	22368.984375	17067.632813	75.498627
577.216431	732.476257	22092.205078	16863.375000	75.520149
577.559082	738.569031	21801.087891	16595.214844	75.283707
577.901611	735.671204	21505.810547	16359.675781	75.223404
578.244080	727.720886	21172.339844	16076.285156	75.073860
578.586487	725.268860	20862.570313	15853.750000	75.126663
578.928955	758.556458	20549.904297	15599.559570	74.987328
579.271301	762.643127	20247.564453	15358.448242	74.908203
579.613647	764.649231	19905.103516	15107.155273	74.932938
579.955872	732.179016	19588.054688	14813.881836	74.680717
580.298157	730.915833	19331.414063	14599.221680	74.558784
580.640320	727.126465	19086.511719	14410.046875	74.528206
580.982483	729.875671	18895.181641	14254.160156	74.451172
581.324524	732.699158	18692.111328	14097.083008	74.414375
581.666626	737.974609	18571.744141	13979.538086	74.249939
582.008728	741.169617	18472.472656	13927.450195	74.367241
582.350647	741.763977	18403.818359	13856.343750	74.252853
582.692566	736.414246	18308.412109	13794.300781	74.310768
583.034424	730.841492	18187.224609	13733.371094	74.485817
583.376343	727.274963	18061.060547	13670.882813	74.672714
583.718201	728.686829	17971.748047	13627.639648	74.806633
584.059937	726.309143	17884.740234	13569.833008	74.852547
584.401611	727.795166	17796.914063	13552.742188	75.135376
584.743347	725.491760	17749.062500	13497.757813	75.026947
585.085022	725.937561	17668.072266	13453.995117	75.126648
585.426514	724.748718	17624.085938	13380.210938	74.887321
585.768127	726.383362	17518.277344	13324.708008	75.026222
586.109619	730.618652	17495.392578	13276.039063	74.832031
586.451172	733.293518	17426.216797	13223.803711	74.825180
586.792542	730.544373	17386.318359	13158.046875	74.613785
587.133850	733.962219	17325.314453	13088.276367	74.462372
587.475220	737.380188	17315.580078	13062.195313	74.343513
587.816589	741.021179	17338.986328	13065.093750	74.250504
588.157776	736.711487	17392.705078	13099.867188	74.226463
588.498962	731.584656	17451.183594	13137.612305	74.200508
588.840210	730.990173	17493.312500	13157.823242	74.135506
589.181335	730.098572	17577.794922	13186.652344	73.936241
589.522400	733.590820	17606.476563	13214.144531	73.968102
589.863403	732.179016	17644.593750	13269.722656	74.132195
590.204407	732.401917	17598.599609	13259.468750	74.273209
590.545410	730.544373	17653.359375	13250.924805	73.985214
590.886353	732.550537	17626.388672	13217.636719	73.903198
591.227112	731.807434	17604.691406	13203.667969	73.916588
591.567932	728.835449	17529.423828	13200.696289	74.234673
591.908752	725.045959	17457.498047	13155.372070	74.288734
592.249512	727.349304	17415.146484	13158.640625	74.493301
592.590149	723.188293	17300.794922	13081.143555	74.546074
592.930786	725.343079	17274.787109	13074.083008	74.617256
593.271423	731.510254	17198.626953	13041.464844	74.754768
593.612000	732.699158	17173.216797	13055.210938	74.952087
593.952576	731.807434	17145.277344	13068.511719	75.162071
594.292969	728.018066	17189.634766	13076.015625	75.010841
594.633484	730.395752	17233.550781	13107.817383	75.000343
594.973877	726.309082	17309.041016	13149.203125	74.914642
595.314209	719.919128	17442.490234	13233.760742	74.832047
595.654480	719.696106	17633.521484	13344.992188	74.644821
595.994812	721.107910	17831.091797	13485.200195	74.600250
596.335022	720.216309	18037.283203	13645.471680	74.638832
596.675171	723.782898	18225.566406	13782.039063	74.611000
597.015320	724.971680	18386.505859	13900.999023	74.602959
597.355408	733.070618	18469.576172	13954.868164	74.545677
597.695496	731.733215	18490.751953	14022.039063	74.836937
598.035461	732.104675	18469.650391	13978.867188	74.682053
598.375366	728.983948	18416.597656	13943.796875	74.712242
598.715271	725.863281	18331.148438	13859.315430	74.599487
599.055176	727.126404	18144.425781	13760.492188	74.830009
599.395081	723.782776	17911.414063	13599.106445	74.910400
599.734802	726.903503	17602.388672	13354.875000	74.830276
600.074524	726.457703	17283.630859	13115.842773	74.827896
600.414246	734.036621	16949.714844	12864.921875	74.809608
600.753906	734.110840	16623.599609	12622.916992	74.821838
601.093506	729.801270	16342.809570	12375.786133	74.591553
601.433044	726.383362	16122.054688	12176.358398	74.371391
601.772583	728.166687	16025.090820	12076.791992	74.188934
602.112122	735.968445	15994.700195	12057.101563	74.194458
602.451538	730.618652	16026.502930	12113.127930	74.415504
602.790894	730.544250	16127.703125	12197.312500	74.473274
603.130310	729.206848	16335.973633	12337.223633	74.378098
603.469604	734.482422	16575.822266	12512.206055	74.348030
603.808838	730.024231	16855.646484	12725.530273	74.387863
604.148010	729.578430	17122.466797	12936.772461	74.466400
604.487305	731.436035	17379.853516	13136.944336	74.514633
604.826416	729.281189	17598.302734	13303.382813	74.539604
605.165527	728.240906	17769.050781	13451.988281	74.666328
605.504456	722.296692	17921.818359	13540.333008	74.525536
605.843445	726.532043	17981.705078	13601.335938	74.614166
606.182434	726.383484	17943.214844	13577.484375	74.642654
606.521423	728.389648	17842.386719	13508.235352	74.674820
606.860229	728.984070	17653.656250	13353.090820	74.589966
607.199036	735.151123	17413.214844	13168.968750	74.551918
607.537903	736.860046	17115.929688	12980.312500	74.750595
607.876648	745.999268	16862.111328	12753.690430	74.507370
608.215271	745.256287	16614.685547	12565.554688	74.484711
608.553955	745.999329	16397.646484	12376.975586	74.311516
608.892578	738.643372	16211.293945	12245.757813	74.370674
609.231140	735.671204	16113.808594	12155.403320	74.259529
609.569641	731.435974	16043.145508	12072.781250	74.069756
609.908081	737.380127	16014.093750	12045.734375	74.023476
610.246521	738.048889	16009.487305	12060.594727	74.141975
610.584961	741.838379	16026.502930	12080.507813	74.183311
610.923340	736.637207	16032.967773	12074.340820	74.120415
611.261597	731.584656	15911.334961	12018.985352	74.358276
611.599854	731.213135	15769.266602	11939.332031	74.531715
611.938110	730.172852	15557.058594	11825.351563	74.831482
612.276245	733.739319	15352.875000	11619.608398	74.463150
612.614319	738.123230	15093.410156	11418.991211	74.403725
612.952393	744.364685	14817.895508	11210.497070	74.367493
613.290466	746.296570	14565.562500	11043.761719	74.515282
613.628479	740.352295	14247.546875	10854.290039	74.878151
613.966370	740.278015	13977.233398	10670.985352	75.022591
614.304260	740.649597	13750.832031	10515.468750	75.132072
614.642151	739.980774	13586.549805	10369.018555	74.954163
614.979980	738.271790	13443.070313	10262.542969	74.965935
615.317749	732.253357	13303.010742	10142.693359	74.859772
615.655396	729.206848	13230.788086	10089.938477	74.876381
615.993164	724.674500	13210.652344	10038.222656	74.592056
616.330811	727.423645	13229.153320	10007.758789	74.232407
616.668396	733.590820	13204.632813	9962.063477	73.999214
617.005859	739.460693	13158.342773	9928.999023	73.996498
617.343445	737.751709	13113.835938	9918.151367	74.178551
617.680908	735.671204	13127.879883	9915.920898	74.080818
618.018311	734.408020	13146.975586	9926.694336	74.056282
618.355652	734.408142	13168.449219	9949.431641	74.111252
618.692993	734.705261	13136.870117	9940.664063	74.228645
619.030273	729.429749	13119.484375	9931.672852	74.271210
619.367554	728.389648	13079.507813	9888.577148	74.164841
619.704712	727.052185	13081.290039	9904.329102	74.284447
620.041870	728.092468	13059.817383	9879.289063	74.208565
620.379028	736.340027	13006.246094	9839.909180	74.194283
620.716064	742.952942	12951.929688	9780.393555	74.022919
621.053040	753.132324	12892.339844	9747.625000	74.094559
621.389954	749.788757	12837.801758	9718.276367	74.193230
621.726929	751.646301	12772.265625	9663.440430	74.137566
622.063843	741.243958	12712.304688	9600.581055	74.006279
622.400635	745.479187	12655.164063	9565.807617	74.060135
622.737427	742.284180	12609.023438	9538.166992	74.122154
623.074219	740.872498	12564.590820	9516.172852	74.217773
623.410889	730.395752	12555.452148	9485.856445	74.041595
623.747559	724.080017	12563.178711	9467.875977	73.855247
624.084167	718.210144	12519.859375	9461.411133	74.084572
624.420715	720.439209	12513.543945	9459.256836	74.101074
624.757324	724.897278	12505.445313	9463.937500	74.181946
625.093750	729.355469	12607.090820	9462.823242	73.528053
625.430176	730.395752	12674.854492	9493.956055	73.369255
625.766602	725.863281	12737.640625	9512.977539	73.154152
626.102905	724.600159	12810.160156	9587.725586	73.336487
626.439209	723.634277	12895.385742	9660.245117	73.420914
626.775452	724.451599	13026.976563	9735.141602	73.242607
627.111694	731.510315	13085.006836	9769.098633	73.158142
627.447876	726.754883	13163.171875	9817.916016	73.101128
627.783997	726.309082	13171.049805	9852.837891	73.336441
628.120056	717.690002	13214.070313	9895.339844	73.442467
628.456055	721.479492	13188.288086	9870.076172	73.383629
628.792053	722.742615	13176.547852	9873.271484	73.475769
629.128052	730.841553	13088.276367	9814.499023	73.507629
629.463928	734.631042	13011.520508	9765.383789	73.558968
629.799744	737.083008	12900.067383	9678.597656	73.514153
630.135559	731.435974	12799.164063	9589.657227	73.404221
630.471375	724.302917	12674.557617	9480.804688	73.274605
630.807068	722.891113	12508.789063	9352.631836	73.220894
631.142700	728.686768	12384.628906	9272.608398	73.300995
631.478333	738.717590	12217.670898	9172.000977	73.467354
631.813965	739.534973	12108.000000	9088.931641	73.443481
632.149475	736.785828	11985.102539	8963.210938	73.134720
632.484924	736.414246	11913.920898	8879.026367	72.848198
632.820435	737.157288	11830.627930	8820.327148	72.864212
633.155884	733.367859	11754.319336	8784.661133	73.054436
633.491150	736.860046	11674.815430	8746.543945	73.228348
633.826477	732.922058	11611.879883	8682.791992	73.075661
634.161804	738.866272	11571.905273	8656.935547	73.091858
634.497009	736.340027	11537.131836	8619.338867	72.985382
634.832153	738.420410	11480.140625	8590.509766	73.098991
635.167297	730.767273	11385.331055	8519.252930	73.099998
635.502380	721.702393	11328.713867	8453.420898	72.892525
635.837463	718.953125	11281.828125	8396.132813	72.680779
636.172424	726.457703	11193.481445	8341.520508	72.752899
636.507324	730.024231	11090.350586	8306.450195	73.129219
636.842224	734.185242	10988.777344	8244.258789	73.236206
637.177124	726.606384	10902.809570	8184.890625	73.291428
637.511963	728.389587	10782.364258	8100.854004	73.328857
637.846741	728.909668	10653.895508	8034.427734	73.607338
638.181396	728.018066	10547.938477	7954.181152	73.586784
638.516113	729.058350	10443.766602	7888.497559	73.696907
638.850769	728.166687	10363.817383	7828.609375	73.689293
639.185303	734.036560	10274.803711	7751.036621	73.547539
639.519836	730.544373	10202.581055	7675.842285	73.324226
639.854370	735.522644	10092.613281	7588.091309	73.233971
640.188843	738.717712	10008.502930	7536.078613	73.328140
640.523254	745.924988	9904.701172	7487.411621	73.606850
640.857605	739.832214	9824.231445	7436.291016	73.713829
641.191895	737.677429	9744.356445	7385.318848	73.807915
641.526184	725.566101	9701.186523	7327.734375	73.556686
641.860413	725.268860	9646.424805	7265.468750	73.311119
642.194580	725.863281	9615.960938	7197.258301	72.793297
642.528748	727.497864	9555.181641	7123.550293	72.454483
642.862793	727.869446	9523.751953	7075.550781	72.166504
643.196838	728.389587	9460.000000	7034.535645	72.222031
643.530823	732.179016	9404.942383	7005.929199	72.338531
643.864746	738.197510	9338.291992	6983.415527	72.618011
644.198669	735.225403	9307.307617	6960.158691	72.618683
644.532532	739.014832	9274.540039	6921.372559	72.430901
644.866333	735.151123	9222.899414	6863.416504	72.201317
645.200073	735.671204	9151.047852	6841.794434	72.559113
645.533813	737.231628	9132.397461	6838.450684	72.675385
645.867554	735.522644	9139.382813	6843.058105	72.675362
646.201172	738.940613	9148.076172	6854.500000	72.725189
646.534729	736.637207	9151.495117	6867.429688	72.856758
646.868225	736.340027	9169.252930	6894.697754	73.027649
647.201782	735.448303	9174.157227	6878.500000	72.796112
647.535217	738.494812	9178.615234	6883.701172	72.809471
647.868591	744.513245	9172.596680	6888.679688	72.901115
648.201965	746.222229	9190.131836	6879.093750	72.630714
648.535278	739.163513	9149.860352	6854.351563	72.707268
648.868591	736.414246	9142.800781	6829.906250	72.486458
649.201782	737.157410	9108.176758	6835.999512	72.856628
649.534912	738.643372	9098.517578	6835.404297	72.928856
649.868103	731.213074	9046.653320	6813.187988	73.140747
650.201172	724.005676	9019.830078	6768.605957	72.863167
650.534180	729.875671	8994.269531	6738.587891	72.706032
650.867188	729.206848	8986.989258	6711.615723	72.445709
651.200134	733.442139	8975.471680	6705.968750	72.464272
651.533020	735.002502	8931.335938	6655.591797	72.234612
651.865845	739.089172	8883.632813	6625.201660	72.270622
652.198608	736.488586	8830.581055	6582.552246	72.226303
652.531433	729.504150	8814.235352	6569.178223	72.230896
652.864136	730.024231	8781.913086	6536.931152	72.118568
653.196777	854.332703	8868.252930	6636.719238	72.154282
653.529358	854.555603	8827.237305	6591.765625	71.960854
653.861938	850.617615	8781.318359	6551.791016	71.887383
654.194519	719.621887	8584.713867	6378.665527	71.951401
654.526978	718.135803	8550.385742	6371.532715	72.181007
654.859375	721.999512	8504.838867	6352.734375	72.348083
655.191833	723.708496	8483.810547	6334.010254	72.296753
655.524170	723.188416	8419.092773	6288.462402	72.314751
655.856445	719.696228	8363.366211	6263.867676	72.532845
656.188660	728.761047	8331.637695	6261.118652	72.766632
656.520874	731.064453	8295.006836	6274.344238	73.285591
656.853088	733.739319	8300.356445	6268.400879	73.145782
657.185181	730.470032	8278.882813	6282.145996	73.547592
657.517212	731.435974	8298.127930	6281.923340	73.354210
657.849243	735.002502	8322.870117	6336.759277	73.825180
658.181274	740.872375	8404.529297	6364.325684	73.378197
658.513123	747.411072	8482.993164	6404.374512	73.129128
658.844971	749.342957	8570.448242	6447.989746	72.862427
659.176819	747.931213	8661.467773	6501.785156	72.709007
659.508667	735.596985	8750.557617	6578.167969	72.895813
659.840393	737.380188	8832.067383	6636.941895	72.881897
660.172058	736.265625	8877.093750	6670.898438	72.899620
660.503662	740.798157	8907.409180	6689.251465	72.838699
660.835266	737.677429	8922.047852	6674.539063	72.539017
661.166931	740.500916	8849.973633	6631.369141	72.641815
661.498413	738.197510	8802.198242	6590.650879	72.575058
661.829773	734.482422	8665.703125	6514.193848	72.872910
662.161194	729.504089	8570.818359	6438.479004	72.806351
662.492615	732.104736	8431.649414	6337.501465	72.801659
662.823975	733.813660	8286.387695	6233.478027	72.818413
663.155212	734.333801	8154.278809	6143.126465	72.895317
663.486450	733.739441	7991.703613	6034.346191	73.031593
663.817627	733.219238	7889.685547	5933.220703	72.661583
664.148743	729.875671	7751.705566	5828.083496	72.605118
664.479858	732.476257	7653.328613	5750.213379	72.501724
664.810913	732.996399	7560.450684	5689.210938	72.592422
665.141907	737.454590	7504.203125	5651.539063	72.621056
665.472778	732.401917	7440.525879	5595.812500	72.500313
665.803711	732.550537	7402.260254	5559.255371	72.367538
666.134583	726.086182	7365.332031	5526.041504	72.296692
666.465454	733.739441	7346.978516	5519.132324	72.360802
666.796143	729.727051	7313.171387	5506.425781	72.556229
667.126831	736.785828	7305.443359	5492.902832	72.406227
667.457458	735.002502	7284.935547	5484.135254	72.506584
667.788147	735.968445	7268.736816	5476.259277	72.561745
668.118774	734.556702	7211.673340	5466.451172	73.055573
668.449219	735.002502	7189.902344	5457.237793	73.157379
668.779663	738.940613	7179.871582	5431.826172	72.860359
669.110107	743.993164	7187.153809	5417.931641	72.541084
669.440552	742.655762	7166.126465	5408.123535	72.631569
669.770874	746.445129	7144.355469	5413.324707	72.943810
670.101135	742.432800	7132.838379	5388.953613	72.710892
670.431396	742.804260	7115.228516	5346.972168	72.251434
670.761597	742.432800	7063.290527	5319.034668	72.404762
671.091797	740.798157	7012.244629	5316.137207	72.955086
671.421875	740.278015	6972.642090	5307.666504	73.285011
671.751892	739.832214	6937.570801	5262.787598	72.977509
672.081909	748.154114	6906.884277	5217.388184	72.567459
672.411865	747.113831	6858.066406	5171.098145	72.394348
672.741821	746.519531	6832.654785	5145.091797	72.272011
673.071716	736.265686	6803.082520	5128.522949	72.398056
673.401550	745.925049	6770.166504	5090.702637	72.121567
673.731262	741.838379	6749.139160	5092.113770	72.416473
674.060974	739.014893	6707.231934	5058.528809	72.375282
674.390625	725.343079	6680.482910	5063.061523	72.839905
674.720276	723.336975	6612.570313	5004.362305	72.692406
675.049927	730.470032	6574.453125	4967.879395	72.508926
675.379395	732.773438	6542.205566	4938.976563	72.403000
675.708923	740.278015	6509.438965	4904.351074	72.178139
676.038330	739.163391	6470.429688	4897.366699	72.552956
676.367737	741.912598	6418.046387	4868.611328	72.702637
676.697083	739.460693	6386.689941	4869.057129	73.126068
677.026428	742.952942	6350.876465	4848.400879	73.207985
677.355652	741.912659	6350.505371	4834.803223	72.975357
677.684875	736.340027	6335.124512	4839.113770	73.279724
678.013977	727.052185	6340.696777	4826.779297	73.031471
678.343079	725.120178	6347.904297	4838.593750	73.157242
678.672180	728.612488	6384.164063	4843.423340	72.757019
679.001221	732.847717	6423.618652	4870.543457	72.708878
679.330139	729.727051	6460.472656	4886.518555	72.534912
679.659058	727.720764	6493.760254	4908.660645	72.509735
679.987976	728.984070	6536.113281	4939.719238	72.509758
680.316772	733.962341	6593.475098	4975.012695	72.378891
680.645630	733.516418	6639.170410	5015.062012	72.499092
680.974304	732.327637	6672.458496	5030.220215	72.353500
681.302979	731.287354	6673.350098	5040.103027	72.513802
681.631653	734.631042	6688.285156	5046.417969	72.422531
681.960266	734.779602	6690.068359	5061.129883	72.647194
682.288757	740.129395	6704.260254	5048.052734	72.230530
682.617249	738.271912	6675.431152	5035.271973	72.374680
682.945679	737.157410	6652.025879	5020.857910	72.422585
683.274109	736.562927	6604.620605	5027.024902	73.115540
683.602478	738.717712	6553.797363	4981.477051	72.961327
683.930725	741.987000	6481.128906	4924.413086	72.875458
684.259033	734.408142	6405.935059	4839.038574	72.372581
684.587280	728.538147	6349.539063	4784.055176	72.149376
684.915344	719.176025	6283.632813	4733.231934	72.137421
685.243469	724.154297	6217.502441	4697.863770	72.336746
685.571533	737.528809	6163.187500	4656.774414	72.235390
685.899536	742.061279	6096.390137	4627.201660	72.560730
686.227539	744.438965	6041.703125	4594.657227	72.683144
686.555420	740.352295	5996.526855	4584.031738	73.126930
686.883301	737.083008	6007.078125	4566.719238	72.668686
687.211121	736.562927	6013.021973	4568.354004	72.620499
687.538940	728.761169	5996.898438	4564.490723	72.809975
687.866638	734.333801	5989.021973	4568.279785	72.962395
688.194336	729.504089	5991.697266	4561.146973	72.814560
688.521973	729.727051	5989.468750	4545.915039	72.554665
688.849609	731.881836	5968.440918	4511.810059	72.183434
689.177063	734.853821	5928.613770	4492.268066	72.344788
689.504578	737.454529	5886.632813	4447.241211	72.046188
689.832031	737.305908	5827.041504	4427.104980	72.494911
690.159485	739.534973	5760.615723	4375.538574	72.414764
690.486816	738.123230	5695.674316	4354.213379	72.941055
690.814087	742.729980	5630.511719	4283.997559	72.451424
691.141296	736.785828	5550.115723	4226.933105	72.510033
691.468506	736.117126	5465.113770	4166.524902	72.539864
691.795715	728.315247	5383.158203	4126.178711	72.996315
692.122803	726.903503	5316.136719	4062.947266	72.692833
692.449829	727.200684	5257.140137	4006.699951	72.396095
692.776855	727.720886	5209.289063	3949.858398	71.897545
693.103821	735.225403	5171.692383	3926.750000	71.938431
693.430664	737.083008	5141.451172	3885.066406	71.474121
693.757568	743.770203	5098.058594	3855.791016	71.470245
694.084351	735.374023	5047.606934	3825.772705	71.665855
694.411133	734.259460	5012.015625	3806.379639	71.816154
694.737854	726.457703	4967.285156	3794.045166	72.334641
695.064575	727.275085	4933.329590	3769.971436	72.340866
695.391174	727.349365	4892.982910	3749.464111	72.548737
695.717773	730.024231	4883.546387	3732.077148	72.277290
696.044250	729.652649	4877.082031	3736.386719	72.496338
696.370789	730.321472	4879.979492	3735.718018	72.425156
696.697205	729.429749	4890.753418	3759.420654	72.813148
697.023621	735.225403	4930.728516	3784.089111	72.669807
697.349915	735.522644	5008.003418	3843.159424	72.736115
697.676208	738.791992	5100.064453	3894.057373	72.347359
698.002380	732.624817	5196.583496	3959.889404	72.296028
698.328674	733.962219	5288.496094	4023.863525	72.233551
698.654724	733.144958	5376.693848	4081.448486	72.106560
698.980896	738.346130	5460.804199	4139.404785	72.018822
699.306946	736.637207	5527.082031	4182.054688	71.922707
699.632935	734.779602	5580.431641	4238.821777	72.313126
699.958862	737.157288	5622.115234	4246.474609	71.839256
700.284729	729.727051	5620.406250	4237.707031	71.727867
700.610596	731.733215	5577.607910	4216.159668	71.905006
700.936340	728.835388	5499.070313	4179.527832	72.337997
701.262146	733.813660	5380.705566	4103.144531	72.507187
701.587830	729.206848	5260.707031	3982.105469	71.784149
701.913513	729.355469	5123.543945	3879.344971	71.685356
702.239075	735.894226	5010.232422	3793.674561	71.538094
702.564697	736.785828	4877.602051	3717.737061	71.989456
702.890137	733.739319	4754.185059	3614.084717	71.642441
703.215698	730.024231	4644.068359	3534.208984	71.644180
703.541016	724.674377	4549.109863	3460.054688	71.523766
703.866455	730.247070	4460.169434	3419.336914	72.095062
704.191711	729.206848	4384.751953	3380.773682	72.535469
704.517029	734.259521	4342.176270	3339.907227	72.220284
704.842163	726.977844	4303.167480	3298.149170	71.896950
705.167419	732.476257	4272.480957	3256.985352	71.313721
705.492493	736.785828	4236.889648	3245.989014	71.689392
705.817566	737.900391	4213.632813	3228.304688	71.651207
706.142578	731.436035	4188.444336	3217.679688	71.918938
706.467590	729.652771	4147.726563	3197.171875	72.190338
706.792480	734.556641	4132.345703	3194.942627	72.411385
707.117371	735.299744	4130.042480	3192.044922	72.369110
707.442200	735.819824	4136.952637	3180.528076	71.879234
707.766907	733.070618	4118.896973	3166.187500	71.861832
708.091675	737.305908	4111.541016	3166.410400	71.989784
708.416321	732.922058	4134.648926	3161.877930	71.403610
708.741028	734.853943	4163.404297	3182.088135	71.378105
709.065552	728.241028	4191.193848	3197.766357	71.312706
709.390137	732.179016	4178.562012	3212.255127	71.961708
709.714600	727.795166	4193.199707	3222.583252	71.991249
710.039063	738.494690	4201.596191	3228.899170	71.912544
710.363403	733.813660	4244.765625	3254.607666	71.798019
710.687744	739.980774	4290.907715	3272.514893	71.320366
711.012085	731.064453	4342.622559	3284.477539	70.701149
711.336304	735.522644	4400.727051	3304.539063	70.092033
711.660461	729.875671	4425.395996	3342.656494	70.701294
711.984619	734.854004	4455.562500	3372.749268	70.897659
712.308716	735.076843	4452.441895	3372.749023	70.955421
712.632751	740.872375	4440.479004	3356.625244	70.703545
712.956726	737.900330	4404.442383	3328.018799	70.641998
713.280701	742.061279	4373.829590	3306.173828	70.602318
713.604553	740.500916	4321.743652	3274.446533	70.756042
713.928467	734.631042	4264.307129	3252.378906	71.330849
714.252258	726.903564	4209.100586	3224.440674	71.723030
714.575989	723.708496	4167.341797	3179.859375	71.324402
714.899719	726.606262	4112.952637	3140.107422	71.271538
715.223267	725.789001	4070.748779	3112.912842	71.364799
715.546936	727.126465	4042.365234	3092.107666	71.336678
715.870422	727.943787	4015.839111	3072.194580	71.299431
716.193970	731.064514	3978.762451	3059.042969	71.680878
716.517395	726.383484	3945.771729	3048.046143	72.115028
716.840820	725.491699	3934.849365	3025.532471	71.666702
717.164124	723.485596	3903.047607	2994.548096	71.426895
717.487488	733.516418	3871.691650	2975.750000	71.450233
717.810730	735.225403	3828.968018	2959.031494	71.880775
718.133972	735.225403	3789.216064	2911.477783	71.259300
718.457092	732.699158	3731.036865	2860.803467	70.976135
718.780212	737.751709	3671.965820	2812.729492	70.716644
719.103210	736.265625	3627.161377	2782.488281	70.781616
719.426208	729.652649	3585.775146	2751.503906	70.790077
719.749207	723.857117	3551.893311	2734.711670	71.104271
720.072083	728.686768	3494.382813	2719.182373	71.970871
720.394958	732.996338	3471.943359	2701.052490	71.854477
720.717773	731.956055	3433.380127	2662.340820	71.458046
721.040527	729.058289	3427.287354	2634.848633	70.631157
721.363281	728.761047	3390.953125	2614.786865	70.844841
721.685913	726.977783	3363.460938	2586.849121	70.543648
722.008545	726.606262	3313.306641	2568.273682	71.197556
722.331055	727.052063	3279.201904	2532.533936	70.743568
722.653503	731.733215	3244.799805	2516.558838	71.021820
722.976013	731.510254	3234.991943	2510.986328	71.080055
723.298401	740.649475	3238.855469	2514.106689	70.989235
723.620789	739.757996	3238.409912	2507.122559	70.732727
723.943115	742.804382	3230.905273	2490.701416	70.250244
724.265381	736.934387	3212.180664	2473.388916	70.152802
724.587585	740.352295	3196.354492	2487.135010	71.123009
724.909790	740.723816	3183.797607	2484.831299	71.389877
725.231873	733.516418	3184.243164	2495.308105	71.888542
725.553894	734.556702	3202.521484	2483.568359	70.868584
725.875916	763.311829	3255.425049	2513.660889	70.235535
726.197937	774.903076	3252.378906	2505.933350	69.870720
726.519775	768.958801	3248.886719	2509.574463	70.188156
726.841675	743.993164	3236.923828	2491.370117	70.093285
727.163513	730.024170	3247.994873	2505.562012	70.514633
727.485291	734.259460	3267.313477	2513.884033	70.256081
727.806946	732.104675	3273.109131	2529.561768	70.738052
728.128662	736.637146	3292.204834	2547.766113	70.869926
728.450256	736.860107	3321.479736	2569.090820	70.889763
728.771790	729.058289	3325.343750	2569.239258	70.877449
729.093323	729.949890	3342.359375	2583.876953	70.966171
729.414795	724.451477	3340.947510	2588.186523	71.230186
729.736145	729.504150	3340.798828	2576.744141	70.740387
730.057495	727.572266	3334.408936	2558.614258	70.239998
730.378845	733.293518	3324.377930	2544.645264	69.907089
730.700134	733.739319	3334.408936	2560.768799	70.252274
731.021301	725.268860	3324.972412	2548.954834	70.149765
731.342468	722.816895	3313.901611	2556.533936	70.770248
731.663574	721.702332	3307.585938	2552.075439	70.783272
731.984680	733.665039	3327.572998	2570.800049	70.824989
732.305664	728.315247	3348.452148	2579.864746	70.666138
732.626648	727.200684	3369.331299	2593.462158	70.634720
732.947571	729.652649	3368.811279	2595.245361	70.688919
733.268433	734.853821	3362.941406	2592.421875	70.681358
733.589233	740.129395	3338.124023	2580.236328	70.827972
733.909973	737.008728	3322.520508	2560.620361	70.531937
734.230713	741.689758	3293.765625	2531.642334	70.137123
734.551331	737.454590	3262.038086	2503.258545	69.944366
734.871948	739.460632	3223.846436	2476.361084	69.912666
735.192505	743.472961	3175.921143	2442.256104	69.838409
735.513062	742.061279	3138.472656	2412.980713	69.725899
735.833435	740.575195	3085.346436	2381.699219	69.990791
736.153931	729.727051	3042.250732	2355.693359	70.311340
736.474304	729.504150	3002.275635	2333.328369	70.566895
736.794617	728.761047	2975.080811	2308.957275	70.346008
737.114807	733.962219	2971.588867	2299.743652	69.975098
737.434998	732.996399	2953.458984	2280.499023	69.692802
737.755188	735.745605	2949.594971	2282.356689	69.860718
738.075256	736.785828	2948.926514	2288.003662	70.122925
738.395325	744.587585	2966.759033	2300.709473	70.027084
738.715271	741.392578	2997.000244	2318.988037	69.941040
739.035278	735.151123	3008.294189	2324.709229	69.927765
739.355164	726.754883	3022.783203	2338.752197	70.208076
739.675049	722.222473	3017.135986	2348.040283	70.844406
739.994873	724.600098	3016.467529	2356.436523	71.201172
740.314636	731.510254	3005.693604	2341.501709	70.794266
740.634277	735.299744	2986.895264	2326.046875	70.649773
740.953979	734.408020	2973.669189	2297.588867	69.807884
741.273499	731.064453	2954.573486	2283.099854	69.801170
741.593140	730.618652	2931.985352	2260.809082	69.510925
741.912598	730.470032	2890.821533	2242.233398	69.977661
742.232117	738.197510	2842.896484	2206.865234	69.780418
742.551453	745.330566	2797.794189	2178.258545	69.815025
742.870850	740.352295	2761.088867	2150.766602	69.797043
743.190063	732.476257	2732.036377	2143.410889	70.562248
743.509338	732.550537	2712.049316	2120.376709	70.109978
743.828552	741.318298	2676.606934	2114.135254	70.936028
744.147705	749.119934	2647.331787	2083.671143	70.305702
744.466797	747.633972	2610.774658	2056.922119	70.273178
744.785828	744.513184	2600.743896	2037.380493	69.650139
745.104858	739.163513	2587.592285	2027.646851	69.706955
745.423706	736.637207	2577.412842	2027.201172	70.109795
745.742615	735.299744	2554.527588	2014.866821	70.335732
746.061401	732.847839	2535.431885	2009.517090	70.824394
746.380249	734.333801	2535.357422	2007.585083	70.695976
746.698975	739.089172	2535.506348	2000.154907	70.198929
747.017639	737.825989	2526.812744	2002.532593	70.694008
747.336304	738.123230	2508.385742	1994.656616	70.980064
747.654907	735.968506	2517.747803	1987.671997	70.250198
747.973389	739.386414	2528.595947	1977.492676	69.198502
748.291931	741.987000	2534.466064	1968.130493	68.404907
748.610352	738.048889	2527.258545	1959.511353	68.268265
748.928711	736.265625	2529.339111	1968.873413	68.742737
749.247070	730.990173	2526.218262	1973.405884	69.206573
749.565308	735.968506	2529.636230	1987.151978	69.755585
749.883545	738.791992	2515.741455	1983.436890	70.043907
750.201782	744.290344	2502.218506	1986.631836	70.670776
750.519836	741.987000	2493.079346	1983.734009	70.912712
750.837952	741.838379	2490.924561	1971.696899	70.314346
751.155884	737.528809	2475.766602	1950.520630	69.782845
751.473877	735.374023	2453.104492	1928.378296	69.452354
751.791809	731.584534	2432.448242	1919.016113	69.813446
752.109619	726.086121	2431.779541	1913.889282	69.637558
752.427490	728.686768	2426.503662	1915.003906	69.873093
752.745300	732.030457	2429.698975	1914.186890	69.634117
753.062988	735.151123	2425.612061	1911.883423	69.610146
753.380615	738.346130	2431.036377	1895.313843	68.350830
753.698303	733.665039	2428.584473	1884.465698	67.897072
754.015808	734.185120	2432.076660	1878.298462	67.384354
754.333374	730.172852	2420.188232	1882.608032	68.190811
754.650757	731.733215	2407.928467	1882.236450	68.637772
754.968262	730.024231	2402.206787	1875.474976	68.500336
755.285583	731.213074	2395.073730	1876.440918	68.829552
755.602905	735.225403	2390.244141	1879.710327	69.152382
755.920105	732.699158	2372.188721	1878.595703	69.893494
756.237305	732.699036	2374.120361	1877.258179	69.729752
756.554443	728.463867	2372.782959	1854.372925	68.472664
756.871582	733.887939	2378.727295	1856.304688	68.238686
757.188599	733.962219	2371.817139	1847.685913	67.998917
757.505615	729.727051	2372.857422	1857.196411	68.617157
757.822510	730.470032	2384.894287	1859.722778	68.256531
758.139465	732.476257	2397.005615	1871.165405	68.409081
758.456238	734.408142	2413.798096	1887.511841	68.662064
758.773010	732.550537	2424.423584	1894.347656	68.669281
759.089783	726.309082	2435.791992	1895.908081	68.418289
759.406433	731.956055	2446.788574	1891.301392	67.606911
759.723145	733.590820	2451.841064	1902.298218	68.017296
760.039673	737.380188	2467.593262	1904.527344	67.456848
760.356201	735.745544	2462.912109	1919.387695	68.530861
760.672668	730.247131	2462.020752	1914.929688	68.408630
760.989136	725.789001	2450.726563	1920.279419	69.248337
761.305481	723.708496	2456.225098	1913.443726	68.670929
761.621826	730.544373	2465.512939	1915.375610	68.291229
761.938049	732.847839	2473.388916	1922.211426	68.332977
762.254333	738.940613	2492.781738	1934.471313	68.166428
762.570496	732.922058	2540.781494	1967.536133	68.291489
762.886597	734.556641	2624.594971	2024.452026	68.247047
763.202637	729.281250	2748.309326	2107.150635	68.244194
763.518677	730.024231	2892.084717	2212.958008	68.588913
763.834656	724.080078	3052.281494	2308.437012	68.050682
764.150574	727.423645	3179.785156	2385.042969	67.592781
764.466370	729.875671	3250.001221	2432.671143	67.567879
764.782288	739.534973	3262.260986	2451.023682	67.842827
765.097961	744.587585	3231.796875	2447.903076	68.482994
765.413696	747.113831	3186.843750	2408.596924	68.101105
765.729309	737.528809	3077.916016	2341.575928	68.537682
766.044861	730.767273	2943.874023	2259.991455	69.098526
766.360474	726.754944	2796.754639	2166.221680	69.539467
766.675903	734.482422	2682.625244	2094.445068	69.808159
766.991394	742.507141	2588.335205	2021.851196	69.310028
767.306763	742.804382	2504.150146	1960.477173	69.133095
767.622131	741.615479	2427.544189	1902.966919	68.884964
767.937378	734.036621	2365.798584	1847.016968	68.207275
768.252625	733.516418	2311.928955	1817.593140	68.681450
768.567810	730.321350	2264.746826	1782.299438	68.558426
768.882996	730.247070	2220.685547	1762.014771	69.225784
769.197998	729.875671	2181.379639	1731.401978	68.999214
769.513062	731.881836	2151.583984	1718.919067	69.524246
769.828064	729.875671	2125.057861	1702.126587	69.686310
770.142944	733.070618	2109.454346	1682.213501	68.959175
770.457825	736.488586	2091.324463	1658.436890	68.048706
770.772705	734.705261	2066.730225	1637.111938	67.746979
771.087402	731.361633	2040.649902	1617.644653	67.691963
771.402100	727.423645	2010.260132	1604.864624	68.398506
771.716736	729.801331	1985.442993	1589.037964	68.430084
772.031372	729.949951	1963.672241	1583.168091	69.158035
772.345947	731.361633	1965.604126	1571.279663	68.051300
772.660461	725.045898	1960.180054	1560.134277	67.611145
772.974854	727.795166	1944.427734	1555.304565	68.016380
773.289246	727.795166	1927.412598	1553.149780	68.801483
773.603638	729.652649	1910.099976	1548.468750	69.364906
773.917908	729.206848	1905.270508	1534.648438	68.486221
774.232178	736.042786	1887.363281	1518.896362	67.996147
774.546265	738.123230	1883.499634	1514.437988	67.778130
774.860474	738.123230	1865.072632	1495.268066	67.185341
775.174561	728.835449	1852.069702	1480.927612	66.957733
775.488586	735.151184	1836.317505	1469.633667	66.700417
775.802551	732.996338	1823.983276	1468.073242	67.377243
776.116516	731.436035	1807.413696	1460.197144	67.730133
776.430359	724.600098	1793.147583	1449.274536	67.818649
776.744202	726.383484	1788.243652	1447.416992	67.902870
777.057922	734.705322	1773.605957	1446.153809	68.480896
777.371704	737.454529	1773.828735	1448.531616	68.612000
777.685303	736.637207	1761.420288	1445.485229	69.170540
777.998962	732.476257	1769.965210	1442.067261	68.395035
778.312500	738.494690	1767.810181	1433.076538	67.479980
778.626038	741.541077	1765.284058	1430.698853	67.317459
778.939453	734.853821	1767.810547	1425.646362	66.875259
779.252869	728.240967	1767.438843	1427.503906	67.288719
779.566223	730.618652	1768.256226	1429.509888	67.354080
779.879578	738.643372	1756.664917	1431.144897	68.024254
780.192749	736.934387	1746.931274	1428.767090	68.498497
780.505920	734.853943	1735.265625	1428.767090	69.362762
780.819031	739.757813	1729.247070	1429.658691	69.722931
781.132141	744.513184	1722.336914	1422.599976	69.346527
781.445190	738.791992	1717.061523	1405.807617	68.183212
781.758118	734.036621	1710.374390	1392.209961	67.412460
782.071045	730.470032	1703.315552	1380.767456	66.844879
782.383911	734.408142	1694.919434	1366.278320	65.784775
782.696838	727.497986	1676.715210	1358.625366	66.489250
783.009583	727.275085	1658.882446	1351.937866	67.052155
783.322266	718.135742	1645.508179	1354.166992	68.584229
783.634888	725.789001	1642.684570	1343.616089	67.382492
783.947510	731.213074	1628.567017	1332.619263	67.019951
784.260132	735.151123	1621.062500	1318.798950	65.881065
784.572571	730.915833	1610.882935	1315.826782	66.469635
784.885010	723.114075	1610.214355	1311.442993	66.320450
785.197449	724.080078	1617.793335	1313.746460	65.979370
785.509766	721.702332	1611.923218	1312.260376	66.338371
785.822083	726.903564	1607.242188	1315.381104	66.846725
786.134277	731.956116	1586.808960	1304.087036	66.927414
786.446533	742.730042	1589.483887	1302.526733	66.110909
786.758606	742.878601	1580.864746	1308.545288	67.503105
787.070740	740.946777	1582.127930	1318.427490	68.651169
787.382690	732.847717	1583.019531	1329.052856	70.127609
787.694641	728.984070	1609.991211	1320.285034	67.116478
788.006653	725.640381	1644.244995	1329.127075	65.696022
788.318481	730.098572	1669.953735	1338.860718	64.771912
788.630310	732.104736	1692.690308	1369.845093	66.390793
788.942017	731.658875	1696.256836	1376.829468	66.884918
789.253784	729.504150	1709.185547	1383.590942	66.765259
789.565430	736.414246	1702.869751	1378.241089	66.410385
789.877014	739.534973	1696.479614	1387.306030	67.691589
790.188538	731.361755	1680.207397	1374.303101	67.760376
790.500061	730.767273	1663.266235	1356.098999	67.059776
790.811462	730.693054	1644.987915	1339.380859	66.574562
791.122925	739.683594	1622.548462	1332.322021	67.126740
791.434204	737.528809	1600.554810	1321.473999	67.662529
791.745483	736.860107	1586.957520	1312.483398	67.712624
792.056702	740.352295	1568.604614	1291.009888	66.484283
792.367920	736.785828	1561.843140	1277.412476	65.525948
792.678955	738.197510	1538.214844	1258.836792	65.078499
792.990112	733.739319	1534.202637	1260.917114	65.859085
793.301086	736.637146	1515.775513	1260.397095	67.222969
793.612122	741.392578	1513.100586	1255.864624	66.666672
793.922974	745.107605	1495.342285	1239.889526	65.950287
794.233826	745.850647	1491.404175	1235.431274	65.666733
794.544556	742.432800	1492.667358	1237.511841	65.989899
794.855286	738.048828	1499.354614	1246.873901	66.835831
795.166016	743.324402	1502.475220	1242.044312	65.694443
795.476624	739.386414	1511.020142	1248.954468	66.037560
795.787292	741.392578	1525.063354	1252.446777	65.212868
796.097778	729.504089	1545.942383	1272.508423	66.508926
796.408264	725.937561	1564.443726	1280.458862	66.132050
796.718689	725.789001	1564.220825	1283.728027	66.545547
797.029053	723.114075	1565.484009	1277.932495	65.863983
797.339355	733.888000	1550.474976	1271.468140	65.832565
797.649658	736.340027	1550.177612	1266.638550	65.160240
797.959839	741.615417	1538.437866	1272.434082	66.616928
798.270020	739.534973	1535.168579	1271.319580	66.837875
798.580078	732.327637	1531.676270	1271.468140	67.447479
798.890137	735.522644	1521.050903	1254.452881	66.061310
799.200195	729.652832	1506.487671	1234.762695	65.021523
799.510071	743.398743	1482.190552	1231.047485	66.006248
799.820007	734.928223	1475.429199	1229.264282	66.756973
800.129883	736.042786	1474.091675	1228.298340	66.696877
800.439575	727.275085	1475.651978	1209.648315	64.455925
800.749329	731.733154	1465.175415	1206.081665	64.674278
801.058960	737.974609	1444.296265	1205.190063	66.147690
801.368591	736.117004	1443.999023	1207.047729	66.526726
801.678162	734.631042	1431.962036	1202.069458	67.032501
801.987671	728.315247	1437.014648	1199.171509	66.439491
802.297119	722.445313	1425.126343	1188.323364	66.300072
802.606506	716.129578	1417.844727	1171.902466	64.951271
802.915894	720.141907	1408.185181	1163.952026	64.503227
803.225159	731.361633	1393.398926	1168.484497	66.026924
803.534424	736.785828	1392.878906	1181.636230	67.802940
803.843628	731.064453	1385.671387	1179.407104	68.490364
804.152771	724.600098	1383.293579	1172.645508	68.020317
804.461792	727.126465	1378.909790	1167.667236	67.590065
804.770874	732.476257	1385.299927	1169.079102	66.879135
805.079773	738.569092	1395.850952	1176.583618	66.640289
805.388733	739.832214	1417.621582	1176.509277	64.426659
805.697571	741.392578	1430.624634	1181.413208	63.842159
806.006470	735.596924	1436.346069	1187.134644	64.436432
806.315125	733.665039	1436.048828	1201.029175	66.539711
806.623901	723.262695	1430.773071	1206.527466	68.304970
806.932495	724.228577	1429.212891	1206.824829	68.454895
807.241150	719.770447	1427.429565	1192.484375	66.799667
807.549622	724.748718	1429.064331	1183.790894	65.175636
807.858154	721.999512	1426.092163	1185.722778	65.861115
808.166565	724.525818	1426.760864	1192.261353	66.606689
808.474915	725.268799	1417.324585	1191.295532	67.339478
808.783264	726.309082	1403.355469	1173.537231	66.055763
809.091492	732.104675	1381.733398	1165.438110	66.704781
809.399719	730.767273	1369.176270	1160.905640	67.376617
809.707825	729.801331	1367.095703	1161.797241	67.785927
810.015930	730.172852	1365.312500	1149.165894	65.968651
810.323975	730.841553	1363.157837	1149.240234	66.169212
810.632080	734.482422	1356.619141	1145.376465	66.045616
810.939880	729.504089	1344.433472	1155.035767	69.200089
811.247864	729.355469	1336.631714	1140.918335	67.771935
811.555664	727.795105	1326.823730	1132.744995	67.601089
811.863464	734.482422	1324.891724	1119.593384	65.227791
812.171143	735.448303	1315.009521	1118.255981	66.051292
812.478882	738.791992	1316.941528	1116.175537	65.274384
812.786438	734.036621	1310.848633	1115.655273	66.159973
813.094055	737.083008	1313.597900	1108.968140	64.505730
813.401489	733.145020	1309.065430	1105.178589	64.598083
813.708984	735.522644	1303.938477	1102.578003	64.575150
814.016357	740.723816	1297.028320	1105.624512	65.593697
814.323730	744.661865	1303.418335	1106.813354	64.813835
814.630981	749.714417	1303.046875	1101.537842	63.582645
814.938232	745.776367	1295.542236	1104.807129	65.306122
815.245361	739.014832	1287.814697	1105.847290	66.842667
815.552490	734.036621	1289.746582	1109.339600	67.535767
815.859619	732.550537	1294.799194	1107.779297	66.737152
816.166565	738.049011	1295.988037	1114.169312	67.412437
816.473572	730.470032	1299.182983	1116.026855	67.794624
816.780457	726.457703	1302.452271	1117.884399	67.956665
817.087341	718.061523	1309.362427	1103.841309	65.242546
817.394043	723.114075	1318.353149	1105.030151	64.161797
817.700806	726.011902	1326.229370	1108.968140	63.802914
818.007507	729.801270	1323.405762	1119.890625	65.715363
818.314209	725.268860	1324.891724	1119.667725	65.774490
818.620667	718.507324	1340.941162	1124.274536	65.190414
818.927246	724.228577	1362.191772	1137.426025	64.768227
819.233704	732.179016	1378.909790	1146.788208	64.108467
819.540161	740.129395	1402.315308	1167.964478	64.609512
819.846497	742.878601	1432.184937	1194.639160	65.538429
820.152832	743.175781	1482.487915	1235.579956	66.603012
820.458984	740.575195	1541.261353	1266.861450	65.729408
820.765259	737.008728	1617.347290	1306.836304	64.728233
821.071350	727.572266	1719.364868	1369.770630	64.751274
821.377502	727.869446	1881.790649	1475.206055	64.764961
821.683472	731.807434	2198.617432	1676.343750	64.393906
821.989441	738.643372	2746.451416	2018.656250	63.751759
822.295349	735.374023	3469.714111	2498.652100	64.486420
822.601196	725.566101	4281.025391	3014.907471	64.389465
822.907043	723.262695	4961.266602	3457.900146	64.526543
823.212769	724.525879	5378.328125	3724.869873	64.470810
823.518494	726.977844	5410.203613	3774.206787	65.066887
823.824097	725.863281	5149.326660	3640.313232	65.886154
824.129700	724.674500	4765.256348	3384.266357	65.821999
824.435242	734.556641	4363.798828	3129.927979	66.001968
824.740723	737.603088	4010.563477	2905.385010	66.233063
825.046082	743.324402	3684.894531	2717.993652	67.129768
825.351501	737.305908	3380.328125	2507.865479	66.989960
825.656799	739.832214	3066.175781	2288.003662	66.549561
825.962036	735.225342	2782.636719	2082.482422	65.802948
826.267212	730.915833	2566.044434	1943.090454	66.053925
826.572449	732.996277	2455.407715	1866.855957	65.829781
826.877502	742.135498	2460.608887	1865.146973	65.349365
827.182495	742.581299	2564.335449	1925.852173	64.952278
827.487488	743.547302	2710.860596	2014.346802	64.595688
827.792419	737.900391	2828.630127	2084.191162	64.393341
828.097290	740.129395	2858.425781	2098.457520	64.123611
828.402100	735.299744	2799.503174	2055.956299	63.978992
828.706848	737.231628	2651.715576	1974.446289	64.623924
829.011597	737.008728	2467.816162	1866.707397	65.270042
829.316223	741.392578	2291.273193	1750.795288	65.127769
829.620789	739.609314	2141.181641	1652.715454	65.148705
829.925354	743.027161	2024.303345	1566.598633	64.277435
830.229797	739.089111	1907.127930	1495.936646	64.796440
830.534302	740.872498	1794.410767	1415.912720	64.073624
830.838562	735.894104	1671.514038	1337.003296	64.247154
831.142944	737.603088	1562.883423	1266.787109	64.121727
831.447144	739.312012	1474.389038	1219.901978	65.379539
831.751404	743.101501	1425.423462	1188.026245	65.207451
832.055542	736.265625	1402.092285	1165.289551	64.434776
832.359619	730.172852	1381.139038	1147.679810	64.136505
832.663635	724.971680	1382.253540	1157.562134	65.815063
832.967651	728.166687	1405.361694	1181.413208	66.929985
833.271545	728.984070	1483.156616	1228.521118	66.236443
833.575439	726.234863	1592.455933	1297.548462	65.954712
833.879211	724.228699	1733.779663	1383.219604	65.275642
834.183044	728.909668	1872.799927	1471.639771	64.930191
834.486694	734.110901	1974.000366	1531.602051	64.319542
834.790344	735.151123	2003.498657	1558.871094	64.944344
835.093933	730.915833	1976.452515	1547.502808	65.561058
835.397522	724.228699	1912.626465	1511.020142	66.206070
835.700928	727.200867	1840.181274	1468.964844	66.646629
836.004395	723.559998	1768.182007	1419.776489	66.647690
836.307739	729.652771	1693.359009	1378.389771	67.316879
836.611023	731.658936	1624.851929	1324.446045	66.367195
836.914307	733.367859	1552.629517	1273.548584	65.935066
837.217529	733.888000	1487.317505	1217.524414	64.191330
837.520691	730.395691	1414.129272	1172.645508	64.681602
837.823730	729.652649	1347.925659	1135.196899	65.593071
838.126831	727.349365	1298.885864	1093.958862	64.144547
838.429749	731.733215	1264.409302	1061.191406	61.849632
838.732727	735.894104	1234.391113	1042.764282	61.559082
839.035522	738.197571	1208.756592	1031.024536	62.229595
839.338379	733.813660	1194.416260	1033.253540	65.010460
839.641113	736.637207	1195.679321	1025.600464	62.949181
839.943848	737.454529	1208.310791	1040.906860	64.446915
840.246460	735.596924	1236.768677	1050.714844	62.876232
840.549072	733.293518	1266.341309	1066.021118	62.419846
840.851563	729.801331	1278.824097	1078.578247	63.526859
841.154053	730.990234	1278.601196	1092.547241	66.024429
841.456482	734.779602	1271.170898	1094.702026	67.100723
841.758850	734.408020	1261.362915	1072.039795	64.072235
842.061157	732.179016	1235.208496	1046.479614	62.481548
842.363403	725.566101	1200.731934	1027.012207	63.440189
842.665588	731.881836	1178.143921	1018.393127	64.202469
842.967712	737.305908	1165.512329	1007.396301	63.074810
843.269775	742.135559	1155.481567	998.925781	62.124763
843.571777	734.631042	1124.051636	985.179749	64.338844
843.873840	733.293518	1099.234375	974.257263	65.847733
844.175659	729.132629	1076.646484	963.111877	67.329475
844.477600	734.928223	1064.757935	956.870422	67.289932
844.779297	732.253357	1050.343262	944.387634	66.690041
845.081116	730.024231	1039.420776	941.192566	68.251678
845.382751	730.321472	1037.711792	934.802551	66.521637
845.684387	728.612488	1038.454956	931.681824	65.539543
845.985962	728.463867	1024.783081	915.037903	62.963867
846.287537	731.361755	1016.238342	909.316650	62.467365
846.588989	737.751709	1002.417969	903.892578	62.773724
846.890381	741.095398	996.548035	909.539551	65.939484
847.191711	737.305908	991.049622	910.877014	68.404099
847.493042	733.516418	987.929016	907.533386	68.399506
847.794250	740.352356	994.690613	900.994812	63.160950
848.095459	734.556702	991.049622	898.840027	64.049850
848.396606	727.795166	986.740173	896.833923	65.279793
848.697693	725.417480	983.396484	898.096985	66.935486
848.998657	729.355469	976.337708	887.620300	64.079437
849.299622	740.426575	972.622620	889.329285	64.128014
849.600464	735.968506	960.065430	883.607910	65.881943
849.901367	729.875671	957.093445	885.168274	68.345268
850.202087	723.857117	958.133606	876.623535	65.207748
850.502808	723.634216	969.130371	873.205566	60.926147
850.803467	727.052063	974.628723	871.645203	58.403381
851.104065	732.179016	976.932129	873.131348	57.589596
851.404663	726.754883	971.582336	873.354187	59.878620
851.705139	729.281250	965.266602	880.784485	64.200272
852.005615	731.287415	967.049805	881.453125	63.693668
852.306030	733.145020	967.272766	882.939270	63.979710
852.606384	731.807556	975.817688	876.474915	59.287437
852.906616	723.188416	973.588562	881.230286	63.115726
853.206909	729.132629	976.709290	880.933105	61.314533
853.506958	729.578430	966.975586	879.892883	63.317715
853.807129	738.569031	955.607361	876.846436	63.711052
854.107178	731.510254	953.229675	872.536926	63.605919
854.407166	734.185242	951.223450	871.570984	63.300255
854.707092	721.405090	954.046936	867.855774	62.951134
855.007019	724.600159	951.297668	868.301575	63.389057
855.306763	728.241028	952.115051	872.536865	64.454033
855.606567	733.888000	944.536316	872.685547	65.890648
855.906250	735.076843	938.666321	883.236511	72.773735
856.205933	728.983948	941.415466	877.217834	69.779610
856.505493	732.253357	949.885986	878.852539	67.360847
856.805054	732.179016	957.687805	875.583313	63.591446
857.104492	729.652771	957.539246	874.988831	63.775642
857.403931	720.810730	957.390625	875.806152	65.515045
857.703308	719.176025	959.248230	872.685547	63.943062
858.002563	726.383362	956.201660	874.543030	64.468178
858.301819	734.928223	953.898254	870.456360	61.893463
858.601013	742.135559	944.833313	868.227356	62.206806
858.900208	738.717590	949.663086	869.564758	62.028900
859.199219	741.987000	948.251282	873.577087	63.796837
859.498291	735.596924	953.601257	874.468567	63.701321
859.797302	735.671204	948.399902	878.778259	67.272095
860.096191	731.510315	952.189453	876.920715	65.892227
860.395020	727.869446	940.821106	873.577087	68.422874
860.693787	725.194519	933.242188	869.267578	69.250023
860.992554	724.080078	925.217468	871.793884	73.439255
861.291260	722.222473	926.480652	876.177734	75.372871
861.589844	719.696106	932.350525	877.738037	74.318665
861.888428	720.736328	937.700256	875.954773	71.541130
862.186890	728.463867	947.879822	879.744202	68.946823
862.485413	734.928223	952.560852	878.406799	65.926964
862.783813	738.197510	949.068665	873.948669	64.376350
863.082153	742.655762	948.474304	871.422363	62.563168
863.380371	736.117004	950.034668	869.862000	62.521717
863.678589	730.321472	953.081055	873.874268	64.442924
863.976746	725.640381	948.102722	871.719482	65.664642
864.274902	724.080078	946.467957	868.895996	65.118622
864.572937	729.206970	948.697083	875.954773	66.858505
864.870911	727.943665	955.161438	872.759705	63.734467
865.168884	732.996338	953.303955	878.778259	66.171982
865.466736	731.807434	952.338074	874.617371	64.757416
865.764587	730.915833	946.690979	881.081726	69.593697
866.062317	731.658875	952.635254	875.731873	65.198372
866.360107	729.058289	944.090393	864.660706	63.061474
866.657715	727.943787	942.901550	852.772278	58.071171
866.955322	722.668274	936.139954	859.459473	64.079323
867.252808	726.011902	944.610535	865.552429	63.834126
867.550293	726.829163	943.124451	878.109558	69.941605
867.847717	734.408020	943.421692	873.428467	66.512611
868.145081	739.906433	937.031555	878.703918	70.410858
868.442383	751.274841	940.523865	872.834045	64.232407
868.739624	753.429626	932.573425	867.484314	63.666557
869.036804	752.612305	938.294739	858.196472	56.862766
869.333984	745.850769	939.632263	856.710449	57.208599
869.631042	744.067444	944.833435	862.951843	59.215408
869.928101	735.002502	950.034607	870.604980	63.061504
870.224976	726.606262	953.378235	877.440857	66.513771
870.521851	730.915833	950.257507	880.115723	68.021683
870.818726	737.454529	948.771484	882.196106	68.495010
871.115479	748.302734	948.028503	882.642029	67.261871
871.412231	741.020996	955.533020	883.310730	66.331825
871.708862	739.609314	951.966492	878.035339	65.185471
872.005493	732.401917	950.108887	879.595642	67.610939
872.302063	739.460693	954.789978	877.217957	63.975163
872.598572	733.293518	951.669250	886.134277	69.989807
872.895020	731.510254	951.966492	881.973328	68.250771
873.191406	726.086182	949.960266	885.316895	71.125122
873.487671	729.578430	964.003418	883.459412	65.641884
873.783997	733.219238	969.278992	886.357239	64.872559
874.080200	735.002502	967.644348	882.864929	63.557968
874.376343	734.110840	958.950989	881.230225	65.432877
874.672424	737.157288	961.031433	880.933105	64.221718
874.968445	734.185242	972.399719	885.614197	63.568325
875.264465	733.293518	975.297546	888.214844	64.016014
875.560364	733.516418	962.368896	883.533691	65.551956
875.856201	736.711487	953.303955	880.264343	66.277863
876.152039	742.284180	960.288330	875.657532	61.179272
876.447754	737.825989	969.278992	876.029053	59.711071
876.743469	730.321472	967.124207	876.697815	61.813622
877.039063	725.491760	963.260437	874.022949	62.468781
877.334595	727.052185	966.975586	879.149841	63.394257
877.630127	730.395752	972.473938	886.357117	64.426033
877.925537	732.030457	970.542175	884.945374	64.112122
878.221008	734.705261	971.507996	881.973328	62.190189
878.516296	731.658875	975.074524	880.784424	61.263748
878.811646	725.788879	989.117859	890.369446	62.499981
879.106812	722.148132	993.798889	905.824463	67.614876
879.401978	726.903503	1008.362244	912.957520	66.103477
879.697083	730.098572	1024.783203	918.678894	63.993946
879.992126	733.590759	1060.597046	924.474426	58.373089
880.287109	729.652771	1101.240723	941.712708	57.068573
880.582031	727.349304	1166.329834	986.517273	59.038601
880.876892	724.748718	1280.087402	1060.448364	60.449535
881.171753	724.822937	1495.862427	1196.273804	61.144840
881.466492	732.550476	1816.701538	1397.559937	61.339184
881.761230	727.720886	2192.598877	1647.216919	62.769466
882.055786	735.596924	2543.084961	1872.279907	62.887440
882.350403	733.516418	2783.677002	2033.888306	63.427803
882.644958	736.191345	2888.369873	2095.708252	63.169334
882.939453	731.881836	2857.533936	2087.312012	63.765381
883.233826	728.315247	2753.287354	2019.770874	63.776459
883.528137	723.708496	2607.728271	1931.796509	64.122894
883.822449	722.816895	2480.447754	1860.540039	64.730492
884.116577	725.640381	2361.117920	1781.110474	64.535896
884.410828	730.172852	2243.644775	1704.950195	64.406700
884.704956	740.426575	2093.033447	1603.452637	63.804646
884.999023	736.340027	1910.545898	1493.336060	64.468773
885.292969	738.717712	1722.857056	1374.451782	64.597977
885.586914	730.247131	1549.657593	1265.375366	65.306496
885.880798	738.494812	1421.336792	1181.264771	64.842232
886.174622	743.770203	1329.275513	1121.748169	64.555855
886.468384	742.135559	1265.003784	1077.166504	64.075600
886.762085	735.448303	1214.329346	1043.804565	64.390991
887.055664	729.578430	1172.942871	1015.346680	64.454483
887.349304	730.024231	1139.952515	992.535706	64.038391
887.642822	734.408142	1105.698853	977.006531	65.339203
887.936340	737.231628	1086.231567	964.449280	65.105354
888.229736	733.219299	1072.708374	949.663086	63.755745
888.523071	728.538269	1063.569214	931.681824	60.634266
888.816284	731.510254	1042.318481	926.406311	62.706207
889.109619	733.219238	1027.681030	923.211243	64.521782
889.402710	729.429871	1014.380676	917.787170	66.101692
889.695862	724.823059	1008.362244	904.412781	63.338589
889.988892	725.788879	994.170410	892.598633	62.153961
890.281921	726.457642	979.458496	889.403625	64.405312
>>>>>End Processed Spectral Data<<<<<
