Jaz Data File
++++++++++++++++++++++++++++++++++++
Date: Fri Jun 04 16:01:48 2021
User: jaz
Dark Spectrum Present: Yes
Reference Spectrum Present: Yes
Processed Spectrum Present: Yes
Spectrometers: JAZA3586
Integration Time (usec): 24600 (JAZA3586)
Spectra Averaged: 10 (JAZA3586)
Boxcar Smoothing: 1 (JAZA3586)
Correct for Electrical Dark: No (JAZA3586)
Strobe/Lamp Enabled: Yes (JAZA3586)
Correct for Detector Non-linearity: No (JAZA3586)
Correct for Stray Light: No (JAZA3586)
Number of Pixels in Processed Spectrum: 2048
>>>>>Begin Processed Spectral Data<<<<<
W	D	R	S	P
191.335022	0.000000	0.000000	0.000000	0.000000
191.713211	387.488678	386.225494	390.460815	-235.289429
192.091385	782.481934	776.240479	782.184753	4.761393
192.469528	1172.942749	1174.948853	1180.447266	374.084229
192.847641	1184.311157	1189.289429	1188.546265	85.071846
193.225739	1196.571167	1199.320190	1193.078857	-127.038185
193.603790	1211.877319	1200.360474	1190.329590	187.097488
193.981842	1215.518188	1204.224121	1193.078857	198.682465
194.359863	1208.905273	1203.852661	1200.732056	161.762222
194.737854	1212.768921	1214.849487	1209.351074	-164.274811
195.115829	1216.855591	1212.694702	1213.066284	91.069649
195.493774	1224.806030	1210.465576	1209.053833	109.844482
195.871704	1219.159058	1204.892944	1206.081787	91.666664
196.249603	1223.468628	1208.533691	1207.419189	107.462379
196.627457	1216.781372	1210.985718	1214.403687	41.025318
197.005310	1218.787598	1215.221069	1216.038452	77.081833
197.383133	1212.026001	1212.248901	1213.289185	566.703186
197.760910	1210.688599	1217.821655	1208.905273	-25.000856
198.138687	1208.013672	1216.707031	1203.629761	-50.428276
198.516449	1204.521484	1217.301392	1200.286255	-33.139751
198.894180	1206.527466	1213.883545	1201.474976	-68.684555
199.271866	1202.069458	1216.038330	1207.419312	38.298393
199.649536	1199.171753	1215.221069	1206.973389	48.610394
200.027191	1201.846558	1219.901978	1201.549316	-1.646271
200.404816	1200.360474	1213.437622	1204.521362	31.818012
200.782410	1202.440918	1226.069214	1207.121948	19.811121
201.159988	1203.183960	1232.756470	1209.276733	20.602829
201.537537	1212.397461	1237.586060	1214.552246	8.554605
201.915070	1209.796875	1236.694458	1221.982544	45.303955
202.292557	1204.149902	1234.911255	1227.852539	77.053299
202.670029	1196.422485	1242.490112	1222.354126	56.290375
203.047485	1196.050903	1249.400269	1221.759644	48.189404
203.424911	1191.592773	1261.734497	1221.685303	42.902466
203.802292	1197.462524	1257.053345	1223.765747	44.139721
204.179688	1197.314087	1248.359985	1216.707031	37.991192
204.557037	1199.691772	1237.957642	1214.032227	37.475834
204.934357	1188.397827	1239.518066	1207.493530	37.354488
205.311661	1187.060181	1244.867798	1205.264526	31.491259
205.688934	1192.038574	1253.858398	1200.137573	13.100974
206.066177	1193.004517	1257.796387	1196.794067	5.848806
206.443390	1195.902222	1252.743774	1197.982788	3.660291
206.820587	1191.741333	1246.428101	1194.267700	4.619705
207.197769	1198.057129	1237.363281	1200.434692	6.048833
207.574921	1199.914551	1239.517944	1204.967285	12.758337
207.952042	1195.307739	1233.127930	1214.403687	50.491409
208.329147	1190.626831	1241.747070	1211.803101	41.424435
208.706223	1191.444092	1237.586060	1214.032104	48.953293
209.083267	1196.868286	1233.499390	1200.360474	9.533394
209.460297	1206.378906	1227.109497	1197.462646	-43.010159
209.837280	1203.926880	1224.806030	1192.855835	-53.024403
210.214264	1195.456421	1231.567627	1204.521484	25.103188
210.591217	1186.168579	1228.595581	1205.487427	45.534321
210.968124	1186.094360	1228.223999	1209.202515	54.850113
211.345016	1190.032349	1233.053589	1204.298462	33.160629
211.721893	1193.004517	1244.496216	1198.131348	9.956616
212.098724	1191.592773	1248.657227	1189.140747	-4.296942
212.475555	1193.227417	1249.771851	1198.131226	8.672487
212.852356	1191.369873	1240.929810	1206.081665	29.684849
213.229126	1188.917847	1246.799683	1204.818604	27.471066
213.605865	1193.598999	1250.663330	1206.007446	21.744665
213.982590	1197.388550	1256.830444	1206.601929	15.499807
214.359283	1196.645386	1256.681885	1212.769043	26.856424
214.735931	1192.261475	1249.028687	1203.926880	20.549547
215.112579	1187.580444	1251.703613	1197.982788	16.222443
215.489197	1193.524536	1248.880249	1192.410034	-2.013346
215.865799	1187.431885	1243.381714	1196.125244	15.537776
216.242355	1187.357544	1238.774902	1200.806274	26.156012
216.618896	1182.379272	1232.310547	1203.481323	42.262192
216.995407	1182.230469	1236.545898	1200.063354	32.832081
217.371902	1183.270752	1230.824585	1199.914673	35.000168
217.748367	1195.084961	1229.858521	1200.286133	14.957260
218.124802	1206.304565	1228.001099	1211.877319	25.684998
218.501236	1204.001221	1234.168213	1212.248901	27.340082
218.877609	1188.843384	1244.570557	1215.369629	47.600201
219.253983	1176.063354	1250.366211	1204.001343	37.600155
219.630295	1180.744507	1244.719238	1205.487427	38.676083
220.006592	1182.453613	1247.096802	1201.029175	28.735529
220.382889	1194.119019	1249.846069	1199.171631	9.066714
220.759140	1195.307861	1256.904785	1195.456421	0.241180
221.135391	1203.852661	1257.499146	1203.258179	-1.108148
221.511581	1203.258301	1251.332153	1204.001343	1.545626
221.887772	1196.422485	1251.555054	1206.007446	17.385298
222.263931	1193.227417	1245.833740	1195.605103	4.519772
222.640060	1189.066528	1242.713013	1189.735229	1.246496
223.016159	1190.329590	1241.821411	1190.998291	1.298655
223.392212	1188.843506	1243.381714	1189.066406	0.408705
223.768265	1186.094238	1250.514771	1202.069336	24.798145
224.144302	1185.276978	1253.486938	1199.468750	20.806011
224.520294	1188.249023	1251.183594	1201.623657	21.251648
224.896286	1190.106567	1257.573608	1196.050903	8.810726
225.272217	1193.598877	1257.127808	1194.267578	1.052593
225.648148	1188.769409	1260.397095	1200.583374	16.493574
226.024048	1191.964233	1254.452759	1202.292358	16.528034
226.399902	1191.146851	1262.106079	1207.716431	23.350845
226.775772	1198.428589	1261.140015	1204.298462	9.360133
227.151581	1191.592651	1265.152344	1203.183960	15.757690
227.527374	1192.558594	1260.322754	1200.360474	11.513284
227.903137	1188.471924	1273.474243	1205.264404	19.755320
228.278870	1188.992065	1284.248169	1199.394409	10.920396
228.654572	1186.911621	1300.000366	1197.536987	9.395600
229.030273	1183.939575	1312.111816	1194.416138	8.173816
229.405930	1187.729126	1317.461548	1197.314087	7.388254
229.781555	1192.856079	1320.730957	1197.462524	3.602307
230.157181	1197.982910	1324.891846	1192.781494	-4.098542
230.532761	1198.279907	1332.024902	1200.434692	1.611115
230.908325	1194.936401	1332.396362	1201.549316	4.810793
231.283859	1189.512207	1324.297363	1212.620361	17.144436
231.659332	1186.020020	1311.442993	1205.190063	15.284316
232.034821	1189.661011	1304.978638	1206.601929	14.690658
232.410263	1187.580444	1303.567017	1204.892944	14.926297
232.785690	1192.855957	1298.588745	1209.648315	15.881884
233.161087	1187.283203	1297.028198	1205.041626	16.181534
233.536469	1194.564819	1292.272827	1200.806274	6.387865
233.911804	1192.930176	1291.009766	1200.286255	7.500112
234.287140	1193.524536	1292.421509	1202.738281	9.316508
234.662430	1192.558594	1291.604248	1200.732056	8.252216
235.037704	1197.091064	1300.223267	1200.286255	3.098150
235.412933	1202.440918	1307.430786	1204.521484	1.981683
235.788162	1197.091187	1317.164307	1204.149780	5.878580
236.163345	1193.301758	1320.507935	1208.533691	11.974209
236.538513	1195.233521	1319.244751	1205.858765	8.567969
236.913635	1197.611206	1312.260376	1204.967163	6.416058
237.288742	1196.942505	1309.585571	1201.252197	3.825972
237.663834	1191.444214	1304.012817	1193.821899	2.112210
238.038879	1189.958130	1307.802124	1196.645386	5.674668
238.413910	1192.558716	1315.380981	1193.227417	0.544446
238.788910	1196.868286	1316.644165	1203.406860	5.459008
239.163879	1202.069458	1317.089966	1198.577271	-3.036143
239.538834	1201.846558	1314.638062	1194.044800	-6.916973
239.913757	1198.800171	1325.857666	1192.038452	-5.321779
240.288651	1200.954956	1341.238281	1196.793823	-2.966235
240.663528	1200.657715	1351.046387	1197.611206	-2.025757
241.038361	1196.793945	1366.798462	1195.084961	-1.005258
241.413177	1193.524536	1384.110962	1196.719604	1.676441
241.787979	1199.394531	1414.649536	1206.527710	3.313827
242.162735	1194.490601	1437.163208	1211.431641	6.981027
242.537476	1190.849731	1452.989624	1212.323120	8.191576
242.912170	1187.729004	1465.101074	1210.019775	8.036415
243.286865	1186.837280	1482.042114	1214.403687	9.338060
243.661514	1186.391602	1493.484741	1211.654419	8.226435
244.036148	1187.134644	1488.506470	1212.174561	8.308645
244.410751	1196.422485	1474.908813	1203.629761	2.588018
244.785339	1201.995117	1457.967896	1207.047729	1.973887
245.159882	1201.252075	1450.091797	1206.676147	2.179745
245.534378	1201.549194	1447.639771	1205.858765	1.751213
245.908890	1200.806274	1471.639648	1205.190063	1.618630
246.283356	1200.360474	1503.515625	1203.332642	0.980412
246.657791	1195.976685	1551.292114	1207.047729	3.115836
247.032196	1191.741333	1598.846069	1208.459351	4.106564
247.406586	1194.787720	1662.300415	1203.109497	1.780011
247.780960	1191.667114	1722.188477	1203.555420	2.240872
248.155289	1189.363647	1747.599976	1201.400757	2.156275
248.529602	1183.047852	1741.878784	1214.849487	5.690743
248.903870	1195.159302	1695.067993	1212.991943	3.567180
249.278122	1198.725830	1649.148804	1207.642212	1.979558
249.652344	1201.995117	1596.096680	1202.292236	0.075392
250.026550	1195.456543	1558.648071	1203.109497	2.107140
250.400711	1199.989136	1534.871460	1204.818604	1.442139
250.774857	1201.400757	1520.456665	1199.691772	-0.535638
251.148987	1197.759888	1518.004517	1201.252075	1.090475
251.523071	1190.255249	1513.769165	1202.292358	3.720739
251.897125	1186.837280	1524.766113	1211.282837	7.233936
252.271164	1195.159302	1534.574097	1209.053833	4.093673
252.645187	1201.177856	1558.127930	1205.487305	1.207297
253.019165	1196.645264	1576.852173	1200.954956	1.133512
253.393112	1194.787720	1585.099976	1200.954956	1.580078
253.767044	1195.307983	1572.914429	1197.091187	0.472239
254.140930	1201.475098	1541.781616	1191.295532	-2.991293
254.514801	1196.942505	1523.131470	1187.580444	-2.870134
254.888657	1196.125244	1503.738647	1192.187134	-1.280214
255.262466	1192.855835	1508.642578	1190.106689	-0.870570
255.636276	1192.038452	1503.589966	1196.125122	1.311716
256.010010	1192.781616	1508.493774	1193.524536	0.235316
256.383759	1195.159302	1519.861938	1198.205688	0.938208
256.757446	1196.050903	1540.221069	1205.413086	2.720219
257.131134	1190.775269	1566.895874	1222.502808	8.435470
257.504791	1188.546265	1589.409668	1227.406616	9.694163
257.878418	1192.187134	1620.319458	1214.775269	5.275970
258.252014	1190.849731	1657.099243	1205.413086	3.123511
258.625580	1193.821777	1694.027710	1201.400757	1.515172
258.999115	1196.496704	1755.401733	1203.332520	1.223073
259.372650	1199.840332	1837.803345	1200.509155	0.104837
259.746124	1190.478149	1936.105957	1205.784424	2.052804
260.119598	1183.122192	2027.572632	1207.641968	2.903637
260.493042	1179.852905	2101.429443	1211.208618	3.402399
260.866425	1188.620605	2141.181396	1209.573975	2.199688
261.239838	1191.295410	2115.547119	1212.248901	2.267076
261.613159	1198.948608	2026.160767	1211.282837	1.491060
261.986511	1194.639282	1921.914063	1207.865112	1.818547
262.359802	1194.862061	1844.342163	1202.069458	1.109718
262.733063	1191.146851	1812.466309	1203.704102	2.021062
263.106293	1197.685425	1800.875000	1200.509033	0.468113
263.479523	1194.564819	1787.277710	1204.447144	1.667304
263.852692	1197.314087	1784.156860	1201.400635	0.696362
264.225861	1195.010620	1772.862915	1204.818604	1.697317
264.598969	1203.852661	1773.754517	1206.527710	0.469388
264.972076	1204.447144	1764.764038	1211.505859	1.259772
265.345154	1204.372681	1772.045532	1213.512085	1.609977
265.718201	1201.474976	1786.683105	1209.128296	1.307795
266.091217	1197.091187	1816.329956	1201.029297	0.635960
266.464203	1191.146973	1851.846558	1200.583374	1.428244
266.837158	1188.843628	1894.124878	1204.447144	2.212382
267.210114	1190.255371	1932.836548	1206.230347	2.151277
267.583038	1194.342041	1960.328735	1207.567749	1.726624
267.955902	1189.958130	1966.272949	1212.694702	2.928782
268.328766	1188.174805	1969.913696	1215.889771	3.545297
268.701569	1189.586548	1969.022095	1217.895874	3.632029
269.074371	1193.598877	1982.842407	1210.762817	2.174733
269.447144	1195.679321	1986.185913	1209.499756	1.748301
269.819885	1195.307861	2008.030884	1206.156128	1.334805
270.192596	1201.549316	2029.504395	1202.218140	0.080780
270.565277	1202.218140	2077.132568	1197.239746	-0.569015
270.937927	1208.310791	2138.655273	1197.165405	-1.197985
271.310577	1201.846558	2206.642334	1196.273682	-0.554628
271.683136	1200.731934	2290.901611	1201.846558	0.102243
272.055725	1192.038452	2350.640869	1201.103394	0.782403
272.428284	1194.341919	2380.659180	1207.864990	1.139920
272.800812	1191.592773	2357.179443	1204.447144	1.102824
273.173279	1188.843384	2322.554443	1206.527710	1.559862
273.545776	1186.242798	2302.789795	1203.852905	1.577194
273.918152	1189.735229	2282.059326	1207.344971	1.612135
274.290558	1196.199585	2252.784180	1210.094116	1.315042
274.662964	1199.691772	2237.403564	1209.722534	0.966623
275.035278	1199.245972	2224.474854	1209.945435	1.043617
275.407593	1191.146851	2239.260986	1212.620361	2.048776
275.779907	1190.106567	2248.400391	1214.329224	2.288840
276.152161	1190.998169	2273.885986	1215.518188	2.264318
276.524384	1191.443970	2305.910889	1207.642090	1.453441
276.896606	1188.769287	2340.981689	1205.041626	1.412269
277.268799	1193.227417	2373.451904	1208.682495	1.309503
277.640930	1202.515259	2388.015137	1204.150024	0.137897
278.013031	1202.812378	2398.863281	1212.471802	0.807610
278.385162	1199.691772	2404.064697	1214.329346	1.215369
278.757233	1193.970337	2396.411377	1219.976440	2.162776
279.129272	1203.035522	2384.374268	1215.592529	1.062947
279.501282	1201.177856	2381.996582	1210.465576	0.786549
279.873230	1202.069458	2407.185303	1211.580200	0.789197
280.245178	1192.187134	2443.965088	1200.286133	0.647000
280.617126	1189.437988	2506.305176	1195.456543	0.457036
280.988983	1188.323364	2566.193115	1190.923950	0.188740
281.360870	1190.478149	2625.858154	1197.982788	0.522833
281.732697	1191.518433	2684.780273	1205.784546	0.955366
282.104492	1189.809448	2746.376953	1206.973267	1.102671
282.476288	1187.431763	2805.150391	1206.824707	1.198784
282.848053	1190.775391	2847.577393	1198.279907	0.452952
283.219757	1196.125244	2867.639404	1197.239746	0.066676
283.591461	1195.605103	2852.555908	1197.165527	0.094174
283.963135	1194.267700	2831.676758	1200.954956	0.408405
284.334747	1195.159302	2827.441406	1204.075562	0.546245
284.706360	1198.205688	2861.174805	1206.230347	0.482550
285.077942	1198.428589	2914.375732	1207.047729	0.502296
285.449524	1195.530762	2967.427734	1204.298462	0.494820
285.821014	1198.651489	3006.436768	1204.447144	0.320594
286.192535	1197.982788	3066.919189	1204.075562	0.326002
286.563995	1197.388428	3120.863037	1211.951782	0.757138
286.935425	1192.187256	3173.915039	1212.769043	1.038578
287.306824	1193.078735	3157.642578	1209.796997	0.850991
287.678223	1195.605103	3115.438721	1200.732056	0.267052
288.049561	1202.738159	3054.510498	1200.806274	-0.104326
288.420898	1202.663818	3007.105469	1198.502930	-0.230591
288.792145	1201.326294	2986.672119	1203.926880	0.145663
289.163452	1192.484253	2991.799072	1204.892944	0.689634
289.534668	1187.431641	3032.294189	1206.824829	1.051200
289.905914	1182.304810	3074.349365	1210.762939	1.504094
290.277039	1188.769165	3150.732422	1205.041626	0.829397
290.648193	1187.060181	3225.183594	1208.162231	1.035367
291.019318	1189.214966	3303.127197	1198.502808	0.439367
291.390381	1181.859131	3336.786377	1204.670044	1.058547
291.761475	1183.865356	3328.687500	1208.162231	1.132815
292.132507	1182.825073	3301.418701	1213.660645	1.455474
292.503510	1179.852905	3267.462158	1212.546021	1.566055
292.874481	1183.493652	3247.177734	1214.552246	1.505007
293.245422	1187.134644	3249.332275	1213.214844	1.264680
293.616364	1188.992188	3284.106201	1208.756714	0.943363
293.987213	1188.620605	3327.870361	1210.094116	1.003787
294.358093	1190.106689	3409.305908	1211.282959	0.954230
294.728943	1195.902344	3496.983154	1218.861816	0.997769
295.099731	1198.800049	3603.384521	1211.580200	0.531491
295.470490	1194.416138	3661.860596	1209.648315	0.617326
295.841248	1192.112793	3702.355713	1207.567749	0.615676
296.211975	1192.261475	3742.330811	1209.796875	0.687644
296.582642	1197.313965	3815.890625	1214.998047	0.675332
296.953308	1196.348145	3898.218018	1211.357300	0.555510
297.323883	1190.552612	3972.149170	1204.075562	0.486158
297.694519	1186.391602	4024.384033	1199.171509	0.450315
298.065063	1191.147095	4035.455078	1196.942505	0.203755
298.435608	1195.382202	3997.709229	1203.927002	0.304918
298.806122	1196.719604	3882.242920	1213.957764	0.641892
299.176575	1197.165405	3752.212891	1220.942261	0.930584
299.547028	1196.942505	3644.473877	1220.570679	0.965388
299.917450	1197.091187	3595.657227	1215.072388	0.749665
300.287872	1197.239746	3577.899170	1219.753418	0.945691
300.658234	1196.719604	3559.768799	1219.679199	0.971609
301.028564	1198.577271	3535.249023	1214.923706	0.699561
301.398865	1196.125244	3521.800049	1209.499634	0.575076
301.769135	1195.605103	3506.642578	1213.660522	0.781269
302.139374	1193.524536	3519.571289	1218.713135	1.082893
302.509583	1190.923950	3534.283203	1220.050537	1.242941
302.879791	1192.038452	3539.707764	1222.205444	1.284976
303.249939	1189.958008	3516.822266	1219.530396	1.270912
303.620087	1197.982788	3488.364014	1212.248901	0.622871
303.990173	1195.605103	3468.005127	1202.292358	0.294282
304.360260	1195.456421	3454.110352	1201.177734	0.253306
304.730286	1186.243042	3436.054932	1201.400757	0.673733
305.100281	1186.763062	3434.494385	1199.320190	0.558658
305.470276	1183.939575	3457.008057	1198.502808	0.640686
305.840179	1185.648560	3471.051514	1205.338745	0.861563
306.210144	1186.614502	3482.791260	1204.372803	0.773386
306.579987	1194.193359	3489.404297	1205.115845	0.475882
306.949890	1200.211914	3510.134766	1202.440796	0.096492
307.319702	1197.759766	3546.765869	1206.156006	0.357438
307.689484	1193.375977	3583.545898	1206.824829	0.562674
308.059265	1188.843628	3633.922852	1211.505981	0.926856
308.429016	1189.215088	3703.395752	1213.512085	0.966398
308.798737	1191.444092	3776.807373	1211.060181	0.758736
309.168396	1191.221191	3856.682861	1205.264526	0.526863
309.538055	1188.546265	3903.790771	1204.967285	0.604771
309.907684	1185.648560	3950.378174	1208.385132	0.822380
310.277313	1187.803345	3985.821045	1206.601929	0.671854
310.646851	1196.496704	4020.371826	1212.397583	0.563087
311.016388	1207.493530	4042.662842	1218.564575	0.390490
311.385895	1204.372681	4044.520264	1227.035034	0.797929
311.755371	1200.732056	4044.891602	1226.069214	0.890849
312.124817	1194.044800	4049.498291	1217.524414	0.822273
312.494232	1196.125244	4037.386963	1203.035278	0.243203
312.863617	1191.890015	4016.136719	1203.852661	0.423569
313.232971	1184.236694	3975.195557	1203.258179	0.681539
313.602295	1190.032349	3947.629150	1216.484131	0.959233
313.971619	1188.694946	3945.325928	1220.942261	1.169809
314.340820	1193.450317	3949.709717	1221.090942	1.002831
314.710083	1188.174927	3985.226563	1210.614258	0.802249
315.079285	1191.444214	4022.452148	1205.487427	0.496050
315.448486	1189.809570	4070.451904	1207.716431	0.621627
315.817596	1184.608276	4078.922607	1216.484253	1.101331
316.186707	1186.094360	4034.637939	1208.905273	0.800792
316.555786	1189.140747	3955.728516	1208.830933	0.711714
316.924866	1192.187134	3873.326904	1205.115845	0.482210
317.293884	1192.261353	3826.218750	1209.202515	0.643183
317.662872	1194.193359	3804.670898	1210.317017	0.617652
318.031830	1193.970459	3821.017334	1215.592529	0.823056
318.400757	1194.119019	3837.884033	1219.456177	0.958374
318.769684	1192.855957	3864.929932	1219.679077	1.003832
319.138550	1193.153076	3899.555420	1217.970093	0.916974
319.507416	1197.388306	3934.106201	1209.573853	0.445261
319.876190	1200.954834	3954.836670	1211.877319	0.396621
320.244995	1201.400757	3922.886475	1209.648315	0.303054
320.613770	1196.645264	3884.843018	1212.991821	0.608086
320.982483	1194.787720	3855.122314	1214.998169	0.759696
321.351166	1192.707275	3828.299072	1214.032104	0.809110
321.719818	1193.153198	3812.398438	1213.140503	0.763094
322.088440	1187.803345	3818.045166	1205.858887	0.686459
322.457062	1188.397705	3847.840820	1213.883667	0.958319
322.825623	1184.534058	3889.821533	1213.289185	1.062923
323.194183	1192.112793	3945.325928	1215.518188	0.850112
323.562653	1190.701050	4032.928955	1208.682251	0.632645
323.931183	1193.673218	4123.280762	1211.877319	0.621384
324.299591	1194.193359	4205.236816	1210.539917	0.542887
324.668060	1196.273804	4273.669922	1210.391479	0.458754
325.036407	1195.679321	4330.511230	1209.796997	0.450349
325.404755	1190.180908	4361.644043	1217.598755	0.864517
325.773102	1189.512329	4375.092773	1222.948486	1.049610
326.141388	1191.295532	4375.315918	1221.908203	0.961447
326.509674	1188.174805	4364.541992	1220.570801	1.019907
326.877899	1184.385376	4358.226074	1212.026001	0.870889
327.246124	1184.682617	4361.644043	1213.214844	0.898098
327.614288	1186.317261	4356.739746	1210.019897	0.747618
327.982422	1184.608276	4339.130371	1213.660645	0.920975
328.350525	1186.911743	4295.291504	1217.970215	0.999185
328.718628	1191.072632	4291.948242	1214.403687	0.752402
329.086700	1196.719604	4292.319336	1213.437622	0.540057
329.454712	1191.146973	4322.709473	1212.546021	0.683335
329.822693	1185.277100	4337.272461	1221.388062	1.145654
330.190674	1184.459717	4347.377441	1220.645020	1.144048
330.558563	1186.317261	4365.358887	1213.512085	0.855441
330.926483	1186.020142	4387.204102	1211.580078	0.798453
331.294312	1186.540283	4444.342773	1212.323120	0.791418
331.662231	1185.871460	4502.373535	1214.180786	0.853590
332.029999	1187.506226	4567.313965	1214.849609	0.809022
332.397766	1196.125122	4611.672363	1217.301636	0.620004
332.765503	1203.183960	4672.452637	1220.645142	0.503310
333.133240	1197.982910	4735.312500	1222.205444	0.684769
333.500916	1192.707275	4830.270996	1224.360229	0.870169
333.868561	1183.122192	4884.957520	1220.199341	1.001588
334.236176	1194.416138	4910.815430	1212.843384	0.495836
334.603790	1189.363647	4893.800293	1207.716431	0.495427
334.971344	1193.152954	4881.391602	1205.412964	0.332408
335.338867	1185.128418	4869.057129	1203.183960	0.490116
335.706360	1189.512207	4856.797363	1201.400757	0.324178
336.073853	1193.004517	4856.054199	1204.521362	0.314406
336.441284	1195.456543	4863.930176	1208.608032	0.358500
336.808655	1199.765991	4865.937012	1215.592407	0.431688
337.176086	1198.279907	4828.190918	1217.747314	0.536305
337.543396	1195.753784	4732.562988	1210.539917	0.418064
337.910706	1185.574219	4648.452637	1207.642212	0.637273
338.277954	1181.859131	4632.774414	1209.722534	0.807421
338.645264	1189.958130	4711.460938	1219.159058	0.829218
339.012421	1190.181030	4855.459961	1219.679321	0.804803
339.379669	1191.072632	4989.056152	1219.753540	0.755162
339.746796	1187.357422	5102.070801	1212.992065	0.654828
340.113953	1194.341919	5172.138184	1214.998047	0.519286
340.481018	1196.348022	5222.738281	1214.329468	0.446590
340.848114	1197.388428	5239.233887	1219.233398	0.540470
341.215118	1197.314087	5258.849609	1216.038452	0.461017
341.582153	1189.660889	5275.419434	1218.936157	0.716520
341.949066	1190.998291	5323.418457	1220.793823	0.721019
342.316010	1189.958130	5341.474121	1223.022827	0.796449
342.682922	1189.437866	5372.160645	1218.267456	0.689254
343.049835	1188.249023	5410.055176	1216.707031	0.674072
343.416656	1184.533936	5475.292969	1221.536743	0.862384
343.783478	1189.140747	5579.539551	1227.778198	0.880044
344.150269	1180.893066	5725.173340	1223.468628	0.936904
344.516998	1180.150024	5925.716309	1221.016602	0.861153
344.883728	1186.391479	6071.052246	1213.363403	0.552176
345.250427	1191.146973	6155.608887	1218.564575	0.552277
345.617065	1190.552490	6166.828125	1216.112671	0.513641
345.983704	1188.694946	6142.828613	1216.855713	0.568430
346.350281	1185.797241	6125.738770	1212.620483	0.542987
346.716827	1189.363647	6042.817871	1211.505859	0.456216
347.083405	1189.735229	5984.638184	1211.134277	0.446287
347.449860	1195.456421	5891.982910	1214.106445	0.397103
347.816376	1192.187134	5832.392090	1211.803101	0.422739
348.182770	1184.311035	5772.652832	1221.685425	0.814551
348.549194	1184.831177	5738.474121	1225.326172	0.889288
348.915558	1178.663940	5744.640625	1233.499390	1.200958
349.281921	1184.088135	5762.622559	1230.675903	1.017526
349.648193	1178.143921	5816.491699	1226.366333	1.039646
350.014526	1176.806519	5864.564941	1217.895874	0.876525
350.380737	1170.787964	5933.517578	1215.146606	0.931370
350.746948	1172.348267	6002.544922	1216.929810	0.922976
351.113159	1182.156372	6058.494629	1216.484253	0.703968
351.479309	1187.431763	6116.748535	1212.992065	0.518536
351.845428	1184.534058	6154.494629	1212.620483	0.565124
352.211517	1182.007690	6219.063965	1221.833984	0.790666
352.577576	1180.447388	6262.455566	1223.022827	0.837768
352.943604	1185.499878	6307.260254	1222.651245	0.725363
353.309601	1188.174683	6379.854004	1215.072388	0.518093
353.675537	1190.626831	6505.797363	1217.227173	0.500461
354.041473	1197.759888	6654.923340	1216.781372	0.348560
354.407379	1202.143677	6771.875488	1219.010376	0.302828
354.773254	1201.549194	6897.298828	1223.840210	0.391362
355.139038	1199.022949	7009.050293	1227.629517	0.492365
355.504913	1197.239746	7163.822266	1228.075317	0.516805
355.870636	1194.787720	7271.933105	1228.818481	0.559979
356.236389	1198.948730	7444.463379	1224.508911	0.409257
356.602081	1194.713501	7622.791016	1225.771973	0.483169
356.967804	1198.948730	7803.420410	1226.366333	0.415137
357.333405	1193.598877	7960.571777	1229.115601	0.524854
357.699036	1196.273804	8122.476563	1227.332397	0.448422
358.064606	1194.044678	8320.418945	1229.041382	0.491087
358.430176	1186.688721	8475.934570	1227.852539	0.564720
358.795654	1184.608276	8576.020508	1226.143433	0.561938
359.161163	1183.047974	8578.546875	1221.016602	0.513402
359.526581	1183.642334	8559.748047	1223.765747	0.543965
359.892029	1186.020020	8585.753906	1226.812134	0.551265
360.257416	1189.512207	8702.186523	1223.988647	0.458910
360.622772	1200.063354	8933.491211	1218.267456	0.235395
360.988098	1201.400757	9239.989258	1226.217773	0.308724
361.353394	1191.815674	9581.633789	1224.880371	0.394105
361.718658	1180.744507	9879.364258	1227.109375	0.533014
362.083893	1173.537231	10100.191406	1219.233276	0.511906
362.449097	1185.797119	10221.454102	1230.898804	0.499152
362.814209	1193.078857	10226.135742	1226.366577	0.368510
363.179382	1198.948730	10020.463867	1224.360229	0.288063
363.544434	1195.307861	9638.399414	1223.840210	0.337937
363.909546	1200.880493	9166.280273	1229.932983	0.364734
364.274536	1200.063110	8747.881836	1241.524292	0.549313
364.639587	1208.831055	8448.368164	1232.905151	0.332536
365.004517	1199.468872	8269.075195	1234.242554	0.491876
365.369507	1197.759888	8148.854004	1221.759766	0.345268
365.734344	1192.335815	8075.813965	1216.484253	0.350817
366.099274	1192.261475	8009.981934	1218.861938	0.390167
366.464081	1192.038452	7972.681641	1225.251831	0.489826
366.828918	1181.784668	7951.134277	1225.623413	0.647606
367.193665	1182.825073	7922.750488	1221.685303	0.576568
367.558411	1180.818848	7910.564941	1217.747192	0.548733
367.923126	1185.797241	7919.927246	1214.403687	0.424798
368.287781	1187.952026	7916.880859	1216.038330	0.417396
368.652435	1190.552612	7875.791504	1223.245605	0.489033
369.017059	1194.787720	7814.491699	1230.378784	0.537653
369.381653	1193.153076	7748.881348	1226.440796	0.507765
369.746185	1191.890015	7745.835449	1220.645142	0.438745
370.110687	1184.311035	7768.200684	1225.028931	0.618447
370.475220	1184.236816	7837.005371	1231.641724	0.712559
370.839661	1193.227539	7891.766113	1235.802734	0.635589
371.204041	1201.772339	7976.322754	1237.734741	0.530846
371.568451	1198.874390	8024.990723	1237.957642	0.572555
371.932770	1189.214966	8086.885254	1233.796753	0.646331
372.297150	1192.558594	8093.052246	1233.276611	0.590074
372.661377	1197.759766	8144.173340	1226.663696	0.416099
373.025696	1197.834106	8192.098633	1232.236328	0.491863
373.389862	1179.109863	8199.379883	1224.508789	0.646683
373.754059	1176.360718	8182.067871	1230.155762	0.767875
374.118225	1181.561890	8168.395996	1225.920532	0.634889
374.482361	1190.626831	8240.394531	1226.960815	0.515393
374.846436	1193.375977	8334.090820	1225.771973	0.453680
375.210510	1187.951904	8466.497070	1219.233398	0.429777
375.574524	1189.289429	8599.871094	1223.171387	0.457211
375.938538	1188.472046	8767.944336	1225.771973	0.492118
376.302460	1188.323364	8935.645508	1232.905151	0.575448
376.666412	1186.168579	9118.950195	1236.694458	0.636925
377.030304	1190.701050	9306.043945	1234.465454	0.539280
377.394196	1195.753662	9470.030273	1235.431274	0.479530
377.757996	1206.527588	9612.765625	1230.750366	0.288152
378.121796	1201.177734	9673.470703	1231.939087	0.363082
378.485565	1194.936401	9663.440430	1230.081543	0.415010
378.849304	1189.512329	9580.815430	1230.527344	0.488780
379.212982	1187.877563	9428.791992	1227.406738	0.479670
379.576630	1189.735229	9223.048828	1226.515015	0.457841
379.940277	1188.397705	9053.637695	1227.109375	0.492187
380.303864	1188.026123	8909.342773	1229.189819	0.533118
380.667450	1188.694824	8842.692383	1238.700684	0.653330
381.030945	1187.951782	8805.169922	1242.564331	0.716962
381.394501	1187.951782	8832.141602	1243.976196	0.732902
381.757935	1191.889893	8875.459961	1240.261108	0.629541
382.121399	1195.382202	8899.980469	1236.248779	0.530418
382.484741	1197.982910	8974.505859	1237.214722	0.504490
382.848145	1193.599121	9036.028320	1232.682007	0.498352
383.211487	1186.094360	9134.776367	1227.778076	0.524410
383.574768	1184.385376	9203.135742	1226.589355	0.526316
383.938019	1187.654663	9289.028320	1221.313843	0.415475
384.301270	1198.354370	9399.517578	1224.360229	0.317100
384.664459	1197.462769	9508.371094	1222.577026	0.302184
385.027649	1192.484375	9596.271484	1231.270386	0.461530
385.390778	1181.859009	9648.357422	1228.001099	0.544996
385.753876	1186.837280	9694.870117	1236.397339	0.582509
386.116943	1190.626831	9712.554688	1231.716187	0.482160
386.479980	1198.205688	9737.074219	1240.112427	0.490776
386.842987	1194.787720	9771.700195	1233.499390	0.451347
387.205994	1193.078735	9857.073242	1243.084473	0.577167
387.568909	1191.221313	9908.192383	1241.895630	0.581329
387.931793	1193.227417	9943.933594	1239.815308	0.532390
388.294678	1189.809448	10001.591797	1237.140259	0.537131
388.657471	1189.215088	10035.918945	1243.307373	0.611440
389.020294	1190.701172	10033.987305	1248.805786	0.657048
389.383057	1198.874390	10029.306641	1245.982300	0.533472
389.745819	1197.982788	10065.416992	1245.387817	0.534597
390.108521	1198.279907	10107.696289	1247.171265	0.548761
390.471191	1195.605103	10199.163086	1253.932617	0.647827
390.833801	1193.524536	10306.084961	1253.041138	0.653127
391.196442	1189.958008	10504.993164	1247.319824	0.615798
391.558960	1190.255371	10664.372070	1236.991821	0.493307
391.921509	1194.639160	10865.584961	1239.666626	0.465595
392.284027	1190.106812	11050.671875	1239.963745	0.505619
392.646484	1188.546265	11194.968750	1247.468384	0.588843
393.008911	1185.499878	11215.699219	1248.434326	0.627450
393.371307	1189.066406	11170.597656	1251.926514	0.629764
393.733673	1188.249146	11094.808594	1254.898560	0.672781
394.096008	1191.369873	11033.583008	1259.505493	0.692279
394.458344	1188.843628	11014.932617	1268.050293	0.806085
394.820587	1188.546265	11007.206055	1284.099487	0.973180
395.182831	1186.614380	11037.000000	1293.461670	1.084702
395.545013	1192.855957	10994.351563	1308.099365	1.175774
395.907196	1199.023071	10902.364258	1316.941406	1.215234
396.269287	1196.794067	10754.798828	1330.910400	1.403183
396.631409	1195.159302	10609.537109	1344.284790	1.584018
396.993469	1195.010742	10431.507813	1363.454956	1.823681
397.355530	1194.936401	10301.106445	1380.544556	2.038268
397.717499	1194.341919	10248.424805	1409.819824	2.379898
398.079468	1192.112793	10239.955078	1432.259277	2.654185
398.441376	1185.945679	10246.493164	1467.553101	3.108062
398.803284	1188.100464	10236.833984	1500.989258	3.457819
399.165131	1191.964233	10271.161133	1540.964233	3.843952
399.526978	1202.738159	10269.601563	1579.898804	4.159770
399.888763	1201.549194	10272.946289	1616.604126	4.575424
400.250519	1199.468750	10283.050781	1667.873047	5.156603
400.612244	1201.252075	10300.215820	1722.634277	5.730127
400.973938	1197.016724	10277.478516	1787.797852	6.506069
401.335602	1193.376099	10284.684570	1861.580444	7.349925
401.697205	1185.054199	10340.709961	1945.542480	8.306212
402.058807	1186.242798	10426.899414	2032.476563	9.157723
402.420349	1189.958130	10573.499023	2123.200195	9.945521
402.781860	1194.044800	10686.663086	2224.400146	10.854280
403.143341	1192.187256	10848.494141	2341.798584	11.905291
403.504822	1187.431763	10988.703125	2458.305420	12.966416
403.866241	1188.472046	11187.909180	2585.437500	13.970440
404.227631	1191.666992	11357.468750	2716.061768	14.995322
404.588959	1195.976563	11535.942383	2856.493896	16.059216
404.950287	1191.890015	11699.706055	2986.003662	17.074087
405.311554	1195.010742	11819.631836	3112.763916	18.050085
405.672821	1192.633057	11872.460938	3245.468506	19.221615
406.034027	1193.896118	11839.618164	3366.730469	20.410400
406.395203	1188.100464	11738.343750	3483.906250	21.760689
406.756348	1187.060303	11666.492188	3592.908203	22.957809
407.117493	1186.985962	11611.063477	3698.938232	24.097597
407.478516	1193.078857	11608.610352	3801.698486	25.045479
407.839600	1197.536987	11581.268555	3922.886475	26.246342
408.200592	1196.050903	11564.996094	4041.102295	27.438194
408.561554	1195.233521	11554.593750	4160.357910	28.622660
408.922485	1191.666870	11549.465820	4269.211426	29.712339
409.283417	1191.592651	11541.515625	4396.789063	30.968311
409.644257	1192.632935	11609.799805	4544.354492	32.174984
410.005096	1203.332520	11742.429688	4715.993652	33.329807
410.365906	1208.682373	11899.358398	4877.304688	34.316093
410.726715	1210.465698	12006.278320	5022.863770	35.313675
411.087433	1208.831055	12067.281250	5132.088379	36.130913
411.448120	1208.162231	12140.247070	5265.165527	37.110977
411.808807	1200.732056	12182.301758	5393.634766	38.181271
412.169434	1184.311035	12140.469727	5481.683594	39.223354
412.530029	1181.338989	12081.399414	5558.810059	40.160065
412.890564	1184.162476	12054.799805	5621.446777	40.818989
413.251099	1192.558716	12071.887695	5731.340332	41.719315
413.611572	1192.558716	12107.479492	5819.314453	42.389275
413.972076	1194.564819	12149.833008	5926.384766	43.192184
414.332489	1200.137573	12209.200195	6020.080566	43.781593
414.692871	1201.920776	12337.893555	6166.308594	44.579739
415.053223	1198.948608	12465.247070	6325.242188	45.501133
415.413574	1198.725708	12683.473633	6519.171875	46.326191
415.773834	1197.685547	12865.292969	6643.554688	46.675114
416.134094	1192.335815	13081.588867	6782.798340	47.021141
416.494263	1188.472046	13239.926758	6913.942871	47.508541
416.854462	1188.174927	13507.268555	7122.361816	48.170647
417.214630	1195.605103	13818.596680	7349.802246	48.753876
417.574738	1190.403809	14173.762695	7578.283203	49.200512
417.934784	1189.363525	14516.002930	7816.794922	49.730705
418.294861	1185.054077	14929.497070	8055.157715	49.984589
418.654846	1188.174805	15428.960938	8353.186523	50.313316
419.014832	1190.255371	15937.636719	8638.063477	50.502583
419.374756	1188.472046	16431.822266	8951.026367	50.924198
419.734680	1188.694946	16990.283203	9278.254883	51.194603
420.094543	1183.419434	17514.341797	9620.122070	51.660912
420.454376	1187.729004	18040.255859	9925.133789	51.846256
420.814148	1188.323486	18518.912109	10227.917969	52.159771
421.173920	1204.595703	19014.585938	10525.723633	52.336514
421.533691	1204.744263	19527.572266	10852.358398	52.653522
421.893341	1200.360474	19903.619141	11094.734375	52.901875
422.253021	1187.729004	20212.568359	11297.506836	53.139881
422.612640	1196.422485	20301.064453	11397.739258	53.397053
422.972260	1201.252075	20285.236328	11414.160156	53.515598
423.331757	1200.063232	20210.414063	11423.448242	53.777988
423.691315	1196.645386	20206.548828	11443.882813	53.904728
424.050781	1201.549316	20305.669922	11545.528320	54.145271
424.410248	1207.270630	20346.462891	11594.270508	54.270840
424.769653	1198.948730	20416.531250	11679.570313	54.536629
425.128998	1195.605103	20401.224609	11679.348633	54.586853
425.488373	1191.072632	20334.798828	11634.765625	54.554131
425.847656	1194.639160	20130.244141	11515.659180	54.505886
426.206940	1187.506104	19901.242188	11441.355469	54.793171
426.566193	1189.512207	19540.873047	11298.323242	55.084801
426.925385	1199.988892	19176.195313	11119.402344	55.180790
427.284576	1203.852661	18657.115234	10846.191406	55.246628
427.643677	1202.515259	18250.234375	10643.493164	55.379711
428.002777	1193.152954	17832.429688	10455.061523	55.662922
428.361847	1188.992188	17443.232422	10248.276367	55.734898
428.720856	1184.979858	17095.494141	10065.343750	55.814438
429.079865	1183.716675	16822.656250	9928.999023	55.919918
429.438812	1191.815552	16654.509766	9839.538086	55.926365
429.797760	1191.518433	16509.173828	9771.328125	56.012550
430.156616	1190.329590	16319.776367	9659.799805	55.980042
430.515503	1182.527832	16159.207031	9598.351563	56.192856
430.874268	1183.567993	16085.350586	9591.291992	56.420925
431.233093	1183.419434	16079.703125	9628.889648	56.695152
431.591827	1187.729004	16148.433594	9688.704102	56.822018
431.950562	1188.917847	16167.975586	9691.082031	56.760342
432.309204	1186.168579	16250.823242	9726.152344	56.688877
432.667877	1187.357422	16371.192383	9786.486328	56.633446
433.026459	1193.227417	16552.640625	9874.237305	56.519150
433.385010	1203.852661	16651.685547	9962.508789	56.698284
433.743561	1203.704102	16776.513672	10058.582031	56.861145
434.102051	1198.354370	16928.685547	10166.840820	57.013969
434.460510	1192.038574	17123.431641	10266.035156	56.956703
434.818939	1188.100586	17222.255859	10301.848633	56.839588
435.177338	1192.781616	17219.804688	10332.536133	57.027153
435.535675	1188.694824	17169.054688	10324.214844	57.167171
435.894012	1190.181030	17084.052734	10301.924805	57.328663
436.252289	1190.998169	17089.253906	10315.966797	57.396038
436.610535	1192.855835	17046.603516	10307.272461	57.490612
436.968719	1195.010742	17179.531250	10409.215820	57.644550
437.326935	1196.273926	17294.255859	10495.704102	57.767673
437.685028	1198.948730	17493.611328	10590.515625	57.635845
438.043152	1199.691772	17632.035156	10647.877930	57.497498
438.401215	1194.639160	17856.056641	10758.663086	57.402218
438.759277	1190.106689	18091.375000	10888.840820	57.384655
439.117249	1190.106689	18508.064453	11143.252930	57.472984
439.475250	1195.382202	18822.884766	11332.948242	57.509945
439.833130	1197.239746	19234.820313	11588.327148	57.607994
440.191071	1198.354248	19455.275391	11736.784180	57.722927
440.548889	1201.326294	19750.035156	11900.174805	57.679749
440.906708	1204.595703	20056.533203	12065.202148	57.610027
441.264496	1197.834106	20304.259766	12181.039063	57.484352
441.622223	1184.756836	20479.093750	12277.112305	57.490215
441.979950	1186.168579	20496.033203	12305.200195	57.582127
442.337616	1188.620605	20552.876953	12351.117188	57.644848
442.695251	1194.564941	20461.855469	12326.968750	57.778774
443.052887	1194.341919	20345.498047	12257.792969	57.769104
443.410461	1194.119019	20174.898438	12194.191406	57.953743
443.768005	1192.707153	20045.314453	12104.656250	57.880318
444.125458	1192.707275	19934.529297	12055.764648	57.961586
444.482941	1198.948608	19915.431641	12043.429688	57.940811
444.840393	1205.635986	19999.246094	12133.336914	58.145836
445.197754	1202.589478	20241.400391	12318.648438	58.386307
445.555084	1202.515259	20518.919922	12489.543945	58.432346
445.912415	1202.589478	20900.537109	12681.542969	58.274868
446.269714	1200.954956	21174.640625	12832.153320	58.232609
446.626953	1195.085083	21490.650391	13015.458008	58.241165
446.984161	1198.057007	21761.630859	13220.309570	58.463829
447.341309	1198.354370	22002.224609	13374.190430	58.526779
447.698456	1195.456421	22144.365234	13475.911133	58.620979
448.055542	1187.134521	22287.546875	13549.768555	58.589539
448.412598	1185.871460	22262.431641	13558.909180	58.705204
448.769653	1188.100464	22143.474609	13499.317383	58.749683
449.126617	1188.472046	21778.425781	13300.261719	58.823788
449.483582	1195.902222	21506.253906	13122.676758	58.722637
449.840515	1197.462646	21158.515625	12917.378906	58.713917
450.197388	1192.335693	20900.759766	12773.454102	58.762276
450.554230	1194.119019	20661.876953	12682.879883	59.014297
450.911041	1196.348145	20464.232422	12599.363281	59.181461
451.267822	1201.846436	20283.304688	12522.980469	59.330547
451.624573	1195.307739	20069.164063	12363.972656	59.175323
451.981262	1194.861938	19927.025391	12297.398438	59.269905
452.337921	1188.694946	19749.365234	12198.054688	59.315529
452.694580	1186.985962	19615.027344	12130.663086	59.386002
453.051147	1184.756958	19566.656250	12102.426758	59.393593
453.407715	1181.561890	19469.689453	12022.254883	59.277222
453.764221	1179.035522	19502.904297	12043.059570	59.288921
454.120728	1182.899292	19252.427734	11890.664063	59.258682
454.477142	1186.465942	19210.894531	11887.097656	59.367386
454.833557	1187.134521	19020.753906	11802.245117	59.523029
455.189911	1184.682495	18877.126953	11730.765625	59.607830
455.546265	1185.425659	18629.697266	11606.307617	59.738132
455.902557	1190.701050	18450.779297	11511.645508	59.796627
456.258820	1192.038452	18419.498047	11516.176758	59.928391
456.615051	1198.577271	18497.513672	11585.577148	60.044155
456.971252	1197.314087	18513.041016	11582.902344	59.977776
457.327393	1197.239746	18744.939453	11720.882813	59.971638
457.683502	1197.314087	18999.947266	11884.050781	60.028965
458.039612	1199.468750	19491.087891	12166.328125	59.955650
458.395630	1192.038452	19929.253906	12435.006836	60.003414
458.751648	1187.431763	20402.785156	12701.231445	59.919792
459.107605	1184.756836	21065.044922	13128.695313	60.079300
459.463562	1181.710449	21724.853516	13488.543945	59.907261
459.819458	1187.431763	22339.039063	13831.971680	59.780518
460.175323	1186.688843	22813.833984	14109.566406	59.753048
460.531158	1194.267578	23304.009766	14426.468750	59.847832
460.886932	1187.951904	23619.498047	14657.102539	60.045570
461.242676	1183.939575	23773.601563	14753.846680	60.071316
461.598419	1186.020020	23607.091797	14678.502930	60.177685
461.954102	1188.917847	23261.359375	14491.557617	60.268093
462.309723	1195.456543	22688.708984	14148.575195	60.265980
462.665344	1201.177734	22049.775391	13766.882813	60.271225
463.020905	1204.447144	21456.396484	13430.067383	60.367622
463.376373	1201.623657	20965.033203	13154.034180	60.477470
463.731873	1192.484253	20546.187500	12910.468750	60.546471
464.087341	1183.270752	20269.412109	12728.575195	60.490513
464.442749	1184.162476	20066.416016	12653.382813	60.740738
464.798126	1187.060181	19931.109375	12570.238281	60.729557
465.153503	1189.363647	19974.279297	12606.200195	60.776619
465.508820	1185.351196	20038.849609	12617.122070	60.634747
465.864105	1184.311157	20240.431641	12735.561523	60.617004
466.219330	1187.283203	20501.087891	12872.425781	60.501507
466.574524	1193.078857	20703.708984	12995.323242	60.491352
466.929657	1191.072632	20853.578125	13119.481445	60.665764
467.284790	1191.221191	20993.492188	13222.540039	60.757263
467.639893	1192.187134	21143.509766	13310.737305	60.740585
467.994934	1197.834229	21294.865234	13409.784180	60.764946
468.349945	1197.685547	21318.044922	13444.186523	60.866215
468.704926	1198.874390	21277.921875	13412.309570	60.826771
469.059875	1200.880493	21083.470703	13297.067383	60.838081
469.414764	1200.731812	20864.724609	13152.844727	60.781723
469.769653	1194.044556	20672.429688	13059.000000	60.913445
470.124451	1189.289185	20564.466797	13007.062500	60.994400
470.479248	1186.837280	20408.431641	12913.515625	61.007839
470.834015	1187.431763	20284.123047	12860.390625	61.125557
471.188721	1192.632935	20325.955078	12855.040039	60.953384
471.543365	1196.050903	20419.949219	12914.257813	60.956455
471.898010	1204.670044	20584.455078	13015.012695	60.941555
472.252625	1196.273804	20746.210938	13133.972656	61.062595
472.607178	1196.199585	21004.337891	13303.308594	61.121895
472.961700	1190.255249	21198.267578	13424.718750	61.147823
473.316193	1200.360474	21427.419922	13587.887695	61.242355
473.670654	1204.372681	21546.673828	13665.831055	61.258842
474.025055	1206.007446	21781.841797	13814.807617	61.279655
474.379456	1196.496704	21943.154297	13898.101563	61.222412
474.733795	1189.066528	22133.888672	14054.062500	61.423275
475.088104	1184.236694	22259.681641	14139.289063	61.469887
475.442383	1191.592773	22292.154297	14184.315430	61.575245
475.796570	1193.375977	22403.533203	14214.780273	61.392307
476.150787	1197.834106	22598.650391	14341.539063	61.416840
476.504944	1189.809448	22869.857422	14493.117188	61.361980
476.859070	1186.391602	23143.068359	14675.233398	61.433899
477.213135	1183.939575	23397.851563	14826.215820	61.413208
477.567200	1187.357544	23878.367188	15084.492188	61.245113
477.921173	1194.044800	24267.937500	15326.125000	61.247055
478.275146	1197.982788	24781.220703	15623.856445	61.170029
478.629089	1201.177856	25065.281250	15820.164063	61.259315
478.983002	1198.800171	25522.615234	16087.801758	61.211624
479.336823	1199.914673	25902.375000	16333.297852	61.262653
479.690643	1198.131348	26434.603516	16605.765625	61.053043
480.044403	1201.029175	26999.603516	16931.583984	60.974510
480.398163	1199.989014	27726.062500	17390.625000	61.036682
480.751862	1200.434814	28640.357422	17993.666016	61.199993
481.105499	1198.205688	29801.708984	18763.814453	61.410690
481.459137	1191.666992	31363.029297	19725.587891	61.428852
481.812744	1182.453369	33313.847656	20971.570313	61.588104
482.166290	1185.722778	35658.246094	22447.818359	61.678387
482.519806	1196.645386	38424.316406	24205.226563	61.805054
482.873291	1201.920898	41492.273438	26132.193359	61.876534
483.226715	1197.239746	44907.968750	28266.462891	61.928097
483.580139	1193.673218	48077.050781	30338.841797	62.165245
483.933502	1194.490601	50999.972656	32417.978516	62.690868
484.286804	1197.239746	53370.605469	34298.285156	63.444336
484.640106	1193.896118	55267.406250	35999.371094	64.366959
484.993347	1198.354370	56492.355469	37279.386719	65.253067
485.346558	1200.211792	56989.519531	37901.816406	65.786095
485.699738	1200.583374	56829.097656	37797.421875	65.787910
486.052887	1196.199463	56130.207031	37146.902344	65.443436
486.405975	1193.004517	55109.812500	36207.714844	64.942108
486.759064	1187.877563	53815.156250	35067.019531	64.375626
487.112061	1194.416138	52516.050781	33902.175781	63.730942
487.464996	1192.410034	51351.128906	32911.128906	63.236702
487.817963	1194.861938	50636.113281	32354.898438	63.024372
488.170868	1187.877563	50270.546875	31976.625000	62.728352
488.523743	1191.666992	50230.718750	31815.681641	62.448223
488.876587	1194.936401	50122.832031	31699.697266	62.346359
489.229401	1200.434692	49862.031250	31611.423828	62.494843
489.582153	1198.800171	49301.718750	31353.666016	62.688225
489.934845	1198.651489	48574.667969	30842.244141	62.570885
490.287537	1201.623657	47780.738281	30291.287109	62.452164
490.640198	1201.029175	47069.582031	29778.005859	62.301891
490.992798	1200.360474	46402.125000	29307.000000	62.180401
491.345337	1192.261353	45962.769531	28951.312500	62.002983
491.697876	1193.301758	45570.453125	28667.400391	61.910458
492.050354	1192.632935	45538.277344	28662.869141	61.945736
492.402832	1192.261353	45469.105469	28627.203125	61.962280
492.755219	1189.586548	45234.824219	28477.484375	61.954254
493.107605	1188.694946	44622.203125	28054.404297	61.854797
493.459930	1188.769165	43617.703125	27446.531250	61.886452
493.812225	1191.444214	42237.976563	26613.376953	61.934425
494.164490	1191.221313	40533.246094	25579.677734	61.990856
494.516724	1186.763062	38682.589844	24436.751953	62.006866
494.868896	1185.202637	36854.890625	23257.716797	61.880310
495.221039	1185.425537	35276.035156	22246.904297	61.780880
495.573120	1197.239746	33902.472656	21369.091797	61.677750
495.925201	1201.623657	33037.886719	20823.486328	61.633686
496.277222	1210.614258	32479.724609	20449.595703	61.527115
496.629211	1198.874390	32256.744141	20275.056641	61.421413
496.981140	1195.902344	32131.171875	20142.576172	61.246189
497.333069	1187.134521	32124.187500	20139.306641	61.260429
497.684967	1187.803223	32122.923828	20142.353516	61.271946
498.036804	1193.673218	32135.705078	20209.375000	61.455891
498.388580	1196.868286	32045.203125	20127.640625	61.367241
498.740326	1201.400757	31906.554688	20036.695313	61.342453
499.092072	1199.245972	31611.943359	19822.703125	61.235794
499.443756	1193.598877	31315.845703	19682.123047	61.378304
499.795410	1187.729004	30982.748047	19506.544922	61.482815
500.147003	1179.258423	30663.843750	19304.515625	61.473671
500.498566	1181.636108	30249.455078	19059.912109	61.505390
500.850098	1186.614380	29835.218750	18804.607422	61.496861
501.201599	1186.391602	29451.666016	18615.802734	61.663689
501.553009	1188.323364	29125.328125	18420.833984	61.683456
501.904449	1189.363647	28922.111328	18271.412109	61.595226
502.255859	1198.502808	28717.037109	18097.990234	61.411293
502.607178	1197.611206	28630.322266	18025.171875	61.341225
502.958405	1205.115845	28489.296875	17950.572266	61.374233
503.309692	1200.286133	28425.025391	17923.822266	61.427715
503.660919	1197.611206	28373.830078	17892.541016	61.432129
504.012115	1182.602173	28383.865234	17872.107422	61.355625
504.363251	1181.190308	28437.806641	17922.634766	61.421581
504.714294	1183.865234	28488.630859	17958.001953	61.432999
505.065369	1194.267700	28519.984375	17985.865234	61.449799
505.416443	1195.233521	28518.201172	17976.652344	61.418724
505.767395	1195.084961	28519.759766	17977.023438	61.416786
506.118317	1186.985962	28456.900391	17978.955078	61.576904
506.469238	1189.066406	28489.296875	17992.552734	61.550713
506.820160	1190.106689	28490.486328	17995.375000	61.556904
507.170929	1195.382202	28570.585938	18011.720703	61.429089
507.521729	1183.790894	28589.533203	18047.236328	61.532524
507.872498	1184.905396	28690.880859	18117.306641	61.558990
508.223236	1190.106567	28860.587891	18220.365234	61.546665
508.573883	1201.995117	29079.412109	18326.470703	61.427773
508.924500	1200.731934	29276.609375	18417.044922	61.320660
509.275116	1197.685547	29428.412109	18519.804688	61.359097
509.625702	1192.707153	29622.859375	18621.376953	61.303471
509.976196	1188.397705	29880.990234	18784.396484	61.325928
510.326660	1184.236816	30155.166016	18910.710938	61.187111
510.677124	1185.796997	30384.611328	19078.560547	61.279076
511.027557	1195.159302	30530.244141	19173.294922	61.285439
511.377869	1197.091064	30751.740234	19308.826172	61.282185
511.728180	1198.205688	30929.619141	19391.300781	61.191490
512.078430	1190.701050	31087.142578	19476.898438	61.165131
512.428650	1189.660889	31187.525391	19551.572266	61.210728
512.778931	1183.642456	31262.275391	19595.634766	61.212864
513.129028	1182.676392	31323.724609	19651.435547	61.274445
513.479126	1184.905518	31350.994141	19672.833984	61.287125
513.829285	1195.605103	31277.210938	19668.451172	61.409107
514.179382	1199.543091	31193.992188	19621.787109	61.418846
514.529297	1202.663818	31083.650391	19567.474609	61.459854
514.879272	1198.502930	31123.103516	19563.164063	61.369774
515.229187	1198.800171	31026.658203	19520.216797	61.423843
515.579163	1191.741333	31075.552734	19551.943359	61.438622
515.928955	1193.227417	31058.388672	19551.349609	61.470028
516.278748	1196.645386	31310.794922	19667.410156	61.335835
516.628540	1200.880493	31580.365234	19824.486328	61.303230
516.978333	1204.521362	32052.337891	20132.619141	61.359604
517.327942	1192.038574	32556.851563	20423.367188	61.314980
517.677612	1196.199585	33111.820313	20744.427734	61.249722
518.027222	1189.289429	33628.222656	21029.974609	61.163185
518.376831	1197.239746	34249.613281	21444.955078	61.259487
518.726379	1193.301636	34762.527344	21789.197266	61.353504
519.075867	1192.261475	35272.394531	22061.369141	61.235405
519.425293	1190.626831	35616.785156	22257.601563	61.194668
519.774658	1181.710449	35901.515625	22390.900391	61.086720
520.124084	1182.602051	36011.929688	22486.232422	61.165783
520.473389	1179.555542	35945.429688	22458.962891	61.207745
520.822693	1181.115967	35679.722656	22360.734375	61.392681
521.171997	1186.911621	35323.218750	22183.447266	61.507927
521.521240	1195.902344	34904.964844	21943.228516	61.548214
521.870361	1203.332642	34518.144531	21679.677734	61.463188
522.219482	1195.084839	34135.933594	21414.789063	61.381859
522.568604	1187.877563	33831.371094	21205.998047	61.323463
522.917664	1190.255249	33665.671875	21066.607422	61.204300
523.266724	1198.057129	33716.941406	21061.701172	61.083412
523.615662	1200.657593	33896.085938	21172.931641	61.085831
523.964600	1196.496704	34255.566406	21427.343750	61.196056
524.313538	1199.171631	34748.933594	21743.056641	61.234070
524.662354	1198.279907	35397.152344	22150.978516	61.267223
525.011169	1194.639160	36269.089844	22634.318359	61.126205
525.359985	1184.608276	37217.566406	23233.345703	61.190475
525.708740	1185.351196	38407.000000	23898.654297	61.021755
526.057434	1190.552490	39685.007813	24690.421875	61.047409
526.406067	1196.571045	41259.406250	25646.103516	61.027966
526.754700	1196.868164	43039.777344	26744.296875	61.055576
527.103333	1196.348145	45008.730469	28066.888672	61.330929
527.451782	1191.741333	47108.968750	29475.146484	61.596500
527.800293	1186.020020	49143.449219	30878.576172	61.914402
528.148743	1185.648438	51076.285156	32253.771484	62.272453
528.497131	1183.642456	52769.937500	33524.570313	62.692867
528.845642	1185.425659	54124.480469	34623.582031	63.163494
529.193909	1183.270874	55173.707031	35526.285156	63.609440
529.542175	1185.574219	55840.425781	36230.457031	64.120354
529.890503	1188.026245	56193.957031	36675.824219	64.516312
530.238770	1193.227417	56118.988281	36696.183594	64.638077
530.586914	1200.732056	55699.769531	36337.152344	64.471634
530.934998	1196.868286	54910.300781	35624.070313	64.094215
531.283142	1189.437988	53879.355469	34748.335938	63.691307
531.631226	1186.763184	52532.468750	33641.746094	63.208755
531.979248	1187.208984	50958.511719	32424.218750	62.761082
532.327148	1187.134644	49316.050781	31099.107422	62.149689
532.675110	1184.831177	47841.218750	29960.416016	61.675552
533.023071	1187.357544	46835.386719	29240.427734	61.455166
533.370850	1189.958130	46185.750000	28830.197266	61.428493
533.718689	1194.713501	46025.703125	28704.552734	61.363449
534.066467	1200.360474	46054.015625	28623.562500	61.139278
534.414246	1200.063354	46149.640625	28567.390625	60.884506
534.761963	1198.651489	46113.675781	28501.111328	60.786919
535.109619	1201.920776	45973.843750	28442.337891	60.842636
535.457153	1204.447144	45632.792969	28250.265625	60.875137
535.804749	1205.487183	45094.843750	27884.921875	60.787941
536.152344	1195.010620	44276.027344	27371.787109	60.761745
536.499817	1192.484375	43374.066406	26795.046875	60.696072
536.847229	1185.648560	42300.464844	26169.490234	60.766029
537.194641	1187.952026	41343.593750	25558.648438	60.690594
537.542114	1188.620605	40532.503906	25053.541016	60.657257
537.889404	1189.735229	39933.332031	24627.416016	60.494335
538.236694	1188.992065	39428.292969	24298.697266	60.434433
538.583984	1186.094360	39068.296875	24117.177734	60.532604
538.931213	1179.184204	38948.746094	24067.841797	60.600803
539.278381	1182.825073	38930.687500	24059.814453	60.604729
539.625488	1182.081909	39066.886719	24114.130859	60.530994
539.972595	1193.376099	39317.511719	24271.205078	60.533379
540.319641	1188.992065	39846.621094	24650.968750	60.691711
540.666687	1196.868286	40537.261719	25097.156250	60.752537
541.013611	1189.735229	41506.464844	25686.896484	60.761776
541.360596	1189.437988	42589.425781	26239.560547	60.507561
541.707458	1188.249146	43753.675781	26917.724609	60.446888
542.054260	1199.691772	44811.082031	27538.595703	60.394554
542.401062	1205.710327	45728.425781	28127.220703	60.466911
542.747864	1199.543091	46354.277344	28499.849609	60.459457
543.094666	1192.261353	46542.332031	28623.859375	60.488544
543.441284	1189.066406	46243.859375	28448.953125	60.503857
543.787903	1187.357544	45619.488281	28064.734375	60.490860
544.134460	1189.586548	44665.519531	27466.000000	60.438988
544.481079	1187.580444	43511.230469	26743.703125	60.382610
544.827637	1194.787720	42058.535156	25850.365234	60.336071
545.174072	1190.998413	40494.460938	24866.373047	60.237381
545.520508	1193.078735	38985.968750	23956.978516	60.233288
545.866943	1192.409912	37707.222656	23151.166016	60.136570
546.213318	1193.896118	36684.371094	22555.333984	60.189209
546.559631	1195.679443	35888.066406	22039.302734	60.081261
546.905823	1198.577271	35163.761719	21575.207031	59.992695
547.252136	1196.348145	34579.667969	21157.845703	59.794827
547.598389	1194.713501	34016.003906	20783.066406	59.681854
547.944458	1192.038574	33575.019531	20502.722656	59.632198
548.290588	1192.410156	32968.562500	20193.400391	59.796383
548.636658	1198.428589	32392.642578	19871.892578	59.861950
548.982727	1194.713501	31723.025391	19482.470703	59.904255
549.328735	1198.131348	31159.960938	19103.005859	59.758949
549.674622	1185.202637	30452.970703	18656.447266	59.694489
550.020569	1182.453491	29748.876953	18246.816406	59.735737
550.366455	1180.521606	28950.421875	17793.345703	59.823132
550.712280	1184.905396	28276.271484	17425.250000	59.946571
551.058044	1188.100586	27702.802734	17089.923828	59.973606
551.403748	1184.088257	27268.947266	16824.513672	59.959785
551.749512	1186.985962	26932.880859	16629.914063	59.982098
552.095154	1187.283203	26684.412109	16461.841797	59.906975
552.440735	1191.072632	26570.947266	16400.914063	59.928749
552.786316	1190.923950	26496.273438	16326.833008	59.813080
553.131897	1197.239868	26473.908203	16308.629883	59.783947
553.477417	1195.382202	26453.400391	16235.664063	59.546566
553.822815	1200.806274	26416.919922	16206.760742	59.509384
554.168213	1194.416382	26381.849609	16191.083008	59.540276
554.513672	1187.506104	26271.955078	16148.656250	59.643127
554.859009	1181.116089	26126.250000	16060.458008	59.648273
555.204285	1182.379272	25918.500000	15925.153320	59.600185
555.549500	1196.496704	25726.130859	15810.059570	59.575134
555.894714	1199.766113	25533.460938	15677.278320	59.495739
556.239990	1201.400757	25317.984375	15502.445313	59.299629
556.585022	1208.905396	25047.593750	15323.375000	59.208252
556.930115	1201.623657	24765.615234	15155.229492	59.215797
557.275146	1191.444092	24438.388672	14992.877930	59.368805
557.620178	1181.859009	24240.593750	14852.444336	59.285931
557.965149	1186.317139	24020.507813	14720.112305	59.269867
558.310059	1196.719604	23873.017578	14633.920898	59.256588
558.654968	1191.889771	23698.927734	14570.764648	59.443077
558.999756	1191.815552	23586.208984	14489.179688	59.378098
559.344604	1185.945679	23539.177734	14456.040039	59.365440
559.689331	1188.546265	23461.603516	14393.253906	59.285568
560.033997	1188.917847	23393.990234	14366.801758	59.346279
560.378723	1196.273804	23334.099609	14342.504883	59.383572
560.723389	1196.199585	23307.796875	14314.046875	59.325645
561.067932	1196.570923	23311.068359	14310.109375	59.298374
561.412476	1203.926880	23239.884766	14262.407227	59.259876
561.757019	1199.988892	23193.669922	14238.854492	59.284595
562.101501	1197.314087	23184.009766	14206.977539	59.170616
562.445862	1190.552490	23197.755859	14168.489258	58.971313
562.790222	1199.097290	23224.505859	14146.643555	58.784592
563.134644	1195.233521	23211.054688	14116.550781	58.691055
563.478943	1193.821777	23241.443359	14135.573242	58.699085
563.823181	1181.784668	23236.539063	14146.346680	58.783527
564.167358	1187.060181	23265.814453	14166.557617	58.787273
564.511536	1176.509277	23339.302734	14191.671875	58.725281
564.855774	1180.670288	23410.781250	14211.434570	58.617630
565.199768	1179.630005	23524.912109	14273.331055	58.597164
565.543823	1187.060181	23615.484375	14329.428711	58.596931
565.887817	1195.084961	23824.052734	14423.718750	58.458843
566.231812	1205.710205	24010.328125	14501.512695	58.303116
566.575745	1212.694702	24150.759766	14565.562500	58.212708
566.919617	1207.790771	24251.515625	14635.926758	58.272419
567.263428	1200.806274	24326.859375	14699.528320	58.370193
567.607239	1191.741333	24455.255859	14765.734375	58.348850
567.950989	1197.016846	24462.166016	14803.850586	58.485912
568.294678	1193.598999	24469.818359	14826.440430	58.569832
568.638367	1195.753662	24435.640625	14792.036133	58.504082
568.981995	1192.484375	24397.818359	14729.622070	58.336319
569.325623	1190.701050	24279.900391	14642.985352	58.262238
569.669128	1198.057007	24107.218750	14550.553711	58.284527
570.012573	1197.462646	23969.984375	14489.625000	58.369305
570.356140	1203.629761	23908.384766	14451.136719	58.346836
570.699524	1198.651489	23881.265625	14422.084961	58.297665
571.042908	1195.456543	23911.134766	14431.520508	58.268410
571.386230	1188.620605	23980.757813	14423.049805	58.065769
571.729492	1189.883789	24080.322266	14495.570313	58.127708
572.072815	1195.530762	24155.367188	14538.441406	58.114136
572.416016	1193.152954	24237.398438	14579.531250	58.089893
572.759094	1195.902344	24339.044922	14604.570313	57.937973
573.102234	1186.317261	24462.166016	14619.135742	57.711399
573.445374	1191.667114	24532.751953	14627.752930	57.564106
573.788391	1177.772461	24543.898438	14616.608398	57.514183
574.131409	1179.184204	24545.458984	14616.014648	57.505230
574.474365	1177.846680	24530.375000	14620.695313	57.564854
574.817261	1181.041748	24462.462891	14576.262695	57.536095
575.160156	1187.729004	24293.201172	14457.823242	57.432686
575.502930	1187.951782	24065.537109	14324.968750	57.423088
575.845703	1186.168579	23866.851563	14193.379883	57.349289
576.188477	1193.895996	23668.685547	14091.289063	57.386044
576.531250	1200.954956	23447.708984	13939.265625	57.259186
576.873901	1204.892944	23158.671875	13806.633789	57.401237
577.216431	1192.855835	22908.865234	13642.945313	57.331387
577.559082	1191.072632	22646.353516	13499.987305	57.370094
577.901611	1200.434692	22346.171875	13306.502930	57.250637
578.244080	1202.217896	21991.822266	13119.631836	57.323914
578.586487	1198.131348	21639.181641	12920.351563	57.346470
578.928955	1203.035400	21287.060547	12728.725586	57.387352
579.271301	1211.357300	20994.158203	12553.445313	57.333073
579.613647	1215.443848	20660.019531	12364.864258	57.339485
579.955872	1208.756714	20338.064453	12201.695313	57.466469
580.298157	1203.629761	20019.380859	12016.831055	57.468876
580.640320	1206.081787	19760.361328	11868.745117	57.467407
580.982483	1205.487305	19584.710938	11744.660156	57.342865
581.324524	1207.122070	19360.613281	11615.893555	57.337570
581.666626	1198.800171	19215.427734	11513.355469	57.250202
582.008728	1196.719727	19068.603516	11425.901367	57.236172
582.350647	1194.341919	18970.375000	11357.096680	57.171108
582.692566	1196.719727	18852.755859	11287.995117	57.154823
583.034424	1182.750732	18738.328125	11217.036133	57.157246
583.376343	1178.664185	18652.955078	11158.559570	57.111877
583.718201	1178.218262	18593.289063	11112.046875	57.041561
584.059937	1193.747681	18539.345703	11052.159180	56.835236
584.401611	1190.924194	18410.208984	10992.938477	56.924633
584.743347	1187.803345	18320.970703	10964.481445	57.062874
585.085022	1179.109863	18221.404297	10923.390625	57.177048
585.426514	1182.973633	18183.138672	10880.221680	57.042084
585.768127	1184.979858	18104.302734	10814.834961	56.916321
586.109619	1191.221191	18055.783203	10770.476563	56.801094
586.451172	1190.626831	18032.082031	10755.541992	56.793877
586.792542	1196.199585	17999.240234	10731.690430	56.748604
587.133850	1196.051025	17970.857422	10671.950195	56.488873
587.475220	1200.732056	17912.158203	10641.635742	56.493702
587.816589	1199.914673	17873.369141	10622.317383	56.511398
588.157776	1202.069458	17889.867188	10646.391602	56.594181
588.498962	1203.555542	17941.208984	10658.353516	56.488190
588.840210	1201.103394	17988.093750	10683.022461	56.483734
589.181335	1199.023071	17985.865234	10707.319336	56.641361
589.522400	1196.942505	18006.447266	10728.272461	56.702030
589.863403	1191.221191	18014.398438	10724.854492	56.669632
590.204407	1189.437866	18026.361328	10687.851563	56.414188
590.545410	1183.196533	18042.337891	10670.687500	56.275059
590.886353	1192.410156	18050.509766	10667.864258	56.207130
591.227112	1194.936401	18054.669922	10676.557617	56.238258
591.567932	1198.948730	18029.853516	10625.511719	56.007462
591.908752	1196.942505	17982.150391	10564.360352	55.807579
592.249512	1196.050903	17967.958984	10549.648438	55.769432
592.590149	1188.694946	17911.041016	10552.174805	55.993816
592.930786	1190.329590	17859.103516	10548.534180	56.142136
593.271423	1193.301636	17779.970703	10511.903320	56.181267
593.612000	1195.753662	17704.408203	10455.506836	56.090294
593.952576	1195.382202	17671.119141	10428.164063	56.038662
594.292969	1192.335815	17669.708984	10422.515625	56.017300
594.633484	1191.667114	17713.173828	10448.893555	56.031372
594.973877	1189.512329	17790.966797	10468.436523	55.892231
595.314209	1185.202637	17897.369141	10514.354492	55.822521
595.654480	1190.106689	18043.748047	10578.924805	55.707954
595.994812	1185.871460	18174.816406	10667.196289	55.808792
596.335022	1190.106567	18336.871094	10744.321289	55.720222
596.675171	1194.416138	18503.830078	10812.680664	55.566669
597.015320	1196.719604	18679.183594	10858.747070	55.266964
597.355408	1201.549316	18765.078125	10883.788086	55.126953
597.695496	1195.679321	18803.937500	10907.713867	55.156132
598.035461	1197.388306	18764.482422	10888.766602	55.167793
598.375366	1199.914673	18733.796875	10863.206055	55.112099
598.715271	1198.502930	18659.121094	10824.197266	55.128029
599.055176	1199.320190	18535.408203	10740.308594	55.035416
599.395081	1195.233521	18350.990234	10654.786133	55.139236
599.734802	1200.657715	18136.253906	10529.735352	55.085621
600.074524	1195.828003	17917.134766	10419.172852	55.159233
600.414246	1197.165527	17611.601563	10234.903320	55.059696
600.753906	1191.592773	17274.416016	10021.802734	54.904602
601.093506	1190.106689	16968.291016	9839.241211	54.817047
601.433044	1191.072632	16729.185547	9699.031250	54.755417
601.772583	1197.239746	16577.679688	9612.096680	54.711422
602.112122	1208.756714	16494.908203	9546.635742	54.545311
602.451538	1205.115845	16505.681641	9561.274414	54.613396
602.790894	1199.765991	16597.445313	9606.747070	54.599014
603.130310	1193.524536	16725.023438	9684.467773	54.669182
603.469604	1190.775391	16915.830078	9731.649414	54.313797
603.808838	1193.821777	17115.259766	9851.649414	54.378433
604.148010	1192.112793	17354.291016	9980.490234	54.376194
604.487305	1194.713379	17581.880859	10136.525391	54.565941
604.826416	1193.524536	17785.025391	10206.295898	54.321621
605.165527	1196.942505	17921.890625	10255.112305	54.159634
605.504456	1200.211914	18023.314453	10300.660156	54.094948
605.843445	1199.023071	18096.130859	10342.122070	54.110435
606.182434	1196.645264	18122.804688	10371.100586	54.202812
606.521423	1197.908447	18059.351563	10338.481445	54.209911
606.860229	1194.267578	17919.216797	10275.323242	54.296463
607.199036	1198.502930	17744.529297	10167.807617	54.208206
607.537903	1195.085083	17583.218750	10070.247070	54.156029
607.876648	1203.183960	17370.787109	9953.741211	54.124023
608.215271	1198.725952	17159.841797	9828.094727	54.064949
608.553955	1194.713501	16917.021484	9689.817383	54.032166
608.892578	1190.403809	16675.462891	9546.265625	53.960800
609.231140	1195.902222	16497.507813	9467.132813	54.054657
609.569641	1198.131470	16384.343750	9382.947266	53.896362
609.908081	1204.818726	16353.879883	9334.205078	53.662640
610.246521	1204.669922	16309.745117	9264.360352	53.357498
610.584961	1212.991821	16299.043945	9233.301758	53.163746
610.923340	1207.865112	16269.546875	9231.221680	53.269993
611.261597	1205.561768	16194.426758	9194.664063	53.300251
611.599854	1196.125244	16055.629883	9146.144531	53.501240
611.938110	1196.422485	15928.942383	9064.559570	53.406597
612.276245	1195.753662	15754.925781	8975.842773	53.437717
612.614319	1198.725830	15549.032227	8879.174805	53.521149
612.952393	1198.651489	15299.747070	8743.647461	53.506454
613.290466	1193.673218	15057.965820	8609.084961	53.485683
613.628479	1186.465942	14767.368164	8434.770508	53.371304
613.966370	1184.682739	14472.684570	8286.537109	53.445618
614.304260	1181.116089	14218.715820	8166.018066	53.575062
614.642151	1187.803345	14041.801758	8029.300781	53.224667
614.979980	1193.598877	13915.635742	7945.561035	53.072964
615.317749	1201.474976	13780.627930	7852.533691	52.873657
615.655396	1199.543091	13672.145508	7829.574219	53.156757
615.993164	1195.456543	13586.624023	7782.392578	53.158314
616.330811	1193.450317	13544.270508	7764.411621	53.202633
616.668396	1192.261353	13516.704102	7740.634766	53.133224
617.005859	1196.125122	13456.890625	7714.851563	53.167370
617.343445	1196.570923	13440.543945	7686.839355	53.007866
617.680908	1190.626831	13416.174805	7677.997559	53.064049
618.018311	1182.973633	13451.022461	7684.981934	52.999531
618.355652	1182.453491	13461.499023	7702.443359	53.098503
618.692993	1181.487671	13457.188477	7684.090332	52.971333
619.030273	1187.431885	13447.604492	7669.898438	52.874187
619.367554	1187.654785	13410.453125	7637.502441	52.768990
619.704712	1201.921021	13414.464844	7653.923340	52.830944
620.041870	1199.394653	13394.402344	7646.715332	52.868526
620.379028	1195.530762	13372.781250	7652.140137	53.021900
620.716064	1189.140747	13295.282227	7594.852051	52.912907
621.053040	1189.437988	13253.971680	7546.630371	52.693230
621.389954	1192.112915	13185.835938	7492.314941	52.529163
621.726929	1190.106567	13155.296875	7445.652832	52.281212
622.063843	1190.181030	13065.984375	7404.860840	52.330605
622.400635	1193.078735	13023.855469	7371.721191	52.225166
622.737427	1195.084961	12977.713867	7361.318848	52.333260
623.074219	1198.948730	12942.938477	7344.526855	52.329559
623.410889	1203.406860	12876.437500	7325.876465	52.449703
623.747559	1207.344849	12855.262695	7314.879395	52.434563
624.084167	1209.276733	12812.910156	7293.406250	52.432968
624.420715	1204.372803	12844.859375	7272.973145	52.133564
624.757324	1200.806274	12831.411133	7254.100098	52.046253
625.093750	1190.924072	12877.331055	7273.195801	52.045692
625.430176	1193.524658	12932.686523	7308.489746	52.090302
625.766602	1187.729004	12987.223633	7328.997559	52.046879
626.102905	1187.134521	13049.713867	7347.572754	51.931694
626.439209	1189.734985	13100.757813	7378.334473	51.956913
626.775452	1195.604980	13208.125000	7426.482422	51.869862
627.111694	1199.171509	13281.684570	7447.436035	51.713287
627.447876	1190.180908	13340.532227	7432.352051	51.374405
627.783997	1186.985962	13355.020508	7435.919434	51.355328
628.120056	1187.283203	13384.000000	7462.445313	51.449600
628.456055	1187.357544	13405.473633	7459.472656	51.334553
628.792053	1179.778687	13396.557617	7450.928223	51.332264
629.128052	1182.230591	13329.090820	7405.975098	51.237476
629.463928	1189.437988	13240.448242	7380.340332	51.372478
629.799744	1200.360474	13180.187500	7329.666016	51.163555
630.135559	1191.815552	13096.002930	7274.310547	51.095425
630.471375	1193.821777	12982.765625	7210.261719	51.034599
630.807068	1192.558594	12805.480469	7133.136230	51.154892
631.142700	1201.474976	12674.781250	7062.622559	51.085075
631.478333	1192.261353	12530.411133	6983.118652	51.074097
631.813965	1187.951782	12392.579102	6922.264160	51.178078
632.149475	1186.465820	12242.635742	6853.237793	51.254387
632.484924	1192.112793	12138.539063	6809.918457	51.320911
632.820435	1197.313965	12063.714844	6732.123535	50.935078
633.155884	1200.063354	12009.325195	6687.839355	50.769203
633.491150	1200.434692	11957.686523	6637.833984	50.546360
633.826477	1197.388306	11871.122070	6607.369629	50.684998
634.161804	1196.348022	11807.965820	6571.481934	50.653290
634.497009	1197.165405	11731.285156	6528.088379	50.606247
634.832153	1197.016724	11687.817383	6485.662109	50.412220
635.167297	1201.474976	11617.082031	6443.681152	50.330296
635.502380	1193.153076	11567.002930	6404.597168	50.236359
635.837463	1193.896118	11490.098633	6360.461426	50.179333
636.172424	1178.886963	11435.187500	6333.341309	50.256462
636.507324	1186.168579	11361.554688	6303.545410	50.291725
636.842224	1188.620728	11301.221680	6268.475098	50.232918
637.177124	1199.245972	11181.148438	6197.961426	50.077782
637.511963	1195.085083	11060.109375	6131.089355	50.035400
637.846741	1190.701172	10935.502930	6088.958984	50.265339
638.181396	1184.088257	10805.102539	6043.560059	50.508930
638.516113	1188.992188	10682.280273	5993.703125	50.611664
638.850769	1189.289429	10595.270508	5930.619629	50.407604
639.185303	1193.301758	10533.079102	5876.898926	50.146774
639.519836	1187.283203	10459.668945	5825.778809	50.024834
639.854370	1186.688843	10376.301758	5784.020996	50.027481
640.188843	1187.728882	10286.766602	5732.231934	49.944874
640.523254	1188.026245	10199.237305	5687.798828	49.935268
640.857605	1198.948730	10102.791992	5635.712891	49.829762
641.191895	1202.589478	10032.353516	5595.217285	49.747967
641.526184	1200.137573	9998.025391	5557.695313	49.529591
641.860413	1187.580444	9957.233398	5514.376465	49.338276
642.194580	1184.756836	9901.877930	5484.952637	49.330460
642.528748	1189.363647	9821.111328	5454.488281	49.412060
642.862793	1202.143677	9722.139648	5432.197754	49.648548
643.196838	1200.880615	9656.605469	5404.037109	49.707817
643.530823	1198.651489	9591.589844	5370.897949	49.711391
643.864746	1192.335815	9570.487305	5329.659668	49.382298
644.198669	1194.564819	9555.627930	5309.895020	49.220177
644.532532	1199.097290	9532.073242	5278.465332	48.954521
644.866333	1198.205688	9488.606445	5271.629395	49.134224
645.200073	1194.490601	9442.686523	5255.356934	49.233383
645.533813	1195.010620	9444.543945	5239.158691	49.022747
645.867554	1200.434814	9438.451172	5221.400879	48.809879
646.201172	1202.292358	9443.653320	5220.286133	48.754005
646.534729	1198.280029	9417.053711	5229.871582	49.053444
646.868225	1197.908569	9422.477539	5239.604980	49.141739
647.201782	1200.732056	9420.693359	5221.772461	48.917999
647.535217	1202.292358	9446.846680	5226.378906	48.809021
647.868591	1198.577271	9442.686523	5215.010742	48.718830
648.201965	1195.679443	9434.959961	5193.388672	48.520126
648.535278	1196.868286	9390.081055	5166.788086	48.453762
648.868591	1196.422485	9396.025391	5160.323730	48.342606
649.201782	1197.759888	9361.994141	5144.645996	48.343616
649.534912	1198.131348	9346.836914	5130.156738	48.253376
649.868103	1192.410034	9294.527344	5085.501465	48.050297
650.201172	1188.100464	9269.264648	5082.677246	48.193264
650.534180	1178.589722	9218.589844	5077.327637	48.491764
650.867188	1183.716675	9172.448242	5077.476074	48.740646
651.200134	1187.729004	9160.484375	5052.659180	48.476719
651.533020	1201.623657	9119.395508	5017.959473	48.199619
651.865845	1200.954956	9092.720703	4986.529785	47.968666
652.198608	1199.914673	9027.557617	4954.951172	47.971485
652.531433	1191.146973	9004.300781	4934.443359	47.910183
652.864136	1189.809448	8974.059570	4918.691895	47.902912
653.196777	1234.168213	8993.526367	4953.613770	47.934963
653.529358	1238.923584	8953.477539	4918.394531	47.695190
653.861938	1239.220825	8894.704102	4887.484375	47.655563
654.194519	1196.348145	8775.374023	4789.182129	47.404957
654.526978	1189.214966	8719.795898	4776.625000	47.637894
654.859375	1189.437988	8671.276367	4753.739746	47.639385
655.191833	1193.227417	8631.524414	4756.191895	47.900272
655.524170	1198.948730	8592.960938	4719.486328	47.613358
655.856445	1199.765991	8540.131836	4689.394043	47.540245
656.188660	1194.044556	8502.237305	4647.635254	47.256428
656.520874	1194.341919	8472.368164	4619.399902	47.060261
656.853088	1194.119019	8476.305664	4606.025391	46.852772
657.185181	1193.747559	8462.113281	4604.613770	46.927555
657.517212	1188.546387	8463.749023	4607.585938	46.995800
657.849243	1193.078735	8479.203125	4607.882813	46.867222
658.181274	1191.369751	8546.967773	4626.830566	46.705391
658.513123	1201.474976	8615.771484	4665.987793	46.727463
658.844971	1196.422485	8700.476563	4706.706543	46.778503
659.176819	1191.890015	8788.525391	4731.374512	46.592793
659.508667	1192.855835	8864.833984	4749.132813	46.354107
659.840393	1201.177734	8910.307617	4755.968262	46.111435
660.172058	1213.660645	8963.508789	4761.244141	45.776169
660.503662	1204.967285	8970.715820	4765.702637	45.851799
660.835266	1195.976563	8981.416016	4776.104980	45.984924
661.166931	1189.437988	8940.176758	4766.816406	46.155323
661.498413	1190.552368	8944.487305	4741.925293	45.800915
661.829773	1196.125244	8897.750000	4707.151367	45.588120
662.161194	1199.394531	8808.512695	4676.019043	45.690243
662.492615	1204.372925	8705.677734	4643.474609	45.846710
662.823975	1200.063232	8564.725586	4567.908203	45.729797
663.155212	1199.245850	8425.408203	4488.033203	45.512226
663.486450	1190.923950	8266.400391	4416.628418	45.589928
663.817627	1194.044556	8130.872559	4355.849121	45.579979
664.148743	1190.106689	8024.024902	4294.845703	45.431316
664.479858	1190.626831	7899.121582	4241.793457	45.482132
664.810913	1189.437988	7831.061035	4203.676270	45.384060
665.141907	1189.363647	7762.479004	4169.349121	45.335968
665.472778	1191.146973	7705.786621	4116.667969	44.906872
665.803711	1198.428589	7647.310059	4092.965576	44.884327
666.134583	1201.623657	7571.744141	4068.148438	44.999538
666.465454	1205.412964	7529.688965	4054.625000	45.051987
666.796143	1199.543091	7475.894043	4028.099365	45.066887
667.126831	1203.555298	7473.664063	4015.987549	44.854599
667.457458	1204.967163	7453.974609	4009.300781	44.876465
667.788147	1203.926880	7437.033203	3997.932373	44.825249
668.118774	1192.484253	7406.644043	3975.567383	44.786152
668.449219	1183.642334	7390.594238	3957.511719	44.689716
668.779663	1187.431763	7380.563965	3941.610596	44.471497
669.110107	1194.861938	7356.860840	3937.301025	44.505669
669.440552	1206.156128	7334.792969	3921.697998	44.309071
669.770874	1201.995117	7310.124512	3897.697998	44.133034
670.101135	1199.988892	7273.195313	3869.314453	43.952492
670.431396	1188.769165	7234.781250	3843.605469	43.910538
670.761597	1186.911621	7195.327637	3825.401123	43.913231
671.091797	1188.546265	7174.150879	3813.141357	43.848457
671.421875	1193.153076	7136.702637	3799.098389	43.844933
671.751892	1195.010620	7117.754395	3798.652344	43.960060
672.081909	1198.205688	7104.230957	3794.268555	43.956177
672.411865	1194.193237	7076.813965	3790.627686	44.137379
672.741821	1190.626831	7037.210938	3756.374268	43.884560
673.071716	1182.899414	6976.579590	3722.120361	43.827427
673.401550	1189.066406	6928.580078	3679.024658	43.382740
673.731262	1184.533936	6897.744629	3655.545166	43.250832
674.060974	1189.809448	6848.705078	3633.551514	43.184086
674.390625	1191.146851	6823.441895	3631.173828	43.322071
674.720276	1198.725830	6768.457520	3624.561279	43.553902
675.049927	1198.205688	6755.528809	3606.654053	43.338280
675.379395	1195.679565	6725.585449	3585.923828	43.223957
675.708923	1190.329590	6707.083984	3552.710205	42.821930
676.038330	1188.026245	6681.152344	3531.162354	42.655788
676.367737	1184.459717	6640.880371	3511.397705	42.645866
676.697083	1193.227417	6596.149902	3512.214844	42.920982
677.026428	1193.153076	6553.128906	3501.515625	43.066662
677.355652	1196.273926	6537.302246	3474.321045	42.651844
677.684875	1192.335815	6519.544434	3474.172607	42.833633
678.013977	1193.747559	6537.970703	3469.416992	42.581856
678.343079	1189.437988	6548.967285	3482.568604	42.786045
678.672180	1186.985962	6577.945313	3460.426514	42.171352
679.001221	1184.608276	6594.365723	3470.828857	42.261059
679.330139	1188.249023	6608.186035	3475.287109	42.196766
679.659058	1193.004395	6621.709473	3493.936768	42.384552
679.987976	1202.886841	6643.332031	3509.391846	42.395515
680.316772	1206.304688	6680.482910	3518.234131	42.233360
680.645630	1203.704102	6719.417969	3526.927002	42.120075
680.974304	1195.753784	6741.337402	3531.533936	42.119648
681.302979	1188.992188	6780.197266	3533.242920	41.927467
681.631653	1183.122192	6789.113281	3541.267578	42.064739
681.960266	1183.047852	6806.128906	3551.224365	42.115284
682.288757	1186.242798	6801.894531	3568.388672	42.419758
682.617249	1197.239868	6812.147949	3561.255127	42.102470
682.945679	1199.023071	6793.349121	3531.237061	41.688915
683.274109	1207.419312	6772.767090	3495.125732	41.106266
683.602478	1201.326416	6708.718262	3479.819336	41.371544
683.930725	1197.314087	6645.857910	3458.717529	41.504726
684.259033	1188.323364	6565.091309	3439.472900	41.868076
684.587280	1191.146973	6510.627441	3411.014893	41.730915
684.915344	1194.639160	6446.801270	3388.055664	41.762161
685.243469	1199.691772	6385.427246	3354.173828	41.546314
685.571533	1199.171509	6335.495605	3324.823975	41.384701
685.899536	1196.868286	6284.375488	3296.217529	41.264790
686.227539	1196.496704	6218.988770	3278.310303	41.449810
686.555420	1190.923950	6164.079590	3260.849365	41.621967
686.883301	1191.890015	6159.992188	3248.960693	41.405567
687.211121	1188.397583	6161.181641	3236.180908	41.179813
687.538940	1189.586548	6164.228027	3206.087891	40.535610
687.866638	1187.877563	6135.621094	3210.323242	40.876122
688.194336	1185.945801	6136.958984	3209.505859	40.871635
688.521973	1187.283203	6125.664551	3220.576904	41.173283
688.849609	1190.478149	6112.810547	3191.970703	40.661465
689.177063	1190.998291	6071.498535	3177.035889	40.693321
689.504578	1192.484497	6021.195313	3151.550049	40.571190
689.832031	1196.496826	5973.046875	3138.546875	40.658009
690.159485	1201.252075	5909.146484	3114.992920	40.649612
690.486816	1201.549316	5858.323730	3076.504150	40.262951
690.814087	1198.800171	5792.343262	3048.120361	40.259125
691.141296	1191.592773	5738.027832	3011.415039	40.027454
691.468506	1189.363770	5675.613281	2995.959961	40.269634
691.795715	1181.636108	5593.434082	2951.675781	40.120598
692.122803	1184.459595	5526.042480	2921.211670	40.002739
692.449829	1196.125244	5466.674316	2895.354248	39.789474
692.776855	1199.765991	5404.111328	2864.295654	39.590698
693.103821	1196.199341	5352.842285	2840.593018	39.560619
693.430664	1186.985840	5297.338379	2812.803711	39.554218
693.757568	1185.351318	5272.372559	2812.729492	39.818195
694.084351	1191.369751	5222.292480	2786.203369	39.564976
694.411133	1195.530884	5191.679199	2769.188232	39.379353
694.737854	1193.376099	5148.435059	2751.132568	39.386429
695.064575	1190.403809	5141.673828	2750.686523	39.488132
695.391174	1191.815674	5114.181641	2749.200439	39.705238
695.717773	1198.725830	5106.603027	2730.030518	39.185078
696.044250	1200.211792	5089.067871	2718.736572	39.048111
696.370789	1189.214966	5099.470215	2705.139404	38.767914
696.697205	1185.202637	5115.593750	2713.535400	38.885006
697.023621	1180.967529	5169.314453	2723.046143	38.664604
697.349915	1188.323364	5212.410156	2742.439209	38.620335
697.676208	1192.187256	5277.201660	2754.699219	38.249851
698.002380	1200.211914	5347.492188	2780.408203	38.101990
698.328674	1198.577271	5428.928223	2803.961670	37.949200
698.654724	1197.685547	5519.726074	2844.085205	38.093109
698.980896	1198.502808	5588.158691	2869.125244	38.058167
699.306946	1197.982788	5652.207520	2893.125000	38.056953
699.632935	1197.833984	5676.728027	2897.360107	37.945217
699.958862	1199.840210	5686.684082	2895.874268	37.800159
700.284729	1200.880615	5678.511230	2895.725586	37.851379
700.610596	1201.400757	5653.545410	2878.710205	37.674191
700.936340	1191.889893	5608.295410	2856.196533	37.684647
701.262146	1194.193237	5517.051270	2809.014404	37.355408
701.587830	1191.964233	5429.300293	2772.754639	37.306232
701.913513	1195.530762	5318.068848	2732.408203	37.279884
702.239075	1190.255371	5215.679688	2695.925537	37.404011
702.564697	1187.134521	5095.160156	2653.127197	37.512360
702.890137	1186.317139	4972.783691	2610.848877	37.621666
703.215698	1191.295532	4867.273926	2563.295166	37.323387
703.541016	1195.902344	4792.599609	2524.657959	36.943771
703.866455	1196.719604	4716.662109	2502.961426	37.109749
704.191711	1188.546265	4653.355957	2482.676758	37.350697
704.517029	1188.992188	4583.957520	2454.218750	37.267731
704.842163	1180.001587	4534.992188	2418.107666	36.903412
705.167419	1183.568115	4497.617676	2400.349365	36.715843
705.492493	1183.791016	4454.225098	2390.838623	36.907871
705.817566	1192.855957	4418.262207	2373.080078	36.591488
706.142578	1193.673218	4377.470215	2355.841797	36.502598
706.467590	1198.131348	4355.253906	2340.238281	36.175564
706.792480	1191.518433	4350.499023	2330.356201	36.050800
707.117371	1191.295532	4345.817871	2320.919678	35.809673
707.442200	1186.540039	4357.111816	2321.737061	35.804173
707.766907	1197.536987	4354.659668	2324.114990	35.683697
708.091675	1200.434692	4357.780273	2321.588623	35.509380
708.416321	1205.635986	4338.684570	2319.285156	35.545223
708.741028	1193.450317	4348.715332	2324.709229	35.853054
709.065552	1188.992188	4359.415039	2330.133057	35.993332
709.390137	1185.425659	4383.117676	2337.415039	36.025654
709.714600	1194.862183	4390.547852	2338.380859	35.783203
710.039063	1200.509155	4416.256348	2352.201416	35.814144
710.363403	1196.942505	4443.822754	2361.414795	35.864342
710.687744	1190.849731	4480.082520	2382.442627	36.227077
711.012085	1190.106689	4524.961426	2390.169922	35.985474
711.336304	1195.010742	4558.917480	2396.634277	35.721073
711.660461	1197.165527	4586.483887	2388.461182	35.148533
711.984619	1198.800171	4588.193359	2381.625000	34.897835
712.308716	1190.626831	4593.542480	2371.371338	34.698025
712.632751	1183.791016	4590.124512	2375.086426	34.972954
712.956726	1179.332886	4582.843262	2370.256836	34.991051
713.280701	1180.373047	4557.729004	2362.975098	35.015617
713.604553	1187.431763	4516.268066	2341.204346	34.659935
713.928467	1194.713501	4463.661621	2327.235352	34.644840
714.252258	1199.691772	4426.733887	2307.842529	34.339520
714.575989	1203.555542	4383.415039	2293.947998	34.290588
714.899719	1202.440918	4343.588867	2278.864502	34.268478
715.223267	1203.183960	4294.399902	2272.177246	34.581646
715.546936	1198.577148	4258.734863	2252.264160	34.432442
715.870422	1200.731934	4230.202637	2246.394287	34.516338
716.193970	1205.784546	4207.392090	2220.759766	33.814388
716.517395	1211.654419	4192.976563	2215.409912	33.668133
716.840820	1208.013550	4160.506348	2193.416260	33.375282
717.164124	1193.450195	4122.091797	2191.781738	34.088554
717.487488	1192.484375	4081.671143	2179.299072	34.155449
717.810730	1186.837402	4061.535156	2167.261719	34.105301
718.133972	1191.444214	4028.098877	2141.701660	33.499229
718.457092	1188.917969	3989.461670	2118.445068	33.190952
718.780212	1194.119019	3933.808838	2104.550049	33.231171
719.103210	1196.570923	3890.565186	2099.052002	33.499741
719.426208	1199.988892	3846.875000	2082.556885	33.343632
719.749207	1196.645386	3808.163330	2066.061279	33.291592
720.072083	1199.023071	3758.974609	2041.095703	32.894085
720.394958	1195.828003	3722.417725	2032.848022	33.128448
720.717773	1190.849731	3686.677734	2008.179565	32.747841
721.040527	1192.781616	3669.737061	2008.476685	32.931358
721.363281	1192.633057	3652.721436	1989.157837	32.377892
721.685913	1195.902344	3628.424561	1985.220093	32.448532
722.008545	1199.989014	3603.161865	1967.461792	31.935812
722.331055	1199.394531	3555.607666	1955.053101	32.070892
722.653503	1205.115845	3531.087891	1944.427856	31.785076
722.976013	1194.936401	3499.137939	1937.963501	32.246616
723.298401	1192.112915	3494.382568	1937.591919	32.380180
723.620789	1187.060181	3481.008057	1939.226563	32.789169
723.943115	1184.459595	3480.636719	1929.864380	32.462860
724.265381	1190.626831	3466.073242	1931.944946	32.579021
724.587585	1194.341919	3460.054688	1925.109009	32.253296
724.909790	1197.759888	3462.878174	1928.526978	32.261765
725.231873	1198.057007	3469.416992	1912.254883	31.443624
725.553894	1196.793945	3475.881592	1904.230103	31.040323
725.875916	1217.672974	3490.072998	1918.496216	30.840666
726.197937	1208.905273	3494.977295	1934.991333	31.761293
726.519775	1212.026001	3493.936768	1934.025391	31.640125
726.841675	1188.843628	3491.930664	1915.226929	31.539553
727.163513	1195.382202	3504.264893	1903.784180	30.681591
727.485291	1180.595825	3535.100342	1902.000977	30.639362
727.806946	1188.472046	3538.518311	1901.109375	30.324394
728.128662	1189.363770	3550.852539	1900.217773	30.101944
728.450256	1202.663940	3545.576904	1905.939087	30.017124
728.771790	1199.914673	3544.833984	1908.019531	30.197407
729.093323	1196.273804	3547.211914	1910.545898	30.382431
729.414795	1192.112915	3542.976563	1909.654297	30.522457
729.736145	1190.775391	3550.852783	1899.474609	30.028643
730.057495	1205.115845	3541.936523	1902.149536	29.828291
730.378845	1209.053833	3545.577393	1902.446655	29.676262
730.700134	1205.784546	3543.942627	1907.573608	30.014610
731.021301	1189.140747	3559.546143	1900.589233	30.013790
731.342468	1184.682617	3562.815674	1897.022827	29.953758
731.663574	1189.066528	3555.310791	1896.651245	29.903284
731.984680	1194.193359	3551.744141	1894.867798	29.720438
732.305664	1193.673218	3557.390869	1895.536621	29.693197
732.626648	1196.348145	3572.029053	1895.685181	29.437330
732.947571	1194.862061	3582.134033	1904.007202	29.705252
733.268433	1202.589478	3565.639404	1901.555298	29.578972
733.589233	1196.942505	3559.249023	1899.697754	29.748690
733.909973	1193.227417	3533.688721	1885.134399	29.562845
734.230713	1185.276978	3508.128906	1879.636108	29.892525
734.551331	1182.899292	3469.491455	1863.809570	29.778385
734.871948	1186.465820	3435.832031	1850.657837	29.527964
735.192505	1185.871460	3407.448242	1842.707520	29.566212
735.513062	1188.397827	3388.872314	1836.317505	29.444542
735.833435	1185.574219	3346.148438	1826.138062	29.647852
736.153931	1190.255249	3313.604248	1810.014282	29.187807
736.474304	1191.741333	3258.917236	1796.714233	29.265673
736.794617	1194.490479	3247.028564	1790.026855	29.014633
737.114807	1190.701050	3227.115479	1781.482056	29.010843
737.434998	1186.317261	3218.793701	1780.813477	29.249846
737.755188	1185.128418	3189.889893	1776.280884	29.487421
738.075256	1187.134521	3191.599365	1783.562500	29.754972
738.395325	1195.902344	3202.893311	1779.030151	29.054831
738.715271	1202.961060	3233.505859	1791.958618	29.006874
739.035278	1202.961060	3250.075439	1783.636719	28.365570
739.355164	1190.626831	3269.765625	1781.110474	28.400396
739.675049	1182.453491	3275.041016	1777.172485	28.420271
739.994873	1185.054077	3275.115234	1775.537720	28.251982
740.314636	1197.834106	3271.028564	1779.698730	28.066092
740.634277	1201.326294	3247.772217	1768.850586	27.732191
740.953979	1204.372681	3227.710205	1754.361450	27.182255
741.273499	1199.691772	3200.069580	1735.785767	26.799637
741.593140	1196.868286	3176.441406	1723.525879	26.604605
741.912598	1195.010742	3145.234375	1720.182251	26.928783
742.232117	1191.072632	3098.274658	1715.426880	27.493378
742.551453	1196.422363	3067.290283	1696.925415	26.752453
742.870850	1192.335815	3034.077148	1682.585083	26.618790
743.190063	1202.292358	3023.452148	1674.708984	25.940428
743.509338	1196.719727	2986.746338	1671.811157	26.541027
743.828552	1193.227417	2963.638428	1673.817383	27.145672
744.147705	1183.790894	2930.425049	1662.226196	27.391844
744.466797	1183.939575	2915.787354	1648.182983	26.806248
744.785828	1189.735229	2896.988525	1638.746582	26.300219
745.104858	1194.861938	2878.264404	1631.093384	25.913675
745.423706	1195.976685	2866.598877	1632.728149	26.143042
745.742615	1193.673218	2855.304932	1611.105957	25.121857
746.061401	1196.422363	2841.484619	1610.883179	25.194233
746.380249	1197.759888	2828.407227	1611.031616	25.344028
746.698975	1199.320190	2815.404297	1617.570313	25.880468
747.017639	1197.314087	2805.670654	1615.043945	25.972466
747.336304	1199.543091	2794.896729	1611.180298	25.802254
747.654907	1199.766113	2794.599609	1612.814941	25.899181
747.973389	1196.793823	2794.451172	1600.480591	25.267418
748.291931	1196.199585	2798.760742	1599.068970	25.139095
748.610352	1194.490601	2799.503662	1592.753052	24.813658
748.928711	1197.685547	2798.314697	1594.462036	24.788784
749.247070	1202.218018	2788.581299	1589.706665	24.426224
749.565308	1199.988892	2783.825439	1591.192749	24.699762
749.883545	1197.091064	2781.968018	1589.186523	24.739805
750.201782	1191.072632	2776.915771	1584.133911	24.785635
750.519836	1190.923950	2762.649414	1582.796509	24.932634
750.837952	1192.632935	2757.522705	1587.180298	25.212469
751.155884	1190.329468	2752.247070	1589.855469	25.579199
751.473877	1191.295532	2748.531982	1584.802734	25.269587
751.791809	1193.896118	2733.077148	1583.465332	25.310162
752.109619	1191.890015	2716.135986	1577.595337	25.304665
752.427490	1199.320190	2706.104736	1579.007202	25.198494
752.745300	1195.828003	2697.783203	1560.059937	24.250519
753.062988	1199.765991	2701.349854	1550.549194	23.360880
753.380615	1187.505981	2696.742920	1541.558594	23.459047
753.698303	1186.837402	2694.959717	1554.561523	24.382912
754.015808	1185.871460	2682.922607	1558.722534	24.905701
754.333374	1189.066406	2679.356201	1562.660522	25.068556
754.650757	1184.385376	2693.324951	1565.112427	25.231432
754.968262	1184.162476	2705.213623	1566.078491	25.108690
755.285583	1184.682617	2710.191650	1561.620483	24.708990
755.602905	1186.985962	2683.368408	1539.403687	23.551313
755.920105	1180.893188	2667.541748	1540.072388	24.160330
756.237305	1184.534058	2643.988037	1535.465698	24.045406
756.554443	1193.598877	2645.399658	1540.221191	23.875336
756.871582	1197.388306	2650.378174	1532.939453	23.093840
757.188599	1195.084961	2661.895020	1535.391479	23.200449
757.505615	1190.181030	2669.548096	1545.199585	23.998003
757.822510	1197.016846	2672.297363	1542.375977	23.409727
758.139465	1201.103516	2683.888428	1534.722656	22.499496
758.456238	1196.719604	2698.229004	1529.670044	22.174383
758.773010	1194.193359	2706.030762	1529.224243	22.160511
759.089783	1189.512207	2716.878906	1536.877441	22.742752
759.406433	1192.261597	2725.944092	1535.242798	22.363247
759.723145	1186.688843	2741.918945	1537.843384	22.578945
760.039673	1192.484375	2747.566162	1541.335571	22.432981
760.356201	1192.558594	2750.389648	1545.645142	22.665266
760.672668	1193.598877	2746.005859	1547.577026	22.801891
760.989136	1189.215088	2736.792236	1543.713257	22.906656
761.305481	1186.094360	2738.872803	1544.530640	23.083544
761.621826	1189.140747	2735.454834	1540.889771	22.747580
761.938049	1191.072632	2738.055420	1539.106567	22.497597
762.254333	1187.803223	2746.897461	1536.877441	22.389553
762.570496	1185.425537	2781.447998	1546.536743	22.625696
762.886597	1177.921021	2858.574219	1559.093872	22.680042
763.202637	1183.419434	2950.560791	1584.059692	22.671659
763.518677	1181.561890	3089.655518	1612.963501	22.609037
763.834656	1192.187134	3205.865234	1640.009644	22.239031
764.150574	1189.883667	3314.495850	1649.446167	21.630417
764.466370	1195.976563	3361.975342	1666.684448	21.731678
764.782288	1188.620605	3390.359131	1674.188965	22.053862
765.097961	1195.902222	3366.582031	1681.321899	22.362566
765.413696	1194.564819	3316.501953	1665.495483	22.193432
765.729309	1199.394531	3231.127930	1647.737183	22.067001
766.044861	1193.450317	3127.772705	1628.567017	22.494528
766.360474	1200.509155	3022.560547	1597.359863	21.780434
766.675903	1203.258301	2910.214844	1572.542969	21.634098
766.991394	1199.840454	2824.023682	1550.251953	21.574629
767.306763	1185.351318	2746.228516	1535.242798	22.416336
767.622131	1175.097534	2686.637695	1517.558716	22.656439
767.937378	1181.710571	2638.563721	1501.732300	21.966642
768.252625	1187.431885	2594.948242	1491.552856	21.606922
768.567810	1194.416260	2557.277100	1481.744751	21.082747
768.882996	1190.255249	2510.986328	1469.707642	21.158916
769.197998	1195.679321	2461.500732	1472.457031	21.865463
769.513062	1198.279907	2437.574951	1474.017212	22.249529
769.828064	1200.880737	2410.974609	1461.163086	21.509270
770.142944	1198.057129	2397.080078	1444.296265	20.536650
770.457825	1190.923950	2360.448730	1426.240723	20.120718
770.772705	1188.174805	2335.780273	1430.475952	21.113628
771.087402	1192.261597	2310.888916	1430.847290	21.328434
771.402100	1192.112915	2293.353516	1429.435669	21.550491
771.716736	1191.890015	2288.598145	1422.599976	21.036587
772.031372	1192.112915	2271.359863	1411.528809	20.330462
772.345947	1194.342041	2262.889404	1408.110962	20.005564
772.660461	1194.490601	2237.180420	1408.705444	20.544445
772.974854	1189.883789	2235.248779	1405.733032	20.648218
773.289246	1195.233521	2220.313721	1397.782715	19.759352
773.603638	1200.657715	2211.174561	1387.751831	18.514696
773.917908	1197.834229	2192.524658	1388.494995	19.167850
774.232178	1195.902344	2182.642334	1386.860352	19.352413
774.546265	1190.255249	2174.320557	1387.974976	20.092134
774.860474	1195.605103	2165.329834	1381.584839	19.178612
775.174561	1192.707153	2156.339111	1379.801392	19.415529
775.488586	1195.679321	2147.571533	1376.086304	18.952459
775.802551	1186.094360	2136.426270	1379.281372	20.328373
776.116516	1185.871460	2129.962158	1378.761230	20.431276
776.430359	1187.357544	2133.379883	1378.761353	20.232483
776.744202	1197.759888	2132.190918	1369.547852	18.384232
777.057922	1199.023071	2112.946533	1367.838867	18.471546
777.371704	1196.793945	2096.079834	1369.770630	19.234894
777.685303	1194.341919	2092.736084	1368.507446	19.386316
777.998962	1197.388306	2091.770264	1371.776733	19.498205
778.312500	1201.177856	2082.408203	1368.730469	19.013487
778.626038	1202.663818	2074.234619	1366.427124	18.789444
778.939453	1195.902222	2080.401855	1362.786255	18.867620
779.252869	1195.084839	2085.528809	1362.860474	18.841795
779.566223	1192.781494	2076.389648	1361.448730	19.088465
779.879578	1195.530762	2073.937744	1362.340332	18.990009
780.192749	1196.570923	2064.426758	1359.145386	18.732887
780.505920	1195.530884	2067.621826	1363.157593	19.221241
780.819031	1195.902344	2060.042969	1360.705688	19.071358
781.132141	1195.456543	2062.940674	1357.584961	18.689497
781.445190	1195.976563	2062.420654	1356.321899	18.506138
781.758118	1201.920776	2055.659180	1355.207397	17.954754
782.071045	1193.524658	2040.798462	1350.897827	18.574062
782.383911	1190.701050	2019.027832	1350.600464	19.303905
782.696838	1184.831177	2009.814331	1344.359131	19.337116
783.009583	1188.174805	1996.959961	1344.953491	19.384466
783.322266	1189.809570	1989.901245	1339.306519	18.684977
783.634888	1189.363647	1973.554565	1337.969116	18.950165
783.947510	1193.747559	1967.907593	1330.836060	17.708031
784.260132	1194.936401	1955.647461	1329.572998	17.698782
784.572571	1202.812622	1949.554688	1335.219971	17.731337
784.885010	1200.211914	1948.886108	1339.009399	18.539104
785.197449	1204.447144	1948.068726	1335.739990	17.655869
785.509766	1203.704102	1943.833618	1325.263306	16.424046
785.822083	1206.081787	1936.477539	1325.337524	16.327551
786.134277	1200.509155	1932.167969	1328.384155	17.477409
786.446533	1193.078735	1927.189575	1340.049683	20.020267
786.758606	1190.552368	1929.195923	1347.702759	21.275537
787.070740	1186.763062	1935.883179	1349.411743	21.711964
787.382690	1184.459839	1952.229858	1343.838989	20.758709
787.694641	1183.642334	1961.889038	1335.516968	19.514973
788.006653	1192.112793	1983.511230	1335.739868	18.148516
788.318481	1200.657715	2004.984497	1335.591309	16.775967
788.630310	1204.298462	2023.634399	1336.483032	16.133135
788.942017	1204.818726	2038.049194	1333.956665	15.498466
789.253784	1199.543091	2049.194580	1336.854492	16.160908
789.565430	1203.555420	2046.445679	1339.232300	16.096624
789.877014	1191.592773	2034.854126	1340.718384	17.684387
790.188538	1191.444214	2020.365234	1334.625366	17.273195
790.500061	1190.329468	1997.925781	1336.854492	18.143351
790.811462	1198.577148	1981.430664	1343.764648	18.545935
791.122925	1198.057007	1959.213989	1339.455200	18.576746
791.434204	1198.279907	1950.892212	1334.996948	18.165667
791.745483	1198.577148	1936.551758	1327.195190	17.428518
792.056702	1200.434692	1916.935913	1329.647095	18.033800
792.367920	1196.868286	1906.087769	1316.198486	16.825567
792.678955	1191.295532	1893.084595	1309.436890	16.834312
792.990112	1189.363647	1883.796875	1308.693848	17.183826
793.301086	1184.013794	1881.270630	1312.483276	18.424988
793.612122	1183.865234	1868.861938	1306.761841	17.941196
793.922974	1183.642456	1856.304810	1298.291504	17.044071
794.233826	1182.156372	1838.249390	1295.616577	17.293310
794.544556	1182.973633	1834.831421	1298.960083	17.793215
794.855286	1186.317261	1853.332642	1301.040649	17.199512
795.166016	1186.985962	1858.905396	1300.594849	16.908112
795.476624	1187.729004	1872.131348	1303.492676	16.914564
795.787292	1186.540161	1871.239868	1306.687622	17.547468
796.097778	1188.992065	1885.431641	1306.984863	16.942287
796.408264	1195.828003	1895.313843	1304.458618	15.530066
796.718689	1191.221069	1915.970093	1304.532837	15.634622
797.029053	1193.153076	1917.307251	1314.489380	16.755590
797.339355	1187.580444	1919.016235	1319.393433	18.021130
797.649658	1187.580444	1907.202148	1313.077637	17.439329
797.959839	1186.911621	1912.031860	1305.796021	16.395128
798.270020	1192.781616	1908.167969	1293.461792	14.073539
798.580078	1199.320190	1893.827637	1299.628906	14.443145
798.890137	1195.976685	1868.936401	1302.601074	15.844097
799.200195	1193.004517	1846.793945	1310.922852	18.036133
799.510071	1193.301758	1834.385620	1307.356323	17.790895
799.820007	1198.057129	1831.636353	1295.839478	15.433327
800.129883	1202.440918	1831.562134	1285.437134	13.192405
800.439575	1192.112915	1829.109985	1281.424683	14.020750
800.749329	1189.586548	1825.543457	1290.341064	15.842978
801.058960	1189.289307	1811.946167	1296.731079	17.255375
801.368591	1201.103394	1810.088501	1294.130493	15.275760
801.678162	1205.858887	1797.605835	1286.625977	13.648924
801.987671	1201.846558	1800.949341	1283.505249	13.630164
802.297119	1193.673218	1790.918579	1285.362793	15.352078
802.606506	1183.122192	1785.271484	1283.208008	16.621429
802.915894	1181.338989	1776.801147	1277.189453	16.096819
803.225159	1179.109863	1773.160156	1266.564209	14.721707
803.534424	1187.208862	1768.478882	1264.706543	13.332475
803.843628	1183.493652	1762.757446	1269.313354	14.815306
804.152771	1186.614380	1758.893921	1274.440308	15.346684
804.461792	1189.512207	1765.061157	1275.851929	15.001282
804.770874	1192.632935	1777.841187	1277.412354	14.487051
805.079773	1190.998291	1782.893921	1278.824097	14.838057
805.388733	1186.763062	1787.203491	1281.796143	15.827229
805.697571	1187.803345	1792.999023	1280.978882	15.395936
806.006470	1198.948730	1801.543579	1292.050049	15.450068
806.315125	1199.988892	1809.717163	1299.480347	16.317343
806.623901	1195.530762	1811.500366	1298.885864	16.779253
806.932495	1191.815552	1810.683105	1282.613525	14.671633
807.241150	1197.908569	1805.481934	1277.709473	13.134365
807.549622	1202.143677	1792.033203	1273.845825	12.155183
807.858154	1200.657593	1785.197144	1277.932495	13.219790
808.166565	1192.261475	1769.370728	1275.480469	14.419972
808.474915	1190.181030	1767.513184	1275.629150	14.800513
808.783264	1186.688843	1753.172729	1280.012939	16.474272
809.091492	1188.100464	1754.881836	1271.988281	14.800736
809.399719	1189.809448	1748.268677	1270.204956	14.395949
809.707825	1196.496704	1753.544312	1272.434082	13.632116
810.015930	1198.131348	1741.729980	1271.765259	13.545639
810.323975	1197.759766	1728.058228	1280.384521	15.580803
810.632080	1186.317261	1717.581665	1268.347412	15.440551
810.939880	1186.317261	1720.405273	1272.731323	16.179743
811.247864	1184.682495	1718.770508	1265.672607	15.164188
811.555664	1189.289307	1716.095581	1269.684937	15.260947
811.863464	1191.221191	1710.151367	1268.198853	14.833915
812.171143	1194.936401	1705.098633	1272.211304	15.147123
812.478882	1199.766113	1702.423828	1278.898438	15.742785
812.786438	1202.143677	1692.244507	1283.505249	16.600986
813.094055	1203.926880	1682.807983	1281.276245	16.152102
813.401489	1196.050903	1672.405640	1273.845825	16.331301
813.708984	1190.106689	1664.009399	1270.873779	17.042969
814.016357	1186.763062	1665.421265	1269.684937	17.323818
814.323730	1183.865356	1667.873169	1271.022339	18.007351
814.630981	1181.636230	1675.823608	1267.232910	17.320694
814.938232	1184.756958	1675.154785	1266.415527	16.651495
815.245361	1186.911743	1670.250977	1264.632202	16.079899
815.552490	1194.044800	1667.576172	1269.684937	15.973627
815.859619	1197.091187	1670.770996	1263.963501	14.117620
816.166565	1203.035400	1680.281860	1259.208130	11.770172
816.473572	1200.063354	1682.659546	1251.183472	10.592731
816.780457	1195.605103	1681.470581	1256.904785	12.616595
817.087341	1193.450317	1681.396118	1264.557983	14.572862
817.394043	1191.815674	1683.699585	1271.393921	16.178257
817.700806	1195.530762	1688.380737	1265.523926	14.201718
818.007507	1195.753784	1691.055664	1266.044067	14.191402
818.314209	1197.908569	1699.080444	1263.666382	13.120811
818.620667	1196.645386	1713.495117	1268.793213	13.959149
818.927246	1202.589478	1726.126465	1272.508423	13.355111
819.233704	1202.886597	1755.030273	1273.697144	12.824659
819.540161	1203.183960	1780.813354	1274.068726	12.271668
819.846497	1193.301636	1818.187622	1273.102661	12.770494
820.152832	1187.060181	1853.927246	1280.533081	14.016722
820.458984	1183.419434	1904.378784	1291.975708	15.057198
820.765259	1193.747437	1962.409180	1301.709351	14.045439
821.071350	1196.199585	2045.999634	1318.427368	14.383122
821.377502	1195.679443	2183.905518	1327.269531	13.315788
821.683472	1182.453613	2452.138428	1362.414673	14.173679
821.989441	1182.899292	2901.744141	1413.237793	13.400773
822.295349	1182.750732	3540.895752	1489.769531	13.019505
822.601196	1186.540161	4261.112793	1568.307617	12.416927
822.907043	1189.512329	4872.178223	1646.548218	12.410462
823.212769	1188.472046	5240.347656	1700.714966	12.642119
823.518494	1198.428711	5263.456543	1712.751953	12.652391
823.824097	1195.828003	5055.333984	1686.002930	12.700459
824.129700	1193.227417	4704.179199	1644.319214	12.848135
824.435242	1190.329590	4351.093262	1602.486816	13.039799
824.740723	1191.146973	4012.495117	1550.549316	12.738674
825.046082	1196.570923	3684.894775	1511.094604	12.639982
825.351501	1193.004517	3356.476563	1468.593384	12.738267
825.656799	1197.462646	3051.092529	1437.014648	12.923400
825.962036	1196.125122	2803.961670	1397.039673	12.495956
826.267212	1198.205688	2645.399658	1370.662231	11.916615
826.572449	1190.701050	2581.648193	1354.687134	11.789527
826.877502	1197.536987	2610.774658	1363.975098	11.777079
827.182495	1198.280029	2735.305908	1383.739624	12.066133
827.487488	1200.360474	2882.648438	1406.624878	12.260945
827.792419	1197.982788	3015.427490	1417.621704	12.085040
828.097290	1199.691772	3036.677734	1419.479126	11.964563
828.402100	1194.564819	2971.885986	1414.500977	12.374587
828.706848	1193.153076	2828.481689	1401.275024	12.726613
829.011597	1189.140747	2675.269775	1382.030640	12.979350
829.316223	1198.502808	2529.041748	1357.436401	11.945054
829.620789	1194.193237	2403.841553	1336.185913	11.738343
829.925354	1197.462646	2276.709717	1324.668945	11.786578
830.229797	1201.697876	2160.425781	1314.638062	11.780212
830.534302	1207.121948	2033.293945	1300.520508	11.304977
830.838562	1207.716431	1945.245117	1281.573364	10.014110
831.142944	1200.063354	1860.540039	1270.353638	10.642357
831.447144	1195.159302	1818.038940	1273.474243	12.573046
831.751404	1192.410034	1770.262329	1274.068848	14.131433
832.055542	1193.227417	1756.739258	1274.811890	14.477863
832.359619	1186.168579	1743.587524	1267.827271	14.649428
832.663635	1178.441040	1756.070313	1270.799438	15.989217
832.967651	1174.280151	1775.611938	1273.177124	16.446323
833.271545	1182.602051	1829.778931	1275.926392	14.420221
833.575439	1192.855957	1920.130981	1287.814819	13.056803
833.879211	1193.970337	2041.541626	1304.012695	12.983257
834.183044	1190.626831	2166.370117	1320.433716	13.303385
834.486694	1188.694946	2270.542725	1326.080688	12.699175
834.790344	1193.673096	2300.189209	1323.925903	11.771434
835.093933	1194.861938	2276.040771	1316.644165	11.263838
835.397522	1187.580444	2210.431641	1306.836304	11.659161
835.700928	1186.168579	2148.686279	1303.121094	12.150687
836.004395	1190.478149	2090.061279	1298.662964	12.026105
836.307739	1189.215088	2022.891602	1291.901367	12.317281
836.611023	1186.614502	1952.155396	1283.876709	12.705030
836.914307	1188.397827	1882.385132	1274.217407	12.366160
837.217529	1191.444214	1815.884155	1265.301025	11.827688
837.520691	1195.753784	1760.454468	1254.304199	10.368398
837.823730	1190.106567	1706.510620	1251.257935	11.841767
838.126831	1194.936401	1664.232422	1245.610840	10.797969
838.429749	1189.883667	1630.796021	1238.849243	11.105513
838.732727	1193.821777	1600.406250	1235.802856	10.325303
839.035522	1196.125122	1587.106079	1234.837036	9.901228
839.338379	1200.137573	1579.675781	1241.449951	10.884906
839.641113	1196.645386	1590.003906	1244.570679	12.183617
839.943848	1194.936401	1607.836548	1249.846069	13.298534
840.246460	1189.289429	1633.842651	1248.062866	13.220788
840.549072	1193.375977	1650.709351	1244.273438	11.129182
840.851563	1190.998291	1655.836060	1246.502441	11.940542
841.154053	1197.239746	1658.511108	1244.050415	10.148185
841.456482	1195.902222	1653.681274	1240.038086	9.641303
841.758850	1200.880493	1635.922974	1233.202271	7.429568
842.061157	1201.995117	1610.957397	1237.066040	8.575588
842.363403	1203.183960	1580.121704	1236.174316	8.752203
842.665588	1201.177734	1567.341675	1231.047363	8.157447
842.967712	1193.375977	1549.509155	1221.982544	8.032548
843.269775	1191.518433	1539.626831	1228.669800	10.672356
843.571777	1189.512329	1518.598999	1230.527466	12.463324
843.873840	1192.261475	1503.441406	1233.128052	13.132780
844.175659	1189.958130	1490.884155	1227.778198	12.567896
844.477600	1194.639160	1477.955444	1222.205444	9.729862
844.779297	1196.868164	1466.215698	1218.713257	8.110374
845.081116	1201.252075	1456.853516	1216.112671	5.813972
845.382751	1197.536987	1456.184692	1225.177612	10.686592
845.684387	1194.416260	1453.807007	1229.487183	13.520499
845.985962	1195.084961	1442.884644	1230.304565	14.212934
846.287537	1196.496704	1431.516235	1225.846313	12.488157
846.588989	1202.589478	1427.949707	1222.576904	8.869102
846.890381	1198.428589	1425.423340	1222.799805	10.736466
847.191711	1195.382202	1422.897095	1219.679077	10.679246
847.493042	1190.998169	1417.175781	1217.004272	11.498089
847.794250	1190.180908	1410.414429	1218.638916	12.921742
848.095459	1181.041626	1416.061157	1221.388062	17.167269
848.396606	1184.459839	1410.339844	1223.097046	17.105192
848.697693	1186.911621	1417.101563	1220.273560	14.493221
848.998657	1195.828003	1403.949829	1225.474731	14.244891
849.299622	1192.112793	1403.652710	1221.536621	13.909350
849.600464	1191.666992	1396.222290	1217.152832	12.459145
849.901367	1193.450317	1401.349243	1213.289063	9.542495
850.202087	1195.605103	1396.371094	1216.187012	10.251691
850.502808	1192.558716	1388.643555	1220.050659	14.020433
850.803467	1192.261475	1385.299805	1216.929932	12.779046
851.104065	1189.437988	1387.157349	1216.335571	13.603920
851.404663	1187.134644	1395.702271	1212.026001	11.934430
851.705139	1184.013794	1390.278198	1209.499634	12.355907
852.005615	1181.116089	1394.439087	1211.951660	14.454874
852.306030	1188.769165	1396.222534	1213.586304	11.962755
852.606384	1187.580444	1398.748657	1217.524292	14.180093
852.906616	1196.719604	1396.965454	1207.716431	5.491663
853.206909	1197.165405	1395.999512	1207.419189	5.156954
853.506958	1201.029175	1398.451538	1207.196289	3.123817
853.807129	1194.341919	1394.216187	1218.638794	12.156079
854.107178	1191.518433	1387.231812	1219.233398	14.160997
854.407166	1190.701172	1380.990234	1212.248901	11.323683
854.707092	1191.518433	1382.104858	1203.258301	6.159866
855.007019	1193.004517	1388.792114	1201.995117	4.592018
855.306763	1193.227417	1392.730103	1201.995117	4.394778
855.606567	1193.896118	1386.711792	1208.756714	7.707151
855.906250	1190.255371	1378.612671	1214.998169	13.136097
856.205933	1189.660767	1376.978027	1218.713257	15.509777
856.505493	1179.630005	1382.773560	1210.317017	15.106072
856.805054	1173.611450	1386.860229	1208.533691	16.376291
857.104492	1167.741577	1384.631226	1204.670044	17.026384
857.403931	1174.503174	1385.151367	1211.877319	17.742447
857.703308	1182.825073	1385.819946	1209.128052	12.957459
858.002563	1191.221313	1386.191528	1211.728760	10.518246
858.301819	1197.982788	1389.460938	1211.208618	6.907227
858.601013	1194.193237	1395.702271	1210.614258	8.149025
858.900208	1196.348145	1394.885132	1210.019897	6.886250
859.199219	1194.639160	1389.015137	1207.122070	6.422044
859.498291	1194.416260	1377.646851	1203.852661	5.150014
859.797302	1192.038574	1374.748901	1208.459595	8.987462
860.096191	1196.496704	1372.073853	1208.831055	7.025032
860.395020	1196.050903	1375.566284	1214.998169	10.554675
860.693787	1196.422485	1390.723999	1213.586304	8.833600
860.992554	1195.085083	1394.959351	1216.632813	10.780643
861.291260	1198.205688	1391.169922	1212.991943	7.662692
861.589844	1195.976563	1367.467285	1211.431641	9.012195
861.888428	1187.060303	1357.436523	1212.471802	14.914933
862.186890	1185.276978	1360.408569	1210.837036	14.594773
862.485413	1180.298706	1366.501343	1211.728882	16.879555
862.783813	1192.335815	1369.176270	1203.332520	6.218432
863.082153	1198.428589	1369.101929	1203.852661	3.178043
863.380371	1204.521362	1372.891479	1201.474976	-1.809339
863.678589	1195.828003	1373.040039	1210.019775	8.008357
863.976746	1196.050781	1371.182495	1214.923828	10.776487
864.274902	1198.131348	1370.290649	1211.580200	7.811865
864.572937	1201.995117	1369.770874	1207.567749	3.321476
864.870911	1200.657593	1371.405273	1201.400757	0.435241
865.168884	1192.930054	1370.810913	1208.608032	8.813752
865.466736	1194.639038	1367.764526	1202.961060	4.806930
865.764587	1189.437988	1368.359009	1200.211914	6.021610
866.062317	1195.010620	1371.851196	1197.165405	1.218490
866.360107	1191.295532	1367.318726	1200.731812	5.360816
866.657715	1196.942505	1363.157593	1213.809204	10.147514
866.955322	1196.050903	1356.693237	1216.855591	12.950937
867.252808	1190.478149	1365.535278	1215.889648	14.516118
867.550293	1192.558716	1368.136108	1206.304565	7.828940
867.847717	1193.598877	1372.891235	1201.400757	4.351485
868.145081	1197.685547	1371.776733	1205.338745	4.396086
868.442383	1198.279907	1361.374390	1210.837158	7.699372
868.739624	1194.490601	1365.015137	1216.112549	12.679670
869.036804	1194.193237	1370.142090	1220.868042	15.160544
869.333984	1189.586548	1373.411499	1220.050659	16.572348
869.631042	1197.908447	1360.185547	1220.273560	13.782051
869.928101	1204.372681	1361.968872	1215.889771	7.307975
870.224976	1202.589478	1372.668579	1213.660645	6.509422
870.521851	1197.536987	1380.916016	1213.289185	8.589967
870.818726	1186.911743	1380.767578	1210.688599	12.265225
871.115479	1188.917847	1382.402222	1217.895874	14.976934
871.412231	1190.181152	1389.238159	1225.177612	17.581125
871.708862	1193.004517	1388.717773	1229.264282	18.526985
872.005493	1194.564941	1391.392578	1230.081543	18.044519
872.302063	1191.815552	1394.439087	1222.279785	15.034894
872.598572	1195.605103	1398.005737	1222.948486	13.509535
872.895020	1192.930176	1397.931274	1218.416138	12.432110
873.191406	1195.753784	1400.606079	1215.592529	9.684414
873.487671	1186.094360	1403.132446	1214.180786	12.940783
873.783997	1183.345215	1402.612671	1212.991821	13.520751
874.080200	1177.921021	1397.114136	1210.168457	14.711884
874.376343	1186.465820	1398.005737	1210.539917	11.380404
874.672424	1195.084961	1400.531860	1206.304688	5.461132
874.968445	1193.673218	1398.748657	1209.053833	7.499979
875.264465	1193.524658	1399.937500	1207.642212	6.839475
875.560364	1186.688721	1400.680542	1218.044434	14.652762
875.856201	1184.831177	1398.971680	1217.821655	15.405996
876.152039	1190.181030	1394.290649	1221.685303	15.434977
876.447754	1188.026245	1385.522827	1220.199341	16.290457
876.743469	1194.639160	1390.278198	1222.279785	14.128379
877.039063	1192.781616	1393.324585	1215.146729	11.152280
877.334595	1199.914673	1397.262695	1208.682251	4.442699
877.630127	1199.617554	1392.581543	1209.796753	5.275181
877.925537	1191.890015	1385.448608	1209.425293	9.059416
878.221008	1188.992188	1383.293579	1216.409790	14.110863
878.516296	1182.750610	1391.541382	1208.905273	12.526733
878.811646	1185.574219	1395.256470	1215.221069	14.138942
879.106812	1182.973633	1409.745483	1213.214844	13.335523
879.401978	1191.295532	1419.330688	1225.177612	14.858271
879.697083	1193.078735	1441.324219	1231.493286	15.474421
879.992126	1196.125122	1462.203247	1229.041260	12.370854
880.287109	1197.091064	1500.469116	1228.149658	10.237588
880.582031	1196.199585	1559.316895	1227.926880	8.737478
880.876892	1191.741333	1671.588257	1240.186768	10.096019
881.171753	1186.242920	1862.694946	1249.994629	9.424424
881.466492	1187.728882	2151.509521	1268.867554	8.418791
881.761230	1195.010620	2502.441650	1302.303833	8.206415
882.055786	1189.660889	2820.010986	1340.123901	9.228877
882.350403	1189.215088	3014.164307	1365.163940	9.641301
882.644958	1181.636230	3064.615479	1360.631470	9.505960
882.939453	1187.431763	3004.281982	1350.526245	8.976771
883.233826	1185.202637	2906.648193	1343.393188	9.189402
883.528137	1189.214966	2784.940186	1336.037109	9.200967
883.822449	1195.159302	2669.473877	1326.155029	8.885195
884.116577	1197.016846	2550.886719	1319.839355	9.071959
884.410828	1198.205688	2418.033447	1313.374878	9.441430
884.704956	1195.084961	2264.152588	1302.080933	10.008345
884.999023	1200.880615	2093.702148	1281.944824	9.079554
885.292969	1199.765991	1944.948120	1267.530151	9.093637
885.586914	1202.589478	1822.274414	1255.715942	8.573141
885.880798	1193.450317	1735.563110	1245.239258	9.553167
886.174622	1193.970337	1668.616211	1234.019531	8.437700
886.468384	1196.645386	1627.601196	1230.824463	7.930994
886.762085	1196.719604	1588.666504	1224.211670	7.014232
887.055664	1192.707397	1545.868164	1218.118774	7.195414
887.349304	1185.648560	1517.112915	1217.970215	9.751171
887.642822	1185.128540	1498.760132	1215.221069	9.594866
887.936340	1189.289429	1488.357788	1221.165283	10.658384
888.229736	1191.444214	1466.066895	1212.917603	7.819233
888.523071	1192.930176	1450.240601	1217.598755	9.587089
888.816284	1195.902222	1438.872192	1215.666870	8.134605
889.109619	1197.834106	1433.968262	1220.942261	9.786028
889.402710	1201.400757	1420.519531	1212.323120	4.984677
889.695862	1196.570923	1415.318359	1210.688477	6.453815
889.988892	1186.911743	1405.064453	1206.156006	8.821464
890.281921	1172.051025	1397.188477	1211.282959	17.425770
>>>>>End Processed Spectral Data<<<<<
