Jaz Data File
++++++++++++++++++++++++++++++++++++
Date: Fri Jun 04 16:23:34 2021
User: jaz
Dark Spectrum Present: Yes
Reference Spectrum Present: Yes
Processed Spectrum Present: Yes
Spectrometers: JAZA3586
Integration Time (usec): 69400 (JAZA3586)
Spectra Averaged: 10 (JAZA3586)
Boxcar Smoothing: 1 (JAZA3586)
Correct for Electrical Dark: No (JAZA3586)
Strobe/Lamp Enabled: Yes (JAZA3586)
Correct for Detector Non-linearity: No (JAZA3586)
Correct for Stray Light: No (JAZA3586)
Number of Pixels in Processed Spectrum: 2048
>>>>>Begin Processed Spectral Data<<<<<
W	D	R	S	P
191.335022	0.000000	0.000000	0.000000	0.000000
191.713211	293.792969	294.833221	293.198578	-57.139084
192.091385	587.957458	584.167969	590.558044	-68.626282
192.469528	881.453125	885.093994	891.261169	269.387451
192.847641	891.186829	890.815247	895.645020	-1199.786499
193.225739	898.022644	906.567383	906.567566	100.002144
193.603790	912.363098	906.567444	911.843018	8.973630
193.981842	916.672668	912.140137	922.691162	-132.784363
194.359863	932.350586	910.877014	926.852112	25.605774
194.737854	939.780823	918.158752	933.910889	27.147882
195.115829	942.901550	925.737610	933.316467	55.844303
195.493774	937.403137	934.802551	932.201965	200.000000
195.871704	935.842773	935.842773	925.068848	0.000000
196.249603	939.260681	936.139954	931.681824	242.855469
196.627457	937.403076	933.539368	926.183411	290.385925
197.005310	930.790222	937.328857	920.387756	-159.092316
197.383133	928.486816	933.836609	919.273254	-172.222794
197.760910	936.957336	928.412415	925.440369	134.781433
198.138687	941.712708	922.096741	937.403137	21.969706
198.516449	933.687988	921.948181	929.972839	31.645741
198.894180	922.022400	928.783997	925.589050	52.748642
199.271866	924.177246	933.316589	914.294983	-108.128807
199.649536	925.960449	932.796387	915.929688	-146.735718
200.027191	931.384583	941.638367	914.443604	-165.216843
200.404816	920.610657	941.712708	926.926453	29.929773
200.782410	918.976074	952.635254	927.372253	24.944693
201.159988	916.598328	958.653748	927.446594	25.795170
201.537537	922.468262	975.297546	924.177246	3.234919
201.915070	919.570496	970.096252	919.050293	-1.029579
202.292557	914.146423	967.049866	921.205078	13.342525
202.670029	918.307373	959.768250	913.477600	-11.648989
203.047485	921.502380	968.833191	912.288818	-19.466309
203.424911	929.304199	963.706238	906.641785	-65.875206
203.802292	923.137024	964.300598	909.390930	-33.393829
204.179688	919.644775	962.517395	909.836731	-22.877176
204.557037	910.579895	958.579407	916.003906	11.300138
204.934357	901.960754	958.059265	907.979309	10.728546
205.311661	903.818298	952.189270	908.499451	9.677607
205.688934	904.041077	957.687744	903.743958	-0.553845
206.066177	904.635559	950.480286	908.870911	9.238470
206.443390	905.229980	951.817871	904.635681	-1.275652
206.820587	912.288757	947.211121	901.886475	-29.786880
207.197769	914.072083	946.691101	907.830566	-19.134592
207.574921	910.728455	943.273132	905.081360	-17.351822
207.952042	899.657227	943.495911	903.818176	9.491503
208.329147	903.892578	947.434021	899.211487	-10.750887
208.706223	927.520813	970.690735	927.743835	0.516615
209.083267	932.350525	975.446106	931.904724	-1.034447
209.460297	931.533203	977.972412	930.864441	-1.440081
209.837280	908.870850	960.288391	905.452942	-6.647357
210.214264	904.041199	953.972656	903.446716	-1.190597
210.591217	904.784180	957.687805	898.468445	-11.938190
210.968124	906.493164	965.786804	905.527283	-1.628980
211.345016	914.592102	971.656738	908.499451	-10.676755
211.721893	912.214539	967.867188	913.106201	1.602193
212.098724	910.431213	956.870422	914.666504	9.120074
212.475555	907.830750	965.341003	913.626282	10.077390
212.852356	911.471497	965.192383	911.768738	0.553307
213.229126	910.579895	970.319275	906.493164	-6.840933
213.605865	904.115540	957.910645	905.675842	2.900455
213.982590	898.914307	955.830139	898.617004	-0.522354
214.359283	896.685242	957.019043	894.679016	-3.325210
214.735931	893.787415	962.666016	889.997986	-5.501605
215.112579	901.812195	967.198547	890.815247	-16.818415
215.489197	904.561340	963.037598	887.917480	-28.462595
215.865799	914.740906	957.762024	888.809082	-60.276962
216.242355	905.304382	949.737366	898.542786	-15.217517
216.618896	912.660339	940.523865	901.663574	-39.466526
216.995407	904.709961	942.604309	903.446777	-3.333435
217.371902	903.000977	942.752930	901.069031	-4.860002
217.748367	894.158936	945.279236	904.858582	20.930326
218.124802	897.279602	941.787048	904.784241	16.861536
218.501236	902.183655	947.359680	902.257996	0.164558
218.877609	904.784363	952.337952	898.914368	-12.343958
219.253983	894.158997	958.579407	893.861755	-0.461408
219.630295	885.094055	948.325623	895.422058	16.333618
220.006592	882.419128	938.666260	898.840027	29.194197
220.382889	895.867920	938.517639	895.867920	0.000000
220.759140	907.607727	949.142883	894.456116	-31.663807
221.135391	918.678894	957.019043	894.307556	-63.566101
221.511581	920.387878	953.675476	896.313721	-72.321701
221.887772	917.564270	953.303894	899.657410	-50.103661
222.263931	914.517883	965.192383	895.719299	-37.096733
222.640060	916.598389	967.792969	901.589172	-29.317980
223.016159	911.694336	970.467834	896.759583	-25.410694
223.392212	910.877136	960.437012	899.062927	-23.838253
223.768265	904.338379	954.567078	907.681946	6.656686
224.144302	910.951355	953.006653	910.802734	-0.353393
224.520294	904.932800	948.994385	907.384827	5.564998
224.896286	907.161926	952.783752	895.124817	-26.384541
225.272217	901.812073	957.019043	895.422058	-11.574652
225.648148	900.846191	964.820801	904.635559	5.923237
226.024048	893.564636	964.152161	904.264160	15.157811
226.399902	897.205383	953.675476	903.149597	10.526304
226.775772	900.474609	955.087219	895.496399	-9.115497
227.151581	901.737793	961.031311	902.926758	2.005219
227.527374	896.016602	968.387390	907.236267	15.503031
227.903137	900.549072	966.678406	914.220703	20.674080
228.278870	899.657410	965.117981	909.242371	14.642343
228.654572	907.830566	959.471008	904.264099	-6.906345
229.030273	900.697571	955.607361	902.034973	2.435636
229.405930	904.784180	953.006775	910.876953	12.634686
229.781555	904.709961	957.910706	912.957520	15.502712
230.157181	907.830627	960.362793	905.750183	-3.960325
230.532761	909.613953	962.145996	897.651184	-22.772327
230.908325	900.326111	962.145996	905.081482	7.692300
231.283859	901.217712	961.848816	915.781067	24.019609
231.659332	899.880188	961.254395	921.205139	34.745789
232.034821	907.013245	962.443176	911.843018	8.713294
232.410263	909.613831	956.499023	907.459167	-4.595615
232.785690	913.254700	956.053162	904.561340	-20.312317
233.161087	917.861511	959.694031	905.229980	-30.195482
233.536469	914.220703	965.786804	911.025635	-6.196064
233.911804	910.802795	969.427673	900.771973	-17.110182
234.287140	908.202209	961.105713	893.861816	-27.106699
234.662430	914.072083	963.334778	886.059998	-56.862671
235.037704	919.793457	965.192383	897.576843	-48.936432
235.412933	911.991638	968.387390	899.285828	-22.529730
235.788162	904.635681	957.316223	899.805969	-9.167924
236.163345	904.338379	953.155334	898.022705	-12.937459
236.538513	912.734619	947.879822	897.131042	-44.397457
236.913635	914.369324	957.167664	890.963867	-54.687767
237.288742	915.781006	959.842590	892.449951	-52.951012
237.663834	916.672607	968.610291	900.846191	-30.471933
238.038879	920.164856	971.359436	904.784241	-30.043444
238.413910	916.969910	976.114807	902.926575	-23.743950
238.788910	907.161926	977.229309	897.948425	-13.149487
239.163879	899.211487	982.133362	898.617126	-0.716771
239.538834	894.827637	970.319275	898.765686	5.216537
239.913757	900.697571	968.610352	904.189758	5.142165
240.288651	899.360168	963.780579	911.397156	18.685053
240.663528	905.155762	969.056091	905.155762	0.000000
241.038361	902.034973	968.833191	904.784180	4.115688
241.413177	910.059753	969.278992	901.440613	-14.554629
241.787979	903.669739	968.164368	898.319824	-8.295132
242.162735	899.360168	973.216980	897.576843	-2.414571
242.537476	902.406555	972.251038	895.347839	-10.106333
242.912170	908.647949	984.659485	907.830627	-1.075260
243.286865	919.273254	976.932129	909.911133	-16.237087
243.661514	915.781006	980.201477	912.808899	-4.613606
244.036148	912.437317	977.526611	905.601563	-10.502118
244.410751	912.363098	987.557434	903.223877	-12.154135
244.785339	906.938965	982.876404	902.406555	-5.968610
245.159882	906.716125	977.972412	899.880188	-9.593451
245.534378	907.830750	978.418274	905.601563	-3.158047
245.908890	916.449768	987.483215	906.790344	-13.598416
246.283356	919.199036	994.616211	911.619934	-10.049570
246.657791	914.072083	992.981506	902.480774	-14.689384
247.032196	904.709961	999.000183	893.118652	-12.293224
247.406586	901.960754	998.480042	897.502625	-4.618901
247.780960	907.979248	1004.795715	899.211609	-9.055938
248.155289	907.310547	996.919617	906.270325	-1.160845
248.529602	908.053528	998.479980	899.508789	-9.449380
248.903870	897.725403	995.730774	903.223877	5.610380
249.278122	903.075256	986.591553	900.548889	-3.024999
249.652344	907.533447	987.706055	905.304382	-2.780332
250.026550	913.180481	984.585388	908.722351	-6.243450
250.400711	913.106140	991.867004	914.146301	1.320657
250.774857	912.734619	988.820557	914.666504	2.539083
251.148987	911.025635	992.758606	911.397156	0.454555
251.523071	910.059753	999.074402	909.019470	-1.168665
251.897125	906.938965	1004.572754	909.762451	2.891915
252.271164	906.047424	1003.458252	910.579895	4.652944
252.645187	904.338379	1006.058838	910.208313	5.770652
253.019165	888.809082	997.439758	907.533386	17.236664
253.393112	892.152771	1005.018616	904.041199	10.533237
253.767044	890.443787	994.170410	906.641846	15.616106
254.140930	900.251770	996.770996	908.945251	9.006994
254.514801	895.124817	983.619385	908.870911	15.533263
254.888657	897.056702	988.894836	907.830627	11.731429
255.262466	904.189758	989.935059	908.647949	5.199341
255.636276	907.979248	996.919617	910.356934	2.673348
256.010010	915.038025	999.222961	908.350769	-7.943530
256.383759	919.347595	996.325134	906.716125	-16.409292
256.757446	929.006897	995.284851	902.926697	-39.349735
257.131134	931.013123	997.811218	907.384949	-35.372524
257.504791	924.994568	1011.111389	908.127869	-19.585836
257.878418	912.437500	1021.885254	907.607727	-4.412857
258.252014	907.533386	1027.978149	903.669678	-3.207868
258.625580	915.781067	1026.714966	903.892578	-10.716732
258.999115	919.198914	1020.622131	909.836853	-9.230688
259.372650	909.985352	1024.337280	909.316711	-0.584721
259.746124	899.657410	1035.334106	908.053528	6.188327
260.119598	897.428284	1050.640503	906.790344	6.110518
260.493042	900.697571	1066.764160	907.384827	4.026852
260.866425	906.344666	1075.829102	909.168152	1.665927
261.239838	903.818359	1076.720703	901.812195	-1.160288
261.613159	904.264160	1072.262573	900.623291	-2.167204
261.986511	900.028809	1051.532104	895.793640	-2.795430
262.359802	900.846191	1043.061646	904.561279	2.612295
262.733063	900.251709	1032.139038	909.985352	7.380271
263.106293	898.171326	1034.368164	907.756348	7.037624
263.479523	899.360168	1038.454712	908.276428	6.410215
263.852692	898.542786	1041.278320	905.230042	4.685067
264.225861	897.056824	1049.600220	912.065918	9.839230
264.598969	900.400391	1045.439331	913.329041	8.913917
264.972076	906.270264	1040.981079	908.573730	1.709935
265.345154	916.672668	1039.718018	903.446777	-10.748794
265.718201	919.496155	1050.789063	895.645020	-18.166355
266.091217	919.496155	1056.064575	903.892578	-11.425465
266.464203	917.564270	1062.751831	912.511719	-3.480017
266.837158	918.307312	1057.699219	920.313477	1.439226
267.210114	916.449768	1061.711548	918.530273	1.432245
267.583038	910.579834	1063.271973	913.329102	1.800530
267.955902	905.155762	1068.621704	910.059753	3.000008
268.328766	903.223877	1076.126343	899.137207	-2.363569
268.701569	899.583008	1080.361694	895.942139	-2.013993
269.074371	896.239441	1088.906372	900.103210	2.005414
269.447144	896.685242	1089.649414	908.350769	6.045437
269.819885	906.344543	1091.358276	911.397156	2.730939
270.192596	910.208252	1093.438843	904.487000	-3.122433
270.565277	910.579834	1099.977417	899.508728	-5.845431
270.937927	903.223816	1103.246704	894.233215	-4.494786
271.310577	904.041199	1111.197144	895.050598	-4.340016
271.683136	907.607666	1121.673828	901.069092	-3.054464
272.055725	912.065857	1136.162964	905.452942	-2.950915
272.428284	907.087585	1147.085449	910.431335	1.393242
272.800812	910.951355	1152.360962	915.409607	1.846758
273.173279	905.973145	1143.741821	918.753174	5.374984
273.545776	909.093811	1131.704712	910.951416	0.834463
273.918152	901.291992	1120.782227	903.521179	1.015620
274.290558	898.765686	1120.633667	900.771973	0.904270
274.662964	899.583008	1129.772949	905.750183	2.679168
275.035278	900.920471	1138.169067	908.796570	3.319766
275.407593	900.771973	1137.351685	903.446777	1.130615
275.779907	901.440613	1135.419800	898.914307	-1.079714
276.152161	905.675964	1131.035889	896.388000	-4.121391
276.524384	911.025696	1137.797485	896.016541	-6.618617
276.896606	912.660339	1140.398071	896.462341	-7.112566
277.268799	904.189758	1152.286499	898.914307	-2.126369
277.640930	899.805969	1162.911865	901.291992	0.564800
278.013031	894.456116	1168.113159	901.812195	2.688065
278.385162	904.487061	1167.518677	900.325989	-1.581966
278.757233	911.917297	1164.992310	909.168030	-1.086345
279.129272	915.186584	1166.181152	916.375427	0.473653
279.501282	911.991516	1176.880737	916.301086	1.626933
279.873230	906.938965	1180.744507	909.688171	1.004073
280.245178	909.762512	1184.682617	900.771790	-3.270304
280.617126	910.134033	1190.032349	901.291992	-3.159019
280.988983	909.316711	1208.830933	899.211487	-3.373871
281.360870	912.288818	1227.852417	906.344543	-1.883701
281.732697	910.208313	1237.288940	907.459167	-0.840510
282.104492	913.551941	1248.062866	915.186584	0.488667
282.476288	906.790344	1253.189575	910.208313	0.986714
282.848053	904.487000	1259.059570	908.499329	1.131596
283.219757	909.688232	1261.585938	905.675842	-1.140215
283.591461	911.620117	1264.409302	906.195984	-1.537500
283.963135	914.889404	1262.180298	903.075256	-3.401802
284.334747	911.025635	1262.106079	903.966980	-2.010552
284.706360	916.375488	1267.158691	903.743958	-3.600951
285.077942	918.827454	1277.189453	903.000977	-4.416338
285.449524	921.353821	1289.300903	896.611023	-6.724554
285.821014	913.849182	1300.520508	894.976318	-4.880854
286.192535	908.425049	1308.173706	894.456116	-3.494429
286.563995	904.338379	1315.381104	894.084656	-2.494564
286.935425	911.620117	1322.439819	900.920471	-2.604463
287.306824	915.038025	1333.882446	907.904968	-1.703032
287.678223	913.180420	1323.851563	913.849182	0.162846
288.049561	909.168152	1322.885620	910.579834	0.341219
288.420898	908.276428	1316.867188	901.737793	-1.600290
288.792145	909.762512	1326.377808	899.954590	-2.354192
289.163452	906.790344	1326.674927	893.861755	-3.079082
289.534668	903.000977	1333.956665	901.812195	-0.275848
289.905914	902.183655	1341.758423	895.942200	-1.419885
290.277039	905.007141	1353.647095	907.607849	0.579687
290.648193	912.660339	1375.566406	907.756348	-1.059392
291.019318	918.307312	1398.525879	909.985352	-1.732953
291.390381	920.759277	1406.847656	902.332214	-3.790887
291.761475	922.914124	1413.163452	888.586182	-7.002140
292.132507	922.171082	1399.491821	891.186829	-6.491286
292.503510	919.124695	1396.222290	898.096985	-4.407423
292.874481	919.347595	1386.637329	916.747009	-0.556525
293.245422	913.626282	1393.993286	917.564270	0.819787
293.616364	909.614014	1401.572266	917.341492	1.570759
293.987213	902.926758	1414.649414	911.843018	1.742401
294.358093	900.771912	1434.934082	910.059753	1.738768
294.728943	901.440613	1463.614868	898.394226	-0.541894
295.099731	899.285828	1490.215454	897.874084	-0.238902
295.470490	899.508728	1506.859253	905.452942	0.978712
295.841248	901.143372	1520.530884	915.335144	2.291259
296.211975	901.514893	1532.642212	919.644775	2.872619
296.582642	902.109375	1546.611206	918.753113	2.582419
296.953308	907.979248	1574.920410	921.427979	2.016479
297.323883	912.363098	1587.997681	911.694336	-0.098983
297.694519	914.369324	1606.424805	908.425049	-0.858930
298.065063	912.734680	1599.514648	908.796631	-0.573408
298.435608	909.391052	1590.375488	914.740906	0.785606
298.806122	912.363220	1570.908203	904.932922	-1.128290
299.176575	914.443604	1551.515137	899.434509	-2.355951
299.547028	909.019531	1545.199341	893.638855	-2.417662
299.917450	904.709961	1535.837280	905.527283	0.129502
300.287872	897.651184	1527.441040	901.960693	0.684277
300.658234	901.291992	1515.849731	903.298157	0.326440
301.028564	907.459167	1514.809570	892.078430	-2.532432
301.398865	908.796570	1514.809570	892.301453	-2.721908
301.769135	915.335266	1519.193359	888.511902	-4.441998
302.139374	915.112366	1518.673340	897.353943	-2.942275
302.509583	912.883301	1517.632935	903.595398	-1.535826
302.879791	908.796570	1510.797241	906.493164	-0.382625
303.249939	908.276367	1508.791016	900.846191	-1.237301
303.620087	911.471375	1501.360840	898.691406	-2.166502
303.990173	912.288757	1502.029663	903.075256	-1.562296
304.360260	912.437439	1502.178223	909.911133	-0.428376
304.730286	906.864746	1509.756958	912.288818	0.899675
305.100281	909.688232	1513.843750	904.338440	-0.885499
305.470276	912.065918	1514.438110	897.502625	-2.417657
305.840179	918.827393	1525.880859	884.722473	-5.618108
306.210144	912.065918	1524.469116	890.146667	-3.579219
306.579987	905.304260	1533.979614	894.307556	-1.749186
306.949890	897.651184	1540.295410	904.264160	1.029026
307.319702	904.338379	1560.282837	899.954590	-0.668317
307.689484	906.716125	1572.171387	904.338379	-0.357311
308.059265	912.883301	1581.830688	898.988586	-2.077101
308.429016	907.310547	1601.669556	905.378662	-0.278226
308.798737	909.242432	1626.338013	900.474670	-1.222677
309.168396	908.499329	1652.938354	900.103210	-1.127845
309.538055	911.099915	1673.074341	900.103210	-1.443185
309.907684	906.938965	1683.996948	894.753418	-1.568164
310.277313	905.155762	1692.318726	899.583008	-0.707954
310.646851	904.115417	1699.674683	898.840027	-0.663105
311.016388	906.938965	1717.432983	906.567566	-0.045824
311.385895	913.923523	1729.024292	910.877014	-0.373759
311.755371	911.545837	1736.826050	911.842957	0.036002
312.124817	904.487061	1736.826050	917.415710	1.553291
312.494232	900.251770	1735.117188	910.282654	1.201497
312.863617	901.960754	1725.234863	907.161865	0.631759
313.232971	913.477600	1723.451660	909.242371	-0.522885
313.602295	916.449707	1721.742798	919.050293	0.322937
313.971619	918.530273	1723.897461	916.821289	-0.212199
314.340820	909.391052	1714.535278	907.384827	-0.249176
314.710083	905.304382	1725.829224	897.056824	-1.005157
315.079285	906.716125	1741.358765	906.195984	-0.062319
315.448486	909.613953	1760.157227	907.013367	-0.305756
315.817596	908.573669	1764.764038	911.322937	0.321105
316.186707	907.533386	1754.138672	910.654114	0.368617
316.555786	903.818298	1737.643555	908.276367	0.534653
316.924866	900.920471	1716.913086	909.465332	1.047174
317.293884	893.267395	1705.916138	904.338379	1.362333
317.662872	896.165222	1710.300171	909.019531	1.578892
318.031830	900.846191	1710.597168	897.874023	-0.367047
318.400757	910.802734	1721.445435	901.589172	-1.136575
318.769684	912.660339	1727.166626	898.765686	-1.705899
319.138550	909.019470	1740.541382	903.743958	-0.634441
319.507416	909.539551	1747.228516	899.211609	-1.232909
319.876190	907.087585	1741.953125	895.867920	-1.343889
320.244995	909.465271	1742.324585	902.183594	-0.874299
320.613770	901.143372	1735.934570	903.223877	0.249225
320.982483	904.264099	1738.237793	911.397156	0.855310
321.351166	910.282654	1725.309082	903.446777	-0.838731
321.719818	906.567566	1720.628296	902.332214	-0.520275
322.088440	904.189941	1733.259399	893.118652	-1.335387
322.457062	901.886414	1757.928101	894.679016	-0.841945
322.825623	908.053528	1785.345703	897.576843	-1.194207
323.194183	908.499329	1798.571777	904.264160	-0.475823
323.562653	904.412781	1826.138062	909.093811	0.507855
323.931183	905.973145	1854.521606	903.669678	-0.242841
324.299591	904.487061	1887.660645	906.716125	0.226721
324.668060	907.756348	1905.121704	906.121643	-0.163902
325.036407	908.870911	1929.864624	910.134033	0.123715
325.404755	914.517883	1940.787109	896.908203	-1.715893
325.773102	913.180481	1946.805664	896.685242	-1.595863
326.141388	915.409485	1942.124512	892.970154	-2.185546
326.509674	920.685059	1947.177124	899.954590	-2.019545
326.877899	918.753113	1956.093384	902.480957	-1.568642
327.246124	913.626221	1953.344116	910.431213	-0.307296
327.614288	907.384827	1954.087280	922.022461	1.398452
327.982422	905.824463	1949.480469	922.096741	1.559161
328.350525	910.282654	1953.938599	916.895508	0.633624
328.718628	907.756348	1952.675415	913.626282	0.561760
329.086700	908.870850	1958.025024	913.106140	0.403686
329.454712	904.487000	1968.576172	919.421875	1.403536
329.822693	901.663574	1968.204712	917.118408	1.449061
330.190674	902.629456	1977.418335	923.954285	1.984095
330.558563	913.774902	1989.158203	918.976013	0.483652
330.926483	912.437500	2007.733765	914.443604	0.183156
331.294312	911.545837	2020.513794	909.836853	-0.154106
331.662231	904.115479	2046.445435	911.620117	0.656959
332.029999	905.973083	2071.782959	909.465332	0.299556
332.397766	907.681946	2103.064209	905.081543	-0.217537
332.765503	908.499329	2116.364502	908.796631	0.024614
333.133240	914.815002	2144.896729	909.836914	-0.404696
333.500916	915.112305	2165.107178	912.660339	-0.196158
333.868561	914.146423	2184.797363	911.471497	-0.210516
334.236176	909.911194	2198.171631	913.700623	0.294151
334.603790	912.288879	2203.893066	915.112305	0.218598
334.971344	907.384827	2207.905273	916.821289	0.725591
335.338867	908.573669	2209.391357	916.226868	0.588338
335.706360	911.471436	2213.404053	912.883301	0.108444
336.073853	914.146301	2226.703857	911.917297	-0.169821
336.441284	908.796631	2222.914307	911.397217	0.197896
336.808655	911.322815	2219.422363	911.917297	0.045446
337.176086	916.301208	2201.069580	897.799744	-1.440062
337.543396	924.771667	2167.781738	901.737793	-1.853072
337.910706	918.233093	2136.871826	903.298157	-1.225543
338.277954	913.626282	2134.791504	915.558105	0.158195
338.645264	912.214539	2189.106689	911.099915	-0.087292
339.012421	907.310486	2273.217529	909.465332	0.157759
339.379669	906.716125	2350.418213	900.846191	-0.406589
339.746796	909.242371	2395.593994	908.647949	-0.039992
340.113953	919.793274	2419.816895	906.864746	-0.861888
340.481018	923.285583	2433.711182	913.551941	-0.644430
340.848114	920.164856	2447.234375	914.517883	-0.369791
341.215118	911.025696	2456.299316	919.421875	0.543346
341.582153	905.824463	2469.302490	926.257813	1.306916
341.949066	905.601563	2476.658447	929.006897	1.489783
342.316010	906.418945	2499.023193	926.554932	1.264343
342.682922	914.443604	2512.620850	920.462097	0.376585
343.049835	912.065918	2535.431641	912.140198	0.004576
343.416656	919.273254	2554.156006	918.307373	-0.059080
343.783478	908.722351	2583.134033	922.171143	0.803195
344.150269	912.660339	2654.464600	930.567383	1.028074
344.516998	905.230042	2717.993408	933.019287	1.532977
344.883728	910.208313	2785.832031	935.025452	1.323141
345.250427	906.344543	2813.100830	931.533203	1.321021
345.617065	908.499451	2832.568359	929.304138	1.081286
345.983704	902.778137	2831.230713	927.669434	1.290739
346.350281	900.177490	2822.537354	926.629211	1.376003
346.716827	897.576904	2808.568604	929.972839	1.695242
347.083405	901.589172	2802.327148	932.870605	1.645752
347.449860	919.644775	2801.881592	937.105957	0.927683
347.816376	925.811951	2790.438721	928.635437	0.151424
348.182770	928.115295	2770.451172	934.951172	0.371044
348.549194	914.146423	2752.321289	928.858337	0.800354
348.915558	914.146301	2757.819580	931.236023	0.926939
349.281921	911.248535	2770.525391	924.697327	0.723335
349.648193	907.533447	2788.803955	922.245300	0.782017
350.014526	902.332214	2822.537354	928.486816	1.362073
350.380737	905.601563	2858.053955	928.486816	1.172129
350.746948	905.824402	2900.926758	939.260681	1.675918
351.113159	898.171204	2925.892578	933.316406	1.733236
351.479309	892.301453	2945.805664	927.000732	1.689759
351.845428	894.010315	2960.146240	916.969910	1.111233
352.211517	897.502625	2981.768311	918.976074	1.030264
352.577576	896.165100	3008.219971	921.205078	1.185574
352.943604	899.137268	3049.755127	924.325867	1.171226
353.309601	907.087646	3090.324219	927.223694	0.922303
353.675537	916.895569	3151.104248	929.824219	0.578668
354.041473	916.672668	3220.502686	931.756104	0.654711
354.407379	913.180481	3283.214111	929.155518	0.674043
354.773254	912.288818	3339.164063	934.951172	0.933808
355.139038	907.979309	3394.371094	942.827209	1.401545
355.504913	911.694336	3458.866211	941.341125	1.163910
355.870636	910.505554	3525.292236	945.650818	1.344097
356.236389	910.579834	3586.369141	936.362976	0.963571
356.602081	909.613953	3665.055908	943.570251	1.232336
356.967804	905.081543	3745.748779	942.752930	1.326146
357.333405	907.161926	3811.432373	952.783875	1.570857
357.699036	909.242371	3900.223877	947.285400	1.271925
358.064606	915.186707	4004.545166	952.189392	1.197747
358.430176	914.740906	4100.767578	945.799316	0.974832
358.795654	908.796631	4159.986328	955.533020	1.437517
359.161163	913.551941	4169.051270	951.817871	1.175424
359.526581	914.815125	4173.435059	955.533020	1.249544
359.892029	918.976074	4181.534668	962.071594	1.320912
360.257416	910.505554	4246.177734	964.226379	1.610495
360.622772	905.155762	4349.235840	964.746582	1.730239
360.988098	899.954590	4498.955078	956.796143	1.579370
361.353394	902.034973	4643.027832	959.693909	1.541274
361.718658	913.403320	4809.912109	962.963318	1.271908
362.083893	914.889404	4922.406738	972.994141	1.449894
362.449097	907.459167	5024.350098	965.266663	1.404154
362.814209	903.075195	5050.355957	970.467957	1.624987
363.179382	901.366272	4975.830566	965.861084	1.582903
363.544434	904.412781	4804.859863	966.455505	1.590657
363.909546	897.799805	4574.818359	958.282227	1.644877
364.274536	907.384827	4408.752441	952.486572	1.288118
364.639587	913.626282	4260.369629	948.845703	1.052349
365.004517	915.335266	4186.363770	948.251282	1.006289
365.369507	908.945129	4124.692871	944.610413	1.109082
365.734344	918.381592	4097.720703	943.050110	0.775901
366.099274	918.530212	4082.265625	931.161621	0.399256
366.464081	917.489990	4056.557373	937.923157	0.650931
366.828918	911.025635	4057.374268	942.604309	1.003661
367.193665	913.477539	4057.300049	957.687744	1.406256
367.558411	913.180420	4082.785889	956.127441	1.354964
367.923126	896.165100	4096.680176	961.328613	2.036032
368.287781	894.084656	4097.794922	956.053040	1.934269
368.652435	889.552246	4092.816650	949.514404	1.871908
369.017059	900.028809	4076.247314	939.557922	1.244534
369.381653	905.230042	4065.993408	947.211121	1.328194
369.746185	910.282715	4065.621826	947.954102	1.193893
370.110687	911.248596	4087.169678	955.978821	1.408417
370.475220	900.325989	4120.234863	951.149170	1.578404
370.839661	903.446777	4145.423340	963.186218	1.842686
371.204041	898.542786	4178.933594	959.322449	1.852818
371.568451	902.332214	4217.422363	960.437012	1.752737
371.932770	902.480774	4269.137207	963.854919	1.823000
372.297150	902.703796	4314.981934	966.306885	1.863948
372.661377	903.743958	4339.056152	966.009583	1.812517
373.025696	894.902039	4350.869629	958.802246	1.848982
373.389862	893.638855	4355.774414	960.362610	1.927243
373.754059	897.651184	4363.724121	959.842529	1.794288
374.118225	903.669678	4395.525879	959.991150	1.612938
374.482361	906.716064	4421.085938	967.495789	1.729463
374.846436	906.270264	4471.314941	968.164490	1.736142
375.210510	907.236145	4539.302246	968.981750	1.700013
375.574524	910.654114	4636.638184	966.009705	1.485664
375.938538	908.350769	4738.061523	965.786804	1.499749
376.302460	905.824463	4820.463379	966.604065	1.552624
376.666412	907.533386	4913.936035	964.895203	1.431754
377.030304	912.957520	4996.561035	964.895203	1.271859
377.394196	918.010010	5097.314941	962.888977	1.073838
377.757996	920.016296	5184.770020	959.768250	0.932104
378.121796	913.031921	5251.122070	965.341003	1.205809
378.485565	907.682068	5264.421875	967.792969	1.379722
378.849304	892.227051	5233.363281	968.758972	1.762947
379.212982	900.771912	5167.382813	967.941589	1.574310
379.576630	905.527283	5057.711426	962.368835	1.368955
379.940277	914.963684	4973.526855	960.957092	1.133244
380.303864	912.734558	4909.849121	955.310059	1.065156
380.667450	910.059631	4907.322754	950.331726	1.007492
381.030945	909.242371	4908.140625	948.771423	0.988499
381.394501	907.756287	4923.669922	956.796204	1.221140
381.757935	907.087646	4953.093750	970.913757	1.577509
382.121399	908.053528	4967.731445	977.303711	1.705805
382.484741	906.493164	4990.914063	978.641113	1.766418
382.848145	906.939026	5027.395996	972.473938	1.590477
383.211487	907.533447	5075.321777	963.780579	1.349568
383.574768	910.059753	5160.397949	956.498962	1.092600
383.938019	901.217590	5217.313965	955.235779	1.251552
384.301270	902.629395	5300.533203	962.591736	1.363430
384.664459	899.360107	5356.260254	963.929199	1.448744
385.027649	903.149597	5388.804688	963.929199	1.354977
385.390778	903.521057	5434.798340	969.056152	1.446283
385.753876	904.115540	5458.500977	967.347168	1.388368
386.116943	907.013367	5521.063965	973.068420	1.431607
386.479980	904.264099	5538.822266	968.684570	1.390002
386.842987	902.555176	5572.777832	976.709290	1.587807
387.205994	903.372498	5602.871094	975.891907	1.543131
387.568909	903.446777	5638.833496	978.938293	1.594200
387.931793	907.087646	5684.009277	979.458496	1.515010
388.294678	911.471497	5740.925781	978.269592	1.383140
388.657471	903.966980	5778.150879	982.653564	1.614354
389.020294	900.028809	5792.045410	984.659668	1.729979
389.383057	891.706970	5770.869629	984.585388	1.903573
389.745819	900.549011	5779.562500	982.579163	1.681286
390.108521	905.750183	5798.881348	983.470886	1.588363
390.471191	907.013367	5867.537109	988.226257	1.637184
390.833801	903.372559	5957.963379	985.625671	1.627295
391.196442	906.047363	6082.049316	984.585449	1.517350
391.558960	905.898865	6188.748047	984.585388	1.489471
391.921509	914.443604	6308.746582	987.334534	1.351258
392.284027	907.607727	6417.377441	986.517273	1.432175
392.646484	907.830627	6540.497559	983.024963	1.334969
393.008911	903.966980	6575.196777	976.857849	1.285274
393.371307	907.904968	6601.722656	977.155090	1.216233
393.733673	910.802795	6554.614746	979.384094	1.215159
394.096008	910.505615	6523.853516	988.672058	1.392510
394.458344	905.007141	6525.785156	993.353088	1.571774
394.820587	905.304382	6547.481934	999.817383	1.675116
395.182831	902.480896	6600.310547	997.291199	1.663972
395.545013	907.161926	6581.437500	997.068176	1.584453
395.907196	906.047363	6534.478516	993.204407	1.548514
396.269287	910.877014	6440.856934	995.804993	1.535774
396.631409	902.480896	6347.458984	987.929016	1.569301
396.993469	897.576904	6264.239746	986.963074	1.665582
397.355530	894.233215	6202.865234	994.764832	1.893739
397.717499	903.000977	6177.378906	997.588196	1.793334
398.079468	918.455872	6171.212402	994.913391	1.455570
398.441376	913.106140	6203.683105	983.693665	1.334212
398.803284	909.539612	6233.701172	985.105469	1.419301
399.165131	899.285889	6279.248535	990.381042	1.693230
399.526978	907.384766	6306.220703	997.439758	1.668045
399.888763	910.431152	6313.576660	995.656433	1.577327
400.250519	912.288818	6328.139160	991.272644	1.458383
400.612244	913.997742	6350.505371	991.272644	1.421407
400.973938	912.660339	6385.130371	993.947510	1.485384
401.335602	917.638489	6395.234863	1001.080505	1.523333
401.697205	916.152527	6415.520020	997.588196	1.480819
402.058807	916.226868	6443.606934	991.198242	1.356364
402.420349	910.505554	6530.169434	984.659668	1.319547
402.781860	910.877014	6606.032715	985.774231	1.315104
403.143341	910.431213	6711.170410	1003.235352	1.599867
403.504822	916.301208	6801.299316	1010.294189	1.597162
403.866241	913.254822	6931.478027	1015.569580	1.700083
404.227631	913.477722	7074.361816	1007.544922	1.526846
404.588959	905.304382	7238.422363	1007.693542	1.616726
404.950287	906.493164	7362.062012	1008.510925	1.580306
405.311554	911.100037	7439.114746	1011.928772	1.544554
405.672821	912.437439	7490.011719	1010.665710	1.493381
406.034027	911.397217	7484.810059	1009.105286	1.486413
406.395203	903.669739	7422.470215	1015.420959	1.714291
406.756348	896.239441	7352.923340	1019.953430	1.916061
407.117493	897.056824	7324.390625	1021.811035	1.940995
407.478516	899.805969	7346.235840	1014.677979	1.781948
407.839600	911.768738	7342.817871	1014.083557	1.590951
408.200592	907.384827	7357.529785	1011.037109	1.606976
408.561554	901.737793	7331.820313	1014.603699	1.755279
408.922485	899.285828	7351.288574	1005.984558	1.653730
409.283417	903.595398	7349.430176	1010.739929	1.662229
409.644257	903.298157	7426.556641	1007.396301	1.595800
410.005096	899.954590	7507.398438	1024.485840	1.884711
410.365906	898.022644	7608.227051	1028.572632	1.945544
410.726715	900.697571	7699.099609	1035.557007	1.983693
411.087433	902.555176	7789.822754	1028.200928	1.824319
411.448120	899.583069	7855.729004	1020.102051	1.732554
411.808807	900.994812	7875.567871	1025.897583	1.790830
412.169434	900.771790	7815.011719	1025.674805	1.806461
412.530029	901.143372	7784.102051	1030.950317	1.885918
412.890564	903.521057	7783.061035	1023.297058	1.741047
413.251099	903.743958	7816.126465	1031.990479	1.855316
413.611572	906.938965	7858.478027	1029.612793	1.764700
413.972076	911.322815	7914.576660	1026.789429	1.648757
414.332489	911.471436	7982.638184	1024.114380	1.592989
414.692871	920.239197	8089.708496	1026.863647	1.487201
415.053223	917.267090	8185.781738	1033.996704	1.605962
415.413574	917.564270	8353.780273	1031.544556	1.532773
415.773834	910.208313	8459.364258	1038.083252	1.693897
416.134094	907.607727	8569.407227	1040.089478	1.729121
416.494263	902.703796	8658.718750	1039.049316	1.757933
416.854462	905.378662	8851.459961	1037.340332	1.660714
417.214630	910.951355	9091.680664	1039.866577	1.575840
417.574738	913.403320	9334.948242	1049.451538	1.615478
417.934784	908.796570	9579.775391	1053.984009	1.674407
418.294861	906.418945	9849.866211	1050.491821	1.610932
418.654846	907.904968	10161.194336	1061.488647	1.659774
419.014832	915.260925	10510.863281	1077.092163	1.686515
419.374756	911.174255	10879.776367	1088.237671	1.776211
419.734680	909.613953	11311.920898	1090.615356	1.740012
420.094543	904.784180	11695.545898	1089.575195	1.712493
420.454376	901.812073	12054.352539	1099.754761	1.774866
420.814148	910.505554	12426.535156	1104.658569	1.685937
421.173920	903.966858	12828.066406	1109.562500	1.724203
421.533691	911.099915	13246.093750	1123.159790	1.719173
421.893341	904.041260	13536.543945	1130.070190	1.789265
422.253021	909.985413	13741.545898	1134.528198	1.749926
422.612640	904.412781	13768.590820	1133.859497	1.783610
422.972260	910.282654	13719.700195	1126.057617	1.684502
423.331757	910.802734	13638.339844	1128.063843	1.707016
423.691315	915.929688	13634.921875	1121.228027	1.614109
424.050781	913.477722	13736.493164	1130.218628	1.690249
424.410248	910.282532	13824.913086	1124.794678	1.661001
424.769653	910.877014	13953.010742	1124.274536	1.636216
425.128998	913.849121	14013.937500	1128.435425	1.638052
425.488373	912.808899	13980.428711	1128.138306	1.647809
425.847656	909.985413	13865.333008	1126.206421	1.668971
426.206940	909.539612	13710.413086	1116.546997	1.617135
426.566193	915.706787	13493.671875	1117.884399	1.607395
426.925385	911.545837	13250.627930	1119.221924	1.683076
427.284576	901.069153	12916.785156	1120.633667	1.827311
427.643677	895.719238	12676.934570	1115.729614	1.867468
428.002777	899.285828	12404.765625	1107.556274	1.810185
428.361847	900.549011	12122.339844	1102.875244	1.802976
428.720856	901.069092	11877.066406	1097.673950	1.791226
429.079865	899.880188	11705.204102	1094.256226	1.798891
429.438812	903.595276	11593.675781	1082.367676	1.672320
429.797760	906.864746	11499.385742	1085.859985	1.689826
430.156616	912.437500	11394.916992	1082.590576	1.623214
430.515503	911.768738	11337.109375	1087.643188	1.686990
430.874268	909.688232	11301.145508	1084.373901	1.681051
431.233093	903.149597	11312.664063	1089.797974	1.793056
431.591827	901.440613	11379.981445	1092.547241	1.823790
431.950562	909.093811	11422.186523	1090.243774	1.723089
432.309204	909.465332	11482.668945	1090.986816	1.716807
432.667877	910.951416	11554.965820	1093.141602	1.711668
433.026459	905.527344	11672.213867	1096.708130	1.775670
433.385010	903.892578	11796.002930	1107.259155	1.867100
433.743561	904.561279	11954.416992	1112.534668	1.882137
434.102051	899.954590	12105.622070	1118.553101	1.950785
434.460510	899.805908	12269.756836	1117.661499	1.916064
434.818939	895.050537	12305.273438	1112.163208	1.902791
435.177338	897.428223	12354.239258	1113.872192	1.889217
435.535675	900.326111	12309.731445	1109.636841	1.834545
435.894012	902.109375	12306.165039	1119.742065	1.908380
436.252289	901.291992	12308.542969	1125.463379	1.965166
436.610535	904.189758	12325.334961	1130.070190	1.977739
436.968719	913.997864	12394.362305	1132.150513	1.900224
437.326935	916.747009	12491.328125	1127.692505	1.822489
437.685028	916.524109	12597.432617	1125.017578	1.784908
438.043152	911.545715	12723.153320	1121.822632	1.780257
438.401215	902.183594	12889.887695	1118.107300	1.801210
438.759277	901.069092	13077.948242	1126.057739	1.847671
439.117249	904.784241	13364.532227	1134.899780	1.846871
439.475250	912.660400	13596.655273	1147.977051	1.855225
439.833130	914.592285	13918.237305	1153.624023	1.838190
440.191071	904.487061	14160.390625	1158.899536	1.919239
440.548889	897.205383	14441.476563	1160.831421	1.946403
440.906708	896.982422	14722.489258	1162.391724	1.919708
441.264496	904.932800	14914.116211	1161.945923	1.834605
441.622223	915.038025	15102.695313	1162.986206	1.747633
441.979950	909.613831	15202.632813	1171.233765	1.830404
442.337616	909.539612	15311.114258	1168.261719	1.796485
442.695251	909.911133	15235.698242	1169.376221	1.811175
443.052887	912.288879	15067.625000	1160.459961	1.753198
443.410461	910.951355	14887.961914	1159.939697	1.781413
443.768005	906.716064	14771.604492	1166.849854	1.876205
444.125458	904.561340	14690.317383	1175.097534	1.962433
444.482941	910.505554	14707.109375	1180.224243	1.954964
444.840393	909.390930	14784.680664	1177.698120	1.933705
445.197754	912.214539	15016.432617	1169.227539	1.822242
445.555084	904.635559	15248.551758	1174.057251	1.878299
445.912415	909.019531	15593.762695	1178.292603	1.833693
446.269714	906.641785	15863.183594	1179.035522	1.821235
446.626953	909.390930	16187.664063	1182.750732	1.789206
446.984161	913.477600	16497.134766	1192.707275	1.791811
447.341309	920.907898	16730.222656	1205.933105	1.802894
447.698456	919.273254	16892.203125	1204.298462	1.784427
448.055542	916.003906	16948.376953	1195.233521	1.741661
448.412598	916.895569	16908.474609	1186.911743	1.688490
448.769653	914.666504	16774.582031	1183.122192	1.692668
449.126617	916.524109	16505.904297	1179.258423	1.685342
449.483582	919.124695	16341.992188	1188.620605	1.747379
449.840515	924.102966	16095.083008	1195.902222	1.791573
450.197388	919.570496	15961.414063	1194.267700	1.826220
450.554230	912.734619	15751.953125	1188.843628	1.860671
450.911041	912.140198	15649.788086	1173.760132	1.775181
451.267822	908.499329	15498.433594	1181.115967	1.868525
451.624573	903.669678	15348.192383	1179.332642	1.908426
451.981262	893.936035	15172.541992	1184.905396	2.037800
452.337921	901.589172	15057.742188	1180.447266	1.969872
452.694580	902.183594	15027.206055	1177.995361	1.952647
453.051147	914.740723	15097.272461	1179.407104	1.866143
453.407715	914.443542	15071.565430	1166.478394	1.780269
453.764221	918.307312	15127.067383	1167.444336	1.753404
454.120728	907.682068	14958.772461	1161.425903	1.805866
454.477142	908.796570	14880.977539	1170.936646	1.876157
454.833557	907.756348	14697.002930	1160.385620	1.832075
455.189911	912.140198	14571.581055	1162.243286	1.830991
455.546265	904.709961	14414.208008	1152.955322	1.837562
455.902557	900.697571	14327.273438	1158.899536	1.923066
456.258820	903.298157	14331.062500	1162.020264	1.926770
456.615051	909.019531	14412.870117	1167.518677	1.914263
456.971252	912.734680	14413.464844	1165.438232	1.871777
457.327393	909.836853	14596.250000	1170.416382	1.903929
457.683502	907.384949	14811.504883	1184.311035	1.991684
458.039612	906.121765	15186.065430	1188.769165	1.979331
458.395630	910.654114	15504.972656	1196.050903	1.955534
458.751648	910.059753	15822.913086	1195.233643	1.912269
459.107605	917.415710	16351.577148	1209.945679	1.895341
459.463562	914.889404	16893.837891	1217.375732	1.893030
459.819458	920.982178	17511.888672	1238.403442	1.913224
460.175323	913.700500	18034.013672	1254.006958	1.987735
460.531158	912.957520	18651.025391	1264.037964	1.979248
460.886932	902.629456	19050.103516	1257.870728	1.957525
461.242676	908.722351	19245.148438	1254.452881	1.885485
461.598419	911.397217	19049.656250	1245.759399	1.843408
461.954102	916.821289	18629.773438	1229.412720	1.764762
462.309723	912.511719	18026.732422	1211.951660	1.749656
462.665344	911.545715	17397.388672	1199.245972	1.745135
463.020905	911.694336	16938.716797	1199.914673	1.798340
463.376373	907.682068	16629.767578	1205.858765	1.896547
463.731873	905.230042	16381.668945	1209.871216	1.968419
464.087341	899.211487	16143.752930	1208.162231	2.026632
464.442749	901.589172	15972.335938	1204.669922	2.011053
464.798126	902.480774	15854.121094	1202.143677	2.004214
465.153503	903.149597	15892.386719	1203.258179	2.002161
465.508820	903.000977	15944.324219	1210.317017	2.043145
465.864105	908.202148	16054.143555	1206.081665	1.966728
466.219330	909.242432	16282.473633	1209.722534	1.954567
466.574524	915.855408	16442.150391	1203.406860	1.852029
466.929657	909.316711	16679.845703	1221.239380	1.977883
467.284790	923.880066	16902.085938	1230.155884	1.916835
467.639893	913.254700	17177.451172	1242.861572	2.026580
467.994934	921.427979	17409.646484	1234.688232	1.899904
468.349945	907.310486	17512.111328	1233.499390	1.964425
468.704926	918.753113	17499.626953	1225.028931	1.847163
469.059875	915.409485	17307.630859	1229.709961	1.917376
469.414764	914.072083	17068.150391	1220.050659	1.894126
469.769653	905.750244	16846.136719	1215.146729	1.940960
470.124451	900.697571	16746.570313	1215.146606	1.984422
470.479248	907.607727	16616.615234	1222.651245	2.005496
470.834015	915.335266	16586.595703	1226.143555	1.983301
471.188721	918.753174	16632.591797	1215.220825	1.886666
471.543365	907.087646	16705.628906	1217.152832	1.962619
471.898010	907.310547	16784.761719	1211.208618	1.914023
472.252625	906.716125	16909.666016	1219.530640	1.954730
472.607178	916.152527	17130.121094	1224.434570	1.901336
472.961700	914.517883	17302.726563	1232.830811	1.942329
473.316193	914.443665	17573.039063	1242.341553	1.968341
473.670654	909.093811	17796.095703	1242.936035	1.976918
474.025055	902.778076	18102.371094	1249.623291	2.016590
474.379456	895.124939	18297.267578	1247.988647	2.027703
474.733795	900.846191	18448.324219	1255.938843	2.023611
475.088104	899.731628	18548.335938	1262.848999	2.057485
475.442383	912.883240	18539.123047	1271.171021	2.032696
475.796570	915.483887	18566.541016	1270.799438	2.012999
476.150787	919.941956	18683.123047	1277.486694	2.012842
476.504944	909.391052	18883.740234	1278.155396	2.051614
476.859070	907.236267	19188.900391	1288.706421	2.086627
477.213135	905.230042	19427.636719	1293.461792	2.096011
477.567200	900.623291	19834.294922	1301.858032	2.119160
477.921173	894.902039	20165.089844	1307.430664	2.140761
478.275146	892.152771	20631.412109	1313.077637	2.132425
478.629089	902.555115	20921.490234	1324.817505	2.109315
478.983002	906.864685	21302.439453	1322.662720	2.038668
479.336823	916.375427	21665.408203	1327.938232	1.983528
479.690643	912.808899	22080.835938	1331.058838	1.975857
480.044403	914.963684	22603.556641	1346.811035	1.991127
480.398163	908.276550	23203.103516	1362.934814	2.039299
480.751862	912.734680	24024.150391	1378.538452	2.015471
481.105499	916.598389	24994.099609	1405.733032	2.031501
481.459137	918.901855	26274.556641	1440.581177	2.057448
481.812744	915.038086	27772.572266	1483.825317	2.117794
482.166290	910.282715	29569.068359	1527.738281	2.154507
482.519806	910.356934	31660.466797	1582.127808	2.184613
482.873291	902.257996	34154.808594	1644.021973	2.230698
483.226715	898.988586	37164.441406	1725.383423	2.278738
483.580139	895.644958	40380.410156	1785.717407	2.254217
483.933502	911.248535	43945.230469	1859.128296	2.202631
484.286804	915.335266	47304.675781	1916.192871	2.157516
484.640106	911.471497	50362.015625	1972.960327	2.146566
484.993347	903.000977	52446.875000	1988.340820	2.105662
485.346558	900.400391	53389.406250	1968.056152	2.034056
485.699738	905.750183	52971.750000	1932.539429	1.972092
486.052887	903.372498	51337.906250	1882.830933	1.942039
486.405975	904.561340	48924.921875	1843.376099	1.955035
486.759064	911.843018	46348.175781	1811.054321	1.979058
487.112061	917.118469	44408.730469	1792.850464	2.013565
487.464996	913.106140	43463.300781	1790.026978	2.060909
487.817963	908.722351	43525.792969	1792.404663	2.073541
488.170868	913.997803	43949.394531	1798.422974	2.055111
488.523743	912.585999	44578.511719	1802.435425	2.037858
488.876587	910.728455	44945.718750	1804.367310	2.029383
489.229401	911.322815	44917.855469	1800.726563	2.021072
489.582153	913.700500	44116.277344	1783.265259	2.012761
489.934845	916.449768	42842.574219	1754.956055	1.999961
490.287537	909.168152	41350.652344	1728.355591	2.025612
490.640198	908.647949	40142.785156	1708.516602	2.038706
490.992798	908.499329	39238.894531	1700.417603	2.066032
491.345337	903.743958	38971.183594	1708.739746	2.114657
491.697876	904.561279	39109.457031	1726.572266	2.151586
492.050354	913.551941	39843.644531	1747.525757	2.142234
492.402832	921.948242	40642.921875	1745.148071	2.072456
492.755219	920.090576	41132.355469	1726.200806	2.004638
493.107605	906.195984	40913.980469	1703.390015	1.992597
493.459930	909.242371	39941.281250	1681.544922	1.978637
493.812225	911.025635	38239.750000	1649.966187	1.979550
494.164490	906.938965	36070.550781	1603.750000	1.981625
494.516724	894.381836	33802.683594	1555.601685	2.009280
494.868896	897.799805	31804.091797	1527.886841	2.038702
495.221039	902.852356	30358.531250	1507.676636	2.053337
495.573120	907.087646	29258.255859	1501.360840	2.096115
495.925201	909.613953	28709.158203	1501.658081	2.129690
496.277222	912.437317	28362.908203	1510.277222	2.177886
496.629211	911.991516	28357.412109	1513.546387	2.191823
496.981140	915.409485	28403.181641	1501.583618	2.132491
497.333069	910.802734	28553.271484	1492.444336	2.104159
497.684967	905.898865	28714.361328	1496.233765	2.122861
498.036804	894.827637	28845.728516	1507.602173	2.192325
498.388580	899.657410	28867.054688	1506.190430	2.168715
498.740326	901.960754	28783.388672	1502.178101	2.152750
499.092072	908.573669	28557.134766	1488.357788	2.096977
499.443756	905.378662	28227.603516	1489.843750	2.139156
499.795410	914.740784	27831.791016	1484.865601	2.118081
500.147003	912.363098	27475.509766	1488.803711	2.170077
500.498566	908.647949	27137.062500	1484.419800	2.195222
500.850098	904.115479	26809.757813	1475.354858	2.205077
501.201599	897.874023	26527.781250	1459.825562	2.192562
501.553009	906.344543	26240.228516	1452.320923	2.155123
501.904449	909.613831	26047.787109	1452.841187	2.160966
502.255859	922.988464	25831.490234	1450.314819	2.117054
502.607178	924.994568	25783.416016	1457.967896	2.144035
502.958405	917.861511	25666.833984	1454.995972	2.170330
503.309692	911.322754	25587.181641	1459.082642	2.219821
503.660919	905.155701	25590.896484	1452.841187	2.218631
504.012115	911.025635	25638.525391	1453.286987	2.192949
504.363251	910.877136	25761.201172	1444.296265	2.146528
504.714294	913.403381	25859.427734	1451.949585	2.158846
505.065369	912.363098	25966.273438	1454.252930	2.162895
505.416443	907.830627	26050.013672	1474.834839	2.255191
505.767395	898.840027	26060.267578	1466.290039	2.255238
506.118317	894.010437	26072.677734	1469.039063	2.283793
506.469238	889.180664	26078.248047	1468.147461	2.298485
506.820160	901.514893	26064.056641	1468.816284	2.254547
507.170929	908.870850	26076.242188	1472.828491	2.240829
507.521729	917.861511	26090.435547	1475.577759	2.215571
507.872498	920.462097	26205.603516	1479.441406	2.210703
508.223236	915.855408	26382.445313	1485.534302	2.236966
508.573883	916.226868	26615.085938	1476.915161	2.181763
508.924500	904.858582	26823.578125	1485.608521	2.240658
509.275116	904.338379	27041.435547	1489.769531	2.239848
509.625702	898.245605	27280.023438	1504.184204	2.296807
509.976196	903.298096	27557.244141	1508.122437	2.269174
510.326660	903.966980	27817.525391	1511.317383	2.256671
510.677124	910.134094	28048.533203	1515.403931	2.230308
511.027557	907.979309	28271.962891	1523.874634	2.250752
511.377869	908.499329	28484.095703	1533.608276	2.266892
511.728180	909.093750	28620.814453	1546.388184	2.299729
512.078430	918.158691	28676.466797	1539.998169	2.240192
512.428650	922.839844	28806.646484	1541.855835	2.219984
512.778931	920.462097	28941.578125	1547.279907	2.236948
513.129028	911.174316	29087.210938	1549.508911	2.265523
513.479126	910.802734	29139.593750	1544.530640	2.244970
513.829285	910.356934	29146.875000	1534.871460	2.211726
514.179382	912.511719	29084.164063	1542.524536	2.236336
514.529297	906.939026	28995.447266	1543.713501	2.267029
514.879272	905.081482	28992.250000	1549.954712	2.295971
515.229187	905.378723	28869.875000	1548.319946	2.299134
515.579163	906.938965	28885.033203	1543.713257	2.275975
515.928955	911.620056	28873.740234	1542.227173	2.255219
516.278748	909.613831	29075.992188	1541.781372	2.244405
516.628540	911.842957	29314.650391	1555.750366	2.267056
516.978333	915.483887	29670.710938	1568.010376	2.269245
517.327942	922.171082	30115.562500	1586.734741	2.276418
517.677612	924.028625	30611.458984	1597.508423	2.268569
518.027222	914.815125	31211.525391	1606.573364	2.283278
518.376831	898.691406	32020.015625	1622.028320	2.324249
518.726379	891.558350	32803.906250	1646.399536	2.365358
519.075867	896.462341	33501.906250	1662.226196	2.348577
519.425293	911.099915	34020.988281	1678.052612	2.316386
519.774658	912.660339	34380.093750	1667.427368	2.255228
520.124084	908.499329	34589.925781	1666.758789	2.251269
520.473389	898.245605	34449.566406	1656.504883	2.259998
520.822693	901.960754	34134.152344	1656.727905	2.271193
521.171997	905.750183	33603.332031	1646.028198	2.264014
521.521240	922.022461	33032.832031	1637.631958	2.228563
521.870361	923.805847	32546.451172	1626.635132	2.222551
522.219482	921.353760	32179.099609	1627.304077	2.258481
522.568604	910.356934	31911.085938	1623.663086	2.300934
522.917664	908.499329	31696.351563	1618.907715	2.307431
523.266724	912.660339	31653.103516	1605.087280	2.252495
523.615662	917.044128	31850.976563	1612.889160	2.249455
523.964600	916.523987	32215.056641	1634.139648	2.292809
524.313538	913.774841	32734.656250	1662.226196	2.352076
524.662354	907.013245	33359.542969	1682.659546	2.390095
525.011169	911.471497	34174.128906	1704.504395	2.384154
525.359985	913.552002	35149.496094	1725.309204	2.371067
525.708740	909.836914	36349.042969	1753.989868	2.381975
526.057434	911.843079	37734.042969	1791.067017	2.387755
526.406067	904.932922	39261.703125	1832.453613	2.418141
526.754700	912.883301	40906.542969	1877.035278	2.410762
527.103333	911.620117	42654.964844	1913.146484	2.399248
527.451782	908.573669	44568.703125	1962.631958	2.414236
527.800293	908.127869	46470.332031	2010.408691	2.419288
528.148743	898.022644	48456.890625	2071.336914	2.467078
528.497131	895.942200	50409.566406	2122.754639	2.477727
528.845642	896.462341	52352.808594	2180.338867	2.495079
529.193909	901.366272	54091.113281	2223.805908	2.486268
529.542175	910.431213	55492.246094	2253.972900	2.461519
529.890503	910.728455	56348.285156	2244.908203	2.406635
530.238770	906.493164	56516.582031	2216.821533	2.356278
530.586914	908.647949	55996.761719	2158.122314	2.268138
530.934998	908.647949	54670.082031	2108.116943	2.231096
531.283142	917.564270	52770.167969	2045.033813	2.174374
531.631226	915.483887	50308.890625	1998.743164	2.193125
531.979248	909.539734	47854.296875	1949.777832	2.215877
532.327148	896.165222	45808.593750	1927.338257	2.295964
532.675110	893.490234	44533.187500	1920.651001	2.353730
533.023071	901.143372	44074.738281	1926.817993	2.375699
533.370850	908.722351	44192.582031	1934.025391	2.368788
533.718689	911.620117	44732.839844	1947.623047	2.364158
534.066467	917.638611	45393.906250	1952.601196	2.327000
534.414246	911.620056	45914.917969	1967.238770	2.345647
534.761963	911.322937	46128.093750	1955.499023	2.309267
535.109619	907.756348	45945.609375	1942.421753	2.297324
535.457153	914.517883	45243.894531	1908.688354	2.242690
535.804749	909.539551	44154.687500	1887.586304	2.261633
536.152344	905.155701	42888.425781	1864.923950	2.286073
536.499817	910.134033	41646.824219	1850.509277	2.308423
536.847229	912.883301	40602.796875	1839.289673	2.334110
537.194641	910.728516	39857.687500	1827.103882	2.352880
537.542114	907.533386	39470.125000	1821.754028	2.370745
537.889404	908.647949	39191.640625	1815.066895	2.367681
538.236694	912.363037	38917.015625	1809.196899	2.359800
538.583984	906.418884	38567.199219	1796.416870	2.363196
538.931213	906.938965	38274.296875	1790.844116	2.365447
539.278381	901.514893	37939.789063	1795.228027	2.412945
539.625488	903.223877	37664.273438	1806.744995	2.457822
539.972595	907.682068	37604.609375	1810.534302	2.460294
540.319641	907.013367	37977.457031	1827.624023	2.483409
540.666687	908.499329	38825.550781	1859.351196	2.507716
541.013611	907.533447	40192.199219	1899.994751	2.526333
541.360596	912.140198	41743.566406	1939.895508	2.517070
541.707458	907.384827	43528.613281	1975.189087	2.505334
542.054260	907.756348	45098.855469	2010.483032	2.495359
542.401062	901.514893	46615.222656	2034.928711	2.479374
542.747864	905.007141	47636.437500	2032.328003	2.412340
543.094666	905.007141	48030.093750	2018.061890	2.361915
543.441284	910.802734	47551.656250	1985.294312	2.303756
543.787903	913.997803	46396.847656	1958.991089	2.297554
544.134460	911.397156	44834.261719	1931.870605	2.323331
544.481079	911.025635	43159.328125	1902.892578	2.347708
544.827637	908.425049	41384.386719	1869.605103	2.374694
545.174072	911.322754	39674.234375	1835.128540	2.383221
545.520508	907.013245	38146.718750	1813.877930	2.435209
545.866943	910.356934	36912.476563	1797.308472	2.463609
546.213318	907.682068	35982.949219	1781.110352	2.490155
546.559631	912.065918	35240.519531	1771.228149	2.502770
546.905823	910.505554	34658.652344	1755.921875	2.505075
547.252136	911.100037	34213.433594	1738.535034	2.484616
547.598389	904.932800	33854.402344	1710.225586	2.444024
547.944458	910.505554	33646.203125	1687.637695	2.373959
548.290588	914.072083	33287.621094	1669.433594	2.333267
548.636658	923.880066	32788.750000	1667.650391	2.334139
548.982727	908.350830	32079.904297	1656.058960	2.398687
549.328735	904.264160	31343.634766	1641.495605	2.421967
549.674622	895.199219	30525.861328	1611.551758	2.417606
550.020569	897.279602	29687.501953	1592.827515	2.415917
550.366455	897.948303	28833.244141	1582.276367	2.449690
550.712280	905.601563	28134.353516	1568.233276	2.433573
551.058044	915.706726	27574.037109	1557.533691	2.407604
551.403748	909.316711	27148.060547	1550.103394	2.442139
551.749512	907.087585	26835.021484	1554.190063	2.495773
552.095154	905.378662	26642.875000	1560.802856	2.546573
552.440735	915.855286	26594.650391	1561.620239	2.514779
552.786316	914.666504	26572.734375	1558.796753	2.510439
553.131897	915.855286	26651.345703	1556.790649	2.490473
553.477417	908.425110	26753.882813	1562.809082	2.531911
553.822815	910.579895	26910.218750	1562.511841	2.507465
554.168213	912.883240	26953.757813	1560.728638	2.487802
554.513672	916.969788	26922.773438	1555.899048	2.456872
554.859009	913.849121	26731.296875	1553.892944	2.479114
555.204285	910.951416	26535.583984	1545.348022	2.475729
555.549500	909.911133	26262.890625	1534.648438	2.464157
555.894714	911.545837	26011.228516	1521.942749	2.431891
556.239990	906.195984	25649.968750	1518.450562	2.474378
556.585022	906.790344	25359.224609	1510.797241	2.470130
556.930115	906.493164	25091.210938	1508.716797	2.490100
557.275146	907.013245	24870.460938	1502.029419	2.483016
557.620178	906.716064	24676.453125	1505.967407	2.521069
557.965149	908.870850	24494.187500	1504.852905	2.526920
558.310059	908.276428	24322.548828	1504.035767	2.544428
558.654968	908.796570	24181.599609	1503.069702	2.553509
558.999756	903.075378	24073.859375	1498.462891	2.569561
559.344604	903.892639	24069.400391	1494.004883	2.547374
559.689331	895.570740	23998.740234	1485.757202	2.554569
560.033997	901.291992	23930.601563	1491.032837	2.560827
560.378723	909.836853	23894.046875	1493.633423	2.539990
560.723389	920.536377	23905.337891	1488.060547	2.469128
561.067932	918.010071	23981.724609	1483.973999	2.453915
561.412476	911.025635	23951.779297	1479.515625	2.467324
561.757019	906.195984	23946.726563	1484.048218	2.507981
562.101501	908.499329	23964.335938	1481.150391	2.483757
562.445862	910.208313	24021.474609	1484.865356	2.486480
562.790222	910.877014	24023.630859	1489.323730	2.502717
563.134644	907.830566	24046.070313	1497.794312	2.549735
563.478943	906.567566	24011.962891	1505.001587	2.590019
563.823181	904.709961	23974.367188	1499.131836	2.576639
564.167358	900.549011	23929.041016	1489.249512	2.556401
564.511536	903.000977	23964.041016	1484.494019	2.521539
564.855774	898.171326	23967.085938	1489.918091	2.565126
565.199768	902.778076	24030.837891	1498.165649	2.574308
565.543823	899.954529	24148.013672	1508.196655	2.616314
565.887817	906.270325	24429.843750	1510.500000	2.568613
566.231812	905.304382	24682.771484	1530.487305	2.629308
566.575745	906.121765	24929.603516	1538.809448	2.633622
566.919617	906.047363	25182.529297	1550.028931	2.652697
567.263428	906.493164	25384.927734	1547.502808	2.618671
567.607239	900.846191	25574.849609	1538.660645	2.584965
567.950989	905.527161	25649.671875	1536.654663	2.550614
568.294678	911.099915	25666.759766	1528.109741	2.492399
568.638367	918.232971	25548.468750	1538.958008	2.520175
568.981995	916.078308	25359.521484	1534.871460	2.531530
569.325623	913.552002	25139.134766	1537.174683	2.574232
569.669128	912.585999	24932.576172	1528.629883	2.564713
570.012573	914.294983	24807.523438	1532.493652	2.587338
570.356140	915.335205	24760.119141	1533.533813	2.592595
570.699524	915.558105	24712.640625	1527.441040	2.571252
571.042908	909.836731	24770.890625	1528.778320	2.593941
571.386230	908.053467	24836.054688	1529.967285	2.599105
571.729492	908.573547	25028.869141	1544.159180	2.635066
572.072815	917.861511	25230.380859	1548.542969	2.594060
572.416016	918.381592	25391.693359	1543.044556	2.552425
572.759094	921.353699	25564.593750	1535.168579	2.490804
573.102234	911.768738	25641.052734	1528.109863	2.492353
573.445374	903.818298	25762.091797	1545.942505	2.583141
573.788391	903.075256	25782.822266	1551.515259	2.606297
574.131409	909.242371	25769.296875	1547.800171	2.568610
574.474365	916.821289	25702.423828	1540.815430	2.517567
574.817261	908.647949	25578.416016	1535.094238	2.539328
575.160156	907.607727	25413.609375	1547.948608	2.612996
575.502930	903.223816	25175.173828	1536.357300	2.608499
575.845703	905.675781	24997.218750	1528.852905	2.586705
576.188477	900.920410	24757.443359	1518.153320	2.587271
576.531250	907.979187	24574.361328	1513.100586	2.556882
576.873901	914.889343	24260.804688	1518.004517	2.583386
577.216431	920.016296	24040.646484	1504.778687	2.529180
577.559082	912.585938	23750.865234	1497.051147	2.559147
577.901611	909.093750	23486.343750	1481.521973	2.535420
578.244080	905.304382	23136.455078	1477.212524	2.572553
578.586487	913.180420	22777.052734	1472.457031	2.557994
578.928955	985.774231	22490.837891	1478.921387	2.293168
579.271301	985.997070	22156.328125	1466.438477	2.269409
579.613647	981.241699	21801.013672	1453.509766	2.268363
579.955872	905.973145	21394.576172	1446.896851	2.640120
580.298157	906.567566	21087.705078	1448.308594	2.684393
580.640320	904.487061	20840.724609	1444.444702	2.708423
580.982483	903.000977	20626.509766	1426.834961	2.655886
581.324524	902.035095	20425.072266	1425.051758	2.678972
581.666626	903.223877	20270.822266	1431.219116	2.726178
582.008728	906.047363	20173.857422	1426.389282	2.700576
582.350647	906.567444	20076.150391	1426.166382	2.710539
582.692566	904.635559	20006.677734	1425.200562	2.725180
583.034424	906.567566	19895.000000	1438.946655	2.803702
583.376343	901.663574	19822.109375	1432.333618	2.804744
583.718201	905.230164	19727.000000	1425.274780	2.762995
584.059937	906.344666	19664.439453	1411.157227	2.691172
584.401611	911.397278	19584.638672	1412.717651	2.684699
584.743347	909.391052	19512.193359	1409.819824	2.690072
585.085022	907.607727	19398.361328	1406.847656	2.699944
585.426514	905.229980	19290.845703	1402.018188	2.702048
585.768127	910.877014	19186.523438	1400.829224	2.680902
586.109619	906.195984	19112.146484	1398.971680	2.706674
586.451172	907.161926	19073.880859	1398.228516	2.703111
586.792542	901.217773	19053.447266	1398.005737	2.736788
587.133850	918.158691	19052.853516	1392.730103	2.616925
587.475220	920.387756	19050.251953	1396.445435	2.625821
587.816589	925.514648	19032.640625	1388.940796	2.559358
588.157776	912.808899	19046.609375	1403.652710	2.706789
588.498962	913.774841	19076.478516	1397.559937	2.663618
588.840210	909.390930	19132.951172	1407.516479	2.733415
589.181335	912.734619	19218.843750	1406.030273	2.694705
589.522400	910.802734	19282.226563	1416.506958	2.752668
589.863403	905.750183	19364.033203	1424.308960	2.809355
590.204407	905.230042	19354.076172	1427.429565	2.830527
590.545410	904.412781	19414.556641	1420.519409	2.788237
590.886353	913.626282	19412.996094	1413.460571	2.701899
591.227112	911.991638	19412.847656	1411.826050	2.701683
591.567932	913.700500	19385.283203	1406.773438	2.669359
591.908752	917.341370	19325.246094	1406.104858	2.655183
592.249512	918.232971	19341.591797	1398.674438	2.607784
592.590149	916.524109	19239.500000	1399.789063	2.637480
592.930786	916.375488	19193.507813	1394.885132	2.618078
593.271423	911.694336	19103.750000	1396.222656	2.663406
593.612000	912.288757	19041.783203	1393.621948	2.654973
593.952576	904.487000	19006.562500	1398.377319	2.728363
594.292969	905.601501	18999.798828	1402.761108	2.747619
594.633484	908.202148	19028.406250	1415.764038	2.801083
594.973877	909.985413	19075.439453	1420.445190	2.810058
595.314209	913.106140	19151.453125	1424.160156	2.802085
595.654480	912.734619	19314.992188	1422.674194	2.771071
595.994812	912.140198	19495.326172	1427.949707	2.775679
596.335022	914.146423	19706.046875	1427.875488	2.733779
596.675171	914.072083	19890.765625	1434.116821	2.740439
597.015320	915.038025	20108.619141	1432.705078	2.697084
597.355408	916.524109	20290.291016	1439.912476	2.701531
597.695496	923.508484	20481.470703	1428.692749	2.583011
598.035461	920.685059	20506.957031	1431.739258	2.609247
598.375366	916.524109	20524.195313	1423.937500	2.587831
598.715271	913.031799	20471.958984	1425.869141	2.622011
599.055176	919.124695	20323.353516	1422.154175	2.592371
599.395081	917.192688	20067.232422	1416.878540	2.609320
599.734802	909.985413	19681.380859	1412.940430	2.679369
600.074524	907.904968	19302.064453	1399.863281	2.674535
600.414246	907.384949	18855.652344	1391.169922	2.695441
600.753906	909.688293	18405.601563	1384.185425	2.712045
601.093506	909.985413	18014.472656	1371.553833	2.698523
601.433044	914.072083	17797.806641	1371.702515	2.710481
601.772583	911.099915	17678.400391	1365.312622	2.708920
602.112122	913.626282	17686.650391	1373.188599	2.739890
602.451538	906.790466	17665.623047	1372.668457	2.779895
602.790894	902.555176	17756.048828	1380.767456	2.837467
603.130310	895.347839	17931.400391	1382.550781	2.859835
603.469604	892.821472	18178.978516	1385.077026	2.847687
603.808838	903.966858	18450.406250	1390.500977	2.772837
604.148010	901.886414	18740.410156	1407.293579	2.833234
604.487305	912.065918	19050.919922	1426.612305	2.836709
604.826416	906.344543	19375.623047	1441.101196	2.895385
605.165527	906.344666	19636.351563	1435.900024	2.827310
605.504456	898.617126	19866.466797	1438.426392	2.845917
605.843445	901.217712	20018.490234	1441.324219	2.825228
606.182434	908.425049	20093.759766	1442.067383	2.781512
606.521423	912.585999	20010.689453	1429.733032	2.707845
606.860229	908.053528	19832.734375	1420.444946	2.707530
607.199036	909.390930	19541.392578	1412.866211	2.702207
607.537903	911.248535	19247.822266	1401.572266	2.674020
607.876648	917.712891	18830.986328	1392.655884	2.651347
608.215271	915.929688	18475.595703	1392.432983	2.713624
608.553955	917.341492	18115.298828	1389.015015	2.742614
608.892578	923.880066	17879.388672	1392.953125	2.766494
609.231140	921.948181	17726.251953	1396.668335	2.824991
609.569641	917.564270	17692.742188	1404.841431	2.904751
609.908081	905.007141	17735.761719	1414.055176	3.024511
610.246521	902.406555	17805.904297	1415.986938	3.038308
610.584961	905.304382	17856.207031	1419.924927	3.035948
610.923340	907.087585	17892.466797	1416.135620	2.996978
611.261597	911.842957	17852.195313	1421.262329	3.007136
611.599854	913.329041	17749.283203	1424.754761	3.037699
611.938110	913.849121	17623.341797	1410.934448	2.974868
612.276245	908.647949	17393.748047	1393.473267	2.940991
612.614319	907.236267	17113.033203	1375.492065	2.889434
612.952393	906.790466	16754.150391	1372.371216	2.937907
613.290466	910.282715	16446.908203	1364.197998	2.921582
613.628479	910.059814	16151.034180	1353.721191	2.910978
613.966370	910.059753	15892.164063	1345.845093	2.908706
614.304260	906.493225	15652.387695	1338.786255	2.931616
614.642151	902.183655	15429.925781	1337.969116	2.999678
614.979980	908.945251	15198.695313	1328.309692	2.934722
615.317749	911.917297	15004.541992	1324.148804	2.925158
615.655396	909.762451	14871.987305	1324.966187	2.973765
615.993164	904.264099	14815.739258	1320.953857	2.995295
616.330811	904.932861	14782.749023	1324.000122	3.019692
616.668396	901.291992	14738.463867	1318.353271	3.014065
617.005859	912.065918	14734.526367	1320.285156	2.953304
617.343445	915.260925	14717.140625	1320.582153	2.936710
617.680908	921.353699	14755.183594	1317.238647	2.861716
618.018311	915.483826	14778.588867	1322.959961	2.939285
618.355652	899.954590	14797.015625	1316.124146	2.994659
618.692993	909.985413	14800.062500	1316.124146	2.923949
619.030273	905.452942	14784.012695	1307.207886	2.894789
619.367554	914.369324	14784.606445	1310.179932	2.853669
619.704712	906.344543	14773.015625	1307.356323	2.891911
620.041870	904.635681	14805.041992	1314.415161	2.947968
620.379028	910.654114	14794.489258	1302.898193	2.825185
620.716064	905.527161	14735.567383	1304.607178	2.885603
621.053040	900.549011	14609.698242	1298.440063	2.902376
621.389954	898.171204	14531.160156	1309.436890	3.016695
621.726929	905.824463	14476.843750	1309.288208	2.972980
622.063843	912.883240	14431.296875	1308.322266	2.925188
622.400635	912.288818	14368.660156	1306.241821	2.927632
622.737427	914.220703	14329.799805	1312.854858	2.971427
623.074219	907.459167	14275.632813	1305.796143	2.979741
623.410889	901.737854	14225.106445	1302.675415	3.009281
623.747559	894.233215	14174.284180	1298.068604	3.040917
624.084167	896.462219	14124.948242	1298.514404	3.039291
624.420715	902.406494	14129.257813	1299.108887	2.999220
624.757324	909.242371	14133.715820	1303.121094	2.978408
625.093750	913.626282	14184.835938	1309.139648	2.980236
625.430176	915.781006	14182.606445	1304.161255	2.927454
625.766602	920.536438	14232.983398	1296.210938	2.821979
626.102905	923.211365	14314.047852	1302.155151	2.829874
626.439209	917.192810	14456.782227	1313.300537	2.925552
626.775452	909.168152	14577.301758	1321.548218	3.017091
627.111694	907.236267	14693.734375	1325.932007	3.036999
627.447876	920.833679	14787.132813	1321.028076	2.886094
627.783997	923.880066	14866.414063	1320.285034	2.843134
628.120056	923.137024	14953.867188	1313.374878	2.781308
628.456055	917.787292	14969.545898	1316.198364	2.835311
628.792053	916.301086	14990.127930	1313.374878	2.821363
629.128052	921.799561	14920.656250	1309.659668	2.770656
629.463928	918.010071	14836.618164	1310.402710	2.819195
629.799744	913.180420	14692.694336	1306.093262	2.851428
630.135559	905.601563	14554.120117	1304.087036	2.919624
630.471375	905.378662	14397.563477	1296.433960	2.898384
630.807068	910.134033	14215.299805	1298.737183	2.920694
631.142700	912.660339	14030.286133	1302.080933	2.968682
631.478333	909.762512	13850.843750	1298.885864	3.006884
631.813965	903.966980	13718.363281	1293.164551	3.037190
632.149475	904.932861	13596.208008	1290.786743	3.040308
632.484924	909.242432	13517.448242	1291.306885	3.030284
632.820435	910.802795	13409.188477	1290.489624	3.037887
633.155884	915.632385	13342.242188	1291.604248	3.025539
633.491150	917.638611	13300.410156	1292.198730	3.024849
633.826477	918.010071	13267.567383	1290.712524	3.017942
634.161804	909.836853	13176.325195	1284.025391	3.050494
634.497009	906.641785	13095.038086	1275.777710	3.028585
634.832153	912.734619	13026.901367	1272.062622	2.966180
635.167297	907.161926	12961.960938	1270.650757	3.015304
635.502380	906.864746	12870.643555	1267.455811	3.014023
635.837463	900.028809	12778.434570	1264.335205	3.066964
636.172424	903.892578	12742.174805	1254.750122	2.963754
636.507324	901.514954	12664.601563	1253.412598	2.991542
636.842224	902.332275	12597.135742	1247.617065	2.952463
637.177124	905.973083	12443.253906	1246.205200	2.948980
637.511963	906.195984	12289.075195	1237.586060	2.911303
637.846741	904.784180	12141.139648	1234.019653	2.930091
638.181396	900.846191	12038.674805	1239.517944	3.040734
638.516113	902.926575	11965.710938	1245.982300	3.100989
638.850769	908.945129	11874.911133	1240.186890	3.020635
639.185303	911.099915	11773.563477	1229.709961	2.933129
639.519836	911.099915	11663.743164	1226.143433	2.929917
639.854370	914.963684	11552.735352	1228.223999	2.944793
640.188843	914.072083	11452.352539	1221.462524	2.916894
640.523254	910.059753	11355.535156	1223.542969	3.001139
640.857605	903.521057	11263.920898	1223.171387	3.085309
641.191895	905.601501	11151.204102	1221.610962	3.084342
641.526184	901.960632	11070.214844	1215.072388	3.079307
641.860413	904.487000	10988.704102	1212.991821	3.059284
642.194580	902.926697	10926.885742	1217.598755	3.139199
642.528748	909.762512	10870.190430	1211.505859	3.029422
642.862793	908.945129	10801.535156	1213.363403	3.077235
643.196838	912.734619	10748.854492	1211.134399	3.033714
643.530823	912.437439	10673.065430	1210.317017	3.051848
643.864746	909.613953	10635.988281	1207.642090	3.064124
644.198669	903.372498	10603.592773	1202.217896	3.080810
644.532532	895.570618	10563.246094	1206.601929	3.217229
644.866333	897.428223	10493.773438	1210.391235	3.261273
645.200073	907.459167	10476.238281	1216.409790	3.228736
645.533813	921.502441	10472.894531	1215.443970	3.077473
645.867554	916.895569	10489.538086	1203.481201	2.993798
646.201172	911.099915	10456.325195	1205.784668	3.087248
646.534729	912.734680	10448.821289	1207.567749	3.091762
646.868225	913.403320	10450.083008	1210.540039	3.115725
647.201782	909.168152	10458.406250	1207.047729	3.119407
647.535217	902.183594	10459.817383	1210.688477	3.227838
647.868591	903.000977	10500.237305	1218.192993	3.284196
648.201965	908.276550	10495.259766	1212.991821	3.178427
648.535278	912.585999	10498.974609	1200.434692	3.002681
648.868591	914.146484	10452.535156	1194.119019	2.935218
649.201782	906.641785	10443.841797	1187.505981	2.944933
649.534912	905.229980	10427.420898	1189.437988	2.984691
649.868103	905.527161	10403.941406	1189.660889	2.991381
650.201172	910.951355	10381.501953	1191.964355	2.967230
650.534180	904.487061	10328.821289	1201.177856	3.148135
650.867188	902.332214	10309.577148	1197.982788	3.142797
651.200134	901.663574	10277.180664	1204.595703	3.231098
651.533020	899.657410	10247.311523	1191.369751	3.120701
651.865845	896.685303	10202.060547	1189.660889	3.148455
652.198608	902.555176	10153.020508	1194.861938	3.159914
652.531433	905.824463	10140.018555	1202.218018	3.209739
652.864136	906.641785	10100.489258	1204.075562	3.235139
653.196777	1205.338745	10396.436523	1489.769653	3.094635
653.529358	1221.908203	10346.059570	1501.955444	3.069296
653.861938	1224.583130	10270.493164	1494.450684	2.983310
654.194519	918.827454	9856.329102	1195.010620	3.090161
654.526978	908.425049	9789.309570	1181.710571	3.077233
654.859375	909.688171	9720.950195	1177.475220	3.039145
655.191833	908.722229	9689.891602	1182.750610	3.120637
655.524170	899.583008	9634.165039	1181.636230	3.229155
655.856445	897.428223	9597.161133	1193.078735	3.398386
656.188660	911.917297	9560.010742	1201.995117	3.354240
656.520874	918.381653	9509.485352	1202.886719	3.311624
656.853088	923.211243	9483.478516	1198.948730	3.221132
657.185181	909.390930	9474.785156	1190.106812	3.277326
657.517212	900.103210	9490.538086	1185.945679	3.327451
657.849243	892.004150	9537.125000	1187.060181	3.412977
658.181274	899.731628	9572.196289	1194.787598	3.402216
658.513123	903.075256	9620.865234	1190.998413	3.302708
658.844971	909.391052	9715.303711	1197.091064	3.267123
659.176819	903.743958	9839.909180	1198.800049	3.301820
659.508667	914.443604	9986.434570	1211.282959	3.272042
659.840393	910.431213	10106.358398	1210.019897	3.257841
660.172058	906.864746	10178.209961	1208.608032	3.254579
660.503662	898.840027	10238.394531	1208.979492	3.320709
660.835266	903.966980	10252.290039	1208.756592	3.260367
661.166931	908.796631	10222.642578	1210.688477	3.241323
661.498413	910.282654	10187.200195	1200.360352	3.126876
661.829773	913.774902	10106.061523	1197.908447	3.090999
662.161194	919.347473	9978.631836	1189.958130	2.987109
662.492615	919.941895	9807.214844	1182.602051	2.955464
662.823975	917.564270	9604.221680	1176.806519	2.984373
663.155212	908.276428	9451.157227	1169.599121	3.058953
663.486450	905.750183	9269.413086	1166.924194	3.122723
663.817627	904.041199	9117.538086	1163.803589	3.162628
664.148743	909.539612	8980.895508	1164.472168	3.158485
664.479858	909.093811	8864.685547	1172.571289	3.311853
664.810913	912.511719	8771.584961	1165.883911	3.223945
665.141907	915.929688	8686.656250	1154.515625	3.070317
665.472778	916.969910	8617.035156	1148.645874	3.008753
665.803711	920.462097	8558.856445	1154.069946	3.058337
666.134583	918.307312	8516.281250	1156.298950	3.132304
666.465454	918.753113	8487.301758	1158.230835	3.164117
666.796143	908.276550	8440.417969	1152.880981	3.247475
667.126831	902.406555	8423.848633	1158.305054	3.402253
667.457458	897.948425	8400.815430	1152.732422	3.395822
667.788147	900.028809	8381.125000	1153.252563	3.384848
668.118774	902.778076	8352.219727	1148.794434	3.302481
668.449219	906.121643	8323.316406	1152.063721	3.315837
668.779663	914.889404	8337.731445	1148.348511	3.145144
669.110107	917.935791	8307.043945	1141.289795	3.022746
669.440552	921.130798	8270.784180	1142.627197	3.013699
669.770874	911.099915	8241.137695	1146.639526	3.213348
670.101135	908.053528	8226.648438	1150.280396	3.309746
670.431396	914.666504	8207.106445	1149.611694	3.221764
670.761597	914.369324	8155.243652	1149.165894	3.242655
671.091797	916.449707	8116.457520	1141.958618	3.132065
671.421875	911.917297	8080.644043	1131.853394	3.067994
671.751892	920.090576	8052.408691	1127.841064	2.912804
672.081909	922.022400	8004.260254	1132.373535	2.970123
672.411865	916.375427	7955.369629	1134.602539	3.100260
672.741821	911.545715	7882.033203	1133.190796	3.179765
673.071716	905.973083	7829.649902	1128.955444	3.220577
673.401550	905.527161	7804.238281	1131.927612	3.281779
673.731262	902.778015	7799.631348	1134.825317	3.364539
674.060974	898.617126	7764.263184	1130.664551	3.379834
674.390625	899.731628	7722.653809	1127.469604	3.337836
674.720276	898.022705	7677.254395	1119.296265	3.263992
675.049927	904.412781	7636.685059	1122.491211	3.239299
675.379395	900.697571	7586.531250	1119.667725	3.275136
675.708923	905.007141	7529.763184	1127.246582	3.354681
676.038330	903.892578	7478.345703	1131.630493	3.463983
676.367737	906.418884	7430.123535	1133.933838	3.487512
676.697083	909.613953	7413.702637	1124.274536	3.300394
677.026428	913.254822	7397.281738	1123.382813	3.240702
677.355652	915.186707	7390.371582	1116.844238	3.114313
677.684875	913.403381	7388.514160	1125.611938	3.277296
678.013977	905.898743	7383.461426	1128.509766	3.436648
678.343079	907.979309	7379.746094	1128.212524	3.402985
678.672180	908.945129	7348.390625	1119.742065	3.273526
679.001221	911.100037	7359.387207	1108.373657	3.059318
679.330139	914.294983	7382.644531	1116.844116	3.131388
679.659058	910.431213	7418.012207	1116.398315	3.165033
679.987976	914.220703	7479.980957	1122.639771	3.174333
680.316772	910.431213	7528.500000	1118.404541	3.142508
680.645630	907.756348	7601.094238	1123.382813	3.221509
680.974304	912.957520	7637.725098	1129.550049	3.220818
681.302979	912.363098	7671.161621	1131.853394	3.247475
681.631653	913.254700	7692.857910	1136.014282	3.285732
681.960266	910.654114	7708.981934	1136.385864	3.320401
682.288757	913.774841	7736.548340	1143.147461	3.361868
682.617249	910.654114	7745.984863	1147.308350	3.462221
682.945679	900.177429	7728.969238	1146.193726	3.602633
683.274109	896.016418	7723.173828	1143.370239	3.623087
683.602478	904.784180	7656.746582	1142.552856	3.521475
683.930725	913.180481	7581.254395	1138.243530	3.375233
684.259033	908.648010	7476.339844	1129.178589	3.357810
684.587280	903.223938	7402.928223	1120.559448	3.343776
684.915344	901.217712	7340.812012	1124.348755	3.464986
685.243469	903.743958	7269.183594	1129.698608	3.549710
685.571533	903.966858	7177.643066	1128.286743	3.575573
685.899536	898.171204	7075.922363	1121.822510	3.620271
686.227539	896.090820	6996.344238	1111.940308	3.538369
686.555420	903.595398	6959.490234	1116.472656	3.515207
686.883301	901.069092	6965.137207	1114.243530	3.515370
687.211121	900.697571	6965.880371	1121.896851	3.647034
687.538940	893.044434	6962.982910	1111.568726	3.600107
687.866638	902.555176	6954.809082	1114.763672	3.506272
688.194336	906.121643	6934.673340	1114.392212	3.454736
688.521973	903.595398	6930.437500	1127.989624	3.723247
688.849609	908.053528	6903.392090	1123.977173	3.601526
689.177063	909.613953	6904.580566	1123.011230	3.559607
689.504578	914.369324	6867.800781	1117.067017	3.404720
689.832031	911.768616	6839.490723	1119.593384	3.505980
690.159485	914.072083	6763.925293	1119.296265	3.508194
690.486816	918.084473	6690.365234	1108.150757	3.292742
690.814087	923.434143	6583.295410	1109.265259	3.283316
691.141296	922.022461	6489.079590	1101.017700	3.215258
691.468506	917.712891	6383.644043	1102.875122	3.387570
691.795715	904.932800	6302.876465	1088.757690	3.405461
692.122803	903.372498	6227.013672	1086.454346	3.439034
692.449829	902.406555	6173.664063	1078.801147	3.346348
692.776855	903.000977	6102.705566	1082.813354	3.458127
693.103821	900.177429	6024.984375	1078.429565	3.478221
693.430664	903.075256	5928.911621	1077.389526	3.468363
693.757568	902.332214	5867.165527	1071.742432	3.412203
694.084351	905.750183	5810.769531	1073.822876	3.426545
694.411133	904.561279	5774.732910	1081.624634	3.635669
694.737854	910.356934	5728.739746	1082.664917	3.576054
695.064575	909.093811	5706.300781	1076.720825	3.494263
695.391174	916.301208	5690.474121	1075.829102	3.341477
695.717773	916.895569	5670.412109	1069.439087	3.209067
696.044250	922.171082	5653.917480	1069.216187	3.107629
696.370789	908.425049	5659.489746	1063.346191	3.260767
696.697205	907.904968	5666.474121	1068.250244	3.369611
697.023621	902.852295	5698.646973	1071.296753	3.512336
697.349915	919.050354	5741.148438	1070.405151	3.138775
697.676208	920.536316	5815.599609	1073.154175	3.117791
698.002380	924.177185	5904.912109	1079.618530	3.120852
698.328674	911.025574	6020.006348	1090.541138	3.513726
698.654724	907.310547	6118.903809	1092.993164	3.562876
698.980896	899.954590	6234.146484	1094.776367	3.652320
699.306946	906.790466	6334.083984	1096.633911	3.497940
699.632935	902.480896	6458.466797	1106.590454	3.673687
699.958862	908.350769	6528.385254	1104.509888	3.490354
700.284729	906.047363	6558.032715	1104.212769	3.506120
700.610596	915.632507	6532.992188	1103.766968	3.349162
700.936340	912.511719	6457.946777	1105.030151	3.471656
701.262146	906.493164	6333.267090	1101.017700	3.584534
701.587830	903.520996	6184.363770	1088.609131	3.504898
701.913513	904.487000	6036.278809	1082.962158	3.477833
702.239075	913.997803	5897.406738	1075.903442	3.248893
702.564697	907.682068	5749.990723	1077.686646	3.510817
702.890137	902.555176	5587.490234	1072.113892	3.619233
703.215698	891.186829	5445.646484	1067.581543	3.873011
703.541016	893.267273	5310.043457	1054.875732	3.658969
703.866455	895.347839	5216.793457	1055.767334	3.712172
704.191711	899.062927	5133.500488	1053.463989	3.646318
704.517029	900.771912	5079.779297	1053.241089	3.648454
704.842163	902.480896	5031.334473	1049.228638	3.554201
705.167419	900.994812	4991.359863	1049.897461	3.640327
705.492493	900.549011	4942.542480	1050.046021	3.698596
705.817566	900.325989	4896.846680	1049.600220	3.735105
706.142578	903.000977	4852.710938	1045.365112	3.604420
706.467590	915.929626	4836.884277	1040.981323	3.189318
706.792480	918.381653	4821.058105	1044.101929	3.221386
707.117371	921.205078	4806.494629	1050.046021	3.316122
707.442200	910.877014	4800.550293	1059.036621	3.809050
707.766907	918.753113	4810.135254	1055.172974	3.505692
708.091675	916.672668	4811.026855	1051.903687	3.472489
708.416321	915.706726	4814.667969	1048.411499	3.403593
708.741028	910.728455	4813.701660	1050.640503	3.584756
709.065552	913.329041	4847.955566	1050.640503	3.489822
709.390137	913.329041	4856.797852	1052.423706	3.527216
709.714600	906.938965	4877.974121	1048.411377	3.562608
710.039063	906.567566	4887.633301	1045.662231	3.493905
710.363403	912.140198	4930.877441	1053.463989	3.516622
710.687744	911.025696	4976.647949	1061.265747	3.695376
711.012085	912.214539	5030.145996	1069.364746	3.816241
711.336304	905.824402	5071.829590	1067.730103	3.886354
711.660461	914.740723	5111.804199	1065.203735	3.584959
711.984619	914.963684	5145.463379	1069.587769	3.654984
712.308716	913.254700	5169.314453	1067.135742	3.615575
712.632751	905.378601	5188.039063	1069.587769	3.834279
712.956726	907.607727	5177.562500	1065.946899	3.708217
713.280701	911.397156	5157.277832	1069.067505	3.713490
713.604553	918.455872	5101.847656	1072.782715	3.689037
713.928467	914.220703	5061.873047	1072.857056	3.824726
714.252258	914.443665	5001.761719	1058.888062	3.533965
714.575989	906.641846	4962.083984	1053.241089	3.614877
714.899719	906.864746	4879.905762	1043.135864	3.429895
715.223267	903.818298	4830.791504	1048.559937	3.685832
715.546936	904.115479	4774.172852	1044.621948	3.630604
715.870422	902.778076	4752.104980	1049.748901	3.818092
716.193970	900.623352	4706.036621	1047.296875	3.854339
716.517395	900.846191	4653.207520	1044.547607	3.829626
716.840820	897.056824	4621.777832	1044.621948	3.961777
717.164124	898.022644	4591.388184	1042.095703	3.900861
717.487488	900.920471	4560.329590	1050.566162	4.089340
717.810730	908.945129	4524.738281	1044.250488	3.742066
718.133972	908.425110	4473.023926	1035.705688	3.570684
718.457092	914.443604	4438.844238	1019.953430	2.993695
718.780212	906.864746	4386.980957	1018.393127	3.204731
719.103210	900.994812	4342.770996	1025.600464	3.620388
719.426208	892.078430	4256.134277	1029.241333	4.077308
719.749207	898.468506	4188.593262	1031.990356	4.058261
720.072083	909.093750	4122.091797	1024.411621	3.589105
720.394958	909.168152	4083.603271	1016.164001	3.370548
720.717773	905.527344	4022.600586	1008.139343	3.291934
721.040527	903.669739	3985.895264	1011.185730	3.488258
721.363281	905.229980	3940.198975	1019.433350	3.762917
721.685913	911.620056	3920.137451	1011.185730	3.309460
722.008545	917.341370	3895.691650	1002.640930	2.863987
722.331055	916.746887	3874.367188	994.987732	2.645399
722.653503	905.230042	3835.358154	999.297180	3.210342
722.976013	903.372559	3819.159912	1001.303406	3.358642
723.298401	907.533447	3811.729248	1003.681152	3.310648
723.620789	914.443604	3802.218750	1006.950500	3.203397
723.943115	915.781067	3777.104248	1009.253845	3.266768
724.265381	917.341370	3768.262451	1010.516907	3.268261
724.587585	914.889404	3753.253174	1009.699707	3.340315
724.909790	912.140198	3741.662109	1008.659424	3.411150
725.231873	906.493164	3744.559814	1012.151672	3.722904
725.553894	908.499329	3758.602783	1016.312683	3.782787
725.875916	968.238770	3847.915039	1090.764038	4.254828
726.197937	967.644348	3838.255859	1080.807251	3.942118
726.519775	970.319336	3842.193604	1076.943726	3.712711
726.841675	906.121765	3790.924805	1005.167236	3.433353
727.163513	908.276428	3815.221924	1004.870056	3.322856
727.485291	902.109314	3828.373291	1008.510925	3.636091
727.806946	906.418884	3842.268311	1017.724365	3.791253
728.128662	905.898743	3860.769287	1029.984375	4.199359
728.450256	910.876953	3866.119141	1039.272095	4.344657
728.771790	913.774841	3874.366455	1040.683960	4.286613
729.093323	915.409424	3877.339111	1042.392944	4.287189
729.414795	920.462097	3910.255127	1031.024536	3.697996
729.736145	919.421814	3919.914063	1025.377563	3.531279
730.057495	922.245361	3925.412842	1017.947266	3.186699
730.378845	914.443542	3924.669678	1022.925537	3.603782
730.700134	903.149597	3910.775391	1016.089661	3.755124
731.021301	899.583008	3893.165283	1011.334412	3.733033
731.342468	903.892639	3889.153076	1003.532532	3.337729
731.663574	918.976074	3899.481201	1005.464417	2.901802
731.984680	919.421875	3916.199219	1004.498535	2.838938
732.305664	913.180481	3917.536377	1009.551086	3.207696
732.626648	911.917297	3929.870850	1014.009277	3.382821
732.947571	911.397156	3946.291748	1030.727295	3.931937
733.268433	916.524109	3958.106201	1032.584839	3.815801
733.589233	905.304382	3950.527344	1037.711792	4.348037
733.909973	903.223816	3943.542725	1029.241333	4.144878
734.230713	899.805969	3922.589111	1033.105103	4.409814
734.551331	903.818359	3891.827881	1019.953430	3.886703
734.871948	903.298157	3842.416748	1017.650085	3.890688
735.192505	902.778076	3788.324463	1010.071228	3.718296
735.513062	904.709961	3744.188721	1010.888489	3.739367
735.833435	907.384766	3707.408936	1005.018555	3.486891
736.153931	915.260925	3657.625732	1007.396301	3.359705
736.474304	913.551941	3605.167969	1004.275574	3.370601
736.794617	911.768738	3545.651367	1009.773987	3.720942
737.114807	903.595398	3510.580811	1001.006287	3.736534
737.434998	905.675781	3491.782227	1006.281738	3.890248
737.755188	910.282654	3475.584229	1007.321960	3.782764
738.075256	905.378662	3480.785156	1008.362122	3.998726
738.395325	906.641785	3485.912109	1009.625305	3.992739
738.715271	907.979248	3516.896240	1012.300293	3.998634
739.035278	919.496155	3531.534180	1014.455078	3.635434
739.355164	923.805725	3537.701172	1007.842102	3.214986
739.675049	922.245361	3542.828125	1006.133118	3.201111
739.994873	923.508484	3548.772217	1009.105286	3.260503
740.314636	913.626282	3554.939453	1010.962891	3.685160
740.634277	915.038025	3540.747314	1008.065002	3.542928
740.953979	906.195862	3516.004639	1009.699707	3.965955
741.273499	908.127747	3481.974365	1013.712097	4.102201
741.593140	899.880188	3457.305664	1012.374695	4.398740
741.912598	900.697510	3425.058350	1006.801941	4.203220
742.232117	901.291992	3381.814209	1004.721375	4.169662
742.551453	902.109314	3328.167236	988.523438	3.561915
742.870850	904.338379	3294.136719	981.241760	3.217986
743.190063	906.121643	3260.254639	977.303711	3.023706
743.509338	908.499329	3230.310791	985.105469	3.299412
743.828552	910.877014	3195.314453	988.077576	3.379412
744.147705	914.740784	3162.843750	986.591492	3.196059
744.466797	917.118469	3130.670898	986.665833	3.141889
744.785828	919.644775	3101.915771	988.003357	3.132452
745.104858	909.836853	3091.884766	990.009460	3.674191
745.423706	912.957520	3077.024170	996.176575	3.845494
745.742615	911.991516	3060.231689	997.365417	3.974132
746.061401	923.062683	3035.340576	1004.870056	3.872946
746.380249	920.090576	3017.284912	998.479980	3.737823
746.698975	918.232971	2996.554443	998.331360	3.853994
747.017639	913.329102	2990.015625	990.455322	3.713908
747.336304	914.815125	2971.885986	991.495544	3.727651
747.654907	918.010071	2970.028320	988.597717	3.439913
747.973389	914.666504	2955.167969	989.266418	3.655960
748.291931	917.935791	2947.960205	991.421204	3.619928
748.610352	915.038025	2949.892578	990.009460	3.684363
748.928711	913.403320	2949.149414	987.706055	3.649902
749.247070	910.282715	2960.740479	986.517273	3.717929
749.565308	912.214539	2954.945068	983.396484	3.484647
749.883545	910.282532	2961.929443	980.870178	3.440536
750.201782	911.917236	2954.870361	982.059082	3.433356
750.519836	908.276428	2939.118408	986.665771	3.859943
750.837952	907.904968	2935.106201	988.374695	3.969499
751.155884	906.864746	2921.954346	978.789734	3.569319
751.473877	901.663513	2913.632813	975.446106	3.667183
751.791809	909.465332	2896.766357	975.520447	3.323861
752.109619	903.000977	2892.531006	980.647400	3.902752
752.427490	908.053528	2884.654541	979.830017	3.631309
752.745300	904.561340	2868.307861	980.795898	3.882097
753.062988	899.805969	2857.459717	977.006409	3.943518
753.380615	891.409729	2847.875000	981.018799	4.580151
753.698303	895.793640	2839.998779	976.114929	4.131318
754.015808	899.285828	2825.435547	975.223206	3.942444
754.333374	909.019531	2823.875000	974.405823	3.414685
754.650757	906.790466	2824.097900	973.514221	3.480076
754.968262	912.883301	2826.326904	977.526611	3.378376
755.285583	914.517883	2819.862549	974.554504	3.150959
755.602905	912.065918	2806.116455	979.384277	3.554201
755.920105	909.019531	2803.664795	976.857910	3.580532
756.237305	902.332214	2788.878174	976.040527	3.907051
756.554443	901.886414	2783.899658	980.572937	4.180976
756.871582	902.555115	2766.884766	984.288086	4.384041
757.188599	903.818298	2768.816406	995.507874	4.916336
757.505615	904.412781	2772.011719	992.907227	4.738408
757.822510	904.264160	2771.491455	999.074402	5.077595
758.139465	911.843018	2778.253174	999.148682	4.677732
758.456238	906.567566	2794.673828	999.668884	4.930936
758.773010	905.452942	2826.921631	996.622375	4.744778
759.089783	896.090820	2853.373047	984.139587	4.498522
759.406433	901.291992	2868.456299	983.396484	4.173748
759.723145	908.276428	2861.917969	980.721680	3.708216
760.039673	915.558105	2864.518311	988.746338	3.755245
760.356201	918.158691	2867.713623	993.055908	3.841760
760.672668	909.985413	2891.490234	994.913391	4.286034
760.989136	902.183594	2890.598633	990.455261	4.439298
761.305481	903.000977	2890.747314	978.864014	3.816535
761.621826	910.059753	2871.948486	986.814453	3.912286
761.938049	924.028625	2876.778320	991.495422	3.454964
762.254333	927.000793	2882.425537	1002.640869	3.868217
762.570496	925.143250	2925.669678	996.028015	3.543306
762.886597	915.186584	2972.554688	1003.012451	4.268846
763.202637	907.756348	3055.922607	999.966064	4.292485
763.518677	907.161926	3161.878174	1008.956726	4.514750
763.834656	908.425110	3311.895508	1007.247742	4.111664
764.150574	911.174316	3460.128906	1022.851257	4.381284
764.466370	915.186584	3599.744141	1028.721191	4.229174
764.782288	912.065857	3683.557373	1039.420776	4.595176
765.097961	913.180420	3736.609619	1039.792358	4.484332
765.413696	907.161926	3721.600342	1036.374390	4.591057
765.729309	906.418884	3655.991455	1026.566406	4.369680
766.044861	903.223877	3536.586670	1018.913269	4.393219
766.360474	900.028809	3388.723877	1007.321960	4.311221
766.675903	902.183594	3222.211670	1001.229187	4.269155
766.991394	910.059753	3065.135742	998.034180	4.082196
767.306763	904.041199	2944.542236	992.535828	4.336907
767.622131	903.818359	2866.524658	985.922852	4.183228
767.937378	900.103210	2803.218750	977.080811	4.044820
768.252625	912.363098	2738.649658	974.257263	3.389072
768.567810	911.545715	2672.148682	971.582336	3.410003
768.882996	906.344543	2622.440430	973.068359	3.888117
769.197998	907.533447	2586.775146	974.182922	3.969022
769.513062	913.997742	2550.069580	983.322083	4.237243
769.828064	917.564270	2502.812744	976.709290	3.730962
770.142944	910.505554	2463.803955	979.012695	4.410430
770.457825	903.966980	2432.745361	969.650574	4.296476
770.772705	898.022705	2406.218994	970.467834	4.803429
771.087402	903.000977	2382.516846	961.997314	3.987543
771.402100	894.753357	2357.105225	958.802246	4.379855
771.716736	898.022705	2329.167480	955.458679	4.013289
772.031372	905.081360	2294.913818	960.065430	3.956165
772.345947	910.505554	2276.338135	966.083984	4.069198
772.660461	909.911133	2261.106201	970.467773	4.481709
772.974854	904.338440	2243.347656	973.291321	5.149545
773.289246	901.663574	2227.447021	963.929199	4.696516
773.603638	904.041199	2221.948486	955.755859	3.923999
773.917908	902.406494	2207.236572	942.604309	3.080693
774.232178	913.626282	2182.270752	943.050110	2.319312
774.546265	915.260925	2156.933838	947.359680	2.585122
774.860474	914.443542	2135.534668	960.882813	3.803096
775.174561	911.397156	2120.302490	966.232605	4.535959
775.488586	909.168030	2112.426514	974.034363	5.390889
775.802551	912.585999	2109.083008	964.597900	4.347014
776.116516	911.768738	2106.779297	970.022034	4.874710
776.430359	910.356995	2096.005615	964.375000	4.555987
776.744202	909.019531	2092.810303	972.325378	5.347723
777.057922	908.425110	2078.098389	972.473938	5.475788
777.371704	908.796631	2061.900635	967.347107	5.077641
777.685303	901.514954	2049.120605	958.505066	4.966001
777.998962	903.446777	2048.749023	956.127441	4.599717
778.312500	903.595398	2047.634766	951.669250	4.202116
778.626038	906.195984	2034.631470	955.830261	4.398503
778.939453	910.505554	2022.743042	951.000549	3.640858
779.252869	916.821289	2014.644043	960.065430	3.939082
779.566223	923.731445	2017.913452	958.653748	3.191636
779.879578	919.421875	2017.616089	959.768250	3.673883
780.192749	916.524109	2012.637695	961.700195	4.121479
780.505920	909.465332	2003.201538	959.916809	4.612765
780.819031	908.870911	1995.176758	956.721863	4.404924
781.132141	917.712891	1991.312866	962.220215	4.145615
781.445190	920.610779	1990.495483	967.867249	4.416968
781.758118	920.239197	1982.916626	973.439941	5.006293
782.071045	907.236267	1974.520508	961.551514	5.089108
782.383911	908.127869	1960.402954	954.046875	4.363783
782.696838	905.601563	1943.313477	952.783691	4.546746
783.009583	909.019470	1928.898560	950.777588	4.094419
783.322266	909.539551	1917.753296	950.554688	4.068099
783.634888	910.654114	1906.459106	943.495911	3.298015
783.947510	911.545837	1904.007202	938.369080	2.702699
784.260132	912.883240	1889.815430	939.632263	2.738064
784.572571	917.564270	1877.704102	936.585754	1.981116
784.885010	922.839844	1860.465820	942.752930	2.123777
785.197449	917.192810	1847.239868	942.381348	2.708308
785.509766	909.613953	1849.023071	946.393738	3.915204
785.822083	896.462341	1835.648560	950.480469	5.751589
786.134277	899.062805	1836.688843	950.851990	5.523437
786.446533	902.257996	1833.196655	953.601074	5.515194
786.758606	913.626221	1839.215210	950.183167	3.949587
787.070740	915.186707	1837.580566	949.365906	3.705489
787.382690	911.322937	1841.370117	946.765198	3.810802
787.694641	904.561340	1850.583496	947.285400	4.516180
788.006653	902.555176	1879.784546	953.378235	5.200730
788.318481	908.647949	1891.821655	957.539246	4.972804
788.630310	908.945129	1916.490234	956.127441	4.682898
788.942017	902.257996	1920.651001	953.452576	5.026997
789.253784	902.406555	1941.827148	956.127441	5.168349
789.565430	900.549011	1959.957153	957.539246	5.379440
789.877014	913.626221	1970.805298	960.882813	4.470065
790.188538	913.106140	1969.096313	952.115051	3.694060
790.500061	918.901672	1938.780762	956.647522	3.701012
790.811462	913.031799	1916.712891	950.183289	3.701523
791.122925	912.660339	1887.734863	956.796204	4.526409
791.434204	917.192810	1866.410156	951.149170	3.577301
791.745483	918.084473	1832.973999	951.297668	3.630296
792.056702	915.335266	1805.333374	943.867432	3.205868
792.367920	909.911133	1779.698853	941.786926	3.664778
792.678955	910.728516	1767.735962	948.028503	4.352353
792.990112	920.982239	1765.729858	948.251282	3.228070
793.301086	919.421875	1747.822876	944.164734	2.986821
793.612122	921.576660	1740.838379	941.266907	2.403414
793.922974	913.031799	1726.943848	939.483582	3.249956
794.233826	910.951355	1738.163574	943.124512	3.889347
794.544556	907.607727	1743.290405	938.889160	3.743219
794.855286	902.109375	1745.593750	935.025391	3.902386
795.166016	905.155762	1734.968384	937.477356	3.895047
795.476624	902.703796	1720.999634	943.421570	4.975924
795.787292	906.418945	1725.160522	948.176941	5.100266
796.097778	908.722351	1739.500977	942.009949	4.006795
796.408264	913.997803	1757.928101	940.523743	3.143143
796.718689	916.078308	1776.057983	940.300964	2.816654
797.029053	914.294983	1791.810181	951.074707	4.191349
797.339355	911.248535	1793.742188	944.684753	3.788834
797.649658	919.273254	1789.952759	944.759094	2.927121
797.959839	922.914063	1782.968262	935.545471	1.468676
798.270020	920.684998	1780.441895	934.802551	1.642040
798.580078	917.341370	1769.742188	937.848938	2.405860
798.890137	910.282654	1746.856934	934.728210	2.922102
799.200195	911.768738	1733.259399	935.545593	2.894355
799.510071	907.236267	1715.798462	929.155518	2.710892
799.820007	907.756348	1709.259766	930.492981	2.836748
800.129883	903.818359	1703.538452	932.276184	3.558473
800.439575	903.372498	1694.101929	931.236023	3.523775
800.749329	901.737793	1693.656250	941.266846	4.991556
801.058960	905.452942	1679.687378	936.957336	4.069103
801.368591	908.276428	1671.588379	947.434082	5.129967
801.678162	913.254700	1658.213867	945.204895	4.288852
801.987671	912.957520	1653.458496	950.108948	5.017067
802.297119	910.951355	1647.811523	948.325684	5.072106
802.606506	906.864685	1636.889038	937.551758	4.203568
802.915894	912.065857	1626.040894	940.895325	4.037882
803.225159	906.047363	1622.028320	937.551697	4.400164
803.534424	906.195984	1620.319336	943.347351	5.202374
803.843628	902.406555	1619.056274	933.242188	4.302748
804.152771	911.471497	1613.929565	931.013000	2.781875
804.461792	917.935730	1623.068726	935.322571	2.465753
804.770874	919.496155	1621.656860	949.365906	4.253976
805.079773	909.019470	1629.384399	951.372009	5.879317
805.388733	899.731689	1622.845703	947.879822	6.658442
805.697571	898.245605	1633.991211	945.204895	6.382545
806.006470	901.886414	1641.644409	949.960266	6.498592
806.315125	905.081360	1650.040649	951.892151	6.283671
806.623901	909.168030	1646.176758	940.821045	4.294795
806.932495	911.842957	1646.176758	935.917053	3.278359
807.241150	918.307312	1644.096313	932.870667	2.006555
807.549622	917.489929	1648.703125	941.415466	3.272033
807.858154	926.406311	1636.591797	938.666260	1.726302
808.166565	919.793396	1624.406128	940.895325	2.994827
808.474915	918.233093	1616.678589	943.050110	3.553179
808.783264	910.505554	1609.396973	948.994385	5.507126
809.091492	912.883240	1603.526978	948.028381	5.088751
809.399719	911.397156	1583.836914	939.929443	4.243099
809.707825	907.904968	1577.446777	933.242188	3.784262
810.015930	911.248535	1570.462280	937.626160	4.001377
810.323975	911.099915	1579.527344	941.415527	4.535363
810.632080	913.329102	1578.264160	941.489746	4.235097
810.939880	904.709961	1568.307617	931.533203	4.042094
811.247864	897.056702	1552.035156	931.607483	5.275102
811.555664	896.833801	1536.283203	931.681824	5.449692
811.863464	897.056824	1528.035522	935.099792	6.029200
812.171143	902.257996	1521.868530	929.378418	4.377011
812.478882	898.691406	1523.280273	932.722107	5.448496
812.786438	905.230042	1530.190308	930.641602	4.066108
813.094055	914.963684	1517.112915	937.774658	3.788259
813.401489	919.347595	1518.821899	933.539368	2.367370
813.708984	920.907959	1505.521851	938.592041	3.024916
814.016357	912.957581	1520.233765	928.412537	2.544963
814.323730	913.923523	1513.546387	931.979004	3.011139
814.630981	906.195984	1514.363770	935.099792	4.752604
814.938232	903.075256	1501.880859	937.105957	5.683096
815.245361	901.366394	1499.131714	936.214355	5.829706
815.552490	903.521057	1500.469116	936.660156	5.551421
815.859619	907.979309	1504.630005	944.833496	6.176845
816.166565	908.648010	1503.812866	946.096680	6.292150
816.473572	913.403320	1508.345215	937.848938	4.108909
816.780457	917.489990	1508.567993	939.112122	3.658084
817.087341	917.415710	1510.202759	949.514465	5.414888
817.394043	920.685059	1506.784790	948.102722	4.677986
817.700806	913.477600	1509.979980	947.582581	5.717493
818.007507	916.821289	1524.543335	939.186340	3.680145
818.314209	910.654114	1537.174683	950.554688	6.368598
818.620667	918.307373	1544.604858	953.378235	5.599713
818.927246	922.616882	1555.230103	950.183289	4.357545
819.233704	920.164856	1578.858521	943.421692	3.530751
819.540161	912.585999	1609.768433	938.666260	3.740809
819.846497	900.846191	1633.693970	935.248291	4.694304
820.152832	903.075256	1671.514038	939.483582	4.737960
820.458984	896.016541	1717.061523	937.551697	5.058816
820.765259	892.598633	1778.584351	949.514465	6.424012
821.071350	896.536621	1879.487305	951.297668	5.571088
821.377502	906.270264	2041.615845	960.288330	4.757853
821.683472	911.917297	2317.130371	985.031067	5.203038
821.989441	901.514954	2675.418213	1017.575684	6.542675
822.295349	895.867920	3138.918701	1059.779663	7.307536
822.601196	900.549011	3647.817627	1097.822754	7.180723
822.907043	906.938965	4214.747559	1137.574707	6.972463
823.212769	911.471436	4753.293457	1174.057251	6.834929
823.518494	908.647949	5166.342285	1185.202759	6.495412
823.824097	909.688232	5356.706055	1179.852905	6.075188
824.129700	903.446777	5311.753418	1161.128662	5.845371
824.435242	900.251770	5118.417480	1139.135010	5.663202
824.740723	900.994812	4859.918457	1113.946411	5.379028
825.046082	904.264160	4559.066406	1082.070435	4.865004
825.351501	908.053528	4206.499512	1050.566162	4.320599
825.656799	909.539551	3790.999268	1023.222839	3.945337
825.962036	909.242371	3376.687256	1010.294128	4.095401
826.267212	906.047363	3038.758545	1005.984558	4.685923
826.572449	911.843018	2813.249268	1001.080566	4.693240
826.877502	914.666504	2731.962158	998.405701	4.607902
827.182495	920.462097	2734.340088	1009.253906	4.895137
827.487488	913.552002	2791.479248	1023.891541	5.875602
827.792419	914.740784	2854.561768	1040.758301	6.496347
828.097290	914.443604	2910.883545	1036.374390	6.107411
828.402100	916.003906	2944.988281	1035.631348	5.895927
828.706848	921.279480	2927.007080	1023.445618	5.093719
829.011597	915.186707	2846.760010	1016.535461	5.246954
829.316223	903.743958	2730.327881	1003.978333	5.487532
829.620789	891.484070	2604.458984	986.888672	5.569527
829.925354	896.536682	2475.915283	981.316101	5.367897
830.229797	902.778137	2340.907227	971.582336	4.784285
830.534302	913.552002	2177.292480	975.446228	4.897701
830.838562	906.344543	2007.807983	957.836426	4.674861
831.142944	898.765686	1851.475220	949.811768	5.357990
831.447144	887.694580	1738.609375	944.387634	6.662601
831.751404	891.484070	1673.668823	945.947937	6.963044
832.055542	905.898743	1627.081055	952.783752	6.501132
832.359619	907.607727	1598.994629	950.331787	6.179472
832.663635	911.174255	1596.245239	951.594971	5.900223
832.967651	905.527161	1627.526733	947.210999	5.773388
833.271545	904.858459	1678.052734	942.381348	4.852970
833.575439	905.675842	1741.655762	946.839539	4.924006
833.879211	908.053528	1820.639648	952.040771	4.820065
834.183044	916.523987	1916.044312	964.523621	4.802267
834.486694	915.558105	2001.938110	966.604065	4.698720
834.790344	914.740906	2079.213135	972.251160	4.938740
835.093933	911.397156	2131.224854	970.319153	4.830354
835.397522	912.586121	2148.463135	972.771240	4.869831
835.700928	909.242432	2114.878174	971.136536	5.133732
836.004395	909.985413	2060.488525	968.981873	5.127883
836.307739	910.059753	2008.551147	961.997375	4.728086
836.611023	915.483826	1951.189453	952.709473	3.594231
836.914307	921.279480	1883.648438	946.690979	2.640515
837.217529	918.455994	1794.931030	946.616638	3.212943
837.520691	912.140198	1709.557007	944.016113	3.997397
837.823730	901.737793	1616.752930	941.786926	5.601159
838.126831	897.205322	1550.994995	932.796387	5.443810
838.429749	897.799805	1489.100708	932.721985	5.905992
838.732727	899.954590	1455.144531	922.319641	4.028360
839.035522	901.440613	1428.395508	924.028625	4.286517
839.338379	901.589172	1421.039551	930.864441	5.635816
839.641113	907.384766	1412.048828	940.821045	6.625453
839.943848	908.573730	1418.884766	938.517639	5.867776
840.246460	911.397217	1429.138672	926.777832	2.970713
840.549072	908.053650	1453.138306	924.623047	3.039784
840.851563	906.418945	1463.169067	924.251465	3.202966
841.154053	908.053650	1472.308472	930.195801	3.924140
841.456482	910.208435	1464.803833	934.208069	4.327413
841.758850	916.078308	1459.751343	936.511475	3.758356
842.061157	917.490051	1447.788574	938.071777	3.881159
842.363403	919.644775	1438.054810	931.756104	2.336245
842.665588	919.793396	1410.265625	931.681824	2.423874
842.967712	917.489990	1392.284302	927.892395	2.190929
843.269775	911.545715	1363.900757	927.298035	3.482291
843.571777	906.716064	1340.792603	927.595215	4.810016
843.873840	904.041199	1311.220093	926.703613	5.565714
844.175659	911.991516	1293.536011	928.858337	4.420670
844.477600	923.211243	1279.864380	925.588928	0.666666
844.779297	925.291809	1268.718872	930.715820	1.579378
845.081116	923.137024	1252.223755	930.121399	2.122351
845.382751	911.768738	1245.462280	937.254456	7.637462
845.684387	915.483826	1230.378662	934.059387	5.898973
845.985962	908.127869	1225.103149	927.595154	6.141578
846.287537	904.784180	1215.369629	919.124695	4.617253
846.588989	902.480896	1212.546143	910.951355	2.731831
846.890381	900.771912	1215.369629	912.734619	3.802541
847.191711	908.647949	1212.323242	912.437317	1.247835
847.493042	908.870850	1207.716431	917.564270	2.909001
847.794250	917.267090	1193.450317	925.440430	2.959390
848.095459	912.883301	1184.459595	932.350586	7.168256
848.396606	908.722351	1172.794067	936.882996	10.664014
848.697693	899.434509	1167.369995	923.434265	8.957289
848.998657	901.960754	1163.877808	913.923523	4.567388
849.299622	901.663574	1173.314209	908.945251	2.680530
849.600464	906.864746	1170.787964	917.415710	3.997740
849.901367	907.756348	1166.849976	926.257629	7.140770
850.202087	913.477600	1159.048218	921.428040	3.237537
850.502808	915.038086	1164.175171	924.548767	3.817449
850.803467	913.923523	1163.580566	919.198975	2.113080
851.104065	912.214539	1169.524780	927.372253	5.890832
851.404663	903.520996	1163.580566	925.291748	8.371449
851.705139	897.205322	1167.147095	924.920227	10.266994
852.005615	890.889648	1164.026489	918.307312	10.038069
852.306030	894.307556	1160.014160	915.929626	8.137573
852.606384	902.555176	1159.122437	914.592224	4.691576
852.906616	915.781006	1165.215210	913.551941	-0.893648
853.206909	916.672607	1168.930298	911.025635	-2.238573
853.506958	915.929688	1172.868530	910.728455	-2.024308
853.807129	906.641785	1157.487915	909.911133	1.303328
854.107178	910.951355	1161.797485	906.270325	-1.866096
854.407166	911.025696	1156.373291	907.013367	-1.635365
854.707092	910.059753	1157.413452	910.877136	0.330451
855.007019	908.499329	1154.961548	920.239258	4.763379
855.306763	908.425110	1154.664185	917.861511	3.832211
855.606567	906.864685	1157.041992	911.768738	1.960231
855.906250	907.533447	1149.165894	900.400391	-2.952028
856.205933	904.264099	1147.605591	904.858582	0.244300
856.505493	904.858582	1147.679810	908.647949	1.560559
856.805054	903.372559	1145.747925	916.449768	5.395437
857.104492	908.350769	1139.952271	919.496155	4.812312
857.403931	914.517883	1137.203247	919.421875	2.202207
857.703308	917.341309	1137.723267	922.468262	2.326394
858.002563	911.471497	1138.317749	923.880066	5.470035
858.301819	906.938965	1141.512695	931.310242	10.389602
858.601013	904.264099	1140.992554	928.412415	10.200850
858.900208	904.041199	1143.964722	923.805664	8.237819
859.199219	905.824463	1148.125610	915.855286	4.139816
859.498291	903.298157	1155.704468	914.815125	4.562869
859.797302	914.592102	1148.794434	912.585999	-0.856569
860.096191	912.883118	1147.234009	914.666504	0.760990
860.395020	921.873718	1140.918335	908.573669	-6.071845
860.693787	913.700500	1143.964722	909.093750	-2.000637
860.992554	906.418945	1138.986328	903.000977	-1.469668
861.291260	897.874207	1136.980103	913.551941	6.556816
861.589844	895.793640	1136.831665	909.242432	5.579531
861.888428	900.400391	1127.395142	914.072083	6.022911
862.186890	905.824463	1127.841064	912.511719	3.012052
862.485413	903.298157	1118.553101	919.050293	7.317897
862.783813	911.397156	1120.113525	918.307312	3.310788
863.082153	905.527283	1126.800781	906.641846	0.503704
863.380371	911.768738	1144.187622	902.555176	-3.964206
863.678589	906.418945	1149.537354	902.778076	-1.497570
863.976746	909.465332	1146.713867	910.654114	0.501070
864.274902	904.115479	1143.667480	906.047363	0.806457
864.572937	911.322937	1145.004883	909.539612	-0.763142
864.870911	915.855286	1139.580811	912.883301	-1.328407
865.168884	923.508484	1137.574707	918.307373	-2.429674
865.466736	919.941956	1139.803833	917.712891	-1.013848
865.764587	918.010071	1144.261963	913.700500	-1.904767
866.062317	913.923523	1144.782104	912.437439	-0.643721
866.360107	903.223816	1157.041992	908.127930	1.932137
866.657715	896.610901	1158.750977	909.242493	4.818642
866.955322	885.762756	1156.001709	913.997803	10.448178
867.252808	897.874084	1140.472534	912.734558	6.125544
867.550293	907.979248	1138.540527	915.855286	3.416028
867.847717	918.753113	1142.404419	917.712891	-0.465109
868.145081	919.644775	1137.351685	921.576660	0.887379
868.442383	913.849121	1136.162964	923.434265	4.311537
868.739624	908.276367	1133.116577	924.920227	7.402528
869.036804	903.298157	1133.413696	921.799500	8.040023
869.333984	896.908142	1135.345703	917.638489	8.694245
869.631042	897.576843	1136.683105	911.991516	6.028563
869.928101	892.970154	1151.692261	915.260925	8.615720
870.224976	892.821533	1145.748047	915.706726	9.048159
870.521851	901.440613	1153.326782	922.245361	8.259583
870.818726	901.812073	1148.497192	919.347473	7.108414
871.115479	905.824463	1160.980103	919.347473	5.299906
871.412231	900.549011	1154.218384	915.781006	6.004664
871.708862	906.195984	1155.333008	915.186584	3.608697
872.005493	907.459167	1154.887207	910.951355	1.411395
872.302063	916.524109	1158.676636	908.276428	-3.405986
872.598572	921.502380	1159.568237	904.041199	-7.334601
872.895020	920.387878	1158.230835	911.991516	-3.530213
873.191406	917.935852	1160.237061	917.861511	-0.030681
873.487671	909.836853	1158.973999	924.325867	5.815678
873.783997	910.282654	1162.986206	911.694336	0.558632
874.080200	903.892578	1164.769531	904.487000	0.227855
874.376343	907.236145	1167.964478	911.099915	1.481914
874.672424	910.802734	1171.085205	918.530273	2.968905
874.968445	913.254700	1171.976685	923.062744	3.790959
875.264465	906.121643	1174.800293	925.291809	7.134979
875.560364	895.942200	1172.497070	927.298035	11.338016
875.856201	896.685242	1164.323730	916.003906	7.218194
876.152039	903.372375	1162.837524	907.979309	1.775550
876.447754	916.747009	1164.472168	911.768738	-2.009595
876.743469	916.821289	1169.896362	924.325867	2.965356
877.039063	913.254700	1166.701294	927.372253	5.570228
877.334595	906.641846	1164.992310	924.251526	6.816198
877.630127	905.898743	1169.970581	920.536377	5.543050
877.925537	908.945129	1176.509277	915.706787	2.527117
878.221008	909.242432	1181.190308	918.901794	3.551917
878.516296	903.818298	1190.106689	919.496155	5.476246
878.811646	897.651123	1190.626831	921.279480	8.064955
879.106812	893.564453	1198.800049	920.907898	8.958144
879.401978	890.592346	1205.041504	913.551941	7.301528
879.697083	893.936035	1220.347778	919.050476	7.694098
879.992126	898.765686	1248.211426	917.044250	5.230731
880.287109	904.932861	1284.396851	927.446594	5.933035
880.582031	911.099915	1358.625366	927.818115	3.735698
880.876892	913.180420	1462.277710	934.356750	3.856572
881.171753	912.883301	1641.495728	950.851868	5.211079
881.466492	909.762512	1879.784546	975.520447	6.779015
881.761230	905.898865	2197.502930	1003.235352	7.536094
882.055786	907.756348	2523.171875	1028.721191	7.488157
882.350403	907.087646	2848.246094	1045.216431	7.115791
882.644958	906.121643	3090.918945	1058.293701	6.965042
882.939453	909.836731	3243.982422	1055.395874	6.236078
883.233826	907.830566	3273.257813	1049.451660	5.987125
883.528137	910.877136	3229.419189	1030.355835	5.153183
883.822449	903.521179	3164.107178	1023.594238	5.311590
884.116577	900.697571	3087.054932	1011.780090	5.080712
884.410828	896.908142	2981.916748	1004.201355	5.145936
884.704956	897.874023	2808.791748	986.665833	4.646553
884.999023	897.056702	2558.985596	972.399719	4.533468
885.292969	896.685242	2281.167969	955.904480	4.277355
885.586914	896.388000	2030.619019	948.845764	4.624963
885.880798	901.589172	1836.837524	940.226563	4.131244
886.174622	903.298157	1693.210449	934.430969	3.941300
886.468384	903.075195	1580.567383	920.907959	2.632173
886.762085	903.595398	1508.865356	918.307373	2.430647
887.055664	908.425049	1453.212524	916.003967	1.391170
887.349304	915.632507	1412.791992	920.610657	1.001318
887.642822	914.666504	1369.993530	913.923401	-0.163202
887.936340	912.214539	1343.318848	920.462097	1.913124
888.229736	913.551941	1317.535889	916.152527	0.643735
888.523071	910.951355	1304.235718	919.347473	2.134872
888.816284	919.198975	1288.260620	916.969910	-0.603982
889.109619	914.889343	1266.935669	916.895569	0.569875
889.402710	922.542480	1248.954468	912.883240	-2.959218
889.695862	916.226807	1230.230103	913.923401	-0.733561
889.988892	915.855286	1221.239624	913.551941	-0.754245
890.281921	912.586060	1211.059937	910.579895	-0.672141
>>>>>End Processed Spectral Data<<<<<
