Jaz Data File
++++++++++++++++++++++++++++++++++++
Date: Fri Jun 04 16:50:36 2021
User: jaz
Dark Spectrum Present: Yes
Reference Spectrum Present: Yes
Processed Spectrum Present: Yes
Spectrometers: JAZA3586
Integration Time (usec): 24900 (JAZA3586)
Spectra Averaged: 10 (JAZA3586)
Boxcar Smoothing: 1 (JAZA3586)
Correct for Electrical Dark: No (JAZA3586)
Strobe/Lamp Enabled: Yes (JAZA3586)
Correct for Detector Non-linearity: No (JAZA3586)
Correct for Stray Light: No (JAZA3586)
Number of Pixels in Processed Spectrum: 2048
>>>>>Begin Processed Spectral Data<<<<<
W	D	R	S	P
191.335022	0.000000	0.000000	0.000000	0.000000
191.713211	231.155762	234.127869	233.161911	67.499229
192.091385	464.763519	467.438385	470.336182	208.334290
192.469528	701.492004	705.652893	706.470215	119.642960
192.847641	713.603333	712.860291	717.912903	-579.990173
193.225739	723.857117	731.064453	722.296692	-21.650505
193.603790	734.482422	738.271790	734.259460	-5.883869
193.981842	733.739441	737.900330	734.110901	8.927419
194.359863	736.117004	734.185120	738.197510	-107.693039
194.737854	737.974609	738.123230	734.110901	-2599.712646
195.115829	740.500916	744.736145	740.203674	-7.018302
195.493774	744.141785	746.147949	741.541199	-129.629745
195.871704	743.472961	746.593750	748.005554	145.238693
196.249603	746.445068	755.361511	741.392578	-56.664864
196.627457	747.188171	758.556458	750.085938	25.489912
197.005310	747.188171	764.203430	754.469910	42.795341
197.383133	750.606140	760.339783	758.630859	82.443123
197.760910	754.246887	757.293274	750.383240	-126.827217
198.138687	752.909485	756.327393	741.243958	-341.306091
198.516449	751.943542	754.989990	742.655762	-304.872467
198.894180	745.330566	752.612305	745.107666	-3.061088
199.271866	748.154053	751.572083	746.519470	-47.822361
199.649536	744.736145	746.816650	742.358459	-114.284035
200.027191	745.553467	751.051941	744.438965	-20.269295
200.404816	740.500916	744.364685	744.290344	98.075951
200.782410	742.432800	759.448059	744.438965	11.790385
201.159988	746.370850	763.311829	732.179016	-83.772217
201.537537	747.931152	776.314880	735.002441	-45.549728
201.915070	745.999268	771.559509	734.631042	-44.476204
202.292557	737.008606	778.320984	743.770264	16.367147
202.670029	728.835388	777.726563	735.299805	13.222052
203.047485	720.885010	782.333313	735.374023	23.579193
203.424911	718.358704	770.667786	729.206848	20.738548
203.802292	723.188416	771.633789	733.665039	21.625643
204.179688	728.538147	771.930969	731.435974	6.678125
204.557037	728.835388	782.556335	735.151123	11.756559
204.934357	735.374023	782.704895	738.420410	6.436363
205.311661	737.603088	775.571777	737.083008	-1.369762
205.688934	741.912659	776.091980	727.943787	-40.869366
206.066177	736.191406	769.999084	719.770447	-48.571686
206.443390	740.278015	775.051758	728.835449	-32.905766
206.820587	744.216064	767.101318	734.631042	-41.882961
207.197769	743.101501	768.810242	737.157410	-23.120899
207.574921	737.751709	772.302429	726.160583	-33.548145
207.952042	727.052185	774.159973	721.553711	-11.672112
208.329147	726.309082	773.045471	723.485596	-6.041302
208.706223	732.179016	770.073425	740.426575	21.764580
209.083267	734.036621	768.364441	744.810547	31.385406
209.460297	734.333801	767.992920	739.609314	15.673353
209.837280	723.485596	767.398499	726.086182	5.922145
210.214264	726.457703	769.479004	722.816895	-8.462803
210.591217	725.640381	767.101318	725.937683	0.717066
210.968124	722.668274	765.912415	726.532043	8.934782
211.345016	723.188416	764.054871	728.761047	13.636201
211.721893	720.662109	770.370605	732.476257	23.766859
212.098724	717.095520	765.986755	734.259460	35.106377
212.475555	702.383606	762.048767	740.500916	63.885372
212.852356	708.773682	761.974426	740.055115	58.798862
213.229126	711.448547	765.838135	743.175781	58.333286
213.605865	725.417480	768.661621	736.414246	25.429491
213.982590	719.027527	761.602844	733.442200	33.856876
214.359283	722.445313	756.104492	722.742615	0.883272
214.735931	720.141907	760.785583	726.234863	14.991155
215.112579	718.284363	756.104492	724.154297	15.520661
215.489197	719.324646	761.825867	731.064453	27.622282
215.865799	714.049133	760.934143	725.268860	23.930307
216.242355	717.541321	764.203430	729.949951	26.592520
216.618896	722.816895	761.751465	731.510254	22.328125
216.995407	731.733215	762.866028	732.476257	2.386684
217.371902	732.104675	764.277832	723.188293	-27.713730
217.748367	733.219238	768.736023	720.587708	-35.564960
218.124802	732.104675	763.683350	730.990173	-3.529287
218.501236	736.934387	768.067200	734.333801	-8.353200
218.877609	731.510315	760.265442	732.030457	1.808866
219.253983	727.572266	757.516174	718.804504	-29.280617
219.630295	726.309082	750.829041	718.730225	-30.908932
220.006592	721.479431	749.342957	723.411316	6.933383
220.382889	720.142029	754.395508	726.531982	18.654903
220.759140	717.095520	761.751465	727.572266	23.461033
221.135391	717.764343	770.816406	727.275085	17.927187
221.511581	717.689941	775.497498	732.476257	25.578518
221.887772	714.420654	770.890808	730.172852	27.894732
222.263931	711.522888	761.454285	733.516418	44.047497
222.640060	704.984192	756.253113	730.098572	48.985584
223.016159	706.470276	760.785583	735.596924	53.625118
223.392212	709.145203	769.627625	732.401917	38.452023
223.768265	723.188416	774.457275	737.008606	26.956305
224.144302	723.485596	775.200378	738.048889	28.160793
224.520294	731.881836	767.918640	729.132568	-7.629055
224.896286	728.389648	763.757751	725.343079	-8.613891
225.272217	728.315247	766.135315	725.714661	-6.876206
225.648148	724.525818	769.701843	730.841553	13.980280
226.024048	722.593933	772.599609	726.309082	7.429454
226.399902	718.953125	775.943359	720.587830	2.868394
226.775772	723.857178	779.064026	719.324707	-8.209979
227.151581	729.206970	777.726563	723.336975	-12.098195
227.527374	734.036621	776.983582	725.640320	-19.550398
227.903137	730.395752	775.794739	734.779541	9.656138
228.278870	730.990234	779.807129	738.569031	15.524946
228.654572	736.042786	772.302490	735.596924	-1.229634
229.030273	733.590759	765.912415	729.801331	-11.724117
229.405930	723.782776	759.893982	729.504089	15.843596
229.781555	724.674500	762.048767	731.733215	18.886566
230.157181	724.302917	765.838135	732.699219	20.214897
230.532761	731.658875	771.262207	730.395752	-3.189435
230.908325	720.885010	776.983582	726.977844	10.860944
231.283859	720.736389	776.091980	724.971680	7.651062
231.659332	713.603333	773.862793	718.878845	8.754663
232.034821	725.120300	770.816406	720.885010	-9.268384
232.410263	722.668274	767.770020	717.838623	-10.708345
232.785690	729.875671	768.438721	724.674500	-13.487450
233.161087	724.228577	761.157043	724.525879	0.805076
233.536469	720.736328	767.472839	719.398926	-2.861579
233.911804	716.501160	763.163269	721.553711	10.827953
234.287140	719.621826	766.878418	727.052063	15.723175
234.662430	724.377258	766.655457	738.197571	32.688980
235.037704	723.485596	770.890625	728.835449	11.285414
235.412933	719.324646	778.023743	720.736389	2.405051
235.788162	718.210144	773.268372	713.826172	-7.962429
236.163345	720.142029	767.027039	713.603333	-13.946240
236.538513	718.953125	764.054932	719.101746	0.329523
236.913635	721.256531	774.903076	724.377258	5.817201
237.288742	723.931458	778.172363	734.408020	19.314875
237.663834	724.748779	776.017578	731.435852	13.043162
238.038879	730.024231	771.410889	724.154297	-14.183156
238.413910	727.646545	774.754456	722.965515	-9.936824
238.788910	733.145020	777.800842	730.767273	-5.324606
239.163879	730.692932	778.692444	738.866272	17.027964
239.538834	735.002502	776.166199	741.541199	15.884619
239.913757	728.092346	775.200256	734.556702	13.722442
240.288651	729.578430	777.057861	732.030457	5.164397
240.663528	723.337097	777.726563	722.073914	-2.322479
241.038361	729.578430	778.915466	718.730225	-21.987955
241.413177	728.984070	784.190918	728.240967	-1.346034
241.787979	732.327637	787.608887	734.779602	4.435438
242.162735	732.699219	789.243469	740.352356	13.534775
242.537476	731.881775	785.156921	732.104675	0.418395
242.912170	731.807556	787.237305	727.943787	-6.970570
243.286865	727.869446	788.054688	720.810730	-11.728317
243.661514	726.532043	789.689270	717.244141	-14.706001
244.036148	730.024231	789.317810	711.522766	-31.203150
244.410751	730.767273	788.128906	719.176086	-20.207211
244.785339	733.516418	786.419983	723.411316	-19.100986
245.159882	724.823059	798.977234	731.436035	8.917874
245.534378	722.222412	799.348694	732.550476	13.391109
245.908890	715.758057	795.782166	728.909668	16.434561
246.283356	716.724060	782.407654	728.686768	18.212626
246.657791	721.553711	782.779114	727.275085	9.344772
247.032196	730.024231	790.357971	734.631042	7.635548
247.406586	734.928223	803.509583	735.522644	0.866739
247.780960	726.383362	808.710754	733.962219	9.205754
248.155289	717.987122	818.444519	731.807556	13.757508
248.529602	717.689941	815.620911	733.888000	16.540283
248.903870	725.268860	823.794250	739.089172	14.027159
249.278122	727.869446	818.370178	735.299744	8.210207
249.652344	716.501160	814.655029	730.767273	14.534438
250.026550	713.008972	800.983337	724.600098	13.175571
250.400711	707.659180	798.679932	718.433044	11.836713
250.774857	721.033630	795.187744	714.792175	-8.416869
251.148987	722.445374	795.633484	717.912903	-6.192906
251.523071	726.383362	799.274414	724.897278	-2.038774
251.897125	723.262695	804.475586	727.869446	5.672438
252.271164	727.200745	806.704651	719.993408	-9.065387
252.645187	728.909668	806.778992	714.866516	-18.034254
253.019165	729.578430	810.122620	717.095642	-15.498061
253.393112	724.600098	812.277344	726.011963	1.610298
253.767044	723.336975	809.899719	726.903503	4.120165
254.140930	725.045959	806.704590	730.470032	6.642375
254.514801	726.309082	810.122559	725.640381	-0.797844
254.888657	735.374023	814.060608	722.742615	-16.052811
255.262466	731.361633	814.952209	716.203918	-18.133282
255.636276	734.408142	813.911926	721.776672	-15.887885
256.010010	727.943787	813.837708	730.767334	3.287249
256.383759	733.144958	821.565186	732.030457	-1.260460
256.757446	724.600159	823.645691	731.138855	6.601707
257.131134	723.114075	827.360840	736.042725	12.401967
257.504791	724.005676	835.162598	749.120056	22.593626
257.878418	723.857117	840.140808	745.627747	18.721998
258.252014	718.804504	848.388428	737.157227	14.162807
258.625580	711.448547	856.561768	728.538147	11.776735
258.999115	716.724060	875.731750	729.578369	8.084080
259.372650	717.318542	890.666748	733.739319	9.472713
259.746124	723.708496	902.480896	732.104675	4.696575
260.119598	733.516418	926.257751	739.832214	3.276825
260.493042	737.900208	938.666321	741.318176	1.702463
260.866425	730.172852	952.783752	742.135559	5.373819
261.239838	711.448547	941.266907	739.312073	12.124151
261.613159	713.528992	925.886230	732.476257	8.922355
261.986511	715.386536	899.285828	731.287415	8.646515
262.359802	725.491699	881.824707	728.761169	2.091350
262.733063	731.584534	879.446960	734.259521	1.809106
263.106293	734.408142	883.087830	741.615479	4.847559
263.479523	732.104736	890.740967	747.708313	9.836074
263.852692	721.702332	889.997986	749.045715	16.247231
264.225861	724.005676	890.815247	742.209961	10.913214
264.598969	728.612488	893.044434	737.305908	5.286941
264.972076	734.482422	900.325989	728.686829	-3.494614
265.345154	734.333801	894.604736	727.126465	-4.496970
265.718201	729.281189	896.016541	720.364929	-5.347552
266.091217	732.699158	898.691406	724.154358	-5.147710
266.464203	733.144958	918.976074	730.172852	-1.599359
266.837158	735.671204	926.109131	734.036621	-0.858328
267.210114	726.011780	929.155579	733.516418	3.694249
267.583038	720.959290	928.263977	736.711487	7.598573
267.955902	718.953125	932.350586	736.042786	8.008371
268.328766	715.015137	941.787048	736.488586	9.469184
268.701569	712.414551	941.341125	724.674500	5.355407
269.074371	713.751953	946.839600	723.708496	4.271587
269.447144	720.884949	951.594971	728.983948	3.510467
269.819885	722.445313	966.529785	732.104675	3.957385
270.192596	725.863281	979.384094	727.869446	0.791321
270.565277	721.627991	996.622375	729.875671	2.999218
270.937927	723.039795	1007.544861	733.219238	3.577948
271.310577	710.854065	1030.801636	737.454590	8.314026
271.683136	714.494934	1047.891235	730.395752	4.769344
272.055725	711.299988	1081.550415	726.309082	4.053768
272.428284	717.392761	1092.695801	727.200745	2.613350
272.800812	719.250305	1101.389160	731.733215	3.266590
273.173279	723.931396	1073.228516	735.076843	3.190821
273.545776	728.389587	1071.445190	739.014832	3.097237
273.918152	724.302917	1064.906616	738.346191	4.123054
274.290558	725.268860	1075.606079	732.996338	2.205726
274.662964	724.302917	1056.213135	727.943787	1.096944
275.035278	729.801270	1054.578491	725.045898	-1.464195
275.407593	725.714661	1056.064575	734.779602	2.744042
275.779907	725.863281	1070.850708	738.866272	3.769120
276.152161	723.411316	1079.395630	735.002502	3.256095
276.524384	726.977844	1103.098145	732.104736	1.363099
276.896606	722.891113	1111.717285	729.429871	1.681666
277.268799	719.919128	1122.639771	731.584656	2.896680
277.640930	721.776672	1119.370483	723.411316	0.411134
278.013031	724.971680	1133.488037	723.782776	-0.291030
278.385162	726.309082	1127.246582	720.810730	-1.371374
278.757233	725.789001	1133.710938	725.194519	-0.145734
279.129272	726.829163	1127.618042	727.795166	0.241026
279.501282	723.559875	1138.020386	726.309082	0.663322
279.873230	729.058289	1142.850098	723.857117	-1.256954
280.245178	722.668274	1156.670532	726.977844	0.992983
280.617126	728.166687	1174.205933	739.683594	2.582039
280.988983	714.420593	1199.617432	741.095398	5.497728
281.360870	717.615662	1234.762695	737.528809	3.850577
281.732697	718.953125	1270.947876	728.166687	1.669139
282.104492	728.538269	1296.731079	728.909668	0.065365
282.476288	728.389465	1313.449097	725.343079	-0.520697
282.848053	724.748718	1322.662598	726.606262	0.310671
283.219757	717.318420	1323.480103	727.646545	1.703856
283.591461	719.324707	1321.250977	736.340027	2.826811
283.963135	723.262695	1319.318970	737.825989	2.443275
284.334747	723.114075	1329.349976	736.414307	2.193904
284.706360	723.188293	1350.154663	728.538269	0.853311
285.077942	724.971619	1370.588013	732.253357	1.127874
285.449524	731.881836	1402.315063	731.213074	-0.099751
285.821014	732.030457	1420.519409	730.544373	-0.215847
286.192535	727.646545	1451.355103	727.720886	0.010272
286.563995	726.383484	1465.472656	729.578369	0.432273
286.935425	722.965515	1486.871704	738.569031	2.042596
287.306824	719.770508	1484.791382	740.278015	2.680647
287.678223	726.680664	1477.806763	748.005554	2.839056
288.049561	733.739441	1457.076294	741.392578	1.058032
288.420898	730.024231	1444.667847	743.547302	1.892282
288.792145	724.748718	1441.770020	734.705322	1.388606
289.163452	721.107910	1448.457153	730.618652	1.307590
289.534668	726.011902	1472.605591	719.473206	-0.875804
289.905914	726.680603	1497.348267	723.411316	-0.424215
290.277039	725.045898	1535.094238	729.727051	0.577886
290.648193	731.584656	1572.914429	738.494812	0.821337
291.019318	732.699158	1598.028687	734.036621	0.154561
291.390381	730.544373	1617.570313	724.451477	-0.686890
291.761475	727.126465	1609.471313	723.411316	-0.421054
292.132507	714.123474	1606.127808	726.680664	1.407750
292.503510	712.265930	1582.573730	734.408142	2.544182
292.874481	714.346375	1570.239380	743.547363	3.411757
293.245422	715.386536	1574.326050	740.426575	2.915227
293.616364	723.485596	1596.022461	744.290344	2.384398
293.987213	713.380432	1635.254395	731.584656	1.974698
294.358093	716.724060	1671.291138	730.841553	1.478942
294.728943	715.163635	1716.913086	726.234802	1.105183
295.099731	720.216309	1765.358398	728.761047	0.817567
295.470490	720.736328	1793.147827	731.436035	0.997724
295.841248	720.885010	1824.354858	734.631042	1.245710
296.211975	731.287354	1840.106934	734.482422	0.288150
296.582642	735.076843	1885.803101	731.361633	-0.322858
296.953308	736.860107	1931.127808	731.956116	-0.410628
297.323883	734.853943	1979.498657	734.928223	0.005968
297.694519	733.070618	2011.597656	735.522644	0.191785
298.065063	733.070618	2009.739868	731.733154	-0.104762
298.435608	727.497986	1988.563843	731.881836	0.347631
298.806122	726.977844	1931.573608	733.219238	0.518132
299.176575	730.692871	1875.029175	732.550537	0.162336
299.547028	733.962219	1836.837524	728.389587	-0.505282
299.917450	734.928223	1825.692261	729.652649	-0.483659
300.287872	726.160461	1823.165894	730.321472	0.379306
300.658234	728.240967	1817.295898	730.544373	0.211505
301.028564	732.847717	1812.317749	726.457703	-0.591959
301.398865	737.825989	1815.586914	726.011902	-1.096169
301.769135	729.504089	1809.791382	717.912903	-1.072973
302.139374	722.148132	1811.500366	719.398926	-0.252371
302.509583	712.488770	1810.088501	716.203918	0.338479
302.879791	711.076965	1809.940063	727.720886	1.514649
303.249939	707.733398	1799.983398	732.996277	2.312921
303.620087	717.838562	1789.209595	736.711426	1.761562
303.990173	721.330811	1775.760742	730.990173	0.916074
304.360260	720.290527	1785.123047	724.079895	0.355865
304.730286	722.668274	1782.819702	723.336914	0.063070
305.100281	722.519592	1798.125977	721.850891	-0.062170
305.470276	735.968445	1800.875000	731.213074	-0.446553
305.840179	731.361633	1820.119507	731.658875	0.027301
306.210144	726.829285	1836.540405	735.299744	0.763303
306.579987	720.290588	1852.663940	731.435974	0.984250
306.949890	712.934631	1870.868164	734.928223	1.899383
307.319702	725.491760	1886.323120	739.237793	1.184154
307.689484	729.652771	1911.660278	736.488525	0.578317
308.059265	737.825989	1935.288696	737.305908	-0.043432
308.429016	727.349365	1967.907593	738.717590	0.916380
308.798737	723.411316	2000.526489	745.107727	1.698861
309.168396	723.634277	2049.046143	742.209900	1.401498
309.538055	726.011902	2088.575195	738.123230	0.888864
309.907684	725.863281	2122.308594	739.683594	0.989678
310.277313	723.039795	2149.428955	737.231628	0.994948
310.646851	727.275085	2172.017334	739.237793	0.828017
311.016388	728.686829	2186.134766	738.271790	0.657654
311.385895	724.525879	2176.549561	738.420410	0.956908
311.755371	727.646484	2178.778809	728.538269	0.061454
312.124817	731.584534	2176.772461	724.005798	-0.524412
312.494232	733.144958	2178.852783	723.559875	-0.663003
312.863617	733.813660	2163.398193	728.538269	-0.369016
313.232971	732.104675	2149.800781	727.572266	-0.319703
313.602295	741.095398	2141.627441	731.064453	-0.716224
313.971619	738.271790	2153.441406	731.584656	-0.472532
314.340820	737.677429	2161.763428	737.528809	-0.010436
314.710083	722.742615	2190.369873	744.884766	1.508704
315.079285	716.649719	2216.450195	747.039551	2.026258
315.448486	716.278259	2255.013428	741.095398	1.612827
315.817596	725.268860	2255.756348	734.853821	0.626268
316.186707	730.544373	2227.892822	733.070618	0.168715
316.555786	729.652649	2188.066650	726.011902	-0.249637
316.924866	726.309082	2146.605469	725.417480	-0.062776
317.293884	714.717834	2128.772949	724.154297	0.667333
317.662872	712.488770	2122.754395	734.333801	1.549001
318.031830	715.609558	2140.735596	731.435974	1.110528
318.400757	726.309082	2149.280518	724.748718	-0.109655
318.769684	727.720764	2160.277344	718.878845	-0.617213
319.138550	721.999512	2182.791016	716.501160	-0.376395
319.507416	717.764343	2212.511963	723.559875	0.387726
319.876190	715.163635	2229.675781	723.114075	0.524951
320.244995	722.891113	2222.022949	725.937561	0.203214
320.613770	725.640320	2197.800293	730.915833	0.358352
320.982483	736.042786	2178.630127	735.076843	-0.066959
321.351166	735.745544	2161.391846	734.556702	-0.083390
321.719818	732.847717	2159.682861	735.894104	0.213507
322.088440	725.491760	2157.082275	728.315247	0.197227
322.457062	721.479492	2179.893066	730.321472	0.606274
322.825623	721.256531	2214.740967	723.857117	0.174129
323.194183	714.569336	2254.790283	733.219299	1.210863
323.562653	712.340271	2298.183105	732.327637	1.260362
323.931183	710.705566	2351.978271	736.562805	1.575438
324.299591	715.981018	2422.343018	735.522644	1.145222
324.668060	720.662109	2479.556396	732.624817	0.680127
325.036407	725.268799	2521.908936	734.928223	0.537638
325.404755	725.640381	2539.889893	735.522644	0.544703
325.773102	725.863281	2553.264404	738.643372	0.699359
326.141388	720.885010	2552.967285	737.528809	0.908463
326.509674	722.816895	2558.837158	733.813660	0.598946
326.877899	728.240967	2567.902100	734.408020	0.335228
327.246124	731.807434	2588.632568	730.692871	-0.060025
327.614288	728.463867	2586.849121	725.714661	-0.147935
327.982422	717.764343	2577.858643	730.395691	0.679070
328.350525	716.278259	2549.846436	737.900330	1.179235
328.718628	712.637390	2538.106445	745.033386	1.774667
329.086700	712.191589	2529.264648	736.339905	1.328968
329.454712	713.528992	2548.211914	729.652649	0.878825
329.822693	719.101746	2563.741211	731.881836	0.692823
330.190674	724.080017	2591.381836	743.621582	1.046514
330.558563	724.674500	2599.332031	741.466797	0.895753
330.926483	722.593933	2622.291504	735.968445	0.704034
331.294312	718.432922	2634.700195	729.801331	0.593258
331.662231	716.278259	2673.634766	739.014893	1.161599
332.029999	717.169861	2723.417725	743.324463	1.303658
332.397766	720.736511	2773.126221	740.798157	0.977477
332.765503	718.061523	2805.001953	738.420410	0.975538
333.133240	723.559875	2839.701416	742.729980	0.905899
333.500916	721.999512	2883.391357	739.089172	0.790679
333.868561	733.219238	2942.610596	737.974609	0.215234
334.236176	722.148132	2982.288330	732.996338	0.479979
334.603790	723.336975	2993.433594	742.358459	0.837915
334.971344	723.708496	2979.241943	741.689758	0.797207
335.338867	734.110901	2963.712646	741.095398	0.313262
335.706360	736.117004	2971.365967	732.624817	-0.156233
336.073853	731.213074	2979.613281	732.773438	0.069399
336.441284	728.092285	2987.266602	730.544373	0.108539
336.808655	728.018066	2971.365967	733.739441	0.255037
337.176086	723.188416	2945.805664	734.185242	0.494769
337.543396	729.355469	2874.995361	739.906494	0.491743
337.910706	728.983948	2816.072998	744.438965	0.740506
338.277954	732.476257	2820.234131	748.228333	0.754497
338.645264	724.377258	2892.158936	749.863037	1.175662
339.012421	723.634216	3011.489258	743.695984	0.876881
339.379669	721.776672	3126.732666	741.020996	0.800194
339.746796	720.439209	3225.481201	741.318298	0.833483
340.113953	716.352539	3306.842529	746.445129	1.161656
340.481018	719.770508	3336.117920	740.055176	0.775305
340.848114	721.776672	3343.102295	730.767273	0.342979
341.215118	726.903564	3346.966064	732.030457	0.195678
341.582153	719.696106	3355.436523	738.866211	0.727314
341.949066	718.358704	3377.578857	746.667969	1.064570
342.316010	717.244141	3386.123779	742.804260	0.957710
342.682922	723.708496	3404.699219	740.872375	0.640207
343.049835	724.525879	3420.080078	741.615417	0.633990
343.416656	728.686768	3457.379883	738.643311	0.364883
343.783478	721.256531	3500.698486	736.191345	0.537331
344.150269	722.073914	3609.552002	731.361633	0.321655
344.516998	718.358704	3731.631592	736.191406	0.591805
344.883728	729.281250	3851.407227	734.185242	0.157072
345.250427	738.717712	3922.812256	730.321472	-0.263693
345.617065	740.872375	3941.610596	730.767273	-0.315712
345.983704	738.643311	3939.530273	737.305908	-0.041782
346.350281	727.646484	3937.449951	741.615479	0.435198
346.716827	728.909668	3887.444092	740.946777	0.381098
347.083405	727.423645	3852.298828	736.711487	0.297223
347.449860	733.962341	3795.531494	730.470032	-0.114069
347.816376	729.578430	3767.965088	726.086182	-0.114938
348.182770	722.668274	3733.711670	726.680603	0.133254
348.549194	717.912903	3712.164063	740.055115	0.739491
348.915558	722.742615	3739.210205	744.810547	0.731582
349.281921	730.618652	3753.550537	746.668152	0.530925
349.648193	732.550476	3783.717041	737.603210	0.165600
350.014526	732.179016	3803.259033	740.426575	0.268556
350.380737	729.578430	3861.809570	742.432800	0.410390
350.746948	726.680664	3925.115479	744.736145	0.564510
351.113159	726.457703	3991.616455	743.695984	0.527946
351.479309	730.767273	4037.089844	731.733215	0.029215
351.845428	728.240967	4057.002686	729.652649	0.042409
352.211517	723.188293	4083.157471	726.160461	0.088458
352.577576	718.061523	4118.896973	734.705383	0.489405
352.943604	724.005676	4179.453613	744.141785	0.582735
353.309601	723.262695	4231.763184	746.370850	0.658633
353.675537	723.262695	4310.672363	748.154114	0.693855
354.041473	723.336975	4401.916504	739.163391	0.430232
354.407379	716.872742	4500.516113	736.191406	0.510584
354.773254	715.609558	4598.001465	736.934387	0.549270
355.139038	715.312317	4684.267090	741.987000	0.672083
355.504913	726.160461	4782.420410	746.593750	0.503747
355.870636	728.240967	4876.265137	745.107727	0.406622
356.236389	725.417480	4985.786621	744.736145	0.453450
356.602081	725.863281	5117.376953	742.061279	0.368848
356.967804	726.754883	5250.527344	746.519348	0.436902
357.333405	727.349365	5384.792480	742.952881	0.335023
357.699036	728.909729	5531.316895	749.937317	0.437855
358.064606	726.234863	5683.787109	751.200500	0.503588
358.430176	723.634216	5804.603027	756.253113	0.641982
358.795654	717.764343	5856.614746	751.572021	0.657884
359.161163	715.535217	5840.193848	751.943542	0.710454
359.526581	720.884949	5804.008301	750.160217	0.575931
359.892029	727.720886	5803.414063	750.680420	0.452343
360.257416	733.219238	5889.605469	743.770203	0.204619
360.622772	731.807434	6079.820313	740.278015	0.158387
360.988098	722.668274	6338.839844	738.420410	0.280478
361.353394	720.290527	6620.446777	740.278015	0.338762
361.718658	711.597168	6894.475098	740.129395	0.461472
362.083893	714.643616	7115.971191	738.123230	0.366793
362.449097	715.460938	7268.068848	735.522644	0.306164
362.814209	725.268860	7276.465332	742.729980	0.266533
363.179382	725.566101	7095.909668	743.250183	0.277600
363.544434	734.259460	6775.665527	745.924988	0.193093
363.909546	728.761169	6403.333984	746.668030	0.315563
364.274536	724.674500	6121.800781	750.977600	0.487354
364.639587	713.826233	5915.239746	750.011719	0.695686
365.004517	717.615723	5774.436035	744.290344	0.527498
365.369507	720.736389	5684.529297	740.203796	0.392188
365.734344	721.256531	5624.715332	737.603088	0.333368
366.099274	728.092468	5604.505371	740.426575	0.252934
366.464081	726.309082	5567.057129	742.209778	0.328476
366.828918	724.674500	5567.948730	743.621582	0.391204
367.193665	716.426819	5580.505859	742.135559	0.528543
367.558411	723.411316	5617.136719	736.934387	0.276335
367.923126	730.618652	5612.158691	735.374084	0.097417
368.287781	738.866211	5594.103027	732.327637	-0.134671
368.652435	734.556702	5552.791016	736.414307	0.038554
369.017059	728.686707	5532.357910	741.243958	0.261409
369.381653	723.857117	5509.101074	742.358459	0.386633
369.746185	719.919128	5503.899902	746.667969	0.559134
370.110687	725.120300	5533.323730	746.519348	0.445053
370.475220	730.544373	5573.595703	748.451233	0.369743
370.839661	740.649597	5630.957520	747.782532	0.145859
371.204041	740.500977	5676.505371	744.141785	0.073760
371.568451	737.677429	5732.900879	746.222229	0.171059
371.932770	729.132629	5774.658691	752.240723	0.457992
372.297150	724.154297	5816.193848	762.643066	0.755862
372.661377	720.439209	5835.958496	757.293274	0.720436
373.025696	719.176086	5876.378906	748.376953	0.566215
373.389862	722.593994	5860.181641	736.414246	0.269003
373.754059	719.770508	5865.828125	733.516418	0.267115
374.118225	719.919128	5878.162598	736.860046	0.328424
374.482361	721.033630	5939.907715	740.055115	0.364475
374.846436	720.662109	6013.096191	743.101501	0.423990
375.210510	722.593933	6109.244141	735.374023	0.237255
375.574524	717.987122	6210.592285	733.367859	0.280026
375.938538	721.627991	6352.362793	739.534973	0.318022
376.302460	717.392761	6478.230957	743.398743	0.451427
376.666412	722.073914	6648.681641	750.085999	0.472650
377.030304	722.668274	6786.364746	743.547363	0.344329
377.394196	726.754944	6937.942871	746.445129	0.317012
377.757996	720.959290	7061.730469	749.342957	0.447637
378.121796	720.290588	7141.828125	750.828918	0.475561
378.485565	722.371094	7159.140625	745.999268	0.367081
378.849304	730.395752	7070.349609	738.271790	0.124229
379.212982	728.612488	6937.496094	743.695984	0.242934
379.576630	735.968445	6773.361816	743.324402	0.121840
379.940277	730.470032	6665.325684	747.485352	0.286702
380.303864	734.705383	6576.979980	744.216003	0.162790
380.667450	733.888000	6537.896484	745.107727	0.193310
381.030945	732.550598	6508.026855	739.980774	0.128650
381.394501	727.052185	6539.382813	740.278015	0.227548
381.757935	728.315247	6543.840332	745.181946	0.290029
382.121399	727.869446	6563.531250	753.206726	0.434180
382.484741	731.361633	6589.462402	760.934143	0.504814
382.848145	721.553711	6658.489746	761.454285	0.672073
383.211487	725.045959	6727.071777	752.760925	0.461760
383.574768	724.600098	6844.767090	745.999329	0.349651
383.938019	724.005676	6923.007324	743.101563	0.308048
384.301270	716.501160	7033.792969	746.668030	0.477529
384.664459	713.380432	7077.928223	747.188171	0.531188
385.027649	714.940735	7137.296387	749.045715	0.531035
385.390778	719.696106	7208.478516	748.451355	0.443153
385.753876	723.039795	7248.007813	747.039551	0.367814
386.116943	721.999512	7306.410156	746.668030	0.374650
386.479980	721.479431	7310.793457	754.989990	0.508559
386.842987	716.501160	7368.898438	754.915710	0.577454
387.205994	723.336975	7425.962402	760.116882	0.548739
387.568909	726.606262	7489.862793	761.305664	0.513058
387.931793	727.943665	7537.861816	770.965088	0.631747
388.294678	725.788879	7566.914551	776.686340	0.743993
388.657471	722.296692	7585.861816	780.847351	0.853065
389.020294	722.519714	7569.664063	787.608887	0.950603
389.383057	721.776611	7583.112793	799.274414	1.129486
389.745819	721.405090	7589.502441	811.459961	1.311206
390.108521	722.445313	7611.496094	821.565186	1.438803
390.471191	715.238037	7672.424316	825.949036	1.591318
390.833801	717.987122	7791.383301	836.722900	1.678625
391.196442	722.296692	7989.103027	850.543274	1.764827
391.558960	727.126404	8180.878906	874.097229	1.971770
391.921509	728.463867	8367.081055	890.369446	2.119567
392.284027	728.686768	8540.131836	914.592102	2.379910
392.646484	731.584656	8648.019531	931.681824	2.527617
393.008911	728.018066	8656.267578	958.876648	2.911848
393.371307	722.816895	8610.200195	987.111633	3.350854
393.733673	719.547546	8532.702148	1011.111389	3.731704
394.096008	721.999573	8510.708008	1039.272095	4.073493
394.458344	723.039795	8518.806641	1058.590820	4.304272
394.820587	730.024231	8555.661133	1092.101440	4.626808
395.182831	728.166687	8570.966797	1124.422974	5.052485
395.545013	727.052185	8521.629883	1165.809692	5.629009
395.907196	720.142029	8410.399414	1196.942505	6.200059
396.269287	723.782776	8284.753906	1223.097046	6.603838
396.631409	731.287354	8156.209473	1254.006958	7.040069
396.993469	737.305847	8051.145996	1284.471069	7.481230
397.355530	738.569092	7976.768066	1321.548096	8.054199
397.717499	730.915955	7951.654297	1346.736694	8.528502
398.079468	731.287415	7959.679199	1384.779785	9.040633
398.441376	725.863281	7957.152344	1417.101563	9.558991
398.803284	727.274963	7981.300781	1457.968140	10.072933
399.165131	717.169861	7995.121094	1493.781860	10.670751
399.526978	723.114014	8004.707031	1537.472046	11.183790
399.888763	727.423584	8000.992188	1569.273438	11.574097
400.250519	734.036621	8007.381348	1614.820923	12.109756
400.612244	726.309082	8056.198730	1656.579102	12.691460
400.973938	722.445313	8037.474121	1709.334106	13.491250
401.335602	719.027405	8049.584473	1740.244019	13.930955
401.697205	715.609558	8082.724121	1775.760742	14.390316
402.058807	708.550781	8181.621094	1814.472290	14.798757
402.420349	706.544617	8292.406250	1871.091187	15.351541
402.781860	713.306152	8402.969727	1932.390747	15.853549
403.143341	719.844727	8519.921875	1989.380981	16.275946
403.504822	727.943787	8640.218750	2045.553833	16.652735
403.866241	731.881775	8803.683594	2109.974365	17.072924
404.227631	728.092285	8986.839844	2168.673584	17.443096
404.588959	719.473206	9200.682617	2227.967041	17.786308
404.950287	716.724060	9346.910156	2271.062744	18.010487
405.311554	721.182129	9442.092773	2317.353271	18.302805
405.672821	724.525818	9454.352539	2359.482666	18.728397
406.034027	727.646545	9436.520508	2391.878662	19.109613
406.395203	728.983948	9363.925781	2406.516357	19.427259
406.756348	727.497986	9300.842773	2417.884766	19.716770
407.117493	726.680664	9232.113281	2428.510010	20.008734
407.478516	725.268860	9209.004883	2459.865967	20.446146
407.839600	721.405090	9192.731445	2491.890137	20.899740
408.200592	715.015137	9192.211914	2513.140869	21.211323
408.561554	715.981018	9167.617188	2541.227295	21.596367
408.922485	720.439209	9178.764648	2566.638916	21.827013
409.283417	727.943848	9198.973633	2600.149414	22.101276
409.644257	728.018066	9322.836914	2634.551758	22.182362
410.005096	731.510254	9466.910156	2663.381104	22.115425
410.365906	722.371094	9609.347656	2704.024658	22.298399
410.726715	722.148132	9694.202148	2737.089111	22.457968
411.087433	717.541321	9767.910156	2786.054932	22.855572
411.448120	719.770508	9826.163086	2821.794678	23.082951
411.808807	716.872742	9848.231445	2855.676514	23.422625
412.169434	717.838562	9769.991211	2850.549561	23.560263
412.530029	715.683777	9723.402344	2855.007813	23.749897
412.890564	712.860352	9693.086914	2856.196533	23.867285
413.251099	712.340149	9710.845703	2878.115967	24.068172
413.611572	717.912903	9743.242188	2897.211914	24.146477
413.972076	720.959290	9800.008789	2925.000977	24.276129
414.332489	730.544250	9864.799805	2948.480469	24.281521
414.692871	734.408020	10000.477539	2998.486328	24.434076
415.053223	733.145020	10131.250000	3029.693359	24.436291
415.413574	722.593994	10338.257813	3098.052002	24.704046
415.773834	719.770447	10481.215820	3130.968018	24.701235
416.134094	725.491699	10626.403320	3189.815674	24.889868
416.494263	733.219238	10754.278320	3227.041260	24.885815
416.854462	734.482422	11017.235352	3316.353516	25.108753
417.214630	731.881836	11325.518555	3392.810547	25.118179
417.574738	733.070618	11663.668945	3480.042236	25.131027
417.934784	730.024231	11917.487305	3547.211914	25.181650
418.294861	723.411316	12244.198242	3638.232422	25.300537
418.654846	715.015076	12632.726563	3753.773193	25.497831
419.014832	717.169861	13107.817383	3882.391357	25.545246
419.374756	729.727051	13603.343750	4023.269287	25.583658
419.734680	735.671204	14113.208008	4161.546875	25.609167
420.094543	724.302917	14608.213867	4300.344238	25.756729
420.454376	715.015076	15033.967773	4417.965332	25.860481
420.814148	708.773682	15492.860352	4536.626465	25.891708
421.173920	717.392761	15957.327148	4672.675293	25.953409
421.533691	719.547546	16436.951172	4796.017090	25.936024
421.893341	727.572266	16781.642578	4889.861816	25.926693
422.253021	723.114075	17021.416016	4947.074707	25.916569
422.612640	729.652771	17087.841797	4982.963379	26.001108
422.972260	718.655945	17047.792969	5000.870605	26.224380
423.331757	719.250305	16936.562500	5002.133301	26.409325
423.691315	715.237976	16925.789063	5005.922852	26.468472
424.050781	720.364929	17077.587891	5043.594238	26.430096
424.410248	725.268860	17235.111328	5075.321777	26.348240
424.769653	725.640381	17394.267578	5115.147949	26.333950
425.128998	723.782898	17379.037109	5136.101074	26.492050
425.488373	720.885071	17286.751953	5125.178711	26.586555
425.847656	717.392822	17063.396484	5092.708496	26.766882
426.206940	726.011902	16859.660156	5037.724609	26.724972
426.566193	726.754883	16520.837891	4955.991699	26.777349
426.925385	728.315247	16211.515625	4886.741699	26.857666
427.284576	729.578369	15750.317383	4773.132324	26.919807
427.643677	737.454529	15409.194336	4717.182617	27.125126
428.002777	738.271790	15044.293945	4641.542480	27.284109
428.361847	727.200745	14703.023438	4560.255371	27.426327
428.720856	724.377258	14409.081055	4458.906250	27.289804
429.079865	721.553711	14161.208008	4395.080078	27.333488
429.438812	726.754883	14009.703125	4364.690918	27.388016
429.797760	713.900574	13914.075195	4353.619629	27.573263
430.156616	716.798340	13761.606445	4321.372070	27.632248
430.515503	717.467041	13677.793945	4307.105957	27.697132
430.874268	726.977844	13600.890625	4290.090332	27.676996
431.233093	724.674377	13647.254883	4287.861328	27.573341
431.591827	720.736328	13680.245117	4303.762207	27.647852
431.950562	722.296692	13704.468750	4332.442871	27.808493
432.309204	726.680664	13747.859375	4362.758301	27.924335
432.667877	726.457703	13885.320313	4386.163574	27.811720
433.026459	725.343079	14029.171875	4424.727051	27.806911
433.385010	718.284424	14180.600586	4458.980469	27.786423
433.743561	715.089355	14333.515625	4525.927246	27.982954
434.102051	715.089417	14486.281250	4568.131348	27.979002
434.460510	722.891113	14657.104492	4616.353516	27.941746
434.818939	728.761047	14704.583008	4635.969238	27.956911
435.177338	724.897278	14737.796875	4662.347168	28.098753
435.535675	728.612549	14642.838867	4662.124023	28.269711
435.894012	733.813660	14586.441406	4637.901367	28.183010
436.252289	735.374023	14605.983398	4642.062012	28.165222
436.610535	726.160461	14626.120117	4644.217285	28.187540
436.968719	726.606262	14759.195313	4684.638184	28.205999
437.326935	727.423645	14846.351563	4701.281738	28.145609
437.685028	726.829285	14988.864258	4753.813965	28.235695
438.043152	726.606262	15096.231445	4791.559082	28.288511
438.401215	721.107910	15333.778320	4846.023926	28.228354
438.759277	727.720886	15545.987305	4901.825195	28.168642
439.117249	721.776611	15909.549805	5023.235840	28.321854
439.475250	724.971680	16198.586914	5112.250000	28.353285
439.833130	715.386536	16624.341797	5230.094238	28.378405
440.191071	718.210144	16917.242188	5295.183105	28.254608
440.548889	721.702332	17181.761719	5404.854004	28.451611
440.906708	731.361633	17513.521484	5483.763672	28.318178
441.264496	728.835388	17729.447266	5548.556152	28.350279
441.622223	727.646484	17908.962891	5583.997559	28.265303
441.979950	722.445313	17892.244141	5601.979004	28.419283
442.337616	722.668213	17867.203125	5597.595215	28.434290
442.695251	722.222412	17743.712891	5575.082031	28.510191
443.052887	724.377197	17573.113281	5536.667969	28.561733
443.410461	718.210144	17427.330078	5517.273926	28.721226
443.768005	713.008972	17256.804688	5476.482422	28.793114
444.125458	707.882019	17167.791016	5453.299316	28.830158
444.482941	713.380371	17198.478516	5455.008301	28.763117
444.840393	712.117249	17360.236328	5493.423340	28.719797
445.197754	711.820068	17633.447266	5592.766113	28.844427
445.555084	709.813904	17877.679688	5675.687500	28.925400
445.912415	719.473206	18255.806641	5803.265625	28.990053
446.269714	722.296692	18555.916016	5867.314453	28.850103
446.626953	724.971619	18898.970703	5973.417969	28.878872
446.984161	723.485535	19195.513672	6057.751953	28.877537
447.341309	719.770447	19413.666016	6134.135254	28.963276
447.698456	717.690002	19567.326172	6189.639160	29.029469
448.055542	710.705566	19634.123047	6223.669922	29.133026
448.412598	721.776611	19591.103516	6227.162598	29.176376
448.769653	724.674377	19456.466797	6190.605469	29.179968
449.126617	732.476257	19163.265625	6103.225098	29.140093
449.483582	727.200684	18906.476563	6046.829590	29.262051
449.840515	724.525879	18551.382813	5982.557129	29.494999
450.197388	723.634216	18293.849609	5940.502441	29.691544
450.554230	724.748718	18093.457031	5881.729004	29.691214
450.911041	733.219238	17917.285156	5827.116699	29.643143
451.267822	735.151184	17796.394531	5786.919434	29.609612
451.624573	736.191406	17627.207031	5738.919434	29.617687
451.981262	731.807434	17557.880859	5701.024902	29.532839
452.337921	728.166687	17414.253906	5671.303223	29.624300
452.694580	723.485596	17306.439453	5647.378418	29.692495
453.051147	719.621826	17285.117188	5661.124512	29.830093
453.407715	722.668274	17201.005859	5640.096191	29.841770
453.764221	735.002502	17218.095703	5663.279297	29.898979
454.120728	743.472961	16996.003906	5619.440918	30.001282
454.477142	737.974670	16925.119141	5601.236328	30.043976
454.833557	732.996399	16739.882813	5552.196777	30.107042
455.189911	733.293640	16607.623047	5505.906250	30.064974
455.546265	735.745544	16415.328125	5462.364746	30.145056
455.902557	730.098572	16301.868164	5439.033691	30.240206
456.258820	726.680664	16279.725586	5436.358887	30.281391
456.615051	723.188416	16375.500977	5456.940430	30.243147
456.971252	727.795166	16333.743164	5455.677246	30.295383
457.327393	719.547546	16536.515625	5513.484863	30.308828
457.683502	724.377258	16755.041016	5608.963379	30.470266
458.039612	715.906738	17206.802734	5739.142090	30.460657
458.395630	718.358704	17605.880859	5876.230469	30.542501
458.751648	715.758057	18088.476563	6014.062500	30.497845
459.107605	727.126404	18768.494141	6230.580566	30.504641
459.463562	735.151062	19462.111328	6432.535156	30.423431
459.819458	742.284180	20081.796875	6620.149902	30.393042
460.175323	731.881836	20584.306641	6762.142090	30.375433
460.531158	725.863281	21093.875000	6925.087891	30.436081
460.886932	721.702332	21369.460938	7034.833496	30.575384
461.242676	728.092346	21472.521484	7085.730469	30.647448
461.598419	729.355469	21226.726563	7030.078125	30.739174
461.954102	731.287415	20816.351563	6897.521973	30.700596
462.309723	723.559875	20163.751953	6733.312500	30.914061
462.665344	726.383362	19467.904297	6539.976563	31.019857
463.020905	725.789063	18905.138672	6406.306152	31.247086
463.376373	735.076904	18504.275391	6264.462402	31.117811
463.731873	736.711487	18188.859375	6175.670410	31.164982
464.087341	737.231628	17929.544922	6079.226074	31.071997
464.442749	731.287415	17784.431641	6057.083496	31.230579
464.798126	726.977844	17661.458984	6025.876465	31.290588
465.153503	725.343079	17741.931641	6045.492188	31.264486
465.508820	723.262695	17792.751953	6051.510254	31.215040
465.864105	720.141907	17995.376953	6087.399902	31.069088
466.219330	723.114075	18263.310547	6199.967285	31.224581
466.574524	726.903503	18498.255859	6271.967285	31.202263
466.929657	728.761047	18660.830078	6353.477051	31.366798
467.284790	726.903503	18791.306641	6382.009277	31.305248
467.639893	724.971680	18899.490234	6424.436035	31.359642
467.994934	726.309082	19064.740234	6487.072754	31.413612
468.349945	721.405090	19088.814453	6501.117188	31.467213
468.704926	728.166687	19063.552734	6527.048340	31.626722
469.059875	728.092346	18834.328125	6464.337402	31.681046
469.414764	727.052063	18603.248047	6399.024902	31.729195
469.769653	720.959290	18386.283203	6330.591797	31.755049
470.124451	727.646545	18328.474609	6309.638672	31.714373
470.479248	732.773438	18199.335938	6271.224121	31.708876
470.834015	738.643311	18134.841797	6231.249512	31.573601
471.188721	726.903503	18144.800781	6219.806152	31.535971
471.543365	724.377258	18238.273438	6244.474609	31.518385
471.898010	718.730225	18403.669922	6292.994629	31.519840
472.252625	725.417480	18593.882813	6356.895020	31.516293
472.607178	728.983948	18892.951172	6449.030762	31.491177
472.961700	730.841614	19100.478516	6517.908691	31.503437
473.316193	732.922058	19355.412109	6619.703125	31.611139
473.670654	727.423645	19476.228516	6689.919922	31.802006
474.025055	723.782776	19685.390625	6782.203613	31.950989
474.379456	716.649719	19837.265625	6821.881348	31.930099
474.733795	717.987122	20004.894531	6868.468750	31.889412
475.088104	723.411316	20110.404297	6916.320313	31.943630
475.442383	721.999512	20130.242188	6928.134277	31.976799
475.796570	722.073792	20215.541016	6957.409668	31.986799
476.150787	719.621826	20424.404297	7014.994141	31.948446
476.504944	723.559875	20676.441406	7093.384277	31.924334
476.859070	726.011902	20990.443359	7183.810059	31.867651
477.213135	733.962219	21237.500000	7256.478027	31.811661
477.567200	732.624817	21680.419922	7390.668457	31.783983
477.921173	727.720764	22041.455078	7513.639160	31.838243
478.275146	722.222412	22530.740234	7656.152344	31.794594
478.629089	725.566101	22828.693359	7777.488281	31.904636
478.983002	731.584656	23268.791016	7908.484375	31.844673
479.336823	732.922058	23616.156250	8033.535645	31.903767
479.690643	728.538086	24051.421875	8172.407715	31.916594
480.044403	725.194519	24514.474609	8333.496094	31.982061
480.398163	722.816895	25201.923828	8557.666992	32.006275
480.751862	725.417480	26082.632813	8834.593750	31.979759
481.105499	724.674500	27200.740234	9187.011719	31.962214
481.459137	724.525818	28618.583984	9636.468750	31.949253
481.812744	718.581726	30452.226563	10190.171875	31.854790
482.166290	719.176086	32665.482422	10867.143555	31.765699
482.519806	720.810730	35371.066406	11713.750000	31.725422
482.873291	723.708496	38503.222656	12744.550781	31.818411
483.226715	732.847717	42079.785156	13948.403320	31.962599
483.580139	731.287415	45594.375000	15175.811523	32.196903
483.933502	730.693054	48887.843750	16433.533203	32.607494
484.286804	726.754883	51570.917969	17599.341797	33.184902
484.640106	727.646545	53594.550781	18607.556641	33.820614
484.993347	735.151123	54710.730469	19281.703125	34.361008
485.346558	735.894104	54907.035156	19527.869141	34.690010
485.699738	723.411316	54248.488281	19286.904297	34.681858
486.052887	717.095520	52953.468750	18681.412109	34.390434
486.405975	705.429993	51405.519531	17936.455078	33.986183
486.759064	715.015137	49808.609375	17205.984375	33.590878
487.112061	722.668274	48518.566406	16623.822266	33.268867
487.464996	733.442139	47738.386719	16247.924805	33.006065
487.817963	737.528809	47610.285156	16128.743164	32.836163
488.170868	730.990173	47694.839844	16158.018555	32.848728
488.523743	730.098572	47794.480469	16202.377930	32.874710
488.876587	725.268860	47515.769531	16177.335938	33.023941
489.229401	728.315247	47021.363281	16038.835938	33.073044
489.582153	731.287354	46169.480469	15763.618164	33.083031
489.934845	728.835388	45181.253906	15415.286133	33.038589
490.287537	722.445313	44102.605469	15017.471680	32.952911
490.640198	716.649719	43260.828125	14707.554688	32.885593
490.992798	709.219482	42644.265625	14478.109375	32.833847
491.345337	710.482605	42541.355469	14423.644531	32.782398
491.697876	711.299988	42677.328125	14459.829102	32.761093
492.050354	721.999573	43103.007813	14583.247070	32.706272
492.402832	716.501160	43317.148438	14674.266602	32.764210
492.755219	715.460938	43127.082031	14651.382813	32.858734
493.107605	715.758118	42369.269531	14480.487305	33.045784
493.459930	726.754883	41144.910156	14132.156250	33.166782
493.812225	731.807434	39428.964844	13600.296875	33.254353
494.164490	734.556641	37456.523438	12948.066406	33.259411
494.516724	733.144958	35399.824219	12229.782227	33.163364
494.868896	726.829285	33572.417969	11603.929688	33.115864
495.221039	728.315247	32195.218750	11118.436523	33.019203
495.573120	722.296692	31157.287109	10753.535156	32.959557
495.925201	731.213074	30565.687500	10533.524414	32.855652
496.277222	732.476257	30169.953125	10400.449219	32.842396
496.629211	740.723816	30031.005859	10371.916992	32.881874
496.981140	736.191345	29952.390625	10372.289063	32.982037
497.333069	736.637207	30074.843750	10388.411133	32.898308
497.684967	738.940613	30129.009766	10433.216797	32.984871
498.036804	738.346130	30205.837891	10458.108398	32.984695
498.388580	732.179016	30068.302734	10455.061523	33.143040
498.740326	728.612488	29900.453125	10397.922852	33.146042
499.092072	727.646484	29606.587891	10302.071289	33.153656
499.443756	728.761047	29316.134766	10200.128906	33.131298
499.795410	724.451477	28996.337891	10089.194336	33.123871
500.147003	726.160461	28609.000000	9995.796875	33.244953
500.498566	718.804504	28222.255859	9880.850586	33.312351
500.850098	719.993347	27850.742188	9767.018555	33.346024
501.201599	717.987122	27556.576172	9643.675781	33.256920
501.553009	721.776672	27215.156250	9506.513672	33.158237
501.904449	716.352539	26933.771484	9423.220703	33.210243
502.255859	714.271973	26741.031250	9343.270508	33.154331
502.607178	714.717834	26646.070313	9336.879883	33.249954
502.958405	716.501160	26598.072266	9320.978516	33.245579
503.309692	717.244141	26527.556641	9320.978516	33.334484
503.660919	722.593994	26559.138672	9341.262695	33.358444
504.012115	732.401917	26577.117188	9350.477539	33.345600
504.363251	733.219238	26680.843750	9387.777344	33.353954
504.714294	729.578430	26748.537109	9393.499023	33.298492
505.065369	717.764343	26828.853516	9422.328125	33.336655
505.416443	720.810730	26849.140625	9443.207031	33.382908
505.767395	720.364807	26849.361328	9451.677734	33.416180
506.118317	735.596924	26804.556641	9441.424805	33.395382
506.469238	736.340027	26791.630859	9449.375000	33.440559
506.820160	734.110840	26781.375000	9461.931641	33.507629
507.170929	728.761169	26819.712891	9453.015625	33.437859
507.521729	722.296814	26880.718750	9465.868164	33.425453
507.872498	721.702332	26961.708984	9512.531250	33.501629
508.223236	716.724060	27156.380859	9591.291992	33.565369
508.573883	720.439209	27344.515625	9652.591797	33.549152
508.924500	722.742493	27516.673828	9681.125000	33.434372
509.275116	724.154297	27689.726563	9738.188477	33.427937
509.625702	721.405090	27900.078125	9822.077148	33.484608
509.976196	724.600098	28182.873047	9940.588867	33.563610
510.326660	723.188416	28427.404297	10027.226563	33.583473
510.677124	727.646545	28704.406250	10092.910156	33.475155
511.027557	726.754883	28919.064453	10165.875977	33.481194
511.377869	731.881836	29165.228516	10268.338867	33.539692
511.728180	730.618652	29296.818359	10332.313477	33.612087
512.078430	729.206848	29403.962891	10368.721680	33.616730
512.428650	725.714661	29437.697266	10412.559570	33.737988
512.778931	731.658875	29540.830078	10471.557617	33.808327
513.129028	735.002502	29604.134766	10505.810547	33.845173
513.479126	737.603027	29655.406250	10507.519531	33.785126
513.829285	726.977844	29606.662109	10483.816406	33.784439
514.179382	714.197754	29554.501953	10452.164063	33.765133
514.529297	711.225647	29508.734375	10422.219727	33.721649
514.879272	718.210144	29544.398438	10434.034180	33.704853
515.229187	728.240906	29500.115234	10408.993164	33.646580
515.579163	729.801270	29490.677734	10407.656250	33.649376
515.928955	726.383362	29474.328125	10419.024414	33.715942
516.278748	726.383362	29672.791016	10495.333984	33.748402
516.628540	724.228577	29966.431641	10592.670898	33.747261
516.978333	723.931396	30431.867188	10729.016602	33.678158
517.327942	726.011902	30947.083984	10903.776367	33.677708
517.677612	730.915833	31584.673828	11100.231445	33.607948
518.027222	737.380188	32163.789063	11305.531250	33.628250
518.376831	738.197510	32894.925781	11574.059570	33.697029
518.726379	733.070618	33538.019531	11788.573242	33.700718
519.075867	732.699158	34102.050781	11976.187500	33.694057
519.425293	735.745544	34466.656250	12083.554688	33.642170
519.774658	738.271790	34599.285156	12172.940430	33.769424
520.124084	735.225403	34616.152344	12218.562500	33.893219
520.473389	731.138855	34338.187500	12168.706055	34.033241
520.822693	732.476257	34022.996094	12055.913086	34.013996
521.171997	730.172852	33578.218750	11861.090820	33.886089
521.521240	730.172852	33130.394531	11707.731445	33.881123
521.870361	724.897278	32700.851563	11577.700195	33.940510
522.219482	730.247131	32342.861328	11494.407227	34.050205
522.568604	724.674500	32123.224609	11408.811523	34.027485
522.917664	730.395813	32003.224609	11354.717773	33.973015
523.266724	730.544373	32046.171875	11362.743164	33.951736
523.615662	732.179016	32312.025391	11440.538086	33.908840
523.964600	726.086182	32748.630859	11567.000977	33.854008
524.313538	716.203918	33350.332031	11723.928711	33.730713
524.662354	714.049133	34048.332031	11953.078125	33.716129
525.011169	713.306152	34883.566406	12257.942383	33.785625
525.359985	715.906738	35910.875000	12625.593750	33.839176
525.708740	715.906738	37138.875000	12994.581055	33.711349
526.057434	719.547607	38507.605469	13452.879883	33.696709
526.406067	720.216309	40075.914063	13973.370117	33.675312
526.754700	723.114075	41785.250000	14570.911133	33.724003
527.103333	725.417480	43710.437500	15233.171875	33.750721
527.451782	721.850891	45821.449219	15996.929688	33.869656
527.800293	724.674500	47939.000000	16849.552734	34.152512
528.148743	724.228577	50049.269531	17747.353516	34.512138
528.497131	723.188477	51871.917969	18603.322266	34.957138
528.845642	727.646667	53445.949219	19378.222656	35.377804
529.193909	725.640381	54641.847656	20052.966797	35.846970
529.542175	732.476257	55430.644531	20571.005859	36.269093
529.890503	727.349304	55683.125000	20881.294922	36.673023
530.238770	730.767273	55412.589844	20819.548828	36.737583
530.586914	722.445374	54653.511719	20466.017578	36.608906
530.934998	724.600159	53440.519531	19815.125000	36.213966
531.283142	721.256531	51910.699219	19059.763672	35.824787
531.631226	729.727051	50089.542969	18203.572266	35.400955
531.979248	727.720886	48230.488281	17377.177734	35.049446
532.327148	728.315247	46617.605469	16657.185547	34.711521
532.675110	727.349304	45429.652344	16164.407227	34.533024
533.023071	724.525818	44913.621094	15910.070313	34.364918
533.370850	730.395752	44747.324219	15817.339844	34.275322
533.718689	728.686768	45005.683594	15889.933594	34.241814
534.066467	732.401855	45214.468750	15979.542969	34.277050
534.414246	724.600098	45308.984375	16057.040039	34.389709
534.761963	725.714661	45100.714844	16019.741211	34.465412
535.109619	723.336975	44760.406250	15914.156250	34.495525
535.457153	722.593933	44113.375000	15705.217773	34.529510
535.804749	718.581543	43341.746094	15411.276367	34.471149
536.152344	722.668213	42452.117188	15091.848633	34.434151
536.499817	722.222473	41557.066406	14758.303711	34.372803
536.847229	726.160461	40605.769531	14431.817383	34.367580
537.194641	721.850891	39757.824219	14119.968750	34.322491
537.542114	723.188416	39137.996094	13896.391602	34.291992
537.889404	723.114075	38667.953125	13709.222656	34.223648
538.236694	722.891174	38248.511719	13544.046875	34.166405
538.583984	725.714661	37890.078125	13395.590820	34.091465
538.931213	719.101746	37629.574219	13325.301758	34.153450
539.278381	718.655945	37458.531250	13292.682617	34.224468
539.625488	714.049133	37448.421875	13279.382813	34.205933
539.972595	717.467102	37776.691406	13332.210938	34.039417
540.319641	715.163757	38449.355469	13503.553711	33.890720
540.666687	714.197754	39466.484375	13831.229492	33.848408
541.013611	713.900574	40733.941406	14247.472656	33.816990
541.360596	710.854187	42116.714844	14712.979492	33.816772
541.707458	710.185364	43577.652344	15231.315430	33.874474
542.054260	715.312317	44794.656250	15686.640625	33.964500
542.401062	718.284424	45790.316406	16136.692383	34.208374
542.747864	719.919128	46294.531250	16361.012695	34.319752
543.094666	718.358704	46236.875000	16424.244141	34.504391
543.441284	721.702332	45567.855469	16210.401367	34.537411
543.787903	724.823059	44523.894531	15913.487305	34.678051
544.134460	723.411316	43236.828125	15456.674805	34.655560
544.481079	725.937500	41834.214844	14950.375977	34.602371
544.827637	730.618652	40256.914063	14341.985352	34.436234
545.174072	728.389587	38614.605469	13767.328125	34.416050
545.520508	726.977783	37213.769531	13274.106445	34.388138
545.866943	724.154297	36077.386719	12846.495117	34.289200
546.213318	733.665100	35291.859375	12540.664063	34.165554
546.559631	730.024231	34611.988281	12287.811523	34.111916
546.905823	729.949951	33986.140625	12098.859375	34.185841
547.252136	718.135803	33530.144531	11926.329102	34.158817
547.598389	715.460876	33034.695313	11774.157227	34.217075
547.944458	712.711731	32626.474609	11642.940430	34.249264
548.290588	720.810730	32093.869141	11469.961914	34.262363
548.636658	728.018066	31547.005859	11261.320313	34.177963
548.982727	734.185242	30856.134766	10996.430664	34.068993
549.328735	730.172852	30136.439453	10771.145508	34.145691
549.674622	730.767273	29358.416016	10520.745117	34.197632
550.020569	724.154297	28655.365234	10307.272461	34.309711
550.366455	728.315247	27916.500000	10025.368164	34.195194
550.712280	727.275085	27246.658203	9773.778320	34.112797
551.058044	735.374023	26740.062500	9580.889648	34.015083
551.403748	736.711487	26361.193359	9460.222656	34.043655
551.749512	735.225403	26134.642578	9378.267578	34.028503
552.095154	728.241028	25939.228516	9317.338867	34.068867
552.440735	727.869446	25869.384766	9309.834961	34.134640
552.786316	727.274963	25883.578125	9301.958008	34.085625
553.131897	726.160461	25906.015625	9284.347656	33.988232
553.477417	725.937561	25949.630859	9269.487305	33.871128
553.822815	726.977844	25916.640625	9275.801758	33.937828
554.168213	726.829285	25882.978516	9272.161133	33.969158
554.513672	718.953125	25730.140625	9238.206055	34.061768
554.859009	718.507324	25531.232422	9190.502930	34.143757
555.204285	722.668274	25322.812500	9126.157227	34.160324
555.549500	723.039734	25089.056641	9032.833008	34.104027
555.894714	728.389587	24840.068359	8939.657227	34.055145
556.239990	730.470032	24527.031250	8840.463867	34.080528
556.585022	732.699219	24260.732422	8748.773438	34.070313
556.930115	732.104675	23995.099609	8671.499023	34.128860
557.275146	719.621826	23735.705078	8569.481445	34.105972
557.620178	723.931396	23518.818359	8496.739258	34.098907
557.965149	718.507324	23363.150391	8418.275391	34.002605
558.310059	720.662109	23167.884766	8377.409180	34.109997
558.654968	719.919006	23029.458984	8330.153320	34.112019
558.999756	721.256531	22900.099609	8286.240234	34.109009
559.344604	725.640381	22914.662109	8275.911133	34.027054
559.689331	721.256531	22872.976563	8262.612305	34.044109
560.033997	722.148132	22811.380859	8229.769531	33.987698
560.378723	722.742615	22757.958984	8192.618164	33.899715
560.723389	725.417480	22759.072266	8174.339844	33.807022
561.067932	728.018066	22819.927734	8214.537109	33.888058
561.412476	729.355530	22824.312500	8221.522461	33.908947
561.757019	727.943665	22821.562500	8227.167969	33.942940
562.101501	724.897278	22823.492188	8223.825195	33.933956
562.445862	725.714600	22784.781250	8210.450195	33.930428
562.790222	732.476257	22750.007813	8193.658203	33.887459
563.134644	729.429871	22750.156250	8166.761230	33.774235
563.478943	727.869446	22769.771484	8173.076660	33.777515
563.823181	722.816895	22799.716797	8176.865723	33.764019
564.167358	723.931396	22826.833984	8188.828125	33.773376
564.511536	722.148193	22886.873047	8209.484375	33.780415
564.855774	727.052063	22899.281250	8231.254883	33.845055
565.199768	717.764343	22967.193359	8251.464844	33.860195
565.543823	718.878845	23097.818359	8266.029297	33.724342
565.887817	717.838623	23335.958984	8330.153320	33.655823
566.231812	732.922058	23515.400391	8382.981445	33.578697
566.575745	734.185059	23690.976563	8461.668945	33.660992
566.919617	734.779602	23871.755859	8511.079102	33.609833
567.263428	734.036560	23994.798828	8556.329102	33.628704
567.607239	732.699158	24116.435547	8589.542969	33.599609
567.950989	727.349304	24109.599609	8598.014648	33.660854
568.294678	725.640320	24143.037109	8601.059570	33.630638
568.638367	729.132568	24070.591797	8556.553711	33.534412
568.981995	734.110840	23934.171875	8520.516602	33.562008
569.325623	727.795166	23731.916016	8459.215820	33.608852
569.669128	719.770508	23530.705078	8419.612305	33.755051
570.012573	715.832458	23415.240234	8352.145508	33.641022
570.356140	721.107910	23377.419922	8335.204102	33.606953
570.699524	733.367859	23365.234375	8306.227539	33.461048
571.042908	737.677429	23427.351563	8343.156250	33.519562
571.386230	740.649597	23567.931641	8353.781250	33.351025
571.729492	735.299744	23761.564453	8409.433594	33.327740
572.072815	731.138733	23945.240234	8460.181641	33.294601
572.416016	727.720886	24047.630859	8488.193359	33.278313
572.759094	726.234863	24193.412109	8536.638672	33.282246
573.102234	731.138733	24291.343750	8553.655273	33.202244
573.445374	731.213074	24358.662109	8595.116211	33.282913
573.788391	727.200745	24302.638672	8581.445313	33.315372
574.131409	718.433044	24271.056641	8579.511719	33.376659
574.474365	726.977844	24189.474609	8560.416992	33.387066
574.817261	734.036621	24067.693359	8525.716797	33.392452
575.160156	739.386292	23866.333984	8450.299805	33.341682
575.502930	734.408020	23672.328125	8370.350586	33.289604
575.845703	731.584656	23463.017578	8294.709961	33.271660
576.188477	732.104675	23221.830078	8219.665039	33.293251
576.531250	724.302917	22959.689453	8136.667969	33.335896
576.873901	723.039795	22722.218750	8047.207031	33.292908
577.216431	716.129578	22494.181641	7959.976563	33.262142
577.559082	720.290527	22228.697266	7875.791016	33.268391
577.901611	725.937500	21924.130859	7771.619141	33.237179
578.244080	733.293457	21578.103516	7668.635254	33.271313
578.586487	730.172852	21255.480469	7573.453125	33.340694
578.928955	730.470032	20886.419922	7474.407715	33.458794
579.271301	725.417480	20567.291016	7354.408691	33.409100
579.613647	725.268860	20181.660156	7211.896484	33.339317
579.955872	719.324646	19897.005859	7109.507813	33.320938
580.298157	719.844727	19590.134766	7009.644531	33.331760
580.640320	724.302917	19373.171875	6934.078125	33.298401
580.982483	725.937561	19147.587891	6846.623535	33.225502
581.324524	725.789001	18981.373047	6784.061035	33.185856
581.666626	719.250305	18819.021484	6734.947754	33.236317
582.008728	714.717957	18724.138672	6693.040527	33.195534
582.350647	716.055359	18583.705078	6669.635254	33.320442
582.692566	729.727051	18511.927734	6613.907715	33.090282
583.034424	733.145020	18392.894531	6590.725098	33.169098
583.376343	729.206848	18326.171875	6540.868652	33.026501
583.718201	720.587830	18208.402344	6552.533691	33.348625
584.059937	722.371094	18155.869141	6511.519531	33.207039
584.401611	725.937561	18055.115234	6487.073730	33.245296
584.743347	727.126404	18001.841797	6426.665527	32.993534
585.085022	721.182129	17908.664063	6407.197754	33.082306
585.426514	723.559875	17852.640625	6383.049316	33.040241
585.768127	725.194580	17770.388672	6361.873047	33.069023
586.109619	737.825989	17702.474609	6321.675781	32.914619
586.451172	736.042786	17631.812500	6312.089844	33.002621
586.792542	730.470032	17595.404297	6300.053223	33.024635
587.133850	728.612488	17556.396484	6289.650879	33.046768
587.475220	731.881775	17571.404297	6267.211426	32.871059
587.816589	733.739441	17579.355469	6273.304199	32.884315
588.157776	729.058289	17593.623047	6281.478027	32.923588
588.498962	730.693054	17647.490234	6295.669434	32.896160
588.840210	733.293640	17694.970703	6296.041016	32.795975
589.181335	735.671204	17787.476563	6322.790527	32.765560
589.522400	735.299744	17794.833984	6321.006348	32.742432
589.863403	731.658875	17860.294922	6343.223145	32.761303
590.204407	728.984070	17823.365234	6333.117676	32.783485
590.545410	721.776672	17896.849609	6368.634766	32.878220
590.886353	720.439209	17892.244141	6348.350098	32.774139
591.227112	722.816895	17916.986328	6344.709473	32.696507
591.567932	725.194580	17817.716797	6303.545410	32.636208
591.908752	723.262695	17680.333984	6279.025879	32.763699
592.249512	718.730286	17621.039063	6268.474609	32.834236
592.590149	719.696106	17530.908203	6233.329590	32.797356
592.930786	719.844788	17491.455078	6215.645996	32.768478
593.271423	713.231873	17390.181641	6164.970703	32.690266
593.612000	714.643616	17334.974609	6134.357910	32.608944
593.952576	723.782898	17339.580078	6118.160156	32.465355
594.292969	734.705322	17396.869141	6136.958496	32.422276
594.633484	732.922058	17472.210938	6170.097656	32.481522
594.973877	728.538147	17554.017578	6199.076172	32.513416
595.314209	728.612488	17673.867188	6233.923828	32.488811
595.654480	730.321472	17859.847656	6287.793457	32.443817
595.994812	732.401917	18048.207031	6355.334473	32.472836
596.335022	729.652771	18266.433594	6415.966309	32.425068
596.675171	724.897461	18480.126953	6460.919434	32.306095
597.015320	725.640442	18680.595703	6496.287109	32.139576
597.355408	729.727051	18764.781250	6512.484375	32.063984
597.695496	734.482361	18812.410156	6523.556152	32.022884
598.035461	733.739258	18756.681641	6516.869141	32.087605
598.375366	733.590637	18722.726563	6524.447754	32.190857
598.715271	739.014832	18600.794922	6524.001953	32.387520
599.055176	733.070618	18403.298828	6485.438965	32.554012
599.395081	723.262695	18152.080078	6398.578613	32.562832
599.734802	717.615723	17838.150391	6282.666504	32.505123
600.074524	722.816833	17512.333984	6180.574707	32.506935
600.414246	727.423645	17154.195313	6070.160645	32.524570
600.753906	725.343201	16839.820313	5945.703613	32.395466
601.093506	721.850891	16567.203125	5828.230469	32.226353
601.433044	721.850891	16377.805664	5736.615723	32.031036
601.772583	720.736389	16235.812500	5708.678223	32.149002
602.112122	720.885010	16212.409180	5697.384277	32.124012
602.451538	716.724060	16236.036133	5709.570313	32.171825
602.790894	715.535156	16373.050781	5730.968750	32.032116
603.130310	714.420715	16585.183594	5767.302734	31.837675
603.469604	718.061523	16796.576172	5834.769531	31.823263
603.808838	722.668274	17097.130859	5905.729004	31.653316
604.148010	724.005676	17350.501953	5998.458496	31.723177
604.487305	725.789001	17637.013672	6083.164063	31.679403
604.826416	728.092346	17829.533203	6148.772949	31.697214
605.165527	730.692932	18013.505859	6194.766113	31.615648
605.504456	734.928223	18116.193359	6233.626465	31.635777
605.843445	732.401917	18167.908203	6251.904785	31.656683
606.182434	733.590759	18141.826172	6257.774902	31.733164
606.521423	734.928223	18049.765625	6228.574219	31.727966
606.860229	740.798157	17829.458984	6166.680176	31.751360
607.199036	742.061279	17573.335938	6095.274902	31.805159
607.537903	738.569092	17310.158203	6007.671875	31.796000
607.876648	739.237793	17063.619141	5924.602051	31.764538
608.215271	730.544373	16787.585938	5836.255859	31.797335
608.553955	727.423584	16582.138672	5762.473145	31.757429
608.892578	725.343079	16391.105469	5698.721191	31.746798
609.231140	737.528809	16308.704102	5633.112793	31.440041
609.569641	736.860046	16245.027344	5593.731934	31.318157
609.908081	738.717590	16226.377930	5585.484375	31.294376
610.246521	729.726990	16228.606445	5593.285645	31.380066
610.584961	729.504089	16221.325195	5599.972656	31.438969
610.923340	721.405090	16199.034180	5596.406738	31.497082
611.261597	724.080017	16119.825195	5561.855469	31.422808
611.599854	731.658875	15975.233398	5513.113281	31.367018
611.938110	734.482422	15838.590820	5468.902832	31.345249
612.276245	737.231628	15604.092773	5420.903809	31.504110
612.614319	726.606384	15321.816406	5342.663086	31.627203
612.952393	724.377258	15012.715820	5237.822266	31.588310
613.290466	715.609558	14761.127930	5130.528809	31.432940
613.628479	717.689941	14519.569336	5044.560059	31.349863
613.966370	713.677673	14280.983398	4964.387207	31.330536
614.304260	714.272034	14041.875977	4892.388184	31.349344
614.642151	714.940735	13858.793945	4828.116699	31.293530
614.979980	713.826172	13678.312500	4749.429688	31.128141
615.317749	719.844727	13534.834961	4718.296875	31.201366
615.655396	720.885010	13434.601563	4684.489258	31.175810
615.993164	724.674377	13392.843750	4686.347168	31.272655
616.330811	728.018066	13366.911133	4660.489746	31.114052
616.668396	731.658875	13316.459961	4635.672363	31.021654
617.005859	732.327637	13290.750000	4613.976074	30.908728
617.343445	732.922058	13268.682617	4598.818359	30.838943
617.680908	737.157288	13259.468750	4604.465332	30.883341
618.018311	738.866211	13260.657227	4626.013184	31.043058
618.355652	735.448242	13260.211914	4631.362793	31.105694
618.692993	725.937561	13270.614258	4619.623047	31.038548
619.030273	720.141907	13264.522461	4596.515137	30.901272
619.367554	721.553711	13262.738281	4580.391113	30.769321
619.704712	724.154297	13239.555664	4581.803223	30.823214
620.041870	729.504150	13205.301758	4567.313965	30.762039
620.379028	721.405090	13150.540039	4568.428711	30.951662
620.716064	719.473145	13099.346680	4542.497070	30.880962
621.053040	721.330750	13032.473633	4522.806641	30.878334
621.389954	728.092285	12975.484375	4485.729980	30.681124
621.726929	726.903503	12925.032227	4450.287109	30.524220
622.063843	725.194580	12878.964844	4436.095215	30.532917
622.400635	721.776611	12857.863281	4412.021484	30.407206
622.737427	719.770508	12837.429688	4412.169922	30.471228
623.074219	721.033630	12793.887695	4392.553223	30.411362
623.410889	721.479492	12724.117188	4371.971680	30.414083
623.747559	720.810730	12689.790039	4347.154785	30.297855
624.084167	716.798401	12672.700195	4324.121094	30.171902
624.420715	719.398926	12682.062500	4341.285156	30.276587
624.757324	724.228699	12696.922852	4353.173340	30.310175
625.093750	724.451599	12750.272461	4363.353027	30.259068
625.430176	721.999573	12816.179688	4353.396484	30.025988
625.766602	726.457703	12880.153320	4341.210938	29.742010
626.102905	726.011902	12951.038086	4358.523438	29.713732
626.439209	717.838623	13025.192383	4376.950195	29.731100
626.775452	713.157532	13134.566406	4427.996094	29.906740
627.111694	716.946960	13228.114258	4437.729980	29.739695
627.447876	719.398926	13311.333008	4445.754395	29.593195
627.783997	723.782776	13360.668945	4436.615234	29.380915
628.120056	715.089355	13387.269531	4440.776855	29.400526
628.456055	717.912903	13362.971680	4457.048340	29.569935
628.792053	711.597168	13309.622070	4458.460449	29.741671
629.128052	713.826233	13251.890625	4451.921387	29.813974
629.463928	710.631165	13180.335938	4409.420410	29.662203
629.799744	716.203918	13071.854492	4346.783203	29.383961
630.135559	717.838562	12923.843750	4291.948242	29.281569
630.471375	721.776672	12784.079102	4249.892578	29.249107
630.807068	714.940857	12631.387695	4213.930176	29.362688
631.142700	724.451477	12506.113281	4165.782227	29.209213
631.478333	730.321472	12359.959961	4119.417480	29.141886
631.813965	730.024231	12251.179688	4079.665283	29.073830
632.149475	723.485596	12123.750977	4041.845459	29.107742
632.484924	725.343201	12025.375000	4002.019287	28.997049
632.820435	734.408020	11942.156250	3970.217529	28.871183
633.155884	733.219238	11866.961914	3950.824219	28.899582
633.491150	731.287354	11833.303711	3942.947998	28.928623
633.826477	725.789001	11749.934570	3917.982422	28.956379
634.161804	722.445313	11711.520508	3894.502686	28.865553
634.497009	718.804504	11634.171875	3862.775391	28.803162
634.832153	719.176086	11583.645508	3831.271484	28.644707
635.167297	728.463867	11513.058594	3798.281006	28.464836
635.502380	721.776672	11432.067383	3773.835205	28.496506
635.837463	716.575500	11361.257813	3751.990234	28.515785
636.172424	713.008972	11286.434570	3724.646484	28.483082
636.507324	715.237976	11198.534180	3678.356201	28.265139
636.842224	725.045898	11104.020508	3652.498779	28.205608
637.177124	721.925293	10982.833008	3621.440674	28.257883
637.511963	729.281250	10859.194336	3602.047607	28.359240
637.846741	727.349304	10721.882813	3563.187256	28.373890
638.181396	733.665039	10616.149414	3523.583740	28.230946
638.516113	737.380188	10530.627930	3487.100830	28.077719
638.850769	735.745544	10445.253906	3439.101318	27.842354
639.185303	729.281250	10352.671875	3413.690186	27.894627
639.519836	724.525818	10274.729492	3383.523193	27.842308
639.854370	719.473206	10183.632813	3363.610107	27.938425
640.188843	723.782776	10073.739258	3330.693604	27.881531
640.523254	724.748718	10016.674805	3288.341064	27.589462
640.857605	730.618652	9938.583008	3263.524170	27.507767
641.191895	721.107910	9876.168945	3241.233398	27.527130
641.526184	717.838623	9783.885742	3242.422119	27.846575
641.860413	716.426941	9749.780273	3223.474854	27.753235
642.194580	727.052185	9710.102539	3195.165283	27.475222
642.528748	727.869446	9662.697266	3159.203125	27.211868
642.862793	735.819824	9586.760742	3139.736084	27.160006
643.196838	735.002502	9535.788086	3130.745117	27.221920
643.530823	735.225403	9493.139648	3115.216064	27.175314
643.864746	734.705261	9440.829102	3089.656006	27.049358
644.198669	732.104675	9396.099609	3057.333984	26.837841
644.532532	728.240967	9358.427734	3031.625244	26.689856
644.866333	721.776611	9334.354492	3026.647217	26.761681
645.200073	725.417480	9308.125000	3020.554443	26.741411
645.533813	730.321472	9277.958008	3010.003174	26.670315
645.867554	725.045898	9263.915039	2987.415283	26.494953
646.201172	712.637390	9265.028320	2974.560791	26.447849
646.534729	711.671387	9262.725586	2974.115234	26.458067
646.868225	715.980957	9269.933594	2974.709717	26.405672
647.201782	725.863281	9253.883789	2963.638428	26.240265
647.535217	728.612488	9249.277344	2962.077881	26.212336
647.868591	727.720886	9248.682617	2960.517578	26.203575
648.201965	731.064514	9250.317383	2966.461914	26.239361
648.535278	721.405090	9235.977539	2948.480469	26.156046
648.868591	721.479431	9213.983398	2933.768799	26.049906
649.201782	726.754883	9183.742188	2908.134033	25.793810
649.534912	730.321472	9155.432617	2898.772217	25.737947
649.868103	729.355469	9130.615234	2880.047852	25.599642
650.201172	727.274963	9086.182617	2882.276611	25.780903
650.534180	734.779602	9049.179688	2871.057373	25.693708
650.867188	746.445129	9014.703125	2865.484375	25.628607
651.200134	741.912598	9017.229492	2836.952148	25.316730
651.533020	738.643311	8993.081055	2820.977295	25.226843
651.865845	728.240967	8933.788086	2798.834961	25.234077
652.198608	722.668274	8878.877930	2792.147705	25.373055
652.531433	725.417480	8860.748047	2771.714600	25.153214
652.864136	729.801453	8864.389648	2763.615479	25.002052
653.196777	857.899231	8997.911133	2877.001709	24.804665
653.529358	857.453369	8948.946289	2873.137451	24.911152
653.861938	855.001404	8893.516602	2836.580811	24.651062
654.194519	730.024231	8685.245117	2685.523193	24.581329
654.526978	727.720886	8635.165039	2665.981689	24.511848
654.859375	730.767273	8580.551758	2657.808350	24.548967
655.191833	726.754883	8525.123047	2653.944580	24.712730
655.524170	726.680603	8469.247070	2622.885986	24.490656
655.856445	718.804504	8409.062500	2604.087646	24.515215
656.188660	722.593933	8394.871094	2582.539795	24.242422
656.520874	715.758057	8361.062500	2574.291992	24.309481
656.853088	721.256531	8370.202148	2570.725586	24.179398
657.185181	716.649719	8356.232422	2565.449951	24.200279
657.517212	719.027405	8383.948242	2559.059814	24.005890
657.849243	714.346375	8417.086914	2548.360596	23.809891
658.181274	725.417480	8455.500977	2539.592773	23.469027
658.513123	723.931458	8504.465820	2554.527588	23.527899
658.844971	732.327637	8595.116211	2573.251953	23.413122
659.176819	722.073792	8692.080078	2586.255127	23.389961
659.508667	726.829285	8806.061523	2589.672852	23.057184
659.840393	723.485596	8876.203125	2599.258057	23.007940
660.172058	720.885010	8927.917969	2613.524170	23.061186
660.503662	723.559875	8941.515625	2619.839600	23.074835
660.835266	720.885010	8955.410156	2619.913818	23.061789
661.166931	720.513489	8917.664063	2609.585693	23.045475
661.498413	715.089355	8868.624023	2590.713135	23.003813
661.829773	712.860352	8761.034180	2549.772217	22.823959
662.161194	723.782898	8642.446289	2518.267822	22.661461
662.492615	723.782776	8509.073242	2489.586914	22.681288
662.823975	722.965515	8341.297852	2455.036377	22.735563
663.155212	721.999512	8213.571289	2414.987061	22.598562
663.486450	727.275085	8067.121094	2370.628174	22.389475
663.817627	732.773438	7960.347656	2336.523193	22.189323
664.148743	739.089172	7827.568848	2296.548584	21.971701
664.479858	739.980774	7729.935059	2264.301025	21.807301
664.810913	742.284180	7637.279297	2233.242676	21.623779
665.141907	733.962219	7585.416016	2218.976563	21.674442
665.472778	731.956116	7508.066895	2202.109619	21.696127
665.803711	723.485657	7470.395996	2203.224365	21.932095
666.134583	721.033630	7415.411621	2181.676514	21.818947
666.465454	719.844788	7396.390625	2170.754150	21.731438
666.796143	719.027527	7337.617188	2149.800781	21.617493
667.126831	722.593933	7331.821777	2135.311768	21.374929
667.457458	724.154297	7300.464844	2115.027100	21.149744
667.788147	722.371094	7296.081543	2103.435791	21.008907
668.118774	717.244141	7248.453125	2095.113770	21.096701
668.449219	716.798340	7240.279785	2090.358398	21.055630
668.779663	719.398926	7239.834473	2087.460693	20.981140
669.110107	721.182190	7235.302246	2077.355469	20.818979
669.440552	718.432922	7229.877441	2071.411377	20.778471
669.770874	722.519714	7202.014160	2056.476318	20.587355
670.101135	722.073792	7183.289551	2043.250610	20.447803
670.431396	725.194580	7157.135254	2037.529297	20.403402
670.761597	725.863281	7111.959473	2021.405396	20.286919
671.091797	724.080017	7069.606934	2012.192017	20.299528
671.421875	723.559875	7003.551270	1991.238647	20.185995
671.751892	722.668274	6973.533203	1979.201538	20.101749
672.081909	727.646545	6932.889160	1960.551636	19.868765
672.411865	728.018066	6904.877441	1945.393921	19.708654
672.741821	728.018066	6862.673340	1933.653931	19.652870
673.071716	734.631042	6814.599121	1930.830444	19.674437
673.401550	731.807556	6768.828613	1919.685059	19.676550
673.731262	733.739319	6746.538574	1913.889282	19.627296
674.060974	732.030457	6720.755371	1899.771851	19.498999
674.390625	729.058350	6699.356934	1883.573853	19.337650
674.720276	730.692932	6650.911621	1876.217896	19.349367
675.049927	721.999573	6617.846191	1867.004395	19.420534
675.379395	732.104736	6587.679688	1862.694946	19.307928
675.708923	720.662109	6539.828613	1836.688965	19.178465
676.038330	718.730225	6487.445313	1821.679810	19.119503
676.367737	712.711731	6442.491699	1796.714233	18.918745
676.697083	719.324646	6426.888184	1798.571655	18.909069
677.026428	723.559875	6402.442871	1782.819336	18.652603
677.355652	717.689941	6383.792969	1784.751099	18.832365
677.684875	721.033508	6388.101563	1762.088867	18.370266
678.013977	719.176025	6390.330566	1755.104492	18.266624
678.343079	725.863281	6408.609863	1748.937500	18.003164
678.672180	723.262695	6409.501465	1749.977661	18.056135
679.001221	723.188416	6473.550781	1751.389526	17.880632
679.330139	719.473206	6499.630859	1745.593750	17.752468
679.659058	725.417480	6541.685547	1747.822876	17.578375
679.987976	729.058289	6555.729004	1749.011719	17.504910
680.316772	730.247131	6605.066406	1753.247070	17.413300
680.645630	723.708496	6635.084473	1756.813477	17.476557
680.974304	721.702332	6674.390625	1760.082886	17.443893
681.302979	722.148193	6706.267090	1756.664917	17.287703
681.631653	725.045959	6755.157715	1749.308960	16.985804
681.960266	721.999512	6774.699219	1749.160278	16.970291
682.288757	723.262695	6773.138672	1754.881470	17.051899
682.617249	721.851013	6737.845215	1754.064453	17.157820
682.945679	724.823059	6715.851563	1736.900391	16.893215
683.274109	722.519592	6682.489746	1713.940918	16.634668
683.602478	725.045959	6630.105469	1691.427124	16.365307
683.930725	722.445313	6549.710449	1680.578979	16.442253
684.259033	726.011902	6450.367676	1670.696655	16.502901
684.587280	726.011902	6365.439941	1665.495483	16.659199
684.915344	734.779602	6301.836426	1647.662720	16.397949
685.243469	738.346191	6244.549316	1631.316284	16.217529
685.571533	737.157410	6189.713379	1610.511353	16.017330
685.899536	729.727051	6131.980469	1594.759277	16.012434
686.227539	729.206970	6087.101563	1581.013306	15.898154
686.555420	728.463867	6055.448730	1563.403687	15.673779
686.883301	730.321472	6039.250488	1556.939331	15.570332
687.211121	725.194519	6040.588379	1545.348022	15.429778
687.538940	719.398926	6055.597656	1551.812378	15.599371
687.866638	713.974854	6056.191895	1553.669922	15.718102
688.194336	720.736389	6044.377441	1549.286133	15.563591
688.521973	721.330811	6028.476563	1532.047852	15.275952
688.849609	727.869446	6025.355957	1521.496948	14.981209
689.177063	726.531982	5999.572754	1520.605103	15.059112
689.504578	728.166687	5932.403809	1513.620728	15.092587
689.832031	728.018066	5852.751465	1498.017090	15.025153
690.159485	722.148193	5780.380371	1473.348633	14.851047
690.486816	733.144958	5720.121094	1463.392090	14.643085
690.814087	734.482422	5644.777832	1456.259155	14.699253
691.141296	737.603088	5562.599121	1448.605957	14.735823
691.468506	731.510254	5482.946777	1435.082886	14.807577
691.795715	728.240967	5401.956543	1408.705444	14.559389
692.122803	729.875671	5345.857910	1397.857056	14.471056
692.449829	724.451477	5302.316406	1379.652954	14.312382
692.776855	724.897278	5254.613770	1373.188599	14.311963
693.103821	719.993347	5185.512207	1359.591187	14.323034
693.430664	722.891113	5121.612793	1359.294067	14.467907
693.757568	723.188293	5070.417969	1347.554199	14.362387
694.084351	725.045898	5030.962891	1342.278687	14.334526
694.411133	718.730225	4988.758789	1325.040527	14.199210
694.737854	726.383362	4961.415527	1315.455444	13.909507
695.064575	724.971680	4940.090820	1302.823853	13.709035
695.391174	734.036621	4920.549316	1289.969604	13.279142
695.717773	727.572205	4905.242676	1282.687866	13.287684
696.044250	723.262695	4912.970215	1274.514526	13.157287
696.370789	720.810730	4919.509277	1269.982056	13.079560
696.697205	716.872620	4939.273438	1269.536255	13.088848
697.023621	724.748718	4967.136719	1270.576538	12.866051
697.349915	720.959290	5023.458008	1275.703491	12.893537
697.676208	723.485596	5101.699219	1284.248169	12.808022
698.002380	715.535217	5191.382324	1286.105835	12.747768
698.328674	718.358704	5299.567383	1287.517456	12.423769
698.654724	712.934570	5407.604004	1295.542236	12.409983
698.980896	716.946960	5507.392090	1319.542114	12.579105
699.306946	709.367981	5573.373047	1341.312744	12.992272
699.632935	712.488770	5629.248535	1348.817261	12.942029
699.958862	716.129578	5641.730957	1340.346802	12.672914
700.284729	718.804504	5646.561035	1332.024780	12.444208
700.610596	721.776672	5595.068848	1323.554321	12.348483
700.936340	721.033630	5517.423340	1310.179810	12.283117
701.262146	736.785828	5412.656250	1298.737183	12.018112
701.587830	734.556641	5290.650879	1274.886108	11.859488
701.913513	734.630920	5156.683105	1261.957397	11.924927
702.239075	729.801270	5021.229492	1236.248657	11.801372
702.564697	731.064453	4890.976563	1215.666870	11.649343
702.890137	732.922058	4776.030273	1194.044800	11.405155
703.215698	728.538269	4666.730957	1176.286377	11.369381
703.541016	723.782898	4564.490234	1167.964478	11.565099
703.866455	722.668274	4484.392090	1157.636353	11.562999
704.191711	720.142029	4405.334473	1153.624023	11.762805
704.517029	730.247131	4360.900879	1139.432129	11.270284
704.842163	733.367859	4303.093262	1125.611816	10.988071
705.167419	735.671204	4267.428223	1111.865845	10.651770
705.492493	730.767273	4229.533691	1114.689331	10.973069
705.817566	724.897278	4203.081543	1115.655396	11.234543
706.142578	726.309082	4180.270996	1113.946411	11.222977
706.467590	731.956116	4158.945801	1106.516113	10.929708
706.792480	728.538147	4144.011230	1100.497559	10.890421
707.117371	728.463867	4132.865723	1097.005371	10.825440
707.442200	723.188416	4142.376465	1093.661743	10.835126
707.766907	725.863281	4149.881348	1088.534790	10.591986
708.091675	717.764343	4159.689453	1087.420288	10.739802
708.416321	713.454773	4148.395020	1079.469971	10.655650
708.741028	717.541321	4147.131836	1075.086060	10.425289
709.065552	720.736328	4169.794434	1075.160278	10.275964
709.390137	720.959290	4177.150879	1077.240845	10.308501
709.714600	715.832458	4204.643066	1078.429688	10.393147
710.039063	710.854187	4228.047852	1074.788818	10.347301
710.363403	716.649719	4266.982422	1083.259277	10.326062
710.687744	717.987244	4309.260254	1087.568848	10.291103
711.012085	725.120300	4353.693359	1090.095215	10.058359
711.336304	722.668274	4392.851074	1085.042603	9.873468
711.660461	730.693054	4418.262207	1093.067261	9.826913
711.984619	732.327637	4435.426270	1100.571899	9.944220
712.308716	736.265625	4452.144531	1103.469727	9.882026
712.632751	731.138855	4451.847656	1088.163452	9.595607
712.956726	735.894104	4416.405273	1084.448242	9.470264
713.280701	731.213074	4382.820313	1081.253296	9.585922
713.604553	734.482422	4335.860840	1086.082886	9.762941
713.928467	728.538147	4287.712402	1065.426758	9.465359
714.252258	727.572266	4221.731934	1047.296875	9.150257
714.575989	719.027405	4162.513184	1029.018433	9.002245
714.899719	720.885010	4115.182129	1033.253662	9.202749
715.223267	721.330811	4087.690186	1025.748901	9.042947
715.546936	724.897278	4077.436279	1022.256836	8.869682
715.870422	725.640381	4053.956299	1011.705872	8.594902
716.193970	729.727051	4034.117920	1015.420959	8.645887
716.517395	730.172852	4006.699951	1023.668640	8.957526
716.840820	734.779602	3978.167725	1024.040161	8.918468
717.164124	733.442139	3936.557861	1018.764648	8.907656
717.487488	727.795166	3893.165283	1011.111389	8.950493
717.810730	727.052063	3860.249268	1001.526367	8.760199
718.133972	730.990173	3808.534424	990.009460	8.416428
718.457092	739.534973	3754.739502	978.789734	7.934943
718.780212	738.197571	3693.365234	974.703064	8.003116
719.103210	728.538147	3653.018799	973.142761	8.364036
719.426208	717.467102	3607.025391	967.347168	8.647691
719.749207	707.510559	3586.740967	964.300781	8.918710
720.072083	717.764343	3550.927002	963.780579	8.683449
720.394958	725.491882	3506.196533	961.105713	8.473170
720.717773	728.835449	3441.033203	952.189270	8.235160
721.040527	722.816895	3397.863281	948.325623	8.430087
721.363281	723.857117	3369.925537	942.678650	8.269686
721.685913	727.423645	3346.000000	943.050110	8.234492
722.008545	728.018066	3314.124023	935.025452	8.004598
722.331055	726.903503	3286.929443	927.372253	7.830731
722.653503	724.971680	3257.951172	927.075012	7.978878
722.976013	725.566101	3249.852539	915.038025	7.505960
723.298401	728.241028	3238.929688	918.678772	7.585080
723.620789	726.086182	3230.162109	915.558105	7.566541
723.943115	719.844727	3206.236328	919.421875	8.026778
724.265381	724.154297	3182.831299	914.146423	7.727413
724.587585	721.479431	3189.889893	907.979187	7.555460
724.909790	733.665039	3196.874756	911.248535	7.209435
725.231873	733.367859	3202.670654	906.790344	7.023136
725.553894	737.008728	3195.834717	907.979248	6.953340
725.875916	768.661682	3217.902344	944.090332	7.162573
726.197937	761.974426	3239.227295	954.938538	7.789439
726.519775	765.020813	3243.387939	952.486572	7.564083
726.841675	722.222412	3225.852539	905.452942	7.318594
727.163513	720.290527	3227.710205	896.685242	7.034910
727.485291	716.724060	3247.697998	899.731689	7.230720
727.806946	718.061462	3280.390869	901.737793	7.168334
728.128662	721.033630	3307.065674	899.583008	6.904376
728.450256	724.748718	3330.470703	903.743958	6.869315
728.771790	729.727051	3334.186279	917.044128	7.192168
729.093323	723.559875	3326.830078	919.347473	7.520833
729.414795	721.107910	3316.130615	903.298096	7.020755
729.736145	715.683777	3311.078125	888.883484	6.673348
730.057495	720.439209	3317.468018	891.261169	6.577592
730.378845	719.250427	3323.114990	901.737854	7.008330
730.700134	714.272156	3319.102539	906.270325	7.370851
731.021301	719.176086	3317.393555	898.914307	6.917751
731.342468	724.674500	3314.644531	906.121643	7.005763
731.663574	737.603088	3332.402588	909.168152	6.611881
731.984680	731.881775	3347.188721	914.369324	6.977673
732.305664	730.544250	3357.888672	895.793640	6.289598
732.626648	729.949890	3357.443115	885.837097	5.932925
732.947571	736.042786	3363.758545	885.911377	5.703379
733.268433	735.745605	3353.207764	888.809143	5.847784
733.589233	735.819824	3335.151611	884.796814	5.731357
733.909973	734.779602	3319.994141	872.982666	5.345903
734.230713	736.860107	3308.923096	875.880432	5.405013
734.551331	726.754944	3278.607422	872.685364	5.718607
734.871948	717.467102	3233.877686	867.261414	5.952697
735.192505	713.751953	3176.813232	860.054016	5.939847
735.513062	720.885010	3146.051514	863.471924	5.879469
735.833435	731.213135	3088.987061	868.896057	5.839530
736.153931	738.420471	3058.002930	864.066345	5.416745
736.474304	736.637207	3001.681641	861.465759	5.511086
736.794617	728.389587	2982.436768	862.208801	5.936842
737.114807	722.073792	2954.127686	864.958008	6.401468
737.434998	728.092346	2942.684814	860.054016	5.958734
737.755188	729.578430	2935.552002	850.691895	5.490250
738.075256	725.714661	2941.347656	850.989075	5.654114
738.395325	720.810730	2971.811768	852.400879	5.845850
738.715271	721.553711	2992.022217	861.094238	6.145891
739.035278	724.897400	3010.597656	857.379150	5.796113
739.355164	719.844727	3020.702881	857.824951	5.996902
739.675049	723.188416	3026.052734	848.982910	5.462523
739.994873	721.627991	3021.297119	846.828125	5.444267
740.314636	719.621887	3006.510742	840.438171	5.282998
740.634277	719.993408	2990.535889	836.054199	5.111588
740.953979	721.330872	2961.334961	835.905579	5.114933
741.273499	731.064453	2925.000977	837.540222	4.853184
741.593140	720.736389	2894.759766	831.744629	5.106120
741.912598	717.318420	2862.809570	831.967590	5.343726
742.232117	719.547546	2828.035889	830.555847	5.264829
742.551453	727.275085	2777.584229	837.837402	5.392471
742.870850	733.293640	2745.708252	832.784851	4.943872
743.190063	729.950012	2716.284424	833.825195	5.229491
743.509338	730.470032	2693.250732	827.212219	4.928833
743.828552	726.829163	2677.646973	822.754089	4.917165
744.147705	724.897278	2661.226074	822.382507	5.034539
744.466797	722.296692	2632.099609	826.692078	5.466291
744.785828	724.080017	2606.836670	824.908875	5.355385
745.104858	723.262634	2580.533447	817.627197	5.080819
745.423706	725.863281	2572.583252	817.998718	4.989140
745.742615	728.538147	2561.363525	821.342285	5.063447
746.061401	732.476257	2561.735107	829.887146	5.325156
746.380249	730.915833	2546.205811	826.617859	5.271996
746.698975	723.708496	2533.574219	825.428955	5.620332
747.017639	719.324646	2514.032471	813.614746	5.253786
747.336304	711.745789	2510.986084	808.562195	5.380960
747.654907	709.739563	2503.184326	806.556091	5.398355
747.973389	716.426819	2502.812744	811.460022	5.319858
748.291931	729.578430	2508.088135	814.357849	4.766880
748.610352	737.157410	2516.484375	806.630371	3.904452
748.928711	735.968445	2526.738281	798.977112	3.518524
749.247070	725.937561	2524.360596	793.478699	3.755575
749.565308	714.717834	2517.673584	800.611816	4.764065
749.883545	712.191589	2506.379639	803.806824	5.106223
750.201782	715.312317	2501.772705	808.339355	5.207338
750.519836	722.891174	2502.590088	802.766602	4.488142
750.837952	724.748779	2494.119629	802.172180	4.375759
751.155884	727.200684	2471.457275	799.497253	4.144835
751.473877	730.247131	2457.116943	806.481750	4.414613
751.791809	724.600098	2443.147705	803.806824	4.608934
752.109619	727.497986	2432.299561	802.840881	4.419453
752.427490	722.296692	2413.129639	792.141296	4.130781
752.745300	728.835388	2405.550537	793.255859	3.842064
753.062988	729.801270	2411.791992	793.478760	3.785841
753.380615	733.293518	2413.426514	796.599426	3.767910
753.698303	727.572205	2415.581299	798.382751	4.194915
754.015808	725.491699	2410.157471	796.450867	4.212062
754.333374	724.748718	2403.693115	795.782166	4.230840
754.650757	722.519714	2401.835449	790.432312	4.044064
754.968262	722.371094	2401.760986	783.819397	3.658966
755.285583	721.033691	2393.588135	784.042297	3.767208
755.602905	726.160461	2377.835938	785.305481	3.580910
755.920105	722.222473	2359.928711	788.574707	4.051534
756.237305	722.593994	2361.935059	784.190918	3.757420
756.554443	724.377197	2355.247803	785.751282	3.763271
756.871582	725.417480	2360.968994	784.042297	3.584407
757.188599	725.937561	2356.510742	783.819397	3.549784
757.505615	722.593994	2360.894531	782.110413	3.632814
757.822510	721.628113	2371.222656	782.036133	3.661992
758.139465	719.101746	2379.544678	786.197083	4.040810
758.456238	724.451477	2395.445313	787.014404	3.744055
758.773010	732.327637	2400.943604	793.553040	3.669233
759.089783	731.658936	2425.166504	790.209412	3.457350
759.406433	724.748718	2453.550293	787.608826	3.636051
759.723145	723.039795	2465.512939	779.881348	3.262119
760.039673	732.550537	2470.788574	778.841125	2.663075
760.356201	730.544373	2453.476074	783.373596	3.066240
760.672668	732.476257	2455.333496	788.500488	3.251821
760.989136	726.457703	2451.097900	792.587158	3.834392
761.305481	723.262695	2456.076416	786.419983	3.644782
761.621826	719.844727	2453.550049	784.636719	3.737197
761.938049	725.491699	2462.540771	785.082520	3.430578
762.254333	734.185242	2485.723389	780.475769	2.642850
762.570496	732.030457	2531.419678	781.144531	2.729486
762.886597	735.522644	2611.146240	780.029968	2.372935
763.202637	741.095276	2735.008789	787.608887	2.332780
763.518677	742.284180	2876.630127	795.262024	2.482158
763.834656	739.906494	3025.755615	800.686096	2.658951
764.150574	736.785828	3140.181641	803.583923	2.779321
764.466370	741.689758	3206.533936	808.710754	2.719076
764.782288	735.894226	3229.196045	809.602478	2.956251
765.097961	732.624817	3205.642334	807.819153	3.040591
765.413696	730.990234	3156.602539	797.193909	2.729359
765.729309	731.956116	3058.597412	794.667664	2.695368
766.044861	725.937561	2940.901611	793.850281	3.066087
766.360474	721.850891	2814.364258	795.410645	3.515378
766.675903	724.897278	2689.906982	783.224915	2.968313
766.991394	735.374023	2575.183838	779.881348	2.419126
767.306763	737.751648	2483.048096	768.290100	1.749757
767.622131	730.544373	2411.346191	766.878418	2.161709
767.937378	726.383362	2353.761719	761.231384	2.141360
768.252625	728.909668	2307.694092	767.101318	2.419054
768.567810	732.476257	2260.065674	768.958801	2.388243
768.882996	734.853943	2213.849609	769.033203	2.310978
769.197998	733.367859	2180.636475	765.169434	2.197351
769.513062	735.002502	2154.853271	762.717468	1.951963
769.828064	729.875671	2131.076172	760.711243	2.200654
770.142944	731.213135	2107.522217	765.020813	2.456402
770.457825	726.977844	2073.491699	767.621399	3.018428
770.772705	722.296692	2054.990234	781.144531	4.415707
771.087402	719.176025	2016.278687	775.794678	4.365009
771.402100	725.714661	1992.798950	778.098083	4.134171
771.716736	732.030457	1962.037598	766.804138	2.827112
772.031372	731.807434	1963.969360	770.890808	3.171935
772.345947	727.126465	1956.687866	769.850525	3.474740
772.660461	727.275085	1953.492798	773.119873	3.738715
772.974854	729.206848	1926.892578	772.153992	3.585844
773.289246	733.070618	1915.226929	773.491394	3.419241
773.603638	730.990173	1890.186890	772.525391	3.583103
773.917908	724.600098	1884.317017	761.602844	3.190670
774.232178	721.182129	1864.552612	751.349121	2.638427
774.546265	727.646545	1863.512329	751.423401	2.093281
774.860474	725.120300	1844.936523	756.327393	2.786805
775.174561	728.389587	1838.174927	760.711243	2.912424
775.488586	729.132568	1832.602173	756.847473	2.511615
775.802551	729.578369	1808.973999	762.122986	3.015078
776.116516	725.714661	1789.209473	768.958923	4.066241
776.430359	715.386536	1762.906372	770.147705	5.227698
776.744202	717.615662	1764.095215	763.311829	4.366657
777.057922	714.940735	1762.980591	753.875488	3.715007
777.371704	718.433044	1755.550415	750.457520	3.087835
777.685303	717.690002	1749.903320	745.330566	2.677796
777.998962	721.330811	1741.655884	747.188171	2.534228
778.312500	720.587830	1745.073730	747.931152	2.668980
778.626038	728.463867	1741.655884	751.794922	2.302728
778.939453	732.327637	1741.730103	750.160339	1.766659
779.252869	732.773438	1738.535034	746.519470	1.366729
779.566223	726.903503	1740.244141	750.234619	2.302396
779.879578	719.027405	1734.968750	746.965332	2.749955
780.192749	723.262695	1721.519897	740.129395	1.689615
780.505920	719.101746	1713.272095	737.157288	1.816142
780.819031	719.473206	1701.234985	742.878662	2.384026
781.132141	724.302979	1712.528931	753.801086	2.984956
781.445190	732.253357	1708.368164	751.943542	2.017200
781.758118	735.151184	1701.755249	750.308899	1.568141
782.071045	729.727051	1679.538696	745.999329	1.713211
782.383911	728.686768	1666.535645	746.593750	1.909368
782.696838	726.754944	1669.359253	747.782532	2.230797
783.009583	725.045959	1666.089844	749.342957	2.581920
783.322266	719.621826	1659.848633	746.593750	2.868661
783.634888	717.318420	1638.375000	744.290344	2.928368
783.947510	714.717834	1625.223511	747.633972	3.615149
784.260132	715.237976	1621.508423	749.565857	3.787819
784.572571	712.265869	1609.619751	748.302734	4.015903
784.885010	715.312256	1605.533203	746.370850	3.488863
785.197449	721.776611	1585.991577	751.720703	3.464889
785.509766	733.962219	1583.093750	754.915710	2.467638
785.822083	728.909668	1575.515015	750.754700	2.580309
786.134277	726.977783	1572.839966	746.445129	2.301480
786.446533	720.884949	1571.056641	741.763977	2.455860
786.758606	724.971680	1561.397461	745.479187	2.451802
787.070740	726.606262	1571.056763	750.085938	2.780468
787.382690	726.011902	1574.846313	753.281006	3.212535
787.694641	722.371033	1590.746948	751.126160	3.311368
788.006653	717.467102	1608.059570	744.661804	3.053552
788.318481	721.107910	1639.712524	747.856873	2.911912
788.630310	720.216309	1681.396362	744.587585	2.535558
788.942017	715.906738	1709.259766	749.417236	3.373473
789.253784	715.089355	1716.095703	744.884766	2.976546
789.565430	724.971680	1701.978149	751.274841	2.692220
789.877014	735.374023	1678.944336	751.423401	1.700920
790.188538	738.271790	1664.306641	752.463684	1.532544
790.500061	737.974609	1644.541992	752.835205	1.639216
790.811462	738.940613	1629.384277	747.485352	0.959605
791.122925	743.324402	1600.926392	748.674255	0.623815
791.434204	740.129395	1587.031860	748.451355	0.982635
791.745483	735.671204	1567.341675	750.457458	1.777898
792.056702	728.463867	1560.877319	749.120056	2.481482
792.367920	725.863281	1532.419312	750.531738	3.058493
792.678955	721.330811	1520.010742	745.033386	2.967719
792.990112	722.296692	1512.654785	737.603210	1.936656
793.301086	724.228577	1512.506226	727.869446	0.461876
793.612122	730.544250	1498.834473	733.293640	0.357858
793.922974	722.222412	1485.311401	742.655762	2.677715
794.233826	720.216309	1477.583984	749.268616	3.835958
794.544556	719.770508	1471.639648	747.188171	3.646600
794.855286	722.371094	1468.890503	742.209900	2.657507
795.166016	717.467041	1471.713989	744.141785	3.536606
795.476624	717.689941	1483.528198	746.816711	3.803253
795.787292	726.829163	1494.970703	744.810547	2.340895
796.097778	728.686768	1515.255371	736.488586	0.991880
796.408264	721.033630	1543.044556	739.386414	2.232669
796.718689	719.770508	1557.087769	742.209900	2.679915
797.029053	727.126465	1567.490234	745.776428	2.219273
797.339355	735.596985	1553.744141	741.541199	0.726546
797.649658	734.928223	1546.388306	739.460693	0.558557
797.959839	731.807556	1526.995239	743.398743	1.457667
798.270020	731.584656	1510.351563	742.952881	1.459772
798.580078	727.869446	1499.726196	741.466858	1.761650
798.890137	730.098572	1487.912109	741.020996	1.441308
799.200195	724.674500	1478.921387	737.380188	1.684553
799.510071	724.228577	1459.676880	737.157288	1.757936
799.820007	717.987122	1450.611938	735.671326	2.413815
800.129883	719.324646	1439.169312	747.039612	3.850132
800.439575	719.696106	1444.296265	746.073669	3.640292
800.749329	722.965515	1443.701782	738.494812	2.154644
801.058960	727.349365	1444.593628	727.349304	-0.000009
801.368591	727.274963	1441.621460	734.853943	1.060967
801.678162	728.315247	1434.488281	739.460632	1.578280
801.987671	726.977783	1432.779297	745.033386	2.558170
802.297119	721.107910	1423.045532	740.426575	2.752191
802.606506	717.838562	1413.609253	742.729980	3.577532
802.915894	713.528992	1397.559937	738.940613	3.714981
803.225159	728.166687	1391.467163	737.157410	1.355452
803.534424	736.562927	1390.426758	732.773438	-0.579553
803.843628	745.479248	1389.906738	731.287415	-2.202239
804.152771	735.448303	1380.618774	733.070618	-0.368536
804.461792	721.850891	1370.216431	738.123230	2.509748
804.770874	717.541321	1375.714844	738.717590	3.217430
805.079773	719.398926	1393.399048	737.974609	2.756036
805.388733	727.943665	1412.271973	736.637207	1.270376
805.697571	727.795105	1425.423462	736.934387	1.310050
806.006470	728.761047	1423.565918	739.386414	1.529259
806.315125	728.983948	1425.349121	741.764099	1.835266
806.623901	726.606262	1414.352173	741.318176	2.139150
806.932495	724.822998	1407.516479	737.454407	1.850231
807.241150	727.052185	1401.275024	732.178955	0.760397
807.549622	728.612488	1404.024292	727.795166	-0.121011
807.858154	728.983948	1397.188354	733.813660	0.722790
808.166565	727.943787	1393.770386	734.779541	1.026657
808.474915	728.538269	1378.984009	743.398682	2.284651
808.783264	736.414246	1376.829468	745.776367	1.461883
809.091492	732.550537	1361.003052	748.376953	2.518315
809.399719	733.739319	1353.052612	747.336731	2.195563
809.707825	730.692932	1347.702759	744.216064	2.191721
810.015930	725.491699	1346.365234	739.757874	2.297759
810.323975	721.999512	1341.015503	741.169678	3.096877
810.632080	713.751953	1334.625488	739.534973	4.152701
810.939880	721.182190	1329.201416	741.987000	3.421736
811.247864	732.624817	1326.600708	740.203674	1.275954
811.555664	733.070740	1324.817505	741.466858	1.418870
811.863464	727.646545	1315.826782	734.631042	1.187476
812.171143	718.210144	1307.653687	739.683594	3.643004
812.478882	721.999512	1293.090210	737.528809	2.719235
812.786438	722.965515	1290.266846	743.101501	3.549434
813.094055	721.702332	1294.279175	735.671204	2.439650
813.401489	712.711731	1294.502075	735.002502	3.831410
813.708984	714.123474	1297.176880	733.367859	3.300621
814.016357	718.061523	1283.653809	737.974609	3.520749
814.323730	725.789001	1287.220337	734.556702	1.561669
814.630981	725.194580	1274.737427	739.312012	2.568941
814.938232	722.742615	1281.276245	730.024170	1.303692
815.245361	722.445374	1267.753052	732.773438	1.893988
815.552490	718.433044	1281.201782	732.476257	2.495379
815.859619	718.655945	1281.424683	733.070618	2.561385
816.166565	727.497986	1293.164551	738.866211	2.009704
816.473572	731.584534	1281.870605	736.117004	0.823657
816.780457	726.829285	1286.774414	743.844482	3.038726
817.087341	718.953125	1286.625854	739.832214	3.678015
817.394043	724.080078	1297.474121	730.692932	1.153283
817.700806	723.485657	1305.052979	719.176025	-0.741037
818.007507	726.532043	1316.495605	720.439148	-1.032758
818.314209	723.782898	1326.006226	729.801331	0.999369
818.620667	726.903503	1326.526367	741.169617	2.379181
818.927246	727.126465	1334.328247	742.209961	2.484099
819.233704	726.754944	1346.216675	739.089172	1.991120
819.540161	731.138855	1382.401978	732.476257	0.205355
819.846497	729.429871	1421.633911	727.497986	-0.279092
820.152832	728.835449	1480.110352	731.064453	0.296696
820.458984	728.240967	1535.391602	741.541199	1.647800
820.765259	722.593933	1597.211304	736.711487	1.614141
821.071350	720.364807	1687.191895	737.380188	1.759920
821.377502	713.454773	1844.639282	730.618652	1.517337
821.683472	716.946960	2144.673584	744.513245	1.930782
821.989441	714.197754	2659.443115	746.816650	1.676853
822.295349	717.467102	3376.315674	753.503906	1.355354
822.601196	724.748718	4171.652344	758.630859	0.982973
822.907043	733.813660	4845.949219	768.513000	0.843828
823.212769	733.145020	5235.815430	779.732727	1.034668
823.518494	724.674500	5296.446777	775.868958	1.119794
823.824097	720.216309	5065.736816	774.011414	1.237944
824.129700	719.993347	4701.355957	762.643127	1.071236
824.435242	727.720886	4320.183105	763.386230	0.992783
824.740723	734.333801	3988.792969	761.528564	0.835615
825.046082	738.494690	3683.854736	762.048645	0.799697
825.351501	726.457764	3363.461670	755.881531	1.115803
825.656799	723.634277	3038.906982	747.262512	1.020538
825.962036	716.649841	2743.776611	739.980774	1.150936
826.267212	727.423645	2531.567871	737.603088	0.564226
826.572449	730.098572	2424.497559	740.203674	0.596383
826.877502	725.194580	2434.751465	736.562805	0.664981
827.182495	717.095520	2540.707275	738.791992	1.189753
827.487488	707.287598	2679.876221	742.284180	1.774145
827.792419	720.439209	2798.612061	748.377014	1.344345
828.097290	717.021301	2824.766602	747.708313	1.455916
828.402100	720.662109	2752.247070	748.748535	1.382488
828.706848	724.377197	2608.917236	748.674255	1.289283
829.011597	730.470032	2442.850586	749.863098	1.132521
829.316223	734.556641	2290.009766	747.113953	0.807309
829.620789	724.451477	2150.172119	747.336731	1.605171
829.925354	725.789001	2013.380859	744.364685	1.442669
830.229797	720.736328	1890.112671	746.370789	2.192148
830.534302	721.850891	1746.931274	741.764099	1.942600
830.838562	722.371094	1629.087280	741.838379	2.147010
831.142944	720.216309	1526.103516	730.990234	1.336902
831.447144	722.073792	1458.265137	737.825989	2.139688
831.751404	721.925232	1405.658813	736.785828	2.173448
832.055542	726.309082	1370.959473	736.637207	1.602128
832.359619	720.439148	1357.659302	725.491760	0.792915
832.663635	714.792175	1369.919312	724.748718	1.519788
832.967651	720.587830	1399.268921	733.739441	1.937819
833.271545	730.395752	1466.512695	739.534973	1.241545
833.575439	735.819824	1558.871094	743.621643	0.947914
833.879211	725.045959	1690.684082	737.083008	1.246538
834.183044	718.210144	1810.014282	733.739441	1.422352
834.486694	707.956360	1907.870972	731.807434	1.987731
834.790344	715.237976	1942.347290	731.436035	1.320018
835.093933	714.346375	1931.796265	737.454529	1.898078
835.397522	717.021301	1888.849487	733.962341	1.445693
835.700928	721.256531	1820.416626	742.061279	1.892786
836.004395	727.423645	1760.900269	745.776367	1.775824
836.307739	736.340027	1673.668945	749.788818	1.434800
836.611023	727.200684	1602.635376	747.188171	2.283150
836.914307	725.343201	1516.295776	740.946777	1.972758
837.217529	720.736389	1456.407593	743.101563	3.040104
837.520691	724.377258	1389.089478	732.847839	1.274323
837.823730	723.262695	1330.761841	730.321472	1.161940
838.126831	726.086243	1281.424805	718.507324	-1.364738
838.429749	727.720886	1242.936035	721.256531	-1.254691
838.732727	725.937561	1211.505859	726.829163	0.183620
839.035522	730.470032	1186.242920	732.550537	0.456479
839.338379	734.779602	1169.896240	731.733215	-0.700131
839.641113	738.420410	1177.623779	730.395752	-1.827094
839.943848	741.318298	1200.583374	727.943787	-2.912155
840.246460	731.658936	1226.886597	730.098572	-0.315080
840.549072	723.782898	1253.709839	725.343079	0.294414
840.851563	713.751953	1267.455811	726.977844	2.388622
841.154053	720.885071	1279.195679	727.275085	1.144527
841.456482	724.377258	1262.923340	725.789001	0.262140
841.758850	728.984070	1241.747070	728.315247	-0.130435
842.061157	724.005676	1219.084839	729.058289	1.020567
842.363403	725.640381	1197.834106	735.076843	1.998430
842.665588	719.027527	1173.685913	732.773438	3.023349
842.967712	721.107910	1154.144165	731.584534	2.419341
843.269775	723.559875	1130.738647	731.213074	1.879567
843.571777	726.829285	1108.670776	730.098572	0.856190
843.873840	728.240967	1080.435913	734.110901	1.666672
844.175659	725.789001	1064.163574	732.104675	1.866474
844.477600	727.720886	1046.999756	737.380188	3.025350
844.779297	730.692932	1034.442505	732.104675	0.464772
845.081116	728.612488	1020.919434	732.550537	1.347231
845.382751	726.234802	1013.191895	727.646484	0.491949
845.684387	718.878845	1015.198059	724.451477	1.880618
845.985962	719.027405	1005.984558	725.045959	2.097370
846.287537	724.748718	1000.560364	724.080017	-0.242448
846.588989	725.714661	990.381042	731.881836	2.330169
846.890381	733.442139	995.284973	732.847656	-0.227038
847.191711	725.045898	998.257141	741.838379	6.146336
847.493042	729.801270	985.922852	740.649597	4.235616
847.794250	724.525879	976.263489	736.934387	4.929143
848.095459	727.572266	967.198486	729.504150	0.806208
848.396606	725.937561	965.341003	726.903503	0.403479
848.697693	725.640442	962.888977	728.315247	1.127427
848.998657	729.504089	959.099426	733.070618	1.553398
849.299622	731.064453	958.133606	731.064453	0.000000
849.600464	736.117126	958.282227	726.011902	-4.548520
849.901367	732.104736	957.985046	722.445313	-4.276346
850.202087	725.566101	955.978760	717.615723	-3.450495
850.502808	716.129578	953.675476	720.364929	1.782961
850.803467	715.386658	951.743591	719.993347	1.949039
851.104065	718.804504	956.721863	728.018066	3.872589
851.404663	727.720886	953.303894	727.497986	-0.098811
851.705139	728.761047	958.430847	729.949951	0.517658
852.005615	732.773438	952.709473	727.274963	-2.500033
852.306030	733.665039	957.241943	735.076843	0.631462
852.606384	734.556641	957.019043	732.624817	-0.868382
852.906616	730.024231	959.025208	736.340027	2.757978
853.206909	729.504089	956.498962	733.962219	1.963978
853.506958	730.767273	944.833435	729.652649	-0.520691
853.807129	726.234863	944.981995	728.538147	1.052943
854.107178	721.182190	943.718933	722.073914	0.400708
854.407166	722.668274	943.347351	722.965515	0.134694
854.707092	733.665039	942.232910	722.742615	-5.236868
855.007019	725.491699	931.607605	720.364929	-2.487324
855.306763	728.240967	941.564148	724.005676	-1.985387
855.606567	722.445313	937.848938	718.507324	-1.828190
855.906250	726.977844	943.124512	723.411316	-1.650050
856.205933	726.829285	934.282410	728.241028	0.680512
856.505493	729.578430	936.585754	736.785828	3.481711
856.805054	727.869446	939.632263	738.346191	4.947396
857.104492	728.983948	945.799316	735.076843	2.810177
857.403931	727.943787	944.981995	725.120178	-1.300973
857.703308	742.804260	939.037781	713.900574	-14.729230
858.002563	737.008728	933.836609	710.111084	-13.665566
858.301819	735.745605	935.991394	715.014954	-10.352603
858.601013	728.686768	939.929443	713.751953	-7.069980
858.900208	727.497986	943.124329	720.885010	-3.066868
859.199219	728.389465	943.644531	722.148193	-2.899477
859.498291	727.126465	949.291565	729.132568	0.902979
859.797302	729.281250	955.087219	725.714661	-1.579493
860.096191	726.680664	945.130615	728.315247	0.748264
860.395020	723.114075	938.369080	734.259460	5.177759
860.693787	723.708496	927.297913	733.813660	4.963501
860.992554	724.228699	930.864502	734.259460	4.854319
861.291260	728.018066	925.143127	733.813660	2.940059
861.589844	715.237976	923.731384	729.504089	6.842477
861.888428	712.711731	921.502380	734.482422	10.427043
862.186890	718.655945	923.062683	728.983948	5.052672
862.485413	729.652649	919.719055	730.172852	0.273695
862.783813	735.671204	919.496155	726.309082	-5.092955
863.082153	726.829163	926.480652	729.429871	1.302624
863.380371	728.538147	932.499207	731.584534	1.493612
863.678589	718.358704	933.242188	722.519592	1.936346
863.976746	714.569275	927.372314	726.086182	5.412003
864.274902	712.414551	933.093506	725.714661	6.026905
864.572937	718.953125	929.378418	730.098572	5.296629
864.870911	716.203918	934.356689	727.869446	5.347412
865.168884	718.061523	935.099792	726.234802	3.765824
865.466736	714.717834	946.839600	727.126465	5.345742
865.764587	724.674500	941.935608	729.578369	2.257132
866.062317	724.080017	935.396973	728.389465	2.039329
866.360107	728.835449	934.876770	728.984070	0.072131
866.657715	729.281250	936.883057	726.160461	-1.503257
866.955322	726.309082	939.780823	729.652771	1.566338
867.252808	724.600098	937.105957	726.680603	0.979034
867.550293	720.364929	938.369080	728.240906	3.612765
867.847717	729.281250	935.471252	720.810730	-4.108114
868.145081	731.213074	930.270020	730.321472	-0.447913
868.442383	732.996338	935.174011	731.064514	-0.955508
868.739624	723.485596	937.848938	728.018066	2.114387
869.036804	722.668213	941.935547	724.154358	0.677778
869.333984	723.708496	936.511475	725.194641	0.698367
869.631042	725.120300	940.226563	731.807434	3.108758
869.928101	718.507324	945.799316	733.219238	6.472693
870.224976	722.668274	949.663086	730.990173	3.666119
870.521851	725.045898	942.307068	744.067444	8.755152
870.818726	732.253357	936.362854	739.386414	3.494721
871.115479	727.052063	936.288574	735.299805	3.941827
871.412231	732.699158	943.941833	721.479492	-5.311268
871.708862	730.470032	941.712708	720.439209	-4.748483
872.005493	731.138855	943.050110	728.686829	-1.157101
872.302063	724.748779	942.455627	727.572266	1.296921
872.598572	726.531982	943.198730	724.897278	-0.754479
872.895020	730.692932	944.090332	719.101746	-5.431737
873.191406	734.259460	940.672546	722.371033	-5.759532
873.487671	732.179016	944.833313	722.965515	-4.332619
873.783997	735.151184	942.678650	721.627991	-6.516339
874.080200	736.414307	945.725037	722.148132	-6.815787
874.376343	734.408142	954.344177	720.290588	-6.418936
874.672424	730.024231	953.155273	723.634216	-2.863795
874.968445	720.141907	958.728027	718.655945	-0.622820
875.264465	721.999512	960.065430	722.222473	0.093655
875.560364	722.742615	967.049988	724.154297	0.577830
875.856201	732.401917	964.375061	724.451477	-3.427310
876.152039	735.671204	949.143066	719.919128	-7.378994
876.447754	733.888000	950.777649	710.482605	-10.791385
876.743469	731.956116	952.932434	717.615723	-6.489561
877.039063	734.482422	962.888977	723.931396	-4.619406
877.334595	731.956238	954.344055	732.922058	0.434296
877.630127	727.052063	945.427795	733.962341	3.164398
877.925537	721.702332	946.393738	730.692932	4.001310
878.221008	721.999512	959.916809	726.680664	1.967554
878.516296	721.256531	974.108643	721.330750	0.029353
878.811646	718.655945	981.984802	719.398926	0.282149
879.106812	719.919006	981.613281	720.290527	0.141968
879.401978	722.371033	991.718445	728.984070	2.455207
879.697083	727.795105	1010.665527	731.138733	1.182035
879.992126	727.572266	1044.176147	729.132629	0.492844
880.287109	729.132568	1081.699097	726.457703	-0.758684
880.582031	727.497864	1141.141235	728.909668	0.341310
880.876892	726.829285	1255.641602	730.990173	0.786837
881.171753	726.457703	1465.695679	727.869446	0.190973
881.466492	733.293640	1784.157227	732.922058	-0.035360
881.761230	736.711487	2160.574707	735.894226	-0.057397
882.055786	731.807556	2526.812744	739.757996	0.442920
882.350403	717.318420	2775.057861	733.739441	0.798013
882.644958	717.689941	2875.738281	737.900330	0.936512
882.939453	729.504089	2826.475342	728.835388	-0.031889
883.233826	735.299744	2706.847900	731.436035	-0.195973
883.528137	733.145020	2567.381836	722.222412	-0.595485
883.822449	730.024231	2455.630615	725.640381	-0.254047
884.116577	725.714661	2333.699707	724.748779	-0.060068
884.410828	727.497986	2222.468506	731.138733	0.243533
884.704956	718.804504	2075.720703	736.562805	1.308725
884.999023	721.107910	1916.044312	739.534973	1.542096
885.292969	721.553711	1722.411499	739.757874	1.818856
885.586914	722.965515	1553.001099	736.711426	1.656063
885.880798	722.593994	1423.491333	736.860046	2.035398
886.174622	718.655945	1331.133179	730.990173	2.013826
886.468384	715.386536	1251.034912	731.510254	3.010131
886.762085	718.135803	1192.187134	724.971680	1.442012
887.055664	712.711670	1156.521851	726.680664	3.147516
887.349304	712.563171	1128.138184	721.033630	2.038250
887.642822	714.717834	1108.447998	718.953125	1.075683
887.936340	717.318420	1080.881714	711.522949	-1.594075
888.229736	720.364929	1057.550659	715.981018	-1.300147
888.523071	716.203918	1037.711792	715.238037	-0.300422
888.816284	714.494934	1023.742920	718.878845	1.417604
889.109619	719.844788	1019.359070	717.764343	-0.694606
889.402710	726.309082	1012.448914	723.857117	-0.856912
889.695862	732.550598	998.479980	724.080078	-3.185252
889.988892	735.968445	989.860840	722.891174	-5.150714
890.281921	743.175720	986.145691	720.216248	-9.449511
>>>>>End Processed Spectral Data<<<<<
