Jaz Data File
++++++++++++++++++++++++++++++++++++
Date: Fri Jun 04 16:50:31 2021
User: jaz
Dark Spectrum Present: Yes
Reference Spectrum Present: Yes
Processed Spectrum Present: Yes
Spectrometers: JAZA3586
Integration Time (usec): 24900 (JAZA3586)
Spectra Averaged: 10 (JAZA3586)
Boxcar Smoothing: 1 (JAZA3586)
Correct for Electrical Dark: No (JAZA3586)
Strobe/Lamp Enabled: Yes (JAZA3586)
Correct for Detector Non-linearity: No (JAZA3586)
Correct for Stray Light: No (JAZA3586)
Number of Pixels in Processed Spectrum: 2048
>>>>>Begin Processed Spectral Data<<<<<
W	D	R	S	P
191.335022	0.000000	0.000000	0.000000	0.000000
191.713211	231.155762	234.127869	234.127869	100.000000
192.091385	464.763519	467.438385	473.011108	308.336578
192.469528	701.492004	705.652893	706.916077	130.358505
192.847641	713.603333	712.860291	713.677673	-10.004929
193.225739	723.857117	731.064453	715.906738	-110.309525
193.603790	734.482422	738.271790	722.371094	-319.613434
193.981842	733.739441	737.900330	723.188416	-253.576248
194.359863	736.117004	734.185120	729.355469	349.996826
194.737854	737.974609	738.123230	735.671204	-1549.856323
195.115829	740.500916	744.736145	744.438965	92.983139
195.493774	744.141785	746.147949	744.216064	3.702577
195.871704	743.472961	746.593750	743.844543	11.906672
196.249603	746.445068	755.361511	739.089172	-82.498100
196.627457	747.188171	758.556458	735.076843	-106.536095
197.005310	747.188171	764.203430	731.213135	-93.886536
197.383133	750.606140	760.339783	733.144958	-179.389999
197.760910	754.246887	757.293274	737.677429	-543.905273
198.138687	752.909485	756.327393	742.581360	-302.176819
198.516449	751.943542	754.989990	741.987000	-326.824677
198.894180	745.330566	752.612305	743.993164	-18.366526
199.271866	748.154053	751.572083	746.222229	-56.518635
199.649536	744.736145	746.816650	746.296570	75.002197
200.027191	745.553467	751.051941	746.073669	9.460855
200.404816	740.500916	744.364685	742.729980	57.691456
200.782410	742.432800	759.448059	742.952881	3.056554
201.159988	746.370850	763.311829	741.392578	-29.385973
201.537537	747.931152	776.314880	738.866272	-31.936892
201.915070	745.999268	771.559509	734.779602	-43.894989
202.292557	737.008606	778.320984	732.699219	-10.431225
202.670029	728.835388	777.726563	737.008789	16.717539
203.047485	720.885010	782.333313	737.305969	26.723211
203.424911	718.358704	770.667786	737.751770	37.073994
203.802292	723.188416	771.633789	739.014893	32.668705
204.179688	728.538147	771.930969	734.333801	13.356251
204.557037	728.835388	782.556335	733.219238	8.160411
204.934357	735.374023	782.704895	730.915955	-9.418945
205.311661	737.603088	775.571777	734.408020	-8.415009
205.688934	741.912659	776.091980	733.070618	-25.869562
206.066177	736.191406	769.999084	737.157227	2.856807
206.443390	740.278015	775.051758	740.055115	-0.641002
206.820587	744.216064	767.101318	740.872375	-14.610670
207.197769	743.101501	768.810242	730.692871	-48.266193
207.574921	737.751709	772.302429	733.665039	-11.828032
207.952042	727.052185	774.159973	729.726990	5.678052
208.329147	726.309082	773.045471	732.104736	12.400732
208.706223	732.179016	770.073425	739.089172	18.235292
209.083267	734.036621	768.364441	737.528809	10.173054
209.460297	734.333801	767.992920	735.819885	4.415101
209.837280	723.485596	767.398499	729.727051	14.213260
210.214264	726.457703	769.479004	729.206848	6.390196
210.591217	725.640381	767.101318	728.835449	7.706213
210.968124	722.668274	765.912415	723.114075	1.030893
211.345016	723.188416	764.054871	720.959290	-5.454659
211.721893	720.662109	770.370605	727.869446	14.499205
212.098724	717.095520	765.986755	727.349426	20.972893
212.475555	702.383606	762.048767	731.510315	48.816944
212.852356	708.773682	761.974426	732.179016	43.994373
213.229126	711.448547	765.838135	735.151062	43.579140
213.605865	725.417480	768.661621	740.426575	34.707809
213.982590	719.027527	761.602844	733.888000	34.903965
214.359283	722.445313	756.104492	723.708496	3.752865
214.735931	720.141907	760.785583	713.008972	-17.549925
215.112579	718.284363	756.104492	714.197754	-10.805381
215.489197	719.324646	761.825867	721.033630	4.021024
215.865799	714.049133	760.934143	732.104736	38.510395
216.242355	717.541321	764.203430	733.962341	35.191338
216.618896	722.816895	761.751465	738.123230	39.312969
216.995407	731.733215	762.866028	727.720886	-12.887782
217.371902	732.104675	764.277832	727.126465	-15.473180
217.748367	733.219238	768.736023	717.095520	-45.397461
218.124802	732.104675	763.683350	724.005676	-25.647053
218.501236	736.934387	768.067200	717.615723	-62.052422
218.877609	731.510315	760.265442	723.634216	-27.390242
219.253983	727.572266	757.516174	719.696106	-26.303045
219.630295	726.309082	750.829041	725.863281	-1.818114
220.006592	721.479431	749.342957	733.219238	42.133244
220.382889	720.142029	754.395508	734.779602	42.733101
220.759140	717.095520	761.751465	724.748718	17.138140
221.135391	717.764343	770.816406	719.844727	3.921399
221.511581	717.689941	775.497498	723.411316	9.897278
221.887772	714.420654	770.890808	734.036621	34.736874
222.263931	711.522888	761.454285	732.624817	42.261845
222.640060	704.984192	756.253113	733.516541	55.652328
223.016159	706.470276	760.785583	729.132568	41.723583
223.392212	709.145203	769.627625	730.767273	35.749348
223.768265	723.188416	774.457275	721.925293	-2.463723
224.144302	723.485596	775.200378	726.011902	4.885076
224.520294	731.881836	767.918640	721.182190	-29.690886
224.896286	728.389648	763.757751	730.990234	7.352913
225.272217	728.315247	766.135315	731.881836	9.430415
225.648148	724.525818	769.701843	740.055176	34.375221
226.024048	722.593933	772.599609	741.987000	38.781731
226.399902	718.953125	775.943359	738.791992	34.810993
226.775772	723.857178	779.064026	730.321533	11.709336
227.151581	729.206970	777.726563	724.748718	-9.188560
227.527374	734.036621	776.983582	731.361633	-6.228585
227.903137	730.395752	775.794739	737.380188	15.384563
228.278870	730.990234	779.807129	740.798157	20.091246
228.654572	736.042786	772.302490	736.711487	1.844199
229.030273	733.590759	765.912415	731.881836	-5.287240
229.405930	723.782776	759.893982	727.869446	11.316902
229.781555	724.674500	762.048767	727.646545	7.952118
230.157181	724.302917	765.838135	731.287354	16.815697
230.532761	731.658875	771.262207	731.510315	-0.375119
230.908325	720.885010	776.983582	722.668274	3.178805
231.283859	720.736389	776.091980	723.262695	4.563778
231.659332	713.603333	773.862793	721.702393	13.440313
232.034821	725.120300	770.816406	727.943787	6.178833
232.410263	722.668274	767.770020	727.200745	10.049436
232.785690	729.875671	768.438721	730.915833	2.697300
233.161087	724.228577	761.157043	724.600098	1.006056
233.536469	720.736328	767.472839	712.711670	-17.169998
233.911804	716.501160	763.163269	710.259766	-13.375722
234.287140	719.621826	766.878418	714.272034	-11.320733
234.662430	724.377258	766.655457	725.268860	2.108892
235.037704	723.485596	770.890625	728.761047	11.128464
235.412933	719.324646	778.023743	719.473206	0.253087
235.788162	718.210144	773.268372	717.764343	-0.809690
236.163345	720.142029	767.027039	715.758118	-9.350348
236.538513	718.953125	764.054932	721.702332	6.095558
236.913635	721.256531	774.903076	718.135803	-5.817201
237.288742	723.931458	778.172363	715.832458	-14.931534
237.663834	724.748779	776.017578	720.959290	-7.391415
238.038879	730.024231	771.410889	717.244141	-30.879736
238.413910	727.646545	774.754456	714.420654	-28.075733
238.788910	733.145020	777.800842	711.299988	-48.918663
239.163879	730.692932	778.692444	718.284424	-25.851322
239.538834	735.002502	776.166199	716.129639	-45.848320
239.913757	728.092346	775.200256	723.782898	-9.148035
240.288651	729.578430	777.057861	715.535217	-29.577467
240.663528	723.337097	777.726563	721.182312	-3.961769
241.038361	729.578430	778.915466	715.535217	-28.463835
241.413177	728.984070	784.190918	731.510254	4.575853
241.787979	732.327637	787.608887	728.909668	-6.182872
242.162735	732.699219	789.243469	733.070618	0.656829
242.537476	731.881775	785.156921	732.699158	1.534267
242.912170	731.807556	787.237305	739.237793	13.404781
243.286865	727.869446	788.054688	738.791992	18.148214
243.661514	726.532043	789.689270	731.956055	8.588109
244.036148	730.024231	789.317810	730.247070	0.375824
244.410751	730.767273	788.128906	726.086182	-8.160666
244.785339	733.516418	786.419983	727.349304	-11.657275
245.159882	724.823059	798.977234	729.578430	6.412817
245.534378	722.222412	799.348694	733.442200	14.547295
245.908890	715.758057	795.782166	737.528809	27.205242
246.283356	716.724060	782.407654	732.179016	23.529402
246.657791	721.553711	782.779114	727.943787	10.436968
247.032196	730.024231	790.357971	724.600098	-8.990215
247.406586	734.928223	803.509583	726.383362	-12.459451
247.780960	726.383362	808.710754	733.739441	8.935154
248.155289	717.987122	818.444519	729.206970	11.168763
248.529602	717.689941	815.620911	737.380188	20.106251
248.903870	725.268860	823.794250	741.392578	16.365038
249.278122	727.869446	818.370178	749.342957	23.727444
249.652344	716.501160	814.655029	744.290344	28.311859
250.026550	713.008972	800.983337	728.092346	17.145193
250.400711	707.659180	798.679932	722.445374	16.244860
250.774857	721.033630	795.187744	718.284424	-3.707423
251.148987	722.445374	795.633484	724.451477	2.741024
251.523071	726.383362	799.274414	723.931458	-3.363793
251.897125	723.262695	804.475586	731.584656	10.247093
252.271164	727.200745	806.704651	727.943665	0.934445
252.645187	728.909668	806.778992	725.640320	-4.198506
253.019165	729.578430	810.122620	718.655945	-13.560861
253.393112	724.600098	812.277344	719.473206	-5.847460
253.767044	723.336975	809.899719	728.018066	5.407743
254.140930	725.045959	806.704590	724.377197	-0.818973
254.514801	726.309082	810.122559	729.949890	4.343941
254.888657	735.374023	814.060608	726.457703	-11.331437
255.262466	731.361633	814.952209	729.429871	-2.310982
255.636276	734.408142	813.911926	723.931396	-13.177670
256.010010	727.943787	813.837708	718.210144	-11.332167
256.383759	733.144958	821.565186	716.055359	-19.327703
256.757446	724.600159	823.645691	723.708496	-0.900255
257.131134	723.114075	827.360840	729.727051	6.343579
257.504791	724.005676	835.162598	736.042725	10.828878
257.878418	723.857117	840.140808	731.584656	6.645420
258.252014	718.804504	848.388428	728.241028	7.282171
258.625580	711.448547	856.561768	726.383484	10.291920
258.999115	716.724060	875.731750	726.754944	6.308427
259.372650	717.318542	890.666748	726.383484	5.229325
259.746124	723.708496	902.480896	715.163757	-4.779675
260.119598	733.516418	926.257751	716.278259	-8.943675
260.493042	737.900208	938.666321	718.358704	-9.733467
260.866425	730.172852	952.783752	732.327637	0.967960
261.239838	711.448547	941.266907	740.872498	12.803133
261.613159	713.528992	925.886230	748.599915	16.515059
261.986511	715.386536	899.285828	747.931152	17.696978
262.359802	725.491699	881.824707	740.500977	9.600837
262.733063	731.584534	879.446960	729.504150	-1.406972
263.106293	734.408142	883.087830	731.213074	-2.148961
263.479523	732.104736	890.740967	728.761047	-2.107771
263.852692	721.702332	889.997986	734.259521	7.461387
264.225861	724.005676	890.815247	733.590820	5.746160
264.598969	728.612488	893.044434	736.117004	4.563904
264.972076	734.482422	900.325989	734.482422	0.000000
265.345154	734.333801	894.604736	732.401917	-1.205387
265.718201	729.281189	896.016541	727.200684	-1.247789
266.091217	732.699158	898.691406	725.343079	-4.431580
266.464203	733.144958	918.976074	722.371094	-5.797665
266.837158	735.671204	926.109131	730.618652	-2.653122
267.210114	726.011780	929.155579	730.024231	1.975178
267.583038	720.959290	928.263977	729.578430	4.157716
267.955902	718.953125	932.350586	723.262695	2.019504
268.328766	715.015137	941.787048	723.411316	3.702478
268.701569	712.414551	941.341125	727.052063	6.393977
269.074371	713.751953	946.839600	730.618652	7.236205
269.447144	720.884949	951.594971	731.881775	4.766514
269.819885	722.445313	966.529785	730.395752	3.257249
270.192596	725.863281	979.384094	725.789001	-0.029299
270.565277	721.627991	996.622375	731.658875	3.647669
270.937927	723.039795	1007.544861	728.389587	1.880386
271.310577	710.854065	1030.801636	733.590759	7.106381
271.683136	714.494934	1047.891235	725.640381	3.343003
272.055725	711.299988	1081.550415	732.030457	5.599040
272.428284	717.392761	1092.695801	733.665039	4.335770
272.800812	719.250305	1101.389160	738.717590	5.094296
273.173279	723.931396	1073.228516	735.225403	3.233352
273.545776	728.389587	1071.445190	730.098633	0.498183
273.918152	724.302917	1064.906616	727.200745	0.850791
274.290558	725.268860	1075.606079	732.104675	1.951210
274.662964	724.302917	1056.213135	734.779602	3.156482
275.035278	729.801270	1054.578491	736.339905	2.013268
275.407593	725.714661	1056.064575	732.699036	2.114235
275.779907	725.863281	1070.850708	730.990173	1.486110
276.152161	723.411316	1079.395630	735.151123	3.297844
276.524384	726.977844	1103.098145	731.361633	1.165528
276.896606	722.891113	1111.717285	735.596924	3.267735
277.268799	719.919128	1122.639771	727.720886	1.937263
277.640930	721.776672	1119.370483	737.677429	3.999247
278.013031	724.971680	1133.488037	732.624817	1.873398
278.385162	726.309082	1127.246582	735.671204	2.335057
278.757233	725.789001	1133.710938	728.018066	0.546444
279.129272	726.829163	1127.618042	731.064453	1.056738
279.501282	723.559875	1138.020386	723.188416	-0.089625
279.873230	729.058289	1142.850098	728.984070	-0.017936
280.245178	722.668274	1156.670532	720.439209	-0.513607
280.617126	728.166687	1174.205933	732.624817	0.999493
280.988983	714.420593	1199.617432	729.355469	3.078106
281.360870	717.615662	1234.762695	737.380188	3.821839
281.732697	718.953125	1270.947876	728.909668	1.803739
282.104492	728.538269	1296.731079	717.021240	-2.026958
282.476288	728.389465	1313.449097	719.175964	-1.574797
282.848053	724.748718	1322.662598	726.829163	0.347950
283.219757	717.318420	1323.480103	744.810486	4.535434
283.591461	719.324707	1321.250977	739.386414	3.332918
283.963135	723.262695	1319.318970	733.888000	1.782601
284.334747	723.114075	1329.349976	722.891174	-0.036768
284.706360	723.188293	1350.154663	725.194519	0.319989
285.077942	724.971619	1370.588013	726.680603	0.264706
285.449524	731.881836	1402.315063	725.640381	-0.930959
285.821014	732.030457	1420.519409	725.789001	-0.906544
286.192535	727.646545	1451.355103	731.138855	0.482557
286.563995	726.383484	1465.472656	735.671204	1.256644
286.935425	722.965515	1486.871704	736.265625	1.741066
287.306824	719.770508	1484.791382	728.166687	1.097510
287.678223	726.680664	1477.806763	726.234802	-0.059359
288.049561	733.739441	1457.076294	730.470032	-0.451990
288.420898	730.024231	1444.667847	737.528809	1.050115
288.792145	724.748718	1441.770020	739.312012	2.031082
289.163452	721.107910	1448.457153	737.900391	2.308723
289.534668	726.011902	1472.605591	739.609314	1.821260
289.905914	726.680603	1497.348267	745.553467	2.448898
290.277039	725.045898	1535.094238	745.850769	2.568349
290.648193	731.584656	1572.914429	745.033386	1.598509
291.019318	732.699158	1598.028687	739.237793	0.755624
291.390381	730.544373	1617.570313	744.587585	1.583179
291.761475	727.126465	1609.471313	741.243958	1.599997
292.132507	714.123474	1606.127808	743.324402	3.273631
292.503510	712.265930	1582.573730	740.278015	3.218641
292.874481	714.346375	1570.239380	747.856873	3.915267
293.245422	715.386536	1574.326050	741.615417	3.053636
293.616364	723.485596	1596.022461	733.813660	1.183682
293.987213	713.380432	1635.254395	726.383362	1.410489
294.358093	716.724060	1671.291138	738.197510	2.249548
294.728943	715.163635	1716.913086	740.723816	2.551554
295.099731	720.216309	1765.358398	737.974609	1.699128
295.470490	720.736328	1793.147827	730.618652	0.921505
295.841248	720.885010	1824.354858	732.550537	1.057168
296.211975	731.287354	1840.106934	738.717590	0.670103
296.582642	735.076843	1885.803101	742.358459	0.632784
296.953308	736.860107	1931.127808	739.534973	0.223975
297.323883	734.853943	1979.498657	734.928223	0.005968
297.694519	733.070618	2011.597656	731.733215	-0.104605
298.065063	733.070618	2009.739868	732.327637	-0.058197
298.435608	727.497986	1988.563843	731.510254	0.318165
298.806122	726.977844	1931.573608	727.795227	0.067855
299.176575	730.692871	1875.029175	726.532043	-0.363602
299.547028	733.962219	1836.837524	733.813782	-0.013459
299.917450	734.928223	1825.692261	741.392578	0.592645
300.287872	726.160461	1823.165894	739.980774	1.259822
300.658234	728.240967	1817.295898	736.637207	0.770966
301.028564	732.847717	1812.317749	734.408142	0.144555
301.398865	737.825989	1815.586914	739.312073	0.137886
301.769135	729.504089	1809.791382	740.055115	0.976687
302.139374	722.148132	1811.500366	735.002502	1.180001
302.509583	712.488770	1810.088501	738.717712	2.389664
302.879791	711.076965	1809.940063	741.615479	2.779101
303.249939	707.733398	1799.983398	746.593750	3.557826
303.620087	717.838562	1789.209595	747.039551	2.725572
303.990173	721.330811	1775.760742	740.575256	1.825104
304.360260	720.290527	1785.123047	744.736145	2.295724
304.730286	722.668274	1782.819702	740.129395	1.647040
305.100281	722.519592	1798.125977	746.370789	2.217465
305.470276	735.968445	1800.875000	742.729980	0.634942
305.840179	731.361633	1820.119507	738.346191	0.641516
306.210144	726.829285	1836.540405	730.841553	0.361560
306.579987	720.290588	1852.663940	727.275085	0.616802
306.949890	712.934631	1870.868164	731.658936	1.617045
307.319702	725.491760	1886.323120	731.287415	0.499268
307.689484	729.652771	1911.660278	731.881836	0.188583
308.059265	737.825989	1935.288696	731.138733	-0.558452
308.429016	727.349365	1967.907593	729.281250	0.155727
308.798737	723.411316	2000.526489	735.076843	0.913428
309.168396	723.634277	2049.046143	733.516418	0.745590
309.538055	726.011902	2088.575195	733.516418	0.550765
309.907684	725.863281	2122.308594	734.110901	0.590615
310.277313	723.039795	2149.428955	737.900391	1.041833
310.646851	727.275085	2172.017334	744.290344	1.177737
311.016388	728.686829	2186.134766	734.705322	0.412947
311.385895	724.525879	2176.549561	726.903503	0.163746
311.755371	727.646484	2178.778809	730.841553	0.220178
312.124817	731.584534	2176.772461	736.340027	0.329057
312.494232	733.144958	2178.852783	745.181946	0.832602
312.863617	733.813660	2163.398193	738.569031	0.332640
313.232971	732.104675	2149.800781	737.454529	0.377363
313.602295	741.095398	2141.627441	728.463867	-0.901909
313.971619	738.271790	2153.441406	729.578430	-0.614298
314.340820	737.677429	2161.763428	723.336975	-1.006994
314.710083	722.742615	2190.369873	724.674500	0.131633
315.079285	716.649719	2216.450195	728.983948	0.822391
315.448486	716.278259	2255.013428	741.243896	1.622478
315.817596	725.268860	2255.756348	737.528809	0.801049
316.186707	730.544373	2227.892822	735.225403	0.312621
316.555786	729.652649	2188.066650	726.606384	-0.208875
316.924866	726.309082	2146.605469	731.584656	0.371442
317.293884	714.717834	2128.772949	730.990173	1.150757
317.662872	712.488770	2122.754395	735.819824	1.654373
318.031830	715.609558	2140.735596	737.900391	1.564131
318.400757	726.309082	2149.280518	735.522644	0.647487
318.769684	727.720764	2160.277344	732.327637	0.321584
319.138550	721.999512	2182.791016	733.367859	0.778232
319.507416	717.764343	2212.511963	736.934387	1.282494
319.876190	715.163635	2229.675781	737.677429	1.486538
320.244995	722.891113	2222.022949	736.785828	0.926851
320.613770	725.640320	2197.800293	731.881775	0.423966
320.982483	736.042786	2178.630127	729.652771	-0.442955
321.351166	735.745544	2161.391846	728.686768	-0.495128
321.719818	732.847717	2159.682861	732.996338	0.010416
322.088440	725.491760	2157.082275	740.203796	1.027671
322.457062	721.479492	2179.893066	742.878662	1.467291
322.825623	721.256531	2214.740967	739.014893	1.189056
323.194183	714.569336	2254.790283	736.191406	1.403829
323.562653	712.340271	2298.183105	737.900330	1.611765
323.931183	710.705566	2351.978271	736.265686	1.557335
324.299591	715.981018	2422.343018	738.049011	1.293277
324.668060	720.662109	2479.556396	737.083008	0.933592
325.036407	725.268799	2521.908936	743.770203	1.029778
325.404755	725.640381	2539.889893	744.587585	1.044355
325.773102	725.863281	2553.264404	743.472961	0.963646
326.141388	720.885010	2552.967285	742.581360	1.184245
326.509674	722.816895	2558.837158	743.250183	1.112912
326.877899	728.240967	2567.902100	745.033386	0.912800
327.246124	731.807434	2588.632568	751.794922	1.076433
327.614288	728.463867	2586.849121	748.302734	1.067533
327.982422	717.764343	2577.858643	744.067444	1.414074
328.350525	716.278259	2549.846436	742.729980	1.442636
328.718628	712.637390	2538.106445	742.432800	1.632206
329.086700	712.191589	2529.264648	735.894226	1.304440
329.454712	713.528992	2548.211914	727.423645	0.757333
329.822693	719.101746	2563.741211	725.491882	0.346417
330.190674	724.080017	2591.381836	733.813721	0.521271
330.558563	724.674500	2599.332031	732.847717	0.435985
330.926483	722.593933	2622.291504	736.414246	0.727501
331.294312	718.432922	2634.700195	730.024231	0.604890
331.662231	716.278259	2673.634766	733.590759	0.884484
332.029999	717.169861	2723.417725	731.435974	0.711084
332.397766	720.736511	2773.126221	740.055115	0.941274
332.765503	718.061523	2805.001953	737.380188	0.925693
333.133240	723.559875	2839.701416	741.466797	0.846206
333.500916	721.999512	2883.391357	739.089050	0.790673
333.868561	733.219238	2942.610596	737.008606	0.171512
334.236176	722.148132	2982.288330	735.374023	0.585180
334.603790	723.336975	2993.433594	736.488525	0.579339
334.971344	723.708496	2979.241943	740.649597	0.751091
335.338867	734.110901	2963.712646	740.798157	0.299931
335.706360	736.117004	2971.365967	744.661865	0.382278
336.073853	731.213074	2979.613281	742.655701	0.508923
336.441284	728.092285	2987.266602	742.209900	0.624902
336.808655	728.018066	2971.365967	739.014893	0.490197
337.176086	723.188416	2945.805664	742.432800	0.865843
337.543396	729.355469	2874.995361	740.352356	0.512523
337.910706	728.983948	2816.072998	734.110901	0.245651
338.277954	732.476257	2820.234131	727.572266	-0.234893
338.645264	724.377258	2892.158936	730.841553	0.298199
339.012421	723.634216	3011.489258	740.129395	0.720989
339.379669	721.776672	3126.732666	741.466797	0.818731
339.746796	720.439209	3225.481201	731.213074	0.430087
340.113953	716.352539	3306.842529	724.748779	0.324118
340.481018	719.770508	3336.117920	734.482422	0.562307
340.848114	721.776672	3343.102295	735.671204	0.530057
341.215118	726.903564	3346.966064	739.980774	0.499118
341.582153	719.696106	3355.436523	740.500977	0.789337
341.949066	718.358704	3377.578857	747.633972	1.100897
342.316010	717.244141	3386.123779	750.903259	1.261170
342.682922	723.708496	3404.699219	741.838379	0.676238
343.049835	724.525879	3420.080078	743.844543	0.716686
343.416656	728.686768	3457.379883	744.513184	0.580000
343.783478	721.256531	3500.698486	747.262451	0.935653
344.150269	722.073914	3609.552002	750.383240	0.980417
344.516998	718.358704	3731.631592	745.181946	0.890170
344.883728	729.281250	3851.407227	745.925110	0.533094
345.250427	738.717712	3922.812256	746.965332	0.259026
345.617065	740.872375	3941.610596	747.188171	0.197323
345.983704	738.643311	3939.530273	743.250183	0.143925
346.350281	727.646484	3937.449951	740.872375	0.412047
346.716827	728.909668	3887.444092	736.785828	0.249361
347.083405	727.423645	3852.298828	737.157227	0.311487
347.449860	733.962341	3795.531494	741.541199	0.247548
347.816376	729.578430	3767.965088	744.513245	0.491538
348.182770	722.668274	3733.711670	746.668030	0.797058
348.549194	717.912903	3712.164063	738.197510	0.677452
348.915558	722.742615	3739.210205	741.763977	0.630584
349.281921	730.618652	3753.550537	738.643372	0.265461
349.648193	732.550476	3783.717041	732.327637	-0.007303
350.014526	732.179016	3803.259033	730.024231	-0.070164
350.380737	729.578430	3861.809570	735.076843	0.175543
350.746948	726.680664	3925.115479	741.764099	0.471588
351.113159	726.457703	3991.616455	746.296570	0.607593
351.479309	730.767273	4037.089844	740.426575	0.292146
351.845428	728.240967	4057.002686	732.104675	0.116070
352.211517	723.188293	4083.157471	724.822998	0.048652
352.577576	718.061523	4118.896973	726.383484	0.244703
352.943604	724.005676	4179.453613	731.733215	0.223633
353.309601	723.262695	4231.763184	736.117126	0.366380
353.675537	723.262695	4310.672363	738.866272	0.434954
354.041473	723.336975	4401.916504	742.507080	0.521128
354.407379	716.872742	4500.516113	738.717712	0.577353
354.773254	715.609558	4598.001465	735.596985	0.514822
355.139038	715.312317	4684.267090	733.962341	0.469898
355.504913	726.160461	4782.420410	738.271790	0.298584
355.870636	728.240967	4876.265137	740.798157	0.302727
356.236389	725.417480	4985.786621	741.615417	0.380200
356.602081	725.863281	5117.376953	738.494690	0.287632
356.967804	726.754883	5250.527344	742.507019	0.348208
357.333405	727.349365	5384.792480	746.965271	0.421173
357.699036	728.909729	5531.316895	747.336731	0.383703
358.064606	726.234863	5683.787109	740.723816	0.292260
358.430176	723.634216	5804.603027	735.745605	0.238368
358.795654	717.764343	5856.614746	742.804260	0.487267
359.161163	715.535217	5840.193848	753.206726	0.735103
359.526581	720.884949	5804.008301	747.262451	0.518923
359.892029	727.720886	5803.414063	745.627747	0.352796
360.257416	733.219238	5889.605469	743.398682	0.197414
360.622772	731.807434	6079.820313	753.578125	0.407080
360.988098	722.668274	6338.839844	750.531738	0.496129
361.353394	720.290527	6620.446777	743.770264	0.397951
361.718658	711.597168	6894.475098	735.002441	0.378550
362.083893	714.643616	7115.971191	730.395691	0.246075
362.449097	715.460938	7268.068848	736.637207	0.323173
362.814209	725.268860	7276.465332	740.500916	0.232508
363.179382	725.566101	7095.909668	743.101563	0.275267
363.544434	734.259460	6775.665527	735.819824	0.025828
363.909546	728.761169	6403.333984	733.516418	0.083799
364.274536	724.674500	6121.800781	735.374023	0.198245
364.639587	713.826233	5915.239746	740.872498	0.519979
365.004517	717.615723	5774.436035	740.798157	0.458439
365.369507	720.736389	5684.529297	746.742371	0.523914
365.734344	721.256531	5624.715332	750.308899	0.592487
366.099274	728.092468	5604.505371	751.423401	0.478445
366.464081	726.309082	5567.057129	747.336731	0.434388
366.828918	724.674500	5567.948730	740.203796	0.320636
367.193665	716.426819	5580.505859	742.135559	0.528543
367.558411	723.411316	5617.136719	741.764099	0.375027
367.923126	730.618652	5612.158691	746.073669	0.316601
368.287781	738.866211	5594.103027	742.581360	0.076518
368.652435	734.556702	5552.791016	733.888000	-0.013879
369.017059	728.686707	5532.357910	733.888000	0.108277
369.381653	723.857117	5509.101074	730.618652	0.141300
369.746185	719.919128	5503.899902	740.129395	0.422457
370.110687	725.120300	5533.323730	737.528809	0.258070
370.475220	730.544373	5573.595703	746.370789	0.326786
370.839661	740.649597	5630.957520	746.296570	0.115473
371.204041	740.500977	5676.505371	746.668030	0.124940
371.568451	737.677429	5732.900879	746.891052	0.184449
371.932770	729.132629	5774.658691	740.946777	0.234151
372.297150	724.154297	5816.193848	741.912659	0.348748
372.661377	720.439209	5835.958496	740.946777	0.400889
373.025696	719.176086	5876.378906	742.061279	0.443752
373.389862	722.593994	5860.181641	742.655762	0.390490
373.754059	719.770508	5865.828125	743.621582	0.463482
374.118225	719.919128	5878.162598	743.621643	0.459507
374.482361	721.033630	5939.907715	745.850769	0.475527
374.846436	720.662109	6013.096191	746.668030	0.491379
375.210510	722.593933	6109.244141	751.051941	0.528306
375.574524	717.987122	6210.592285	747.782532	0.542464
375.938538	721.627991	6352.362793	749.342957	0.492209
376.302460	717.392761	6478.230957	749.491516	0.557189
376.666412	722.073914	6648.681641	752.835144	0.519036
377.030304	722.668274	6786.364746	752.612244	0.493824
377.394196	726.754944	6937.942871	753.132324	0.424675
377.757996	720.959290	7061.730469	748.079834	0.427717
378.121796	720.290588	7141.828125	742.507080	0.345968
378.485565	722.371094	7159.140625	740.798157	0.286278
378.849304	730.395752	7070.349609	745.999329	0.246115
379.212982	728.612488	6937.496094	747.336731	0.301572
379.576630	735.968445	6773.361816	747.336731	0.188298
379.940277	730.470032	6665.325684	744.810486	0.241631
380.303864	734.705383	6576.979980	746.073669	0.194587
380.667450	733.888000	6537.896484	747.782654	0.239398
381.030945	732.550598	6508.026855	740.872498	0.144090
381.394501	727.052185	6539.382813	741.689758	0.251837
381.757935	728.315247	6543.840332	736.637146	0.143098
382.121399	727.869446	6563.531250	750.680420	0.390889
382.484741	731.361633	6589.462402	748.525574	0.292995
382.848145	721.553711	6658.489746	749.640137	0.473079
383.211487	725.045959	6727.071777	738.940491	0.231497
383.574768	724.600098	6844.767090	739.980774	0.251311
383.938019	724.005676	6923.007324	741.020996	0.274485
384.301270	716.501160	7033.792969	750.903320	0.544571
384.664459	713.380432	7077.928223	752.017883	0.607073
385.027649	714.940735	7137.296387	762.568848	0.741599
385.390778	719.696106	7208.478516	756.550293	0.567968
385.753876	723.039795	7248.007813	758.407898	0.542043
386.116943	721.999512	7306.410156	742.878662	0.317100
386.479980	721.479431	7310.793457	750.457458	0.439773
386.842987	716.501160	7368.898438	751.126221	0.520490
387.205994	723.336975	7425.962402	760.414063	0.553173
387.568909	726.606262	7489.862793	760.562683	0.502072
387.931793	727.943665	7537.861816	763.683411	0.524819
388.294678	725.788879	7566.914551	773.342712	0.695117
388.657471	722.296692	7585.861816	775.646057	0.777284
389.020294	722.519714	7569.664063	791.026672	1.000519
389.383057	721.776611	7583.112793	799.645935	1.134900
389.745819	721.405090	7589.502441	803.658203	1.197611
390.108521	722.445313	7611.496094	814.729309	1.339575
390.471191	715.238037	7672.424316	830.184326	1.652195
390.833801	717.987122	7791.383301	853.069580	1.909726
391.196442	722.296692	7989.103027	862.506042	1.929449
391.558960	727.126404	8180.878906	878.109558	2.025599
391.921509	728.463867	8367.081055	896.462402	2.199332
392.284027	728.686768	8540.131836	923.508606	2.494056
392.646484	731.584656	8648.019531	942.009949	2.658082
393.008911	728.018066	8656.267578	964.003601	2.976515
393.371307	722.816895	8610.200195	977.006531	3.222737
393.733673	719.547546	8532.702148	1007.322083	3.683205
394.096008	721.999573	8510.708008	1037.786133	4.054415
394.458344	723.039795	8518.806641	1072.559937	4.483461
394.820587	730.024231	8555.661133	1098.194214	4.704665
395.182831	728.166687	8570.966797	1130.367188	5.128277
395.545013	727.052185	8521.629883	1171.010864	5.695737
395.907196	720.142029	8410.399414	1199.245972	6.230012
396.269287	723.782776	8284.753906	1227.258179	6.658872
396.631409	731.287354	8156.209473	1245.090698	6.919983
396.993469	737.305847	8051.145996	1277.412354	7.384718
397.355530	738.569092	7976.768066	1301.040649	7.770877
397.717499	730.915955	7951.654297	1336.408813	8.385470
398.079468	731.287415	7959.679199	1373.708618	8.887471
398.441376	725.863281	7957.152344	1412.568970	9.496311
398.803284	727.274963	7981.300781	1459.454102	10.093418
399.165131	717.169861	7995.121094	1501.583618	10.777947
399.526978	723.114014	8004.707031	1544.604858	11.281747
399.888763	727.423584	8000.992188	1571.056641	11.598613
400.250519	734.036621	8007.381348	1602.561157	11.941198
400.612244	726.309082	8056.198730	1634.957031	12.396475
400.973938	722.445313	8037.474121	1675.452026	13.028065
401.335602	719.027405	8049.584473	1714.609741	13.581264
401.697205	715.609558	8082.724121	1763.946655	14.229956
402.058807	708.550781	8181.621094	1802.361206	14.636694
402.420349	706.544617	8292.406250	1855.636108	15.147805
402.781860	713.306152	8402.969727	1899.177612	15.421630
403.143341	719.844727	8519.921875	1957.059448	15.861570
403.504822	727.943787	8640.218750	2015.907227	16.278042
403.866241	731.881775	8803.683594	2087.312012	16.792164
404.227631	728.092285	8986.839844	2149.503174	17.210974
404.588959	719.473206	9200.682617	2207.756592	17.548010
404.950287	716.724060	9346.910156	2265.118164	17.941607
405.311554	721.182129	9442.092773	2320.696777	18.341143
405.672821	724.525818	9454.352539	2364.460938	18.785423
406.034027	727.646545	9436.520508	2391.209961	19.101934
406.395203	728.983948	9363.925781	2404.213135	19.400587
406.756348	727.497986	9300.842773	2410.825928	19.634436
407.117493	726.680664	9232.113281	2415.878662	19.860224
407.478516	725.268860	9209.004883	2435.791748	20.162378
407.839600	721.405090	9192.731445	2464.175537	20.572582
408.200592	715.015137	9192.211914	2491.147217	20.951880
408.561554	715.981018	9167.617188	2517.524658	21.315918
408.922485	720.439209	9178.764648	2542.564697	21.542391
409.283417	727.943848	9198.973633	2569.611084	21.740772
409.644257	728.018066	9322.836914	2605.573486	21.845201
410.005096	731.510254	9466.910156	2639.901367	21.846636
410.365906	722.371094	9609.347656	2690.204346	22.142887
410.726715	722.148132	9694.202148	2723.863525	22.310558
411.087433	717.541321	9767.910156	2761.460693	22.583824
411.448120	719.770508	9826.163086	2790.587158	22.740252
411.808807	716.872742	9848.231445	2813.398438	22.959625
412.169434	717.838562	9769.991211	2821.571533	23.240141
412.530029	715.683777	9723.402344	2828.630127	23.457064
412.890564	712.860352	9693.086914	2830.785156	23.584314
413.251099	712.340149	9710.845703	2841.930420	23.666044
413.611572	717.912903	9743.242188	2864.889893	23.788351
413.972076	720.959290	9800.008789	2899.217773	23.992142
414.332489	730.544250	9864.799805	2937.929688	24.166014
414.692871	734.408020	10000.477539	2983.031250	24.267282
415.053223	733.145020	10131.250000	3031.848389	24.459221
415.413574	722.593994	10338.257813	3075.760986	24.472225
415.773834	719.770447	10481.215820	3111.872314	24.505611
416.134094	725.491699	10626.403320	3158.311523	24.571674
416.494263	733.219238	10754.278320	3207.128174	24.687101
416.854462	734.482422	11017.235352	3282.099609	24.775633
417.214630	731.881836	11325.518555	3355.733643	24.768187
417.574738	733.070618	11663.668945	3453.887695	24.891748
417.934784	730.024231	11917.487305	3536.660889	25.087339
418.294861	723.411316	12244.198242	3645.514404	25.363745
418.654846	715.015076	12632.726563	3750.207031	25.467907
419.014832	717.169861	13107.817383	3874.812500	25.484081
419.374756	729.727051	13603.343750	4000.532959	25.407047
419.734680	735.671204	14113.208008	4139.181641	25.441982
420.094543	724.302917	14608.213867	4282.660156	25.629356
420.454376	715.015076	15033.967773	4406.597168	25.781090
420.814148	708.773682	15492.860352	4534.546387	25.877640
421.173920	717.392761	15957.327148	4661.232910	25.878326
421.533691	719.547546	16436.951172	4776.996582	25.815008
421.893341	727.572266	16781.642578	4874.480957	25.830887
422.253021	723.114075	17021.416016	4919.137207	25.745155
422.612640	729.652771	17087.841797	4962.604492	25.876652
422.972260	718.655945	17047.792969	4966.468262	26.013699
423.331757	719.250305	16936.562500	4981.105957	26.279665
423.691315	715.237976	16925.789063	4996.783691	26.412094
424.050781	720.364929	17077.587891	5016.919922	26.267021
424.410248	725.268860	17235.111328	5038.244629	26.123665
424.769653	725.640381	17394.267578	5075.693359	26.097246
425.128998	723.782898	17379.037109	5110.615234	26.339031
425.488373	720.885071	17286.751953	5110.689453	26.499090
425.847656	717.392822	17063.396484	5048.126465	26.494141
426.206940	726.011902	16859.660156	5006.888672	26.533844
426.566193	726.754883	16520.837891	4945.663574	26.711958
426.925385	728.315247	16211.515625	4890.382324	26.881180
427.284576	729.578369	15750.317383	4779.448730	26.961859
427.643677	737.454529	15409.194336	4696.898438	26.986872
428.002777	738.271790	15044.293945	4617.096680	27.113232
428.361847	727.200745	14703.023438	4531.054199	27.217386
428.720856	724.377258	14409.081055	4451.179199	27.233339
429.079865	721.553711	14161.208008	4393.668457	27.322985
429.438812	726.754883	14009.703125	4358.746582	27.343266
429.797760	713.900574	13914.075195	4340.839355	27.476444
430.156616	716.798340	13761.606445	4297.966797	27.452826
430.515503	717.467041	13677.793945	4281.545410	27.499910
430.874268	726.977844	13600.890625	4259.329102	27.438055
431.233093	724.674377	13647.254883	4282.140137	27.529068
431.591827	720.736328	13680.245117	4291.948242	27.556692
431.950562	722.296692	13704.468750	4301.607422	27.570971
432.309204	726.680664	13747.859375	4312.678223	27.539730
432.667877	726.457703	13885.320313	4346.932129	27.513582
433.026459	725.343079	14029.171875	4394.263184	27.577927
433.385010	718.284424	14180.600586	4429.408691	27.566759
433.743561	715.089355	14333.515625	4482.906250	27.667051
434.102051	715.089417	14486.281250	4538.039063	27.760487
434.460510	722.891113	14657.104492	4591.313477	27.762045
434.818939	728.761047	14704.583008	4608.254395	27.758606
435.177338	724.897278	14737.796875	4610.706543	27.730230
435.535675	728.612549	14642.838867	4608.552246	27.884695
435.894012	733.813660	14586.441406	4606.991699	27.959879
436.252289	735.374023	14605.983398	4609.518066	27.930597
436.610535	726.160461	14626.120117	4611.821777	27.954479
436.968719	726.606262	14759.195313	4657.518066	28.012735
437.326935	727.423645	14846.351563	4706.929199	28.185608
437.685028	726.829285	14988.864258	4732.563477	28.086693
438.043152	726.606262	15096.231445	4747.052246	27.978783
438.401215	721.107910	15333.778320	4801.813477	27.925804
438.759277	727.720886	15545.987305	4866.679688	27.931465
439.117249	721.776611	15909.549805	4975.235840	28.005810
439.475250	724.971680	16198.586914	5052.510742	27.967215
439.833130	715.386536	16624.341797	5185.437988	28.097706
440.191071	718.210144	16917.242188	5273.412598	28.120214
440.548889	721.702332	17181.761719	5368.371582	28.229969
440.906708	731.361633	17513.521484	5448.395508	28.107430
441.264496	728.835388	17729.447266	5506.945801	28.105520
441.622223	727.646484	17908.962891	5548.853027	28.060751
441.979950	722.445313	17892.244141	5570.549316	28.236231
442.337616	722.668213	17867.203125	5574.486816	28.299503
442.695251	722.222412	17743.712891	5553.384766	28.382721
443.052887	724.377197	17573.113281	5510.512207	28.406490
443.410461	718.210144	17427.330078	5473.732910	28.460644
443.768005	713.008972	17256.804688	5445.498047	28.605827
444.125458	707.882019	17167.791016	5425.510254	28.661329
444.482941	713.380371	17198.478516	5446.983887	28.714439
444.840393	712.117249	17360.236328	5490.674316	28.703285
445.197754	711.820068	17633.447266	5579.911621	28.768461
445.555084	709.813904	17877.679688	5659.861328	28.833214
445.912415	719.473206	18255.806641	5762.993652	28.760405
446.269714	722.296692	18555.916016	5828.156738	28.630531
446.626953	724.971619	18898.970703	5921.704590	28.594326
446.984161	723.485535	19195.513672	6009.976074	28.618898
447.341309	719.770447	19413.666016	6099.658691	28.778849
447.698456	717.690002	19567.326172	6163.411621	28.890327
448.055542	710.705566	19634.123047	6207.101074	29.045469
448.412598	721.776611	19591.103516	6204.648438	29.057064
448.769653	724.674377	19456.466797	6184.289551	29.146250
449.126617	732.476257	19163.265625	6110.209473	29.177988
449.483582	727.200684	18906.476563	6042.000000	29.235485
449.840515	724.525879	18551.382813	5940.650879	29.259924
450.197388	723.634216	18293.849609	5876.230469	29.325745
450.554230	724.748718	18093.457031	5831.872559	29.404165
450.911041	733.219238	17917.285156	5788.181641	29.416567
451.267822	735.151184	17796.394531	5755.339844	29.424517
451.624573	736.191406	17627.207031	5715.885254	29.481318
451.981262	731.807434	17557.880859	5701.024902	29.532839
452.337921	728.166687	17414.253906	5646.561035	29.476019
452.694580	723.485596	17306.439453	5632.146484	29.600645
453.051147	719.621826	17285.117188	5626.945313	29.623762
453.407715	722.668274	17201.005859	5633.187012	29.799841
453.764221	735.002502	17218.095703	5641.657715	29.767805
454.120728	743.472961	16996.003906	5590.091309	29.820698
454.477142	737.974670	16925.119141	5583.032715	29.931519
454.833557	732.996399	16739.882813	5527.899902	29.955252
455.189911	733.293640	16607.623047	5497.212402	30.010206
455.546265	735.745544	16415.328125	5445.498047	30.037485
455.902557	730.098572	16301.868164	5431.231934	30.190104
456.258820	726.680664	16279.725586	5426.104492	30.215458
456.615051	723.188416	16375.500977	5444.531738	30.163870
456.971252	727.795166	16333.743164	5428.408203	30.120651
457.327393	719.547546	16536.515625	5488.147949	30.148640
457.683502	724.377258	16755.041016	5556.729004	30.144424
458.039612	715.906738	17206.802734	5690.771484	30.167339
458.395630	718.358704	17605.880859	5829.865723	30.267952
458.751648	715.758057	18088.476563	5978.842285	30.295109
459.107605	727.126404	18768.494141	6184.289551	30.248056
459.463562	735.151062	19462.111328	6386.615723	30.178226
459.819458	742.284180	20081.796875	6571.853027	30.143309
460.175323	731.881836	20584.306641	6740.965332	30.268763
460.531158	725.863281	21093.875000	6881.769531	30.223402
460.886932	721.702332	21369.460938	6976.356934	30.292173
461.242676	728.092346	21472.521484	7007.787109	30.271715
461.598419	729.355469	21226.726563	6986.462402	30.526388
461.954102	731.287415	20816.351563	6887.861816	30.652498
462.309723	723.559875	20163.751953	6729.300781	30.893423
462.665344	726.383362	19467.904297	6515.308594	30.888235
463.020905	725.789063	18905.138672	6356.895020	30.975288
463.376373	735.076904	18504.275391	6223.150391	30.885315
463.731873	736.711487	18188.859375	6137.776855	30.947855
464.087341	737.231628	17929.544922	6052.550781	30.916838
464.442749	731.287415	17784.431641	5998.681641	30.888109
464.798126	726.977844	17661.458984	5976.093750	30.996614
465.153503	725.343079	17741.931641	6007.895020	31.043543
465.508820	723.262695	17792.751953	6036.650391	31.127985
465.864105	720.141907	17995.376953	6077.367676	31.011015
466.219330	723.114075	18263.310547	6167.348145	31.038612
466.574524	726.903503	18498.255859	6227.236328	30.950562
466.929657	728.761047	18660.830078	6288.313965	31.003410
467.284790	726.903503	18791.306641	6334.381348	31.041592
467.639893	724.971680	18899.490234	6392.634766	31.184666
467.994934	726.309082	19064.740234	6460.547363	31.268969
468.349945	721.405090	19088.814453	6491.754395	31.416237
468.704926	728.166687	19063.552734	6494.949219	31.451656
469.059875	728.092346	18834.328125	6419.681152	31.434412
469.414764	727.052063	18603.248047	6336.535645	31.379627
469.769653	720.959290	18386.283203	6266.839844	31.394161
470.124451	727.646545	18328.474609	6242.468750	31.332743
470.479248	732.773438	18199.335938	6192.314941	31.257103
470.834015	738.643311	18134.841797	6187.782715	31.323736
471.188721	726.903503	18144.800781	6218.394531	31.527866
471.543365	724.377258	18238.273438	6271.298828	31.671543
471.898010	718.730225	18403.669922	6314.691406	31.642523
472.252625	725.417480	18593.882813	6349.613281	31.475540
472.607178	728.983948	18892.951172	6430.083496	31.386864
472.961700	730.841614	19100.478516	6481.798340	31.306860
473.316193	732.922058	19355.412109	6572.670410	31.358580
473.670654	727.423645	19476.228516	6640.582520	31.538857
474.025055	723.782776	19685.390625	6729.299316	31.671980
474.379456	716.649719	19837.265625	6780.643066	31.714424
474.733795	717.987122	20004.894531	6821.212402	31.644394
475.088104	723.411316	20110.404297	6871.144531	31.710609
475.442383	721.999512	20130.242188	6897.818848	31.820601
475.796570	722.073792	20215.541016	6925.311035	31.822134
476.150787	719.621826	20424.404297	6957.410156	31.656212
476.504944	723.559875	20676.441406	7047.390137	31.693819
476.859070	726.011902	20990.443359	7133.433105	31.619053
477.213135	733.962219	21237.500000	7218.880859	31.628292
477.567200	732.624817	21680.419922	7336.205078	31.523987
477.921173	727.720764	22041.455078	7478.494629	31.673351
478.275146	722.222412	22530.740234	7635.496582	31.699883
478.629089	725.566101	22828.693359	7726.888672	31.675711
478.983002	731.584656	23268.791016	7851.196777	31.590483
479.336823	732.922058	23616.156250	7999.802246	31.756351
479.690643	728.538086	24051.421875	8150.339844	31.821974
480.044403	725.194519	24514.474609	8285.422852	31.779982
480.398163	722.816895	25201.923828	8478.832031	31.684223
480.751862	725.417480	26082.632813	8728.712891	31.562202
481.105499	724.674500	27200.740234	9097.179688	31.622919
481.459137	724.525818	28618.583984	9567.442383	31.701794
481.812744	718.581726	30452.226563	10162.309570	31.761084
482.166290	719.176086	32665.482422	10853.547852	31.723141
482.519806	720.810730	35371.066406	11681.278320	31.631710
482.873291	723.708496	38503.222656	12680.206055	31.648098
483.226715	732.847717	42079.785156	13859.166992	31.746775
483.580139	731.287415	45594.375000	15082.262695	31.988382
483.933502	730.693054	48887.843750	16365.397461	32.466007
484.286804	726.754883	51570.917969	17513.892578	33.016842
484.640106	727.646545	53594.550781	18512.597656	33.640995
484.993347	735.151123	54710.730469	19183.404297	34.178890
485.346558	735.894104	54907.035156	19415.150391	34.481934
485.699738	723.411316	54248.488281	19169.359375	34.462254
486.052887	717.095520	52953.468750	18561.339844	34.160572
486.405975	705.429993	51405.519531	17803.080078	33.723118
486.759064	715.015137	49808.609375	17062.357422	33.298321
487.112061	722.668274	48518.566406	16474.398438	32.956238
487.464996	733.442139	47738.386719	16139.961914	32.776379
487.817963	737.528809	47610.285156	16038.316406	32.643242
488.170868	730.990173	47694.839844	16049.536133	32.617737
488.523743	730.098572	47794.480469	16106.303711	32.670578
488.876587	725.268860	47515.769531	16108.608398	32.877060
489.229401	728.315247	47021.363281	16010.378906	33.011574
489.582153	731.287354	46169.480469	15754.554688	33.063084
489.934845	728.835388	45181.253906	15384.971680	32.970394
490.287537	722.445313	44102.605469	14993.992188	32.898788
490.640198	716.649719	43260.828125	14662.007813	32.778534
490.992798	709.219482	42644.265625	14436.647461	32.734978
491.345337	710.482605	42541.355469	14350.010742	32.606369
491.697876	711.299988	42677.328125	14386.121094	32.585457
492.050354	721.999573	43103.007813	14545.797852	32.617908
492.402832	716.501160	43317.148438	14670.997070	32.756535
492.755219	715.460938	43127.082031	14663.715820	32.887814
493.107605	715.758118	42369.269531	14451.953125	32.977280
493.459930	726.754883	41144.910156	14068.403320	33.009048
493.812225	731.807434	39428.964844	13524.953125	33.059654
494.164490	734.556641	37456.523438	12879.262695	33.072044
494.516724	733.144958	35399.824219	12203.034180	33.086208
494.868896	726.829285	33572.417969	11594.270508	33.086456
495.221039	728.315247	32195.218750	11102.906250	32.969849
495.573120	722.296692	31157.287109	10722.402344	32.857265
495.925201	731.213074	30565.687500	10483.667969	32.688541
496.277222	732.476257	30169.953125	10363.000977	32.715183
496.629211	740.723816	30031.005859	10323.472656	32.716480
496.981140	736.191345	29952.390625	10321.390625	32.807823
497.333069	736.637207	30074.843750	10340.487305	32.734959
497.684967	738.940613	30129.009766	10363.149414	32.746468
498.036804	738.346130	30205.837891	10412.784180	32.830887
498.388580	732.179016	30068.302734	10392.722656	32.930542
498.740326	728.612488	29900.453125	10373.403320	33.061993
499.092072	727.646484	29606.587891	10264.176758	33.022438
499.443756	728.761047	29316.134766	10158.221680	32.984707
499.795410	724.451477	28996.337891	10038.149414	32.943321
500.147003	726.160461	28609.000000	9935.165039	33.027500
500.498566	718.804504	28222.255859	9838.125977	33.157005
500.850098	719.993347	27850.742188	9706.907227	33.124462
501.201599	717.987122	27556.576172	9614.549805	33.148399
501.553009	721.776672	27215.156250	9509.114258	33.168053
501.904449	716.352539	26933.771484	9435.554688	33.257286
502.255859	714.271973	26741.031250	9348.026367	33.172604
502.607178	714.717834	26646.070313	9317.116211	33.173737
502.958405	716.501160	26598.072266	9317.041992	33.230370
503.309692	717.244141	26527.556641	9307.456055	33.282093
503.660919	722.593994	26559.138672	9289.920898	33.159725
504.012115	732.401917	26577.117188	9271.493164	33.039989
504.363251	733.219238	26680.843750	9293.932617	32.992279
504.714294	729.578430	26748.537109	9313.176758	32.989784
505.065369	717.764343	26828.853516	9316.743164	32.932285
505.416443	720.810730	26849.140625	9332.496094	32.959187
505.767395	720.364807	26849.361328	9376.706055	33.129250
506.118317	735.596924	26804.556641	9406.797852	33.262554
506.469238	736.340027	26791.630859	9421.733398	33.334473
506.820160	734.110840	26781.375000	9389.559570	33.229782
507.170929	728.761169	26819.712891	9379.678711	33.156776
507.521729	722.296814	26880.718750	9389.336914	33.132885
507.872498	721.702332	26961.708984	9444.247070	33.241398
508.223236	716.724060	27156.380859	9493.212891	33.194416
508.573883	720.439209	27344.515625	9555.108398	33.183006
508.924500	722.742493	27516.673828	9600.135742	33.132107
509.275116	724.154297	27689.726563	9673.694336	33.188763
509.625702	721.405090	27900.078125	9764.640625	33.273277
509.976196	724.600098	28182.873047	9900.168945	33.416409
510.326660	723.188416	28427.404297	9999.660156	33.483971
510.677124	727.646545	28704.406250	10084.884766	33.446468
511.027557	726.754883	28919.064453	10131.769531	33.360214
511.377869	731.881836	29165.228516	10234.010742	33.418961
511.728180	730.618652	29296.818359	10300.809570	33.501801
512.078430	729.206848	29403.962891	10351.854492	33.557907
512.428650	725.714661	29437.697266	10370.504883	33.591515
512.778931	731.658875	29540.830078	10381.426758	33.495472
513.129028	735.002502	29604.134766	10400.299805	33.479691
513.479126	737.603027	29655.406250	10416.052734	33.468826
513.829285	726.977844	29606.662109	10423.259766	33.574753
514.179382	714.197754	29554.501953	10413.897461	33.632442
514.529297	711.225647	29508.734375	10409.588867	33.677788
514.879272	718.210144	29544.398438	10401.043945	33.590408
515.229187	728.240906	29500.115234	10344.573242	33.422680
515.579163	729.801270	29490.677734	10359.137695	33.480675
515.928955	726.383362	29474.328125	10359.136719	33.507622
516.278748	726.383362	29672.791016	10447.630859	33.583603
516.628540	724.228577	29966.431641	10496.670898	33.418968
516.978333	723.931396	30431.867188	10675.815430	33.499077
517.327942	726.011902	30947.083984	10850.648438	33.501911
517.677612	730.915833	31584.673828	11073.629883	33.521732
518.027222	737.380188	32163.789063	11241.109375	33.423260
518.376831	738.197510	32894.925781	11507.632813	33.490459
518.726379	733.070618	33538.019531	11730.245117	33.522915
519.075867	732.699158	34102.050781	11936.956055	33.576488
519.425293	735.745544	34466.656250	12056.953125	33.563305
519.774658	738.271790	34599.285156	12145.523438	33.688457
520.124084	735.225403	34616.152344	12163.800781	33.731590
520.473389	731.138855	34338.187500	12089.350586	33.797115
520.822693	732.476257	34022.996094	11965.561523	33.742596
521.171997	730.172852	33578.218750	11824.460938	33.774574
521.521240	730.172852	33130.394531	11692.945313	33.835484
521.870361	724.897278	32700.851563	11563.956055	33.897530
522.219482	730.247131	32342.861328	11460.823242	33.943970
522.568604	724.674500	32123.224609	11355.909180	33.858997
522.917664	730.395813	32003.224609	11301.592773	33.803139
523.266724	730.544373	32046.171875	11304.192383	33.764767
523.615662	732.179016	32312.025391	11375.523438	33.702965
523.964600	726.086182	32748.630859	11513.875000	33.688107
524.313538	716.203918	33350.332031	11690.715820	33.628941
524.662354	714.049133	34048.332031	11933.463867	33.657288
525.011169	713.306152	34883.566406	12201.992188	33.621883
525.359985	715.906738	35910.875000	12515.700195	33.526932
525.708740	715.906738	37138.875000	12926.371094	33.524078
526.057434	719.547607	38507.605469	13399.456055	33.555332
526.406067	720.216309	40075.914063	13940.081055	33.590725
526.754700	723.114075	41785.250000	14514.887695	33.587570
527.103333	725.417480	43710.437500	15170.312500	33.604485
527.451782	721.850891	45821.449219	15937.785156	33.738514
527.800293	724.674500	47939.000000	16751.177734	33.944153
528.148743	724.228577	50049.269531	17642.884766	34.300339
528.497131	723.188477	51871.917969	18470.244141	34.696960
528.845642	727.646667	53445.949219	19279.105469	35.189789
529.193909	725.640381	54641.847656	19973.462891	35.699512
529.542175	732.476257	55430.644531	20504.726563	36.147919
529.890503	727.349304	55683.125000	20747.326172	36.429249
530.238770	730.767273	55412.589844	20677.630859	36.478050
530.586914	722.445374	54653.511719	20313.771484	36.326607
530.934998	724.600159	53440.519531	19708.572266	36.011841
531.283142	721.256531	51910.699219	18941.099609	35.592972
531.631226	729.727051	50089.542969	18089.962891	35.170788
531.979248	727.720886	48230.488281	17277.314453	34.839222
532.327148	728.315247	46617.605469	16558.732422	34.496975
532.675110	727.349304	45429.652344	16082.527344	34.349857
533.023071	724.525818	44913.621094	15821.352539	34.164146
533.370850	730.395752	44747.324219	15769.117188	34.165768
533.718689	728.686768	45005.683594	15821.946289	34.088264
534.066467	732.401855	45214.468750	15915.715820	34.133564
534.414246	724.600098	45308.984375	15952.570313	34.155392
534.761963	725.714661	45100.714844	15957.252930	34.324593
535.109619	723.336975	44760.406250	15860.211914	34.373028
535.457153	722.593933	44113.375000	15677.578125	34.465809
535.804749	718.581543	43341.746094	15369.293945	34.372654
536.152344	722.668213	42452.117188	15042.883789	34.316811
536.499817	722.222473	41557.066406	14693.585938	34.214317
536.847229	726.160461	40605.769531	14373.266602	34.220764
537.194641	721.850891	39757.824219	14072.860352	34.201813
537.542114	723.188416	39137.996094	13833.754883	34.128937
537.889404	723.114075	38667.953125	13642.276367	34.047218
538.236694	722.891174	38248.511719	13482.377930	34.002068
538.583984	725.714661	37890.078125	13377.760742	34.043488
538.931213	719.101746	37629.574219	13298.254883	34.080173
539.278381	718.655945	37458.531250	13257.090820	34.127590
539.625488	714.049133	37448.421875	13215.036133	34.030766
539.972595	717.467102	37776.691406	13288.745117	33.922131
540.319641	715.163757	38449.355469	13459.268555	33.773361
540.666687	714.197754	39466.484375	13791.253906	33.745255
541.013611	713.900574	40733.941406	14216.710938	33.740124
541.360596	710.854187	42116.714844	14703.320313	33.793446
541.707458	710.185364	43577.652344	15218.014648	33.843449
542.054260	715.312317	44794.656250	15660.710938	33.905674
542.401062	718.284424	45790.316406	16035.641602	33.984173
542.747864	719.919128	46294.531250	16236.852539	34.047318
543.094666	718.358704	46236.875000	16278.833008	34.184933
543.441284	721.702332	45567.855469	16116.706055	34.328484
543.787903	724.823059	44523.894531	15797.054688	34.412216
544.134460	723.411316	43236.828125	15352.799805	34.411228
544.481079	725.937500	41834.214844	14848.062500	34.353481
544.827637	730.618652	40256.914063	14294.952148	34.317238
545.174072	728.389587	38614.605469	13728.245117	34.312889
545.520508	726.977783	37213.769531	13236.360352	34.284687
545.866943	724.154297	36077.386719	12811.497070	34.190205
546.213318	733.665100	35291.859375	12503.661133	34.058479
546.559631	730.024231	34611.988281	12257.942383	34.023758
546.905823	729.949951	33986.140625	12041.202148	34.012470
547.252136	718.135803	33530.144531	11858.492188	33.952072
547.598389	715.460876	33034.695313	11663.965820	33.876125
547.944458	712.711731	32626.474609	11552.883789	33.967075
548.290588	720.810730	32093.869141	11392.539063	34.015583
548.636658	728.018066	31547.005859	11216.218750	34.031620
548.982727	734.185242	30856.134766	10966.190430	33.968601
549.328735	730.172852	30136.439453	10728.791992	34.001663
549.674622	730.767273	29358.416016	10477.575195	34.046833
550.020569	724.154297	28655.365234	10234.977539	34.050880
550.366455	728.315247	27916.500000	9984.799805	34.045982
550.712280	727.275085	27246.658203	9742.499023	33.994846
551.058044	735.374023	26740.062500	9573.237305	33.985653
551.403748	736.711487	26361.193359	9424.928711	33.905922
551.749512	735.225403	26134.642578	9345.350586	33.898907
552.095154	728.241028	25939.228516	9245.488281	33.783867
552.440735	727.869446	25869.384766	9223.344727	33.790627
552.786316	727.274963	25883.578125	9223.122070	33.772240
553.131897	726.160461	25906.015625	9249.722656	33.850719
553.477417	725.937561	25949.630859	9262.651367	33.844028
553.822815	726.977844	25916.640625	9274.168945	33.931347
554.168213	726.829285	25882.978516	9248.757813	33.876125
554.513672	718.953125	25730.140625	9192.584961	33.879368
554.859009	718.507324	25531.232422	9104.683594	33.797882
555.204285	722.668274	25322.812500	9051.706055	33.857681
555.549500	723.039734	25089.056641	8980.152344	33.887821
555.894714	728.389587	24840.068359	8909.045898	33.928188
556.239990	730.470032	24527.031250	8808.216797	33.945019
556.585022	732.699219	24260.732422	8710.359375	33.907043
556.930115	732.104675	23995.099609	8623.573242	33.922840
557.275146	719.621826	23735.705078	8539.239258	33.974579
557.620178	723.931396	23518.818359	8474.448242	34.001118
557.965149	718.507324	23363.150391	8404.232422	33.940590
558.310059	720.662109	23167.884766	8335.278320	33.922310
558.654968	719.919006	23029.458984	8303.923828	33.994450
558.999756	721.256531	22900.099609	8267.292969	34.023579
559.344604	725.640381	22914.662109	8267.960938	33.991226
559.689331	721.256531	22872.976563	8234.971680	33.919331
560.033997	722.148132	22811.380859	8205.472656	33.877705
560.378723	722.742615	22757.958984	8181.026855	33.847111
560.723389	725.417480	22759.072266	8162.822266	33.754749
561.067932	728.018066	22819.927734	8177.311035	33.719551
561.412476	729.355530	22824.312500	8175.453613	33.700443
561.757019	727.943665	22821.562500	8166.909668	33.670200
562.101501	724.897278	22823.492188	8162.228027	33.655216
562.445862	725.714600	22784.781250	8162.971191	33.715195
562.790222	732.476257	22750.007813	8160.890625	33.738636
563.134644	729.429871	22750.156250	8149.448730	33.695614
563.478943	727.869446	22769.771484	8138.377441	33.620090
563.823181	722.816895	22799.716797	8156.953125	33.673824
564.167358	723.931396	22826.833984	8176.494629	33.717579
564.511536	722.148193	22886.873047	8174.191406	33.621185
564.855774	727.052063	22899.281250	8165.571777	33.548813
565.199768	717.764343	22967.193359	8181.324219	33.544949
565.543823	718.878845	23097.818359	8232.295898	33.573605
565.887817	717.838623	23335.958984	8321.756836	33.618698
566.231812	732.922058	23515.400391	8390.114258	33.610004
566.575745	734.185059	23690.976563	8463.302734	33.668110
566.919617	734.779602	23871.755859	8522.669922	33.659931
567.263428	734.036560	23994.798828	8552.243164	33.611137
567.607239	732.699158	24116.435547	8582.335938	33.568787
567.950989	727.349304	24109.599609	8589.171875	33.623039
568.294678	725.640320	24143.037109	8601.877930	33.634132
568.638367	729.132568	24070.591797	8562.645508	33.560509
568.981995	734.110840	23934.171875	8518.732422	33.554317
569.325623	727.795166	23731.916016	8465.532227	33.636311
569.669128	719.770508	23530.705078	8403.415039	33.684044
570.012573	715.832458	23415.240234	8346.499023	33.616146
570.356140	721.107910	23377.419922	8315.440430	33.519718
570.699524	733.367859	23365.234375	8327.032227	33.552975
571.042908	737.677429	23427.351563	8323.094727	33.431145
571.386230	740.649597	23567.931641	8347.540039	33.323681
571.729492	735.299744	23761.564453	8376.814453	33.186077
572.072815	731.138733	23945.240234	8441.086914	33.212349
572.416016	727.720886	24047.630859	8467.315430	33.188786
572.759094	726.234863	24193.412109	8531.438477	33.260086
573.102234	731.138733	24291.343750	8542.213867	33.153683
573.445374	731.213074	24358.662109	8578.843750	33.214043
573.788391	727.200745	24302.638672	8559.376953	33.221764
574.131409	718.433044	24271.056641	8530.621094	33.169079
574.474365	726.977844	24189.474609	8517.766602	33.205284
574.817261	734.036621	24067.693359	8456.913086	33.097584
575.160156	739.386292	23866.333984	8411.067383	33.172043
575.502930	734.408020	23672.328125	8302.585938	32.994175
575.845703	731.584656	23463.017578	8249.236328	33.071613
576.188477	732.104675	23221.830078	8189.126465	33.157463
576.531250	724.302917	22959.689453	8110.216309	33.216934
576.873901	723.039795	22722.218750	8028.557129	33.208138
577.216431	716.129578	22494.181641	7958.489746	33.255318
577.559082	720.290527	22228.697266	7882.626953	33.300171
577.901611	725.937500	21924.130859	7774.294434	33.249802
578.244080	733.293457	21578.103516	7632.300781	33.097000
578.586487	730.172852	21255.480469	7531.918457	33.138336
578.928955	730.470032	20886.419922	7442.457520	33.300278
579.271301	725.417480	20567.291016	7353.962891	33.406853
579.613647	725.268860	20181.660156	7220.960938	33.385902
579.955872	719.324646	19897.005859	7080.231934	33.168282
580.298157	719.844727	19590.134766	6973.607910	33.140793
580.640320	724.302917	19373.171875	6887.639160	33.049385
580.982483	725.937561	19147.587891	6809.324219	33.023029
581.324524	725.789001	18981.373047	6728.482910	32.881413
581.666626	719.250305	18819.021484	6693.114746	33.005192
582.008728	714.717957	18724.138672	6675.134277	33.096104
582.350647	716.055359	18583.705078	6637.685059	33.141624
582.692566	729.727051	18511.927734	6592.137207	32.967854
583.034424	733.145020	18392.894531	6544.583496	32.907818
583.376343	729.206848	18326.171875	6520.063965	32.908272
583.718201	720.587830	18208.402344	6503.717285	33.069481
584.059937	722.371094	18155.869141	6490.343262	33.085571
584.401611	725.937561	18055.115234	6467.531738	33.132526
584.743347	727.126404	18001.841797	6425.476563	32.986652
585.085022	721.182129	17908.664063	6394.492188	33.008385
585.426514	723.559875	17852.640625	6360.535645	32.908806
585.768127	725.194580	17770.388672	6335.198730	32.912529
586.109619	737.825989	17702.474609	6316.994629	32.887028
586.451172	736.042786	17631.812500	6292.251953	32.885208
586.792542	730.470032	17595.404297	6287.793457	32.951942
587.133850	728.612488	17556.396484	6257.849121	32.857784
587.475220	731.881775	17571.404297	6270.555176	32.890915
587.816589	733.739441	17579.355469	6251.385254	32.754196
588.157776	729.058289	17593.623047	6270.183594	32.856617
588.498962	730.693054	17647.490234	6285.489746	32.835983
588.840210	733.293640	17694.970703	6307.334473	32.862556
589.181335	735.671204	17787.476563	6319.372559	32.745514
589.522400	735.299744	17794.833984	6307.186035	32.661419
589.863403	731.658875	17860.294922	6297.156250	32.492355
590.204407	728.984070	17823.365234	6285.489746	32.504868
590.545410	721.776672	17896.849609	6314.468262	32.562840
590.886353	720.439209	17892.244141	6316.177246	32.586781
591.227112	722.816895	17916.986328	6319.372559	32.549149
591.567932	725.194580	17817.716797	6286.010254	32.533615
591.908752	723.262695	17680.333984	6270.257813	32.711990
592.249512	718.730286	17621.039063	6235.261719	32.637737
592.590149	719.696106	17530.908203	6192.982910	32.557358
592.930786	719.844788	17491.455078	6172.326660	32.510189
593.271423	713.231873	17390.181641	6144.686035	32.568630
593.612000	714.643616	17334.974609	6134.730469	32.611187
593.952576	723.782898	17339.580078	6133.838379	32.559711
594.292969	734.705322	17396.869141	6135.027344	32.410690
594.633484	732.922058	17472.210938	6139.560059	32.299091
594.973877	728.538147	17554.017578	6152.785156	32.238293
595.314209	728.612488	17673.867188	6187.261719	32.213440
595.654480	730.321472	17859.847656	6253.316895	32.242550
595.994812	732.401917	18048.207031	6294.629395	32.122257
596.335022	729.652771	18266.433594	6366.257324	32.141613
596.675171	724.897461	18480.126953	6404.226074	31.986792
597.015320	725.640442	18680.595703	6467.828613	31.981077
597.355408	729.727051	18764.781250	6493.686035	31.959753
597.695496	734.482361	18812.410156	6539.753906	32.112484
598.035461	733.739258	18756.681641	6530.911621	32.165516
598.375366	733.590637	18722.726563	6525.041504	32.194157
598.715271	739.014832	18600.794922	6489.674316	32.195335
599.055176	733.070618	18403.298828	6443.531738	32.316849
599.395081	723.262695	18152.080078	6372.944824	32.415752
599.734802	717.615723	17838.150391	6267.806152	32.418324
600.074524	722.816833	17512.333984	6159.918457	32.383907
600.414246	727.423645	17154.195313	6030.929199	32.285744
600.753906	725.343201	16839.820313	5907.066406	32.155701
601.093506	721.850891	16567.203125	5810.324219	32.113346
601.433044	721.850891	16377.805664	5744.789063	32.083241
601.772583	720.736389	16235.812500	5709.050293	32.151398
602.112122	720.885010	16212.409180	5679.031250	32.005543
602.451538	716.724060	16236.036133	5684.307129	32.009041
602.790894	715.535156	16373.050781	5706.895020	31.878365
603.130310	714.420715	16585.183594	5762.919434	31.810057
603.469604	718.061523	16796.576172	5806.162598	31.645342
603.808838	722.668274	17097.130859	5874.893066	31.464998
604.148010	724.005676	17350.501953	5951.425293	31.440294
604.487305	725.789001	17637.013672	6018.445801	31.296709
604.826416	728.092346	17829.533203	6060.278809	31.179749
605.165527	730.692932	18013.505859	6106.792480	31.106625
605.504456	734.928223	18116.193359	6166.085938	31.247194
605.843445	732.401917	18167.908203	6213.861816	31.438492
606.182434	733.590759	18141.826172	6207.472656	31.444206
606.521423	734.928223	18049.765625	6175.001953	31.418566
606.860229	740.798157	17829.458984	6127.671387	31.523087
607.199036	742.061279	17573.335938	6061.096191	31.602093
607.537903	738.569092	17310.158203	5975.722168	31.603205
607.876648	739.237793	17063.619141	5878.088379	31.479605
608.215271	730.544373	16787.585938	5788.404785	31.499329
608.553955	727.423584	16582.138672	5719.823730	31.488428
608.892578	725.343079	16391.105469	5656.368652	31.476446
609.231140	737.528809	16308.704102	5620.851563	31.361298
609.569641	736.860046	16245.027344	5586.449707	31.271200
609.908081	738.717590	16226.377930	5576.642090	31.237284
610.246521	729.726990	16228.606445	5574.486816	31.258774
610.584961	729.504089	16221.325195	5568.617188	31.236568
610.923340	721.405090	16199.034180	5554.574219	31.226805
611.261597	724.080017	16119.825195	5521.955078	31.163643
611.599854	731.658875	15975.233398	5485.621094	31.186665
611.938110	734.482422	15838.590820	5447.355469	31.202591
612.276245	737.231628	15604.092773	5395.195313	31.331184
612.614319	726.606384	15321.816406	5321.932129	31.485163
612.952393	724.377258	15012.715820	5247.258301	31.654350
613.290466	715.609558	14761.127930	5145.463379	31.539270
613.628479	717.689941	14519.569336	5058.231934	31.448921
613.966370	713.677673	14280.983398	4964.387207	31.330536
614.304260	714.272034	14041.875977	4884.809082	31.292477
614.642151	714.940735	13858.793945	4807.014648	31.132986
614.979980	713.826172	13678.312500	4736.872559	31.031282
615.317749	719.844727	13534.834961	4700.464355	31.062214
615.655396	720.885010	13434.601563	4682.037598	31.156527
615.993164	724.674377	13392.843750	4658.334473	31.051529
616.330811	728.018066	13366.911133	4631.733887	30.886534
616.668396	731.658875	13316.459961	4610.037598	30.817959
617.005859	732.327637	13290.750000	4595.103027	30.758446
617.343445	732.922058	13268.682617	4594.434082	30.803970
617.680908	737.157288	13259.468750	4588.638672	30.756952
618.018311	738.866211	13260.657227	4592.428223	30.774847
618.355652	735.448242	13260.211914	4602.533203	30.875513
618.692993	725.937561	13270.614258	4602.087402	30.898762
619.030273	720.141907	13264.522461	4608.774902	30.999004
619.367554	721.553711	13262.738281	4588.861816	30.836864
619.704712	724.154297	13239.555664	4577.493652	30.788780
620.041870	729.504150	13205.301758	4562.410156	30.722733
620.379028	721.405090	13150.540039	4551.858887	30.818346
620.716064	719.473145	13099.346680	4540.119141	30.861753
621.053040	721.330750	13032.473633	4519.165527	30.848759
621.389954	728.092285	12975.484375	4487.364258	30.694468
621.726929	726.903503	12925.032227	4458.683594	30.593054
622.063843	725.194580	12878.964844	4433.048828	30.507851
622.400635	721.776611	12857.863281	4413.656250	30.420675
622.737427	719.770508	12837.429688	4400.801270	30.377407
623.074219	721.033630	12793.887695	4387.129883	30.366440
623.410889	721.479492	12724.117188	4361.644043	30.328039
623.747559	720.810730	12689.790039	4349.532715	30.317722
624.084167	716.798401	12672.700195	4321.148926	30.147041
624.420715	719.398926	12682.062500	4333.186035	30.208881
624.757324	724.228699	12696.922852	4326.870605	30.090485
625.093750	724.451599	12750.272461	4337.792969	30.046524
625.430176	721.999573	12816.179688	4327.613281	29.812801
625.766602	726.457703	12880.153320	4319.737793	29.565329
626.102905	726.011902	12951.038086	4338.387695	29.549023
626.439209	717.838623	13025.192383	4366.622559	29.647186
626.775452	713.157532	13134.566406	4407.488770	29.741644
627.111694	716.946960	13228.114258	4417.371094	29.576969
627.447876	719.398926	13311.333008	4426.733398	29.442139
627.783997	723.782776	13360.668945	4435.946777	29.375624
628.120056	715.089355	13387.269531	4462.101074	29.568802
628.456055	717.912903	13362.971680	4463.958496	29.624580
628.792053	711.597168	13309.622070	4447.760254	29.656736
629.128052	713.826233	13251.890625	4391.142090	29.329216
629.463928	710.631165	13180.335938	4348.343750	29.172403
629.799744	716.203918	13071.854492	4304.579590	29.042387
630.135559	717.838562	12923.843750	4280.654297	29.189041
630.471375	721.776672	12784.079102	4244.097168	29.201063
630.807068	714.940857	12631.387695	4202.710449	29.268536
631.142700	724.451477	12506.113281	4160.877930	29.167587
631.478333	730.321472	12359.959961	4110.055176	29.061380
631.813965	730.024231	12251.179688	4073.646729	29.021591
632.149475	723.485596	12123.750977	4035.083984	29.048431
632.484924	725.343201	12025.375000	4016.508057	29.125269
632.820435	734.408020	11942.156250	3970.068604	28.869856
633.155884	733.219238	11866.961914	3934.106201	28.749426
633.491150	731.287354	11833.303711	3896.063232	28.506315
633.826477	725.789001	11749.934570	3899.109375	28.785181
634.161804	722.445313	11711.520508	3893.091064	28.852707
634.497009	718.804504	11634.171875	3883.654541	28.994444
634.832153	719.176086	11583.645508	3840.410400	28.728825
635.167297	728.463867	11513.058594	3789.587158	28.384222
635.502380	721.776672	11432.067383	3759.346436	28.361225
635.837463	716.575500	11361.257813	3724.572510	28.258213
636.172424	713.008972	11286.434570	3705.476807	28.301781
636.507324	715.237976	11198.534180	3661.043945	28.099998
636.842224	725.045898	11104.020508	3632.139893	28.009453
637.177124	721.925293	10982.833008	3591.942139	27.970398
637.511963	729.281250	10859.194336	3575.669922	28.098846
637.846741	727.349304	10721.882813	3538.741455	28.129299
638.181396	733.665039	10616.149414	3505.528076	28.048241
638.516113	737.380188	10530.627930	3477.218750	27.976812
638.850769	735.745544	10445.253906	3452.030029	27.975508
639.185303	729.281250	10352.671875	3433.974609	28.105410
639.519836	724.525818	10274.729492	3389.095703	27.900658
639.854370	719.473206	10183.632813	3358.854736	27.888178
640.188843	723.782776	10073.739258	3306.842773	27.626440
640.523254	724.748718	10016.674805	3277.195557	27.469513
640.857605	730.618652	9938.583008	3232.762939	27.173695
641.191895	721.107910	9876.168945	3218.050781	27.273909
641.526184	717.838623	9783.885742	3191.970703	27.290087
641.860413	716.426941	9749.780273	3191.896240	27.403658
642.194580	727.052185	9710.102539	3171.760498	27.214678
642.528748	727.869446	9662.697266	3160.986328	27.231827
642.862793	735.819824	9586.760742	3143.822266	27.206173
643.196838	735.002502	9535.788086	3127.030029	27.179707
643.530823	735.225403	9493.139648	3100.578125	27.008175
643.864746	734.705261	9440.829102	3066.621826	26.784784
644.198669	732.104675	9396.099609	3049.680908	26.749510
644.532532	728.240967	9358.427734	3034.597656	26.724297
644.866333	721.776611	9334.354492	3034.003174	26.847090
645.200073	725.417480	9308.125000	3020.108398	26.736214
645.533813	730.321472	9277.958008	3015.798828	26.738119
645.867554	725.045898	9263.915039	2988.678467	26.509747
646.201172	712.637390	9265.028320	2985.632080	26.577301
646.534729	711.671387	9262.725586	2969.879639	26.408535
646.868225	715.980957	9269.933594	2966.313232	26.307512
647.201782	725.863281	9253.883789	2945.954346	26.032900
647.535217	728.612488	9249.277344	2945.657227	26.019621
647.868591	727.720886	9248.682617	2950.189697	26.082369
648.201965	731.064514	9250.317383	2957.099609	26.129465
648.535278	721.405090	9235.977539	2950.932617	26.184845
648.868591	721.479431	9213.983398	2939.415283	26.116394
649.201782	726.754883	9183.742188	2916.084717	25.887823
649.534912	730.321472	9155.432617	2905.162109	25.813791
649.868103	729.355469	9130.615234	2891.787842	25.739382
650.201172	727.274963	9086.182617	2886.660889	25.833353
650.534180	734.779602	9049.179688	2873.657959	25.724987
650.867188	746.445129	9014.703125	2859.391602	25.554918
651.200134	741.912598	9017.229492	2847.948975	25.449617
651.533020	738.643311	8993.081055	2814.661377	25.150328
651.865845	728.240967	8933.788086	2791.181641	25.140806
652.198608	722.668274	8878.877930	2776.246826	25.178101
652.531433	725.417480	8860.748047	2767.702148	25.103893
652.864136	729.801453	8864.389648	2757.225342	24.923496
653.196777	857.899231	8997.911133	2856.939697	24.558203
653.529358	857.453369	8948.946289	2850.624023	24.632915
653.861938	855.001404	8893.516602	2828.853271	24.554930
654.194519	730.024231	8685.245117	2693.696533	24.684071
654.526978	727.720886	8635.165039	2659.814453	24.433855
654.859375	730.767273	8580.551758	2646.885742	24.409821
655.191833	726.754883	8525.123047	2629.201660	24.395447
655.524170	726.680603	8469.247070	2618.724854	24.436913
655.856445	718.804504	8409.062500	2604.384521	24.519075
656.188660	722.593933	8394.871094	2584.025635	24.261787
656.520874	715.758057	8361.062500	2566.638916	24.209379
656.853088	721.256531	8370.202148	2560.397461	24.044371
657.185181	716.649719	8356.232422	2565.226807	24.197359
657.517212	719.027405	8383.948242	2569.611084	24.143547
657.849243	714.346375	8417.086914	2574.440674	24.148472
658.181274	725.417480	8455.500977	2566.267578	23.814104
658.513123	723.931458	8504.465820	2576.521240	23.810574
658.844971	732.327637	8595.116211	2579.344482	23.490608
659.176819	722.073792	8692.080078	2579.493164	23.305119
659.508667	726.829285	8806.061523	2578.081543	22.913713
659.840393	723.485596	8876.203125	2584.620117	22.828394
660.172058	720.885010	8927.917969	2596.285645	22.851139
660.503662	723.559875	8941.515625	2606.316650	22.910280
660.835266	720.885010	8955.410156	2600.000732	22.819963
661.166931	720.513489	8917.664063	2598.886475	22.914951
661.498413	715.089355	8868.624023	2580.607666	22.879871
661.829773	712.860352	8761.034180	2548.954834	22.813803
662.161194	723.782898	8642.446289	2501.921143	22.455029
662.492615	723.782776	8509.073242	2461.871826	22.325294
662.823975	722.965515	8341.297852	2418.256104	22.252777
663.155212	721.999512	8213.571289	2400.052002	22.399204
663.486450	727.275085	8067.121094	2347.817139	22.078691
663.817627	732.773438	7960.347656	2325.898193	22.042316
664.148743	739.089172	7827.568848	2275.446533	21.674006
664.479858	739.980774	7729.935059	2267.496094	21.853010
664.810913	742.284180	7637.279297	2236.437500	21.670115
665.141907	733.962219	7585.416016	2218.827881	21.672274
665.472778	731.956116	7508.066895	2194.233643	21.579895
665.803711	723.485657	7470.395996	2183.979980	21.646862
666.134583	721.033630	7415.411621	2172.983154	21.689087
666.465454	719.844788	7396.390625	2165.998779	21.660213
666.796143	719.027527	7337.617188	2158.642578	21.751083
667.126831	722.593933	7331.821777	2153.590088	21.651485
667.457458	724.154297	7300.464844	2142.221436	21.563263
667.788147	722.371094	7296.081543	2125.577881	21.345736
668.118774	717.244141	7248.453125	2114.952637	21.400455
668.449219	716.798340	7240.279785	2110.123047	21.358606
668.779663	719.398926	7239.834473	2107.819580	21.293373
669.110107	721.182190	7235.302246	2094.593750	21.083609
669.440552	718.432922	7229.877441	2072.154297	20.789879
669.770874	722.519714	7202.014160	2054.395996	20.555248
670.101135	722.073792	7183.289551	2046.371216	20.496101
670.431396	725.194580	7157.135254	2032.476563	20.324846
670.761597	725.863281	7111.959473	2022.817017	20.309023
671.091797	724.080017	7069.606934	2010.854492	20.278448
671.421875	723.559875	7003.551270	1989.752563	20.162331
671.751892	722.668274	6973.533203	1973.183105	20.005470
672.081909	727.646545	6932.889160	1957.208008	19.814882
672.411865	728.018066	6904.877441	1955.499023	19.872250
672.741821	728.018066	6862.673340	1932.762329	19.638336
673.071716	734.631042	6814.599121	1913.294922	19.386019
673.401550	731.807556	6768.828613	1903.412720	19.407009
673.731262	733.739319	6746.538574	1898.954590	19.378916
674.060974	732.030457	6720.755371	1896.948608	19.451857
674.390625	729.058350	6699.356934	1884.019897	19.345121
674.720276	730.692932	6650.911621	1880.824707	19.427185
675.049927	721.999573	6617.846191	1855.338867	19.222673
675.379395	732.104736	6587.679688	1838.174927	18.889181
675.708923	720.662109	6539.828613	1803.921509	18.615370
676.038330	718.730225	6487.445313	1791.438477	18.595272
676.367737	712.711731	6442.491699	1783.191040	18.682730
676.697083	719.324646	6426.888184	1784.231323	18.657816
677.026428	723.559875	6402.442871	1784.379883	18.680084
677.355652	717.689941	6383.792969	1774.571777	18.652712
677.684875	721.033508	6388.101563	1773.234375	18.566936
678.013977	719.176025	6390.330566	1764.243774	18.427778
678.343079	725.863281	6408.609863	1757.556641	18.154837
678.672180	723.262695	6409.501465	1752.726929	18.104485
679.001221	723.188416	6473.550781	1749.606079	17.849619
679.330139	719.473206	6499.630859	1746.188110	17.762749
679.659058	725.417480	6541.685547	1740.466919	17.451902
679.987976	729.058289	6555.729004	1747.005493	17.470476
680.316772	730.247131	6605.066406	1757.259399	17.481596
680.645630	723.708496	6635.084473	1763.203613	17.584656
680.974304	721.702332	6674.390625	1757.853882	17.406448
681.302979	722.148193	6706.267090	1758.373901	17.316261
681.631653	725.045959	6755.157715	1760.008423	17.163237
681.960266	721.999512	6774.699219	1762.757690	17.194942
682.288757	723.262695	6773.138672	1761.568848	17.162437
682.617249	721.851013	6737.845215	1754.881714	17.171406
682.945679	724.823059	6715.851563	1742.473022	16.986233
683.274109	722.519592	6682.489746	1730.733276	16.916422
683.602478	725.045959	6630.105469	1714.461060	16.755379
683.930725	722.445313	6549.710449	1691.129883	16.623314
684.259033	726.011902	6450.367676	1663.415039	16.375696
684.587280	726.011902	6365.439941	1643.873413	16.275791
684.915344	734.779602	6301.836426	1631.019043	16.098982
685.243469	738.346191	6244.549316	1615.043945	15.922002
685.571533	737.157410	6189.713379	1604.195801	15.901504
685.899536	729.727051	6131.980469	1594.016113	15.998676
686.227539	729.206970	6087.101563	1586.957520	16.009098
686.555420	728.463867	6055.448730	1572.245605	15.839763
686.883301	730.321472	6039.250488	1565.112427	15.724281
687.211121	725.194519	6040.588379	1557.087891	15.650643
687.538940	719.398926	6055.597656	1550.103394	15.567345
687.866638	713.974854	6056.191895	1540.518188	15.471917
688.194336	720.736389	6044.377441	1534.054077	15.277471
688.521973	721.330811	6028.476563	1530.115845	15.239549
688.849609	727.869446	6025.355957	1523.651733	15.021885
689.177063	726.531982	5999.572754	1522.016968	15.085887
689.504578	728.166687	5932.403809	1513.472168	15.089732
689.832031	728.018066	5852.751465	1506.041870	15.181742
690.159485	722.148193	5780.380371	1487.168945	15.124270
690.486816	733.144958	5720.121094	1470.971069	14.795060
690.814087	734.482422	5644.777832	1456.407715	14.702278
691.141296	737.603088	5562.599121	1440.209595	14.561805
691.468506	731.510254	5482.946777	1419.553345	14.480739
691.795715	728.240967	5401.956543	1400.086304	14.374972
692.122803	729.875671	5345.857910	1387.677734	14.250532
692.449829	724.451477	5302.316406	1383.070923	14.387045
692.776855	724.897278	5254.613770	1376.012085	14.374295
693.103821	719.993347	5185.512207	1365.015259	14.444500
693.430664	722.891113	5121.612793	1346.811157	14.184122
693.757568	723.188293	5070.417969	1338.117676	14.145317
694.084351	725.045898	5030.962891	1327.418091	13.989406
694.411133	718.730225	4988.758789	1315.826782	13.983433
694.737854	726.383362	4961.415527	1306.018921	13.686686
695.064575	724.971680	4940.090820	1292.049927	13.453433
695.391174	734.036621	4920.549316	1294.204712	13.380303
695.717773	727.572205	4905.242676	1277.040894	13.152514
696.044250	723.262695	4912.970215	1284.991211	13.407345
696.370789	720.810730	4919.509277	1286.923218	13.483047
696.697205	716.872620	4939.273438	1289.820923	13.569254
697.023621	724.748718	4967.136719	1291.901489	13.368714
697.349915	720.959290	5023.458008	1292.124268	13.275193
697.676208	723.485596	5101.699219	1304.755737	13.276422
698.002380	715.535217	5191.382324	1312.260254	13.332114
698.328674	718.358704	5299.567383	1307.802124	12.866549
698.654724	712.934570	5407.604004	1311.665894	12.753428
698.980896	716.946960	5507.392090	1313.671997	12.456567
699.306946	709.367981	5573.373047	1329.201294	12.743271
699.632935	712.488770	5629.248535	1336.631714	12.694192
699.958862	716.129578	5641.730957	1341.832886	12.703084
700.284729	718.804504	5646.561035	1334.625488	12.496985
700.610596	721.776672	5595.068848	1317.684448	12.228033
700.936340	721.033630	5517.423340	1308.991089	12.258334
701.262146	736.785828	5412.656250	1293.684692	11.910057
701.587830	734.556641	5290.650879	1289.895142	12.188916
701.913513	734.630920	5156.683105	1259.059692	11.859398
702.239075	729.801270	5021.229492	1242.118530	11.938153
702.564697	731.064453	4890.976563	1218.564575	11.719001
702.890137	732.922058	4776.030273	1201.103394	11.579738
703.215698	728.538269	4666.730957	1178.589722	11.427868
703.541016	723.782898	4564.490234	1160.980103	11.383247
703.866455	722.668274	4484.392090	1156.670532	11.537324
704.191711	720.142029	4405.334473	1153.549683	11.760788
704.517029	730.247131	4360.900879	1149.611694	11.550662
704.842163	733.367859	4303.093262	1139.729370	11.383552
705.167419	735.671204	4267.428223	1138.986450	11.419677
705.492493	730.767273	4229.533691	1128.806885	11.376571
705.817566	724.897278	4203.081543	1115.209595	11.221726
706.142578	726.309082	4180.270996	1097.748413	10.754007
706.467590	731.956116	4158.945801	1094.404785	10.576299
706.792480	728.538147	4144.011230	1093.810303	10.694629
707.117371	728.463867	4132.865723	1102.800903	10.995677
707.442200	723.188416	4142.376465	1097.302612	10.941609
707.766907	725.863281	4149.881348	1091.209595	10.670105
708.091675	717.764343	4159.689453	1086.751587	10.720374
708.416321	713.454773	4148.395020	1085.637085	10.835191
708.741028	717.541321	4147.131836	1090.689697	10.880260
709.065552	720.736328	4169.794434	1077.761108	10.351371
709.390137	720.959290	4177.150879	1078.875610	10.355801
709.714600	715.832458	4204.643066	1079.098511	10.412318
710.039063	710.854187	4228.047852	1086.305786	10.674749
710.363403	716.649719	4266.982422	1089.946655	10.514421
710.687744	717.987244	4309.260254	1090.541016	10.373864
711.012085	725.120300	4353.693359	1088.460571	10.013310
711.336304	722.668274	4392.851074	1081.104614	9.766171
711.660461	730.693054	4418.262207	1077.315186	9.399746
711.984619	732.327637	4435.426270	1081.401855	9.426544
712.308716	736.265625	4452.144531	1083.630737	9.348128
712.632751	731.138855	4451.847656	1085.488403	9.523711
712.956726	735.894104	4416.405273	1077.537964	9.282511
713.280701	731.213074	4382.820313	1068.770264	9.244072
713.604553	734.482422	4335.860840	1058.962280	9.009879
713.928467	728.538147	4287.712402	1062.157349	9.373500
714.252258	727.572266	4221.731934	1056.881836	9.424571
714.575989	719.027405	4162.513184	1049.005859	9.582686
714.899719	720.885010	4115.182129	1035.036987	9.255288
715.223267	721.330811	4087.690186	1032.956421	9.257051
715.546936	724.897278	4077.436279	1028.275269	9.049201
715.870422	725.640381	4053.956299	1018.987488	8.813680
716.193970	729.727051	4034.117920	1015.495300	8.648137
716.517395	730.172852	4006.699951	1018.021484	8.785174
716.840820	734.779602	3978.167725	1021.439453	8.838284
717.164124	733.442139	3936.557861	1016.684143	8.842703
717.487488	727.795166	3893.165283	1002.269470	8.671160
717.810730	727.052063	3860.249268	989.712219	8.383135
718.133972	730.990173	3808.534424	982.876465	8.184652
718.457092	739.534973	3754.739502	971.953857	7.708230
718.780212	738.197571	3693.365234	973.811462	7.972945
719.103210	728.538147	3653.018799	968.981750	8.221754
719.426208	717.467102	3607.025391	970.467773	8.755687
719.749207	707.510559	3586.740967	958.356445	8.712255
720.072083	717.764343	3550.927002	955.830261	8.402833
720.394958	725.491882	3506.196533	955.012878	8.254059
720.717773	728.835449	3441.033203	955.533020	8.358445
721.040527	722.816895	3397.863281	942.975830	8.230098
721.363281	723.857117	3369.925537	939.186462	8.137709
721.685913	727.423645	3346.000000	934.356750	7.902504
722.008545	728.018066	3314.124023	935.619873	8.027583
722.331055	726.903503	3286.929443	931.087402	7.975853
722.653503	724.971680	3257.951172	930.938782	8.131416
722.976013	725.566101	3249.852539	930.864502	8.132928
723.298401	728.241028	3238.929688	927.446594	7.934299
723.620789	726.086182	3230.162109	922.319641	7.836562
723.943115	719.844727	3206.236328	921.353760	8.104477
724.265381	724.154297	3182.831299	924.251526	8.138411
724.587585	721.479431	3189.889893	915.335266	7.853468
724.909790	733.665039	3196.874756	905.304382	6.968117
725.231873	733.367859	3202.670654	897.576904	6.650017
725.553894	737.008728	3195.834717	908.425049	6.971470
725.875916	768.661682	3217.902344	953.452454	7.544819
726.197937	761.974426	3239.227295	952.338074	7.684465
726.519775	765.020813	3243.387939	947.285400	7.354220
726.841675	722.222412	3225.852539	900.251770	7.110849
727.163513	720.290527	3227.710205	906.344543	7.420139
727.485291	716.724060	3247.697998	907.681946	7.544838
727.806946	718.061462	3280.390869	911.248535	7.539510
728.128662	721.033630	3307.065674	903.000977	7.036547
728.450256	724.748718	3330.470703	903.521057	6.860760
728.771790	729.727051	3334.186279	895.793640	6.376241
729.093323	723.559875	3326.830078	904.189880	6.938581
729.414795	721.107910	3316.130615	902.480896	6.989264
729.736145	715.683777	3311.078125	913.180481	7.609507
730.057495	720.439209	3317.468018	906.418945	7.161251
730.378845	719.250427	3323.114990	903.149597	7.062548
730.700134	714.272156	3319.102539	895.199219	6.945829
731.021301	719.176086	3317.393555	898.245605	6.892014
731.342468	724.674500	3314.644531	894.901917	6.572563
731.663574	737.603088	3332.402588	899.657410	6.245350
731.984680	731.881775	3347.188721	888.066101	5.971931
732.305664	730.544250	3357.888672	888.214661	6.001132
732.626648	729.949890	3357.443115	893.118652	6.210055
732.947571	736.042786	3363.758545	894.530457	6.031385
733.268433	735.745605	3353.207764	895.719238	6.111784
733.589233	735.819824	3335.151611	885.911316	5.774234
733.909973	734.779602	3319.994141	892.375671	6.096054
734.230713	736.860107	3308.923096	892.450012	6.049226
734.551331	726.754944	3278.607422	888.289063	6.330072
734.871948	717.467102	3233.877686	881.750427	6.528479
735.192505	713.751953	3176.813232	873.948669	6.503968
735.513062	720.885010	3146.051514	877.292236	6.449340
735.833435	731.213135	3088.987061	871.496582	5.949826
736.153931	738.420471	3058.002930	867.558594	5.567300
736.474304	736.637207	3001.681641	863.992004	5.622618
736.794617	728.389587	2982.436768	866.518372	6.128035
737.114807	722.073792	2954.127686	869.341797	6.597869
737.434998	728.092346	2942.684814	862.728821	6.079515
737.755188	729.578430	2935.552002	848.685730	5.399308
738.075256	725.714661	2941.347656	843.930359	5.335527
738.395325	720.810730	2971.811768	838.134705	5.212080
738.715271	721.553711	2992.022217	844.153137	5.399741
739.035278	724.897400	3010.597656	849.280090	5.441776
739.355164	719.844727	3020.702881	859.310974	6.061488
739.675049	723.188416	3026.052734	861.168518	5.991673
739.994873	721.627991	3021.297119	852.920898	5.709208
740.314636	719.621887	3006.510742	844.004578	5.438948
740.634277	719.993408	2990.535889	839.843567	5.278481
740.953979	721.330872	2961.334961	843.930237	5.473176
741.273499	731.064453	2925.000977	844.301758	5.161376
741.593140	720.736389	2894.759766	845.490662	5.738405
741.912598	717.318420	2862.809570	839.397888	5.690047
742.232117	719.547546	2828.035889	839.174988	5.673612
742.551453	727.275085	2777.584229	840.363770	5.515689
742.870850	733.293640	2745.708252	839.620667	5.283555
743.190063	729.950012	2716.284424	829.738525	5.023752
743.509338	730.470032	2693.250732	826.469177	4.890976
743.828552	726.829163	2677.646973	822.456787	4.901925
744.147705	724.897278	2661.226074	827.509338	5.299310
744.466797	722.296692	2632.099609	823.719910	5.310664
744.785828	724.080017	2606.836670	825.874756	5.406686
745.104858	723.262634	2580.533447	820.970764	5.260845
745.423706	725.863281	2572.583252	821.713867	5.190315
745.742615	728.538147	2561.363525	822.531189	5.128314
746.061401	732.476257	2561.735107	824.685974	5.040824
746.380249	730.915833	2546.205811	820.822205	4.952728
746.698975	723.708496	2533.574219	813.614807	4.967568
747.017639	719.324646	2514.032471	810.494141	5.079907
747.336304	711.745789	2510.986084	812.723145	5.612222
747.654907	709.739563	2503.184326	820.970886	6.202105
747.973389	716.426819	2502.812744	814.060730	5.465443
748.291931	729.578430	2508.088135	805.664368	4.278072
748.610352	737.157410	2516.484375	790.803894	3.014987
748.928711	735.968445	2526.738281	797.937012	3.460443
749.247070	725.937561	2524.360596	802.692383	4.267896
749.565308	714.717834	2517.673584	805.515808	5.036062
749.883545	712.191589	2506.379639	808.562256	5.371269
750.201782	715.312317	2501.772705	809.156677	5.253089
750.519836	722.891174	2502.590088	811.905945	5.001676
750.837952	724.748779	2494.119629	799.868835	4.245580
751.155884	727.200684	2471.457275	792.289856	3.731628
751.473877	730.247131	2457.116943	791.026794	3.519644
751.791809	724.600098	2443.147705	794.147461	4.046869
752.109619	727.497986	2432.299561	801.800598	4.358432
752.427490	722.296692	2413.129639	800.388855	4.618562
752.745300	728.835388	2405.550537	797.565430	4.099089
753.062988	729.801270	2411.791992	788.203308	3.472198
753.380615	733.293518	2413.426514	783.373596	2.980721
753.698303	727.572205	2415.581299	784.488098	3.371777
754.015808	725.491699	2410.157471	785.974182	3.590177
754.333374	724.748718	2403.693115	791.546875	3.978581
754.650757	722.519714	2401.835449	794.964844	4.313967
754.968262	722.371094	2401.760986	800.686096	4.663301
755.285583	721.033691	2393.588135	793.924561	4.358057
755.602905	726.160461	2377.835938	794.741882	4.152233
755.920105	722.222473	2359.928711	785.825500	3.883665
756.237305	722.593994	2361.935059	789.763672	4.097358
756.554443	724.377197	2355.247803	784.859619	3.708597
756.871582	725.417480	2360.968994	790.358093	3.970564
757.188599	725.937561	2356.510742	787.831726	3.795853
757.505615	722.593994	2360.894531	787.460266	3.959363
757.822510	721.628113	2371.222656	783.150635	3.729554
758.139465	719.101746	2379.544678	789.912170	4.264551
758.456238	724.451477	2395.445313	789.912170	3.917470
758.773010	732.327637	2400.943604	791.621155	3.553455
759.089783	731.658936	2425.166504	786.197083	3.220425
759.406433	724.748718	2453.550293	792.512878	3.919719
759.723145	723.039795	2465.512939	795.782043	4.174655
760.039673	732.550537	2470.788574	792.067078	3.423958
760.356201	730.544373	2453.476074	782.259094	3.001554
760.672668	732.476257	2455.333496	775.943359	2.522966
760.989136	726.457703	2451.097900	776.983582	2.929648
761.305481	723.262695	2456.076416	780.772949	3.318894
761.621826	719.844727	2453.550049	785.454041	3.784341
761.938049	725.491699	2462.540771	787.906067	3.593126
762.254333	734.185242	2485.723389	788.574768	3.105244
762.570496	732.030457	2531.419678	789.540710	3.196099
762.886597	735.522644	2611.146240	789.094910	2.856238
763.202637	741.095276	2735.008789	789.169189	2.411033
763.518677	742.284180	2876.630127	794.816223	2.461271
763.834656	739.906494	3025.755615	799.125793	2.590692
764.150574	736.785828	3140.181641	804.847107	2.831880
764.466370	741.689758	3206.533936	802.840881	2.480932
764.782288	735.894226	3229.196045	805.738770	2.801287
765.097961	732.624817	3205.642334	804.475586	2.905389
765.413696	730.990234	3156.602539	806.035889	3.093885
765.729309	731.956116	3058.597412	804.104004	3.100946
766.044861	725.937561	2940.901611	801.949280	3.431736
766.360474	721.850891	2814.364258	792.141296	3.359138
766.675903	724.897278	2689.906982	788.277588	3.225445
766.991394	735.374023	2575.183838	789.689392	2.952227
767.306763	737.751648	2483.048096	791.844055	3.099325
767.622131	730.544373	2411.346191	783.002136	3.120996
767.937378	726.383362	2353.761719	776.612061	3.086479
768.252625	728.909668	2307.694092	778.915344	3.167353
768.567810	732.476257	2260.065674	778.543884	3.015707
768.882996	734.853943	2213.849609	776.983582	2.848530
769.197998	733.367859	2180.636475	764.054871	2.120340
769.513062	735.002502	2154.853271	770.965027	2.532838
769.828064	729.875671	2131.076172	772.525391	3.043799
770.142944	731.213135	2107.522217	781.887512	3.681904
770.457825	726.977844	2073.491699	774.605896	3.537138
770.772705	722.296692	2054.990234	769.850525	3.568249
771.087402	719.176025	2016.278687	768.290100	3.786445
771.402100	725.714661	1992.798950	774.531555	3.852695
771.716736	732.030457	1962.037598	774.977356	3.491598
772.031372	731.807434	1963.969360	769.404724	3.051327
772.345947	727.126465	1956.687866	760.265442	2.695187
772.660461	727.275085	1953.492798	764.872253	3.066108
772.974854	729.206848	1926.892578	766.061035	3.077116
773.289246	733.070618	1915.226929	768.587402	3.004407
773.603638	730.990173	1890.186890	761.008484	2.589578
773.917908	724.600098	1884.317017	761.082764	3.145825
774.232178	721.182129	1864.552612	762.717468	3.632710
774.546265	727.646545	1863.512329	761.380066	2.969851
774.860474	725.120300	1844.936523	758.556458	2.985861
775.174561	728.389587	1838.174927	751.126282	2.048747
775.488586	729.132568	1832.602173	749.714539	1.865205
775.802551	729.578369	1808.973999	750.828918	1.968745
776.116516	725.714661	1789.209473	754.767029	2.731783
776.430359	715.386536	1762.906372	752.612305	3.553706
776.744202	717.615662	1764.095215	754.395508	3.514627
777.057922	714.940735	1762.980591	748.302734	3.183276
777.371704	718.433044	1755.550415	753.058105	3.338586
777.685303	717.690002	1749.903320	745.702148	2.713794
777.998962	721.330811	1741.655884	749.342957	2.745414
778.312500	720.587830	1745.073730	751.720642	3.038872
778.626038	728.463867	1741.655884	752.686523	2.390727
778.939453	732.327637	1741.730103	752.166443	1.965401
779.252869	732.773438	1738.535034	747.633972	1.477540
779.566223	726.903503	1740.244141	745.181946	1.803781
779.879578	719.027405	1734.968750	745.404846	2.596355
780.192749	723.262695	1721.519897	747.485352	2.426495
780.505920	719.101746	1713.272095	757.144714	3.826605
780.819031	719.473206	1701.234985	756.104492	3.731179
781.132141	724.302979	1712.528931	755.955872	3.203001
781.445190	732.253357	1708.368164	748.971436	1.712716
781.758118	735.151184	1701.755249	755.658691	2.121604
782.071045	729.727051	1679.538696	751.126221	2.252991
782.383911	728.686768	1666.535645	756.253113	2.939316
782.696838	726.754944	1669.359253	754.692688	2.963889
783.009583	725.045959	1666.089844	768.810242	4.650610
783.322266	719.621826	1659.848633	766.283936	4.962857
783.634888	717.318420	1638.375000	763.311829	4.993548
783.947510	714.717834	1625.223511	749.788757	3.851807
784.260132	715.237976	1621.508423	745.999268	3.394273
784.572571	712.265869	1609.619751	742.952881	3.419722
784.885010	715.312256	1605.533203	750.606018	3.964607
785.197449	721.776611	1585.991577	754.692688	3.808784
785.509766	733.962219	1583.093750	757.441895	2.765140
785.822083	728.909668	1575.515015	750.308838	2.527644
786.134277	726.977783	1572.839966	744.736145	2.099439
786.446533	720.884949	1571.056641	744.141785	2.735546
786.758606	724.971680	1561.397461	743.472961	2.211946
787.070740	726.606262	1571.056763	740.798096	1.680600
787.382690	726.011902	1574.846313	739.534973	1.593134
787.694641	722.371033	1590.746948	739.163513	1.933780
788.006653	717.467102	1608.059570	742.209900	2.778240
788.318481	721.107910	1639.712524	741.912659	2.264821
788.630310	720.216309	1681.396362	743.547363	2.427335
788.942017	715.906738	1709.259766	743.473083	2.775080
789.253784	715.089355	1716.095703	742.952881	2.783551
789.565430	724.971680	1701.978149	744.438965	1.992544
789.877014	735.374023	1678.944336	742.878601	0.795338
790.188538	738.271790	1664.306641	737.677429	-0.064183
790.500061	737.974609	1644.541992	736.562805	-0.155731
790.811462	738.940613	1629.384277	738.940613	0.000000
791.122925	743.324402	1600.926392	750.383240	0.823090
791.434204	740.129395	1587.031860	755.435730	1.807332
791.745483	735.671204	1567.341675	759.150879	2.823195
792.056702	728.463867	1560.877319	756.921814	3.418727
792.367920	725.863281	1532.419312	749.194336	2.892676
792.678955	721.330811	1520.010742	750.680359	3.674757
792.990112	722.296692	1512.654785	745.479187	2.933163
793.301086	724.228577	1512.506226	746.965271	2.884351
793.612122	730.544250	1498.834473	738.717590	1.063835
793.922974	722.222412	1485.311401	740.649597	2.414815
794.233826	720.216309	1477.583984	742.581360	2.952998
794.544556	719.770508	1471.639648	748.599915	3.834365
794.855286	722.371094	1468.890503	752.240723	4.001186
795.166016	717.467041	1471.713989	755.658691	5.063547
795.476624	717.689941	1483.528198	753.429626	4.666740
795.787292	726.829163	1494.970703	753.801086	3.511322
796.097778	728.686768	1515.255371	748.228455	2.484422
796.408264	721.033630	1543.044556	749.565857	3.471028
796.718689	719.770508	1557.087769	738.494812	2.236226
797.029053	727.126465	1567.490234	733.590759	0.769226
797.339355	735.596985	1553.744141	735.002441	-0.072669
797.649658	734.928223	1546.388306	741.095276	0.759995
797.959839	731.807556	1526.995239	748.822815	2.139779
798.270020	731.584656	1510.351563	737.677429	0.782362
798.580078	727.869446	1499.726196	736.265625	1.087790
798.890137	730.098572	1487.912109	730.692932	0.078431
799.200195	724.674500	1478.921387	739.980774	2.029345
799.510071	724.228577	1459.676880	743.918884	2.677320
799.820007	717.987122	1450.611938	741.095398	3.154176
800.129883	719.324646	1439.169312	735.002502	2.177950
800.439575	719.696106	1444.296265	731.213074	1.589424
800.749329	722.965515	1443.701782	728.463867	0.762880
801.058960	727.349365	1444.593628	737.974609	1.481398
801.368591	727.274963	1441.621460	742.432800	2.121917
801.678162	728.315247	1434.488281	745.627869	2.451612
801.987671	726.977783	1432.779297	738.791992	1.673871
802.297119	721.107910	1423.045532	729.504089	1.196143
802.606506	717.838562	1413.609253	734.185242	2.349435
802.915894	713.528992	1397.559937	736.117126	3.302209
803.225159	728.166687	1391.467163	740.129395	1.803513
803.534424	736.562927	1390.426758	737.454529	0.136359
803.843628	745.479248	1389.906738	732.104736	-2.075410
804.152771	735.448303	1380.618774	732.624817	-0.437634
804.461792	721.850891	1370.216431	737.825989	2.463903
804.770874	717.541321	1375.714844	738.123230	3.127125
805.079773	719.398926	1393.399048	743.472961	3.571815
805.388733	727.943665	1412.271973	740.798096	1.878401
805.697571	727.795105	1425.423462	741.466797	1.959739
806.006470	728.761047	1423.565918	735.076843	0.909003
806.315125	728.983948	1425.349121	733.739441	0.682902
806.623901	726.606262	1414.352173	736.562927	1.447724
806.932495	724.822998	1407.516479	730.767273	0.870709
807.241150	727.052185	1401.275024	731.287415	0.628165
807.549622	728.612488	1404.024292	726.903503	-0.253029
807.858154	728.983948	1397.188354	732.847717	0.578232
808.166565	727.943787	1393.770386	726.903503	-0.156239
808.474915	728.538269	1378.984009	729.429871	0.137075
808.783264	736.414246	1376.829468	732.476257	-0.614912
809.091492	732.550537	1361.003052	735.002502	0.390159
809.399719	733.739319	1353.052612	729.652649	-0.659871
809.707825	730.692932	1347.702759	730.024231	-0.108378
810.015930	725.491699	1346.365234	734.631042	1.472014
810.323975	721.999512	1341.015503	741.169617	3.096868
810.632080	713.751953	1334.625488	737.008728	3.745815
810.939880	721.182190	1329.201416	728.166687	1.148730
811.247864	732.624817	1326.600708	727.275085	-0.900665
811.555664	733.070740	1324.817505	725.194519	-1.331012
811.863464	727.646545	1315.826782	731.881775	0.720056
812.171143	718.210144	1307.653687	732.104736	2.357239
812.478882	721.999512	1293.090210	734.928223	2.263863
812.786438	722.965515	1290.266846	733.962219	1.938424
813.094055	721.702332	1294.279175	730.395752	1.518298
813.401489	712.711731	1294.502075	730.024231	2.975728
813.708984	714.123474	1297.176880	730.172852	2.752643
814.016357	718.061523	1283.653809	733.590820	2.745670
814.323730	725.789001	1287.220337	732.996277	1.283732
814.630981	725.194580	1274.737427	728.612488	0.621955
814.938232	722.742615	1281.276245	727.052063	0.771565
815.245361	722.445374	1267.753052	724.748779	0.422405
815.552490	718.433044	1281.201782	723.262695	0.858195
815.859619	718.655945	1281.424683	729.355530	1.901240
816.166565	727.497986	1293.164551	730.544373	0.538548
816.473572	731.584534	1281.870605	735.819824	0.769652
816.780457	726.829285	1286.774414	732.030457	0.928872
817.087341	718.953125	1286.625854	730.098572	1.963358
817.394043	724.080078	1297.474121	725.120300	0.181415
817.700806	723.485657	1305.052979	727.349365	0.664361
818.007507	726.532043	1316.495605	726.309082	-0.037792
818.314209	723.782898	1326.006226	733.739319	1.653277
818.620667	726.903503	1326.526367	734.333801	1.239162
818.927246	727.126465	1334.328247	739.683594	2.068032
819.233704	726.754944	1346.216675	739.980774	2.135052
819.540161	731.138855	1382.401978	740.649597	1.460353
819.846497	729.429871	1421.633911	742.284180	1.857012
820.152832	728.835449	1480.110352	748.897156	2.670355
820.458984	728.240967	1535.391602	739.237793	1.362426
820.765259	722.593933	1597.211304	738.643372	1.835024
821.071350	720.364807	1687.191895	728.761047	0.868432
821.377502	713.454773	1844.639282	733.813721	1.799790
821.683472	716.946960	2144.673584	738.494812	1.509242
821.989441	714.197754	2659.443115	739.757996	1.313985
822.295349	717.467102	3376.315674	745.925110	1.070313
822.601196	724.748718	4171.652344	754.767090	0.870879
822.907043	733.813660	4845.949219	768.438782	0.842023
823.212769	733.145020	5235.815430	772.896912	0.882851
823.518494	724.674500	5296.446777	770.221985	0.996276
823.824097	720.216309	5065.736816	766.432556	1.063538
824.129700	719.993347	4701.355957	758.927979	0.977922
824.435242	727.720886	4320.183105	753.949707	0.730107
824.740723	734.333801	3988.792969	753.132385	0.577625
825.046082	738.494690	3683.854736	758.333557	0.673563
825.351501	726.457764	3363.461670	759.225281	1.242604
825.656799	723.634277	3038.906982	758.259277	1.495504
825.962036	716.649841	2743.776611	750.829041	1.686091
826.267212	727.423645	2531.567871	742.061279	0.811334
826.572449	730.098572	2424.497559	738.197571	0.477987
826.877502	725.194580	2434.751465	740.426575	0.890991
827.182495	717.095520	2540.707275	742.655762	1.401627
827.487488	707.287598	2679.876221	744.141785	1.868316
827.792419	720.439209	2798.612061	744.438965	1.154849
828.097290	717.021301	2824.766602	742.655762	1.216203
828.402100	720.662109	2752.247070	736.934387	0.800965
828.706848	724.377197	2608.917236	740.946777	0.879237
829.011597	730.470032	2442.850586	739.089172	0.503343
829.316223	734.556641	2290.009766	734.110901	-0.028657
829.620789	724.451477	2150.172119	725.863281	0.099024
829.925354	725.789001	2013.380859	730.321472	0.352011
830.229797	720.736328	1890.112671	738.717590	1.537680
830.534302	721.850891	1746.931274	743.027161	2.065816
830.838562	722.371094	1629.087280	730.024231	0.844050
831.142944	720.216309	1526.103516	725.268860	0.626955
831.447144	722.073792	1458.265137	722.371033	0.040376
831.751404	721.925232	1405.658813	730.470032	1.249727
832.055542	726.309082	1370.959473	738.791931	1.936375
832.359619	720.439148	1357.659302	744.067383	3.708018
832.663635	714.792175	1369.919312	747.039551	4.922308
832.967651	720.587830	1399.268921	744.067383	3.459586
833.271545	730.395752	1466.512695	736.488586	0.827699
833.575439	735.819824	1558.871094	735.448303	-0.045139
833.879211	725.045959	1690.684082	732.922058	0.815637
834.183044	718.210144	1810.014282	735.448303	1.578869
834.486694	707.956360	1907.870972	735.968445	2.334507
834.790344	715.237976	1942.347290	732.996338	1.447170
835.093933	714.346375	1931.796265	732.104675	1.458647
835.397522	717.021301	1888.849487	730.841553	1.179375
835.700928	721.256531	1820.416626	733.888000	1.149193
836.004395	727.423645	1760.900269	739.980774	1.215038
836.307739	736.340027	1673.668945	739.906555	0.380499
836.611023	727.200684	1602.635376	740.500977	1.519279
836.914307	725.343201	1516.295776	733.888000	1.080318
837.217529	720.736389	1456.407593	737.825989	2.322994
837.520691	724.377258	1389.089478	734.259521	1.486698
837.823730	723.262695	1330.761841	731.436035	1.345408
838.126831	726.086243	1281.424805	725.268860	-0.147186
838.429749	727.720886	1242.936035	727.497986	-0.043264
838.732727	725.937561	1211.505859	735.002625	1.866898
839.035522	730.470032	1186.242920	737.083008	1.450937
839.338379	734.779602	1169.896240	731.807556	-0.683046
839.641113	738.420410	1177.623779	722.742493	-3.569626
839.943848	741.318298	1200.583374	718.804504	-4.902135
840.246460	731.658936	1226.886597	726.011902	-1.140290
840.549072	723.782898	1253.709839	727.572205	0.715062
840.851563	713.751953	1267.455811	736.340027	4.079450
841.154053	720.885071	1279.195679	728.686829	1.397387
841.456482	724.377258	1262.923340	727.423645	0.565669
841.758850	728.984070	1241.747070	723.188293	-1.130303
842.061157	724.005676	1219.084839	718.432922	-1.125629
842.363403	725.640381	1197.834106	716.872620	-1.856814
842.665588	719.027527	1173.685913	712.860291	-1.356455
842.967712	721.107910	1154.144165	721.628113	0.120129
843.269775	723.559875	1130.738647	722.519714	-0.255456
843.571777	726.829285	1108.670776	723.634216	-0.836753
843.873840	728.240967	1080.435913	723.262695	-1.413499
844.175659	725.789001	1064.163574	722.371094	-1.010096
844.477600	727.720886	1046.999756	729.652649	0.605039
844.779297	730.692932	1034.442505	728.835388	-0.611538
845.081116	728.612488	1020.919434	733.219238	1.575998
845.382751	726.234802	1013.191895	726.903503	0.233032
845.684387	718.878845	1015.198059	724.674377	1.955841
845.985962	719.027405	1005.984558	716.798340	-0.776794
846.287537	724.748718	1000.560364	719.250305	-1.993539
846.588989	725.714661	990.381042	721.702332	-1.515995
846.890381	733.442139	995.284973	737.751709	1.645862
847.191711	725.045898	998.257141	737.528809	4.568959
847.493042	729.801270	985.922852	737.305908	2.930108
847.794250	724.525879	976.263489	725.194519	0.265610
848.095459	727.572266	967.198486	722.891113	-1.953523
848.396606	725.937561	965.341003	727.200745	0.527638
848.697693	725.640442	962.888977	733.144836	3.163094
848.998657	729.504089	959.099426	737.083008	3.300990
849.299622	731.064453	958.133606	733.219238	0.948955
849.600464	736.117126	958.282227	735.968506	-0.066896
849.901367	732.104736	957.985046	730.990234	-0.493404
850.202087	725.566101	955.978760	730.247131	2.031585
850.502808	716.129578	953.675476	725.566101	3.972505
850.803467	715.386658	951.743591	722.222473	2.892158
851.104065	718.804504	956.721863	726.309082	3.154279
851.404663	727.720886	953.303894	730.024231	1.021063
851.705139	728.761047	958.430847	736.934387	3.558735
852.005615	732.773438	952.709473	739.089172	2.871624
852.306030	733.665039	957.241943	734.185120	0.232618
852.606384	734.556641	957.019043	728.984070	-2.504950
852.906616	730.024231	959.025208	724.971680	-2.206345
853.206909	729.504089	956.498962	726.011902	-1.538443
853.506958	730.767273	944.833435	728.835388	-0.902471
853.807129	726.234863	944.981995	728.315247	0.951045
854.107178	721.182190	943.718933	734.110840	5.809670
854.407166	722.668274	943.347351	734.556702	5.387202
854.707092	733.665039	942.232910	732.847717	-0.391873
855.007019	725.491699	931.607605	728.240967	1.333845
855.306763	728.240967	941.564148	730.098450	0.870737
855.606567	722.445313	937.848938	727.200684	2.207656
855.906250	726.977844	943.124512	723.708496	-1.512560
856.205933	726.829285	934.282410	726.977783	0.071582
856.505493	729.578430	936.585754	729.206848	-0.179502
856.805054	727.869446	939.632263	728.835449	0.456172
857.104492	728.983948	945.799316	721.479431	-3.461247
857.403931	727.943787	944.981995	722.148132	-2.670338
857.703308	742.804260	939.037781	727.869446	-7.610735
858.002563	737.008728	933.836609	731.584656	-2.755744
858.301819	735.745605	935.991394	734.036621	-0.853443
858.601013	728.686768	939.929443	725.863281	-1.336608
858.900208	727.497986	943.124329	729.281250	0.827016
859.199219	728.389465	943.644531	726.011902	-1.104533
859.498291	727.126465	949.291565	733.590759	2.909680
859.797302	729.281250	955.087219	728.909668	-0.164558
860.096191	726.680664	945.130615	731.658875	2.278879
860.395020	723.114075	938.369080	731.361633	3.831529
860.693787	723.708496	927.297913	734.482422	5.291987
860.992554	724.228699	930.864502	727.052063	1.366348
861.291260	728.018066	925.143127	721.405090	-3.354711
861.589844	715.237976	923.731384	718.432922	1.532397
861.888428	712.711731	921.502380	723.485535	5.160099
862.186890	718.655945	923.062683	728.092346	4.616483
862.485413	729.652649	919.719055	726.234863	-1.798206
862.783813	735.671204	919.496155	727.646545	-4.365380
863.082153	726.829163	926.480652	727.795166	0.483845
863.380371	728.538147	932.499207	725.045898	-1.712213
863.678589	718.358704	933.242188	725.640381	3.388663
863.976746	714.569275	927.372314	724.525879	4.678789
864.274902	712.414551	933.093506	731.064453	8.451147
864.572937	718.953125	929.378418	728.389648	4.484500
864.870911	716.203918	934.356689	732.401917	7.425071
865.168884	718.061523	935.099792	724.600098	3.012637
865.466736	714.717834	946.839600	727.720886	5.601824
865.764587	724.674500	941.935608	724.005676	-0.307843
866.062317	724.080017	935.396973	730.247070	2.918390
866.360107	728.835449	934.876770	731.584534	1.334239
866.657715	729.281250	936.883057	731.435974	1.037912
866.955322	726.309082	939.780823	732.104675	2.714923
867.252808	724.600098	937.105957	733.739319	4.300692
867.550293	720.364929	938.369080	730.544250	4.669324
867.847717	729.281250	935.471252	727.869446	-0.684710
868.145081	731.213074	930.270020	724.971680	-3.135482
868.442383	732.996338	935.174011	730.767273	-1.102528
868.739624	723.485596	937.848938	726.977844	1.629126
869.036804	722.668213	941.935547	725.937561	1.491033
869.333984	723.708496	936.511475	724.377258	0.314264
869.631042	725.120300	940.226563	735.299805	4.732314
869.928101	718.507324	945.799316	725.640381	3.138279
870.224976	722.668274	949.663086	723.857117	0.523731
870.521851	725.045898	942.307068	715.386536	-4.445968
870.818726	732.253357	936.362854	721.850891	-5.096512
871.115479	727.052063	936.288574	721.553711	-2.627817
871.412231	732.699158	943.941833	730.618652	-0.984889
871.708862	730.470032	941.712708	734.259460	1.793875
872.005493	731.138855	943.050110	737.751709	3.120577
872.302063	724.748779	942.455627	725.640320	0.409514
872.598572	726.531982	943.198730	718.581604	-3.669404
872.895020	730.692932	944.090332	717.838562	-6.023677
873.191406	734.259460	940.672546	721.925293	-5.975478
873.487671	732.179016	944.833313	728.909668	-1.537400
873.783997	735.151184	942.678650	727.200684	-3.831059
874.080200	736.414307	945.725037	731.510254	-2.342953
874.376343	734.408142	954.344177	726.234680	-3.716290
874.672424	730.024231	953.155273	724.823059	-2.330994
874.968445	720.141907	958.728027	720.662109	0.218036
875.264465	721.999512	960.065430	727.646545	2.372046
875.560364	722.742615	967.049988	735.076843	5.048652
875.856201	732.401917	964.375061	735.745544	1.441386
876.152039	735.671204	949.143066	737.751709	0.974604
876.447754	733.888000	950.777649	729.132629	-2.192530
876.743469	731.956116	952.932434	727.795166	-1.882984
877.039063	734.482422	962.888977	723.782898	-4.684421
877.334595	731.956238	954.344055	725.045959	-3.107310
877.630127	727.052063	945.427795	725.194580	-0.850590
877.925537	721.702332	946.393738	724.377258	1.190489
878.221008	721.999512	959.916809	725.268860	1.374153
878.516296	721.256531	974.108643	725.120300	1.528075
878.811646	718.655945	981.984802	717.987244	-0.253941
879.106812	719.919006	981.613281	717.541321	-0.908574
879.401978	722.371033	991.718445	714.717834	-2.841385
879.697083	727.795105	1010.665527	723.559875	-1.497233
879.992126	727.572266	1044.176147	728.686829	0.352037
880.287109	729.132568	1081.699097	736.637207	2.128574
880.582031	727.497864	1141.141235	739.163391	2.820190
880.876892	726.829285	1255.641602	737.083008	1.939010
881.171753	726.457703	1465.695679	738.494690	1.628297
881.466492	733.293640	1784.157227	741.689758	0.798973
881.761230	736.711487	2160.574707	743.993164	0.511403
882.055786	731.807556	2526.812744	730.990173	-0.045537
882.350403	717.318420	2775.057861	727.126465	0.476642
882.644958	717.689941	2875.738281	719.919128	0.103296
882.939453	729.504089	2826.475342	730.767273	0.060238
883.233826	735.299744	2706.847900	733.962219	-0.067841
883.528137	733.145020	2567.381836	741.987000	0.482052
883.822449	730.024231	2455.630615	738.048889	0.465034
884.116577	725.714661	2333.699707	726.680603	0.060072
884.410828	727.497986	2222.468506	722.668274	-0.323064
884.704956	718.804504	2075.720703	724.748718	0.438068
884.999023	721.107910	1916.044312	728.909668	0.652902
885.292969	721.553711	1722.411499	730.321472	0.876025
885.586914	722.965515	1553.001099	736.785828	1.665027
885.880798	722.593994	1423.491333	737.528809	2.130813
886.174622	718.655945	1331.133179	734.482422	2.584011
886.468384	715.386536	1251.034912	729.726990	2.677214
886.762085	718.135803	1192.187134	730.841492	2.680235
887.055664	712.711670	1156.521851	725.417419	2.862879
887.349304	712.563171	1128.138184	723.188416	2.556757
887.642822	714.717834	1108.447998	716.203918	0.377437
887.936340	717.318420	1080.881714	722.965393	1.553230
888.229736	720.364929	1057.550659	722.445313	0.616984
888.523071	716.203918	1037.711792	726.234802	3.119950
888.816284	714.494934	1023.742920	730.395752	5.141769
889.109619	719.844788	1019.359070	729.652649	3.274589
889.402710	726.309082	1012.448914	730.395752	1.428207
889.695862	732.550598	998.479980	724.897400	-2.877906
889.988892	735.968445	989.860840	732.476257	-1.375460
890.281921	743.175720	986.145691	746.742310	1.467914
>>>>>End Processed Spectral Data<<<<<
