Jaz Data File
++++++++++++++++++++++++++++++++++++
Date: Fri Jun 04 15:59:30 2021
User: jaz
Dark Spectrum Present: Yes
Reference Spectrum Present: Yes
Processed Spectrum Present: Yes
Spectrometers: JAZA3586
Integration Time (usec): 24700 (JAZA3586)
Spectra Averaged: 10 (JAZA3586)
Boxcar Smoothing: 1 (JAZA3586)
Correct for Electrical Dark: No (JAZA3586)
Strobe/Lamp Enabled: Yes (JAZA3586)
Correct for Detector Non-linearity: No (JAZA3586)
Correct for Stray Light: No (JAZA3586)
Number of Pixels in Processed Spectrum: 2048
>>>>>Begin Processed Spectral Data<<<<<
W	D	R	S	P
191.335022	0.000000	0.000000	0.000000	0.000000
191.713211	406.287323	398.113983	391.501068	180.908356
192.091385	811.162842	800.463196	797.193909	130.555099
192.469528	1212.546265	1209.945435	1206.453247	234.272034
192.847641	1212.248901	1219.604858	1221.165283	121.213074
193.225739	1210.762817	1231.790405	1223.468628	60.424480
193.603790	1224.286011	1236.694458	1219.679077	-37.127399
193.981842	1230.453003	1241.227051	1217.004272	-124.825233
194.359863	1241.449707	1247.022583	1219.307617	-397.318909
194.737854	1239.889526	1250.811890	1231.270386	-78.912781
195.115829	1238.180542	1254.675659	1239.815308	9.910604
195.493774	1239.889526	1251.777954	1247.245483	61.874935
195.871704	1244.570679	1251.332153	1245.759399	17.580791
196.249603	1251.035034	1250.440552	1250.143188	150.020538
196.627457	1250.143188	1249.326050	1239.220825	1336.659668
197.005310	1247.394043	1244.199097	1235.802856	362.797546
197.383133	1247.914185	1243.530396	1237.511841	237.291153
197.760910	1248.359985	1246.353882	1242.638794	285.189240
198.138687	1240.261108	1248.508667	1241.524292	15.315848
198.516449	1235.654419	1252.372314	1235.431274	-1.334764
198.894180	1235.431396	1252.595215	1232.607910	-16.450222
199.271866	1241.969971	1249.548828	1232.013428	-131.372620
199.649536	1251.480713	1243.307495	1223.765747	339.094910
200.027191	1250.514771	1232.905029	1223.765747	151.899017
200.404816	1249.400269	1233.796753	1226.069214	149.524353
200.782410	1236.323120	1246.725220	1235.802856	-5.001525
201.159988	1233.648071	1269.536255	1236.620239	8.281745
201.537537	1227.555298	1287.740356	1237.511841	16.543215
201.915070	1229.561401	1287.740356	1246.130981	28.480368
202.292557	1222.725586	1282.836548	1254.304199	52.533867
202.670029	1230.453003	1278.526978	1258.093628	57.496025
203.047485	1223.245728	1276.966675	1250.886230	51.452003
203.424911	1228.521240	1276.669434	1249.623169	43.827042
203.802292	1223.171387	1272.211060	1244.496338	43.485100
204.179688	1229.041382	1271.245239	1246.799683	42.077435
204.557037	1226.738037	1269.239136	1249.846069	54.370434
204.934357	1223.914429	1269.239014	1257.573608	74.262520
205.311661	1223.988770	1272.062500	1254.452759	63.369305
205.688934	1221.239502	1271.319458	1246.502441	50.445210
206.066177	1224.062988	1272.211182	1241.524170	36.265495
206.443390	1225.028931	1276.372070	1243.233154	35.456001
206.820587	1228.669800	1278.824097	1243.456055	29.481531
207.197769	1231.344604	1279.270020	1236.099976	9.922441
207.574921	1228.669800	1274.886108	1233.648071	10.771677
207.952042	1225.994751	1276.669434	1237.288940	22.287638
208.329147	1214.329468	1279.715820	1246.205322	48.750011
208.706223	1224.137329	1287.591919	1252.595337	44.847832
209.083267	1230.378784	1281.573364	1249.251587	36.864845
209.460297	1235.951416	1276.372192	1246.353882	25.735443
209.837280	1227.629517	1266.564087	1241.747070	36.259689
210.214264	1223.319946	1266.415649	1245.685059	51.896385
210.591217	1226.812134	1266.712891	1248.805786	55.120892
210.968124	1229.635742	1274.068726	1248.137207	41.639034
211.345016	1222.948364	1274.886108	1246.651123	45.636868
211.721893	1219.827759	1275.480591	1241.375610	38.718338
212.098724	1215.666870	1275.480469	1241.078491	42.484688
212.475555	1219.902100	1274.440308	1238.700806	34.468872
212.852356	1221.536743	1277.783813	1240.781250	34.214237
213.229126	1222.205566	1267.901611	1241.969971	43.251892
213.605865	1229.189941	1270.279297	1241.821411	30.741465
213.982590	1231.270386	1261.363037	1241.301270	33.333332
214.359283	1233.722290	1261.140137	1234.465454	2.710512
214.735931	1223.840088	1262.180298	1238.106201	37.209274
215.112579	1221.388184	1271.393921	1230.527344	18.276224
215.489197	1210.911499	1270.056519	1233.202271	37.688332
215.865799	1210.317017	1268.793335	1223.617188	22.744543
216.242355	1208.533813	1268.496094	1227.332397	31.350683
216.618896	1213.883545	1276.446411	1225.251953	18.171175
216.995407	1221.982544	1283.356567	1228.446899	10.532722
217.371902	1221.165161	1280.904663	1231.939087	18.034843
217.748367	1220.942261	1270.650879	1238.031860	34.379551
218.124802	1214.477905	1265.523926	1241.226929	52.401779
218.501236	1212.620361	1270.873779	1241.895630	50.255024
218.877609	1213.289063	1283.876831	1237.363281	34.105370
219.253983	1215.963989	1275.480469	1239.443726	39.450813
219.630295	1220.868042	1276.000610	1236.694458	28.706110
220.006592	1222.502686	1272.879883	1242.118530	38.937943
220.382889	1216.929932	1283.653809	1237.586182	30.957808
220.759140	1218.564575	1279.864380	1244.199097	41.818275
221.135391	1218.341797	1275.034668	1237.660522	34.076111
221.511581	1218.936157	1268.570313	1235.134155	32.634781
221.887772	1217.227051	1265.449585	1228.966919	24.345192
222.263931	1215.889771	1274.365967	1232.979370	29.224882
222.640060	1225.103271	1272.731323	1238.403442	27.925079
223.016159	1226.069214	1265.152344	1245.164917	48.859196
223.392212	1229.932983	1260.174194	1244.273315	47.419834
223.768265	1224.062988	1267.604492	1239.592285	35.665504
224.144302	1218.861694	1274.366089	1234.390991	27.978500
224.520294	1214.032104	1276.595093	1233.202271	30.641384
224.896286	1214.255005	1282.167847	1243.010254	42.341400
225.272217	1224.880371	1287.740356	1253.041138	44.799194
225.648148	1227.332397	1293.238770	1247.542725	30.665209
226.024048	1224.657349	1285.511353	1242.415894	29.182213
226.399902	1219.753540	1288.483521	1232.682129	18.810698
226.775772	1217.821533	1286.402954	1239.740967	31.961184
227.151581	1224.954590	1289.895264	1247.691284	35.011486
227.527374	1216.632813	1295.616577	1245.313599	36.312256
227.903137	1208.533813	1300.074829	1245.685059	40.584263
228.278870	1203.555542	1302.601074	1238.106079	34.883488
228.654572	1210.168457	1310.328491	1241.672729	31.453936
229.030273	1221.908203	1324.520386	1240.112549	17.740921
229.405930	1225.548950	1344.359131	1238.626465	11.007066
229.781555	1222.874146	1355.950439	1236.025757	9.882760
230.157181	1212.620361	1364.940918	1234.242554	14.195190
230.532761	1215.592529	1365.981323	1235.728516	13.389286
230.908325	1213.883545	1361.374390	1240.855469	18.287186
231.283859	1212.397461	1352.978271	1245.387817	23.467184
231.659332	1214.998169	1341.684326	1239.146484	19.061527
232.034821	1212.620483	1329.572998	1237.511841	21.283302
232.410263	1223.691406	1315.901245	1230.601563	7.493947
232.785690	1214.180786	1315.678223	1236.917480	22.401249
233.161087	1222.056885	1322.439819	1235.431274	13.323370
233.536469	1217.747192	1330.315918	1232.830688	13.399366
233.911804	1221.388184	1331.058960	1236.694458	13.956566
234.287140	1219.233276	1337.820435	1234.316772	12.719334
234.662430	1219.456177	1338.637817	1241.078369	18.142218
235.037704	1214.180786	1342.798828	1232.310669	14.095909
235.412933	1212.174561	1340.941162	1235.134155	17.830397
235.788162	1213.586426	1345.102173	1236.917480	17.740122
236.163345	1216.484131	1343.616089	1238.477783	17.299862
236.538513	1221.611084	1343.170288	1237.288940	12.897301
236.913635	1224.211792	1338.489258	1233.202271	7.867237
237.288742	1225.623535	1345.622192	1238.477661	10.711891
237.663834	1218.713257	1341.609863	1236.322876	14.328808
238.038879	1213.883423	1336.854492	1242.713013	23.444204
238.413910	1213.734863	1337.820435	1245.685181	25.748615
238.788910	1219.753540	1338.637695	1244.421875	20.749893
239.163879	1225.028931	1348.520020	1246.873901	17.689512
239.538834	1225.697632	1348.817261	1247.468384	17.682600
239.913757	1223.245728	1361.002808	1253.932739	22.276178
240.288651	1213.066284	1368.730347	1250.068970	23.770859
240.663528	1212.248901	1380.321655	1245.462280	19.761311
241.038361	1214.477905	1388.940796	1247.096802	18.696753
241.413177	1226.515137	1409.894165	1251.629272	13.695206
241.787979	1228.595459	1430.698853	1250.886353	11.029450
242.162735	1221.090942	1461.906250	1245.833740	10.274595
242.537476	1217.895874	1476.692261	1244.199097	10.163674
242.912170	1212.100342	1506.413452	1244.570679	11.032582
243.286865	1225.697754	1524.617554	1247.096924	7.158833
243.661514	1221.908203	1541.335571	1240.409668	5.792072
244.036148	1228.149658	1525.137695	1242.638672	4.878652
244.410751	1227.926758	1496.456665	1239.592285	4.344219
244.785339	1227.332397	1479.515625	1244.496216	6.806090
245.159882	1225.623413	1466.587036	1247.468384	9.065672
245.534378	1222.428345	1478.326782	1251.777954	11.469241
245.908890	1225.103271	1486.648804	1251.703613	10.170444
246.283356	1225.548950	1514.215210	1250.217651	8.545752
246.657791	1222.279663	1556.344727	1243.307495	6.294532
247.032196	1220.422119	1624.480469	1239.369385	4.689240
247.406586	1214.329346	1706.064819	1234.242432	4.049552
247.780960	1209.425293	1752.132446	1233.796631	4.490698
248.155289	1210.762817	1768.479126	1239.295044	5.115903
248.529602	1212.843262	1744.330688	1238.552002	4.837131
248.903870	1214.998047	1708.293945	1233.350830	3.720441
249.278122	1218.490234	1659.700073	1228.075317	2.172455
249.652344	1223.914429	1619.279297	1230.898926	1.766595
250.026550	1221.165161	1591.861450	1242.713013	5.812805
250.400711	1222.948608	1571.874023	1249.846069	7.708656
250.774857	1227.406616	1553.744141	1250.440430	7.058279
251.148987	1240.260986	1548.171509	1251.703613	3.716218
251.523071	1235.134155	1541.409790	1242.489990	2.401704
251.897125	1221.090942	1552.406738	1247.096802	7.849267
252.271164	1206.378906	1565.929688	1244.719116	10.663364
252.645187	1205.635986	1594.239258	1243.678833	9.789637
253.019165	1217.821655	1611.774780	1237.288818	4.941492
253.393112	1229.635742	1607.167847	1243.456055	3.660699
253.767044	1231.196167	1583.390991	1242.935913	3.333310
254.140930	1226.292114	1556.047485	1242.935913	5.047317
254.514801	1218.044556	1541.707153	1239.146606	6.519768
254.888657	1219.530640	1530.338867	1244.050415	7.889037
255.262466	1220.422241	1529.075684	1247.988403	8.931105
255.636276	1214.923828	1523.205933	1251.777832	11.954637
256.010010	1210.242798	1537.694824	1257.870728	14.545010
256.383759	1213.809204	1547.279907	1259.728271	13.770045
256.757446	1220.422241	1572.245483	1252.520874	9.123511
257.131134	1219.381958	1586.363159	1251.777832	8.827666
257.504791	1218.564575	1610.288574	1247.096924	7.283789
257.878418	1220.570801	1634.882813	1249.846191	7.066025
258.252014	1226.440796	1676.789429	1243.084473	3.695732
258.625580	1221.536743	1724.120483	1246.130859	4.893536
258.999115	1230.824585	1784.528442	1243.084473	2.214160
259.372650	1231.121704	1860.614380	1243.753296	2.006630
259.746124	1232.682129	1951.263672	1236.843140	0.579059
260.119598	1223.319946	2049.120361	1237.808960	1.754542
260.493042	1216.335571	2127.435547	1241.747192	2.789114
260.866425	1216.409912	2168.004883	1249.548950	3.482473
261.239838	1213.512085	2137.466553	1251.406372	4.101315
261.613159	1219.307617	2063.609375	1249.846069	3.617007
261.986511	1216.558472	1966.793091	1249.326050	4.367644
262.359802	1221.090942	1897.988770	1257.945068	5.444562
262.733063	1222.502808	1845.530884	1252.223755	4.770402
263.106293	1227.926758	1832.973755	1252.446655	4.052561
263.479523	1221.759644	1825.840698	1242.935913	3.505534
263.852692	1218.713135	1821.679688	1253.561279	5.779449
264.225861	1217.598633	1801.618042	1254.898804	6.386803
264.598969	1218.861938	1785.048462	1254.155762	6.233603
264.972076	1213.437866	1787.277710	1251.852295	6.694277
265.345154	1208.013672	1806.224976	1245.462158	6.260077
265.718201	1205.264526	1829.556030	1248.434326	6.915007
266.091217	1214.180786	1856.156250	1245.759399	4.918975
266.464203	1212.768921	1882.310913	1252.669556	5.959393
266.837158	1215.592407	1915.003906	1252.075073	5.216195
267.210114	1210.465576	1957.059204	1253.635498	5.782251
267.583038	1215.815308	1983.734009	1249.251587	4.354143
267.955902	1220.199341	2005.504883	1245.462158	3.216941
268.328766	1221.462402	2002.458374	1243.753174	2.854147
268.701569	1225.549194	2003.052734	1237.586060	1.548143
269.074371	1221.090942	2008.179688	1238.031860	2.152352
269.447144	1218.713257	2017.913452	1237.511841	2.352175
269.819885	1208.385132	2035.151733	1249.623169	4.987869
270.192596	1207.047729	2064.129639	1252.595215	5.314251
270.565277	1209.276855	2104.327393	1253.115356	4.897880
270.937927	1208.682373	2156.041992	1244.867798	3.819608
271.310577	1211.060181	2222.468750	1239.220825	2.784300
271.683136	1207.865112	2295.582764	1233.573730	2.363538
272.055725	1215.889771	2373.823486	1237.734741	1.886548
272.428284	1212.100342	2408.894287	1246.130859	2.843473
272.800812	1210.317017	2415.209717	1256.236206	3.811060
273.173279	1208.533813	2382.219482	1259.505493	4.342873
273.545776	1217.672974	2359.111328	1259.282593	3.645367
273.918152	1230.230103	2326.121094	1259.356812	2.657811
274.290558	1230.973145	2298.777588	1258.019409	2.532886
274.662964	1227.035034	2270.171143	1253.041138	2.493069
275.035278	1219.233276	2258.356934	1244.793457	2.459782
275.407593	1220.942261	2259.694336	1243.976074	2.217451
275.779907	1223.022827	2277.229492	1250.663452	2.621936
276.152161	1229.189819	2301.898193	1261.957397	3.054659
276.524384	1228.298218	2347.891846	1262.626099	3.066102
276.896606	1225.251953	2370.331055	1259.208252	2.965411
277.268799	1221.610962	2393.959473	1246.874023	2.154911
277.640930	1219.753540	2413.724121	1238.477661	1.568223
278.013031	1214.626587	2432.002441	1233.945313	1.586915
278.385162	1212.100342	2443.073486	1236.471558	1.979833
278.757233	1211.357300	2427.544189	1240.855469	2.425463
279.129272	1218.118774	2420.188477	1239.815308	1.804931
279.501282	1214.552368	2425.984131	1239.592285	2.066969
279.873230	1219.159058	2453.475830	1240.855469	1.757767
280.245178	1225.251831	2494.862549	1238.626343	1.053434
280.617126	1227.406616	2543.382080	1244.867676	1.326853
280.988983	1228.446899	2605.276123	1245.610718	1.246619
281.360870	1228.744019	2671.925781	1249.400146	1.431291
281.732697	1226.366333	2734.340088	1249.177368	1.512694
282.104492	1223.319946	2791.033203	1253.932739	1.952704
282.476288	1217.970093	2834.128906	1257.053467	2.418288
282.848053	1217.375854	2879.676025	1258.093750	2.449491
283.219757	1215.592651	2895.948486	1250.068970	2.051727
283.591461	1216.632690	2887.552002	1252.669434	2.156702
283.963135	1220.793823	2860.803467	1252.149414	1.911915
284.334747	1221.610962	2850.623779	1251.629272	1.842730
284.706360	1219.381958	2881.831055	1250.291870	1.859300
285.077942	1216.632813	2936.815186	1251.332153	2.017190
285.449524	1219.307739	3003.539063	1251.183594	1.786531
285.821014	1216.929932	3052.653076	1248.211426	1.704042
286.192535	1214.477905	3111.129639	1246.353882	1.680645
286.563995	1212.768921	3152.813232	1245.610840	1.692844
286.935425	1215.592407	3199.697998	1251.480713	1.808790
287.306824	1217.895996	3203.413086	1253.412598	1.788783
287.678223	1216.261230	3167.004639	1256.607544	2.068253
288.049561	1218.193115	3114.844482	1252.892456	1.829505
288.420898	1226.366333	3056.071045	1253.858521	1.502548
288.792145	1217.598633	3032.294189	1256.087524	2.120956
289.163452	1217.227173	3023.823486	1252.372314	1.945379
289.534668	1212.248901	3065.210205	1249.994629	2.037049
289.905914	1223.468628	3114.992920	1251.703735	1.492717
290.277039	1216.112671	3184.837646	1256.682007	2.060691
290.648193	1214.180786	3263.449951	1258.019409	2.139232
291.019318	1209.276733	3343.399658	1255.864624	2.182999
291.390381	1214.180786	3390.432861	1253.264038	1.795897
291.761475	1216.781372	3375.052490	1251.703613	1.618066
292.132507	1222.056885	3350.680908	1249.846069	1.305500
292.503510	1228.075317	3312.786865	1247.022583	0.908868
292.874481	1230.453125	3284.328857	1248.285767	0.868243
293.245422	1231.344727	3271.325439	1252.298096	1.027136
293.616364	1230.081543	3286.557861	1258.465210	1.380209
293.987213	1230.898926	3346.223389	1253.486938	1.067827
294.358093	1232.607910	3427.287354	1251.555054	0.863322
294.728943	1224.211548	3545.874268	1250.737793	1.142554
295.099731	1217.227173	3649.972656	1252.595337	1.453837
295.470490	1212.100220	3724.498047	1256.087402	1.750805
295.841248	1214.849609	3773.315186	1256.087524	1.611822
296.211975	1211.505859	3829.785156	1259.653931	1.838920
296.582642	1213.809204	3901.487305	1248.062744	1.274466
296.953308	1215.518188	3986.043701	1248.805786	1.201490
297.323883	1222.354126	4061.460938	1244.644775	0.785129
297.694519	1220.645020	4114.958984	1247.319702	0.921624
298.065063	1213.883667	4124.543945	1254.527222	1.396369
298.435608	1212.323120	4075.281250	1261.511597	1.718100
298.806122	1214.998047	3969.474365	1270.725220	2.023149
299.176575	1213.289185	3841.599365	1257.945190	1.699039
299.547028	1208.905273	3736.014893	1251.480835	1.684753
299.917450	1207.716431	3677.167236	1241.821411	1.381076
300.287872	1212.546143	3636.523682	1250.663452	1.572511
300.658234	1217.821655	3614.455811	1252.149536	1.432337
301.028564	1216.038330	3584.140381	1255.195923	1.653543
301.398865	1223.097046	3568.982422	1252.075195	1.235276
301.769135	1226.069214	3551.298828	1247.988403	0.942668
302.139374	1223.765869	3560.809326	1250.737671	1.154099
302.509583	1224.657471	3569.354248	1243.827515	0.817592
302.879791	1224.360229	3567.273438	1251.406372	1.154381
303.249939	1222.948486	3541.267578	1249.623047	1.150599
303.620087	1218.936157	3504.190674	1256.236206	1.632205
303.990173	1215.666870	3493.194092	1246.651001	1.360428
304.360260	1219.381958	3481.305420	1253.932739	1.527496
304.730286	1221.016602	3484.872070	1258.093628	1.637782
305.100281	1228.744141	3474.692627	1272.582642	1.951892
305.470276	1233.053711	3495.125732	1266.118286	1.461694
305.840179	1226.589355	3508.722900	1263.814941	1.631175
306.210144	1225.994995	3534.803467	1255.493164	1.277636
306.579987	1216.484253	3541.936279	1253.635620	1.597598
306.949890	1230.230347	3552.784424	1247.245483	0.732605
307.319702	1226.812256	3584.511719	1247.839844	0.891869
307.689484	1230.304443	3606.208252	1251.257690	0.881906
308.059265	1222.279785	3665.427490	1256.161743	1.386816
308.429016	1215.666748	3720.634521	1258.762329	1.720405
308.798737	1209.202393	3817.079346	1260.248413	1.957378
309.168396	1210.019775	3901.041748	1256.607544	1.731230
309.538055	1216.038208	3955.059570	1248.657227	1.190900
309.907684	1219.233398	3989.981689	1247.022583	1.002949
310.277313	1215.889771	4014.055908	1249.623169	1.205554
310.646851	1210.094116	4046.526123	1262.254639	1.838948
311.016388	1208.831055	4087.466797	1257.350708	1.685509
311.385895	1209.648315	4092.667969	1256.756226	1.633978
311.755371	1217.301392	4094.079834	1251.777954	1.198444
312.124817	1222.502563	4079.888428	1256.904907	1.203980
312.494232	1215.146606	4073.349365	1259.059692	1.536388
312.863617	1209.871216	4051.727295	1258.316528	1.704707
313.232971	1208.831055	4030.031006	1254.452881	1.617107
313.602295	1217.078613	4008.854736	1260.322754	1.548983
313.971619	1222.056763	4009.969482	1255.047241	1.183340
314.340820	1225.029175	3988.124268	1257.722168	1.183202
314.710083	1223.988770	4017.399414	1245.685059	0.776695
315.079285	1222.428467	4055.888428	1242.564453	0.710650
315.448486	1217.301636	4114.661621	1250.217651	1.136069
315.817596	1220.570801	4100.023926	1248.954468	0.985731
316.186707	1223.394287	4050.687256	1263.294800	1.411262
316.555786	1228.149780	3975.567139	1259.356812	1.135868
316.924866	1229.041382	3906.242920	1264.409302	1.321078
317.293884	1222.948608	3867.754150	1258.167969	1.331643
317.662872	1218.787598	3852.447510	1253.932739	1.334460
318.031830	1218.490234	3873.697998	1261.065796	1.603474
318.400757	1220.422241	3895.394531	1263.889282	1.624953
318.769684	1225.623413	3910.923584	1268.941895	1.613171
319.138550	1221.611084	3923.109375	1269.462036	1.771275
319.507416	1217.301392	3927.492920	1266.489868	1.814945
319.876190	1212.026001	3946.143311	1259.282593	1.728404
320.244995	1210.316895	3941.239258	1258.465210	1.763079
320.613770	1209.796875	3929.945313	1256.087524	1.701769
320.982483	1212.248901	3910.700928	1260.545776	1.789799
321.351166	1217.672974	3878.082031	1250.291992	1.226090
321.719818	1226.812134	3847.246338	1256.236206	1.122870
322.088440	1224.880371	3843.753906	1257.796509	1.256881
322.457062	1223.468750	3870.428955	1258.539551	1.324946
322.825623	1219.530640	3926.898682	1260.842896	1.525919
323.194183	1221.313843	3987.826904	1262.180298	1.477183
323.562653	1218.193115	4079.293701	1262.254639	1.540020
323.931183	1218.936157	4146.611816	1259.356812	1.380640
324.299591	1217.747314	4236.964355	1256.236206	1.274797
324.668060	1220.273560	4292.988770	1261.065796	1.327563
325.036407	1213.066284	4365.285156	1260.025635	1.489724
325.404755	1216.929810	4392.182129	1254.750122	1.191096
325.773102	1211.654541	4420.789063	1254.750122	1.342903
326.141388	1214.626587	4397.606445	1252.892456	1.202203
326.509674	1208.236572	4381.705566	1253.709839	1.432920
326.877899	1211.208618	4371.451660	1249.400269	1.208503
327.246124	1222.948364	4396.343750	1248.954468	0.819504
327.614288	1234.242554	4380.368652	1252.892456	0.592789
327.982422	1230.378784	4362.684082	1262.849121	1.036628
328.350525	1222.651245	4327.167480	1269.164795	1.498254
328.718628	1214.106445	4331.180176	1273.994385	1.921287
329.086700	1221.016602	4331.031738	1266.564087	1.464542
329.454712	1220.570801	4341.359375	1256.533325	1.152354
329.822693	1226.886475	4349.160645	1255.715942	0.923348
330.190674	1231.195923	4371.674805	1259.876953	0.913269
330.558563	1228.298218	4405.705566	1265.226807	1.162224
330.926483	1212.917603	4456.677246	1263.963623	1.573668
331.294312	1213.586304	4498.955566	1265.003784	1.565044
331.662231	1215.221069	4547.475098	1261.957397	1.402544
332.029999	1231.493286	4592.205566	1264.409424	0.979439
332.397766	1219.307617	4652.093262	1253.784180	1.004332
332.765503	1219.233276	4716.439453	1255.270142	1.030447
333.133240	1208.756714	4783.980469	1245.833618	1.037051
333.500916	1213.214844	4834.951660	1256.384644	1.191964
333.868561	1214.180664	4885.552246	1254.601440	1.100972
334.236176	1218.415894	4920.623535	1262.551880	1.192153
334.603790	1216.335571	4940.090332	1256.681885	1.083485
334.971344	1215.518188	4932.585938	1255.938843	1.087434
335.338867	1217.004272	4902.270020	1254.824463	1.026254
335.706360	1216.187012	4900.041504	1254.453003	1.038749
336.073853	1213.140503	4902.939453	1257.053345	1.190115
336.441284	1211.060059	4911.781250	1251.480713	1.092237
336.808655	1214.626587	4882.729004	1256.236206	1.134364
337.176086	1221.239502	4827.225098	1261.140015	1.106508
337.543396	1222.502563	4746.309082	1274.514526	1.476016
337.910706	1227.703979	4676.538574	1273.697266	1.333589
338.277954	1224.211670	4678.693848	1270.947998	1.352919
338.645264	1220.570801	4755.151367	1259.059692	1.088924
339.012421	1214.403687	4897.960938	1260.099976	1.240548
339.379669	1217.598633	5027.471191	1255.567383	0.996588
339.746796	1224.954712	5134.764160	1255.567383	0.782971
340.113953	1230.081665	5208.397949	1255.195923	0.631279
340.481018	1230.304443	5267.988770	1258.613770	0.701128
340.848114	1229.115601	5287.679199	1260.694214	0.778074
341.215118	1228.669800	5306.774902	1259.728394	0.761594
341.582153	1223.765747	5314.799316	1261.808838	0.929914
341.949066	1221.090942	5347.269531	1260.917114	0.965207
342.316010	1217.747192	5370.452148	1257.945068	0.967993
342.682922	1213.586304	5397.869629	1260.248535	1.115179
343.049835	1206.007446	5461.621094	1262.254761	1.321720
343.416656	1204.818726	5527.230469	1264.112183	1.371768
343.783478	1210.094116	5626.870605	1253.784180	0.989184
344.150269	1220.719360	5760.095703	1262.626221	0.923185
344.516998	1222.576904	5935.821777	1265.821167	0.917505
344.883728	1224.285889	6081.752441	1281.944824	1.187017
345.250427	1213.066162	6169.280762	1277.263794	1.295296
345.617065	1211.134399	6198.556152	1282.390625	1.428719
345.983704	1211.134399	6187.781250	1269.536255	1.173518
346.350281	1222.056885	6159.250000	1266.861450	0.907491
346.716827	1229.041382	6087.027344	1255.790405	0.550620
347.083405	1232.087769	6004.923340	1260.471436	0.594692
347.449860	1228.595459	5917.691895	1263.592163	0.746342
347.816376	1223.171387	5853.939941	1270.650757	1.025302
348.182770	1220.199219	5812.925293	1271.616699	1.119542
348.549194	1217.970093	5771.910156	1270.205078	1.147028
348.915558	1213.066040	5781.346191	1268.867554	1.221499
349.281921	1216.855591	5788.851074	1269.833496	1.158748
349.648193	1209.053833	5845.840332	1268.496094	1.281971
350.014526	1212.546143	5894.583496	1265.301147	1.126753
350.380737	1206.304810	5981.442871	1266.638550	1.263497
350.746948	1221.388184	6041.628906	1267.827271	0.963418
351.113159	1221.833984	6080.637207	1276.595093	1.127049
351.479309	1225.697754	6133.837891	1273.548706	0.974930
351.845428	1228.372681	6182.283691	1271.988281	0.880428
352.211517	1227.109497	6245.886719	1266.712769	0.789102
352.577576	1225.400391	6283.112793	1264.706543	0.777153
352.943604	1219.827759	6347.607422	1273.697266	1.050542
353.309601	1221.090942	6409.873047	1280.235962	1.139863
353.675537	1221.610962	6521.178223	1278.229614	1.068364
354.041473	1214.106323	6655.666504	1266.935791	0.970851
354.407379	1218.415894	6801.150879	1259.951294	0.743997
354.773254	1214.403687	6943.515137	1263.592163	0.858571
355.139038	1221.908203	7037.953613	1264.557983	0.733312
355.504913	1213.734985	7170.807129	1260.619995	0.787048
355.870636	1216.261108	7285.084473	1256.904785	0.669713
356.236389	1220.719360	7433.541504	1262.328979	0.669738
356.602081	1222.205444	7595.001465	1259.505371	0.585299
356.967804	1221.388062	7769.909668	1265.003906	0.666041
357.333405	1217.970215	7960.719238	1264.632324	0.692034
357.699036	1219.381958	8150.562500	1266.341187	0.677507
358.064606	1219.530762	8351.253906	1266.935669	0.664705
358.430176	1220.347900	8489.234375	1260.471313	0.551988
358.795654	1218.564575	8579.363281	1262.700562	0.599609
359.161163	1219.604858	8575.202148	1263.517944	0.597002
359.526581	1217.672974	8584.043945	1264.780884	0.639500
359.892029	1215.295288	8618.149414	1270.353638	0.743745
360.257416	1214.923828	8758.210938	1269.833496	0.727928
360.622772	1211.060059	8985.280273	1271.542480	0.777987
360.988098	1214.775269	9300.695313	1270.799438	0.692861
361.353394	1207.790649	9658.611328	1273.474365	0.777247
361.718658	1210.985840	9969.196289	1277.858276	0.763540
362.083893	1218.564575	10201.615234	1277.783936	0.659234
362.449097	1227.852417	10348.139648	1276.817993	0.536886
362.814209	1226.663574	10369.166992	1278.378418	0.565653
363.179382	1223.245728	10154.655273	1284.916992	0.690499
363.544434	1223.691528	9759.439453	1285.660034	0.725988
363.909546	1227.406616	9283.381836	1282.539307	0.684370
364.274536	1229.338501	8875.905273	1275.109009	0.598576
364.639587	1223.988770	8535.821289	1274.886108	0.696096
365.004517	1225.326050	8327.848633	1274.960327	0.698826
365.369507	1215.443970	8169.509277	1275.406128	0.862260
365.734344	1213.214844	8107.912598	1272.731323	0.863221
366.099274	1211.951660	8032.421387	1272.434082	0.886778
366.464081	1214.180664	7999.802246	1275.480469	0.903378
366.828918	1218.193115	7965.622559	1272.433960	0.803874
367.193665	1213.883667	7978.105469	1277.560913	0.941383
367.558411	1222.354126	7981.375000	1273.697144	0.759622
367.923126	1223.617188	7960.273438	1276.595093	0.786412
368.287781	1222.428345	7915.022949	1268.867554	0.693889
368.652435	1217.078613	7883.518066	1271.913940	0.822558
369.017059	1219.901978	7865.686035	1286.328735	0.999532
369.381653	1223.022827	7824.299316	1287.294556	0.973626
369.746185	1221.908325	7802.083496	1288.855103	1.017401
370.110687	1221.388062	7810.701660	1271.393799	0.758891
370.475220	1222.948364	7860.856934	1278.526855	0.837289
370.839661	1225.697754	7926.837402	1275.257446	0.739571
371.204041	1225.474731	7982.712891	1280.607422	0.815906
371.568451	1219.679199	8059.690918	1281.127563	0.898366
371.932770	1218.118774	8112.594238	1288.260620	1.017363
372.297150	1213.066284	8159.182129	1286.923096	1.063282
372.661377	1217.152832	8195.218750	1285.957153	0.986008
373.025696	1213.660645	8239.725586	1282.910645	0.985616
373.389862	1213.660645	8226.425781	1291.381226	1.108273
373.754059	1212.917603	8215.131836	1293.536133	1.151329
374.118225	1219.381958	8204.061523	1291.975708	1.039328
374.482361	1221.313843	8272.641602	1283.431030	0.880929
374.846436	1222.354004	8346.350586	1272.805786	0.708195
375.210510	1223.022827	8478.535156	1273.325806	0.693307
375.574524	1227.778198	8615.772461	1271.765503	0.595389
375.938538	1227.778198	8789.268555	1279.938599	0.689816
376.302460	1223.171387	8963.137695	1279.715698	0.730550
376.666412	1223.988770	9156.250000	1284.173828	0.758738
377.030304	1219.902100	9325.363281	1277.635376	0.712276
377.394196	1221.833984	9491.429688	1282.836548	0.737673
377.757996	1215.741089	9628.147461	1277.338013	0.732215
378.121796	1216.781250	9711.291992	1282.613403	0.774996
378.485565	1216.632690	9706.164063	1277.486694	0.716812
378.849304	1219.456177	9622.648438	1289.598022	0.834705
379.212982	1224.508911	9491.875977	1290.712524	0.800782
379.576630	1222.056885	9286.726563	1300.000366	0.966481
379.940277	1218.639038	9119.470703	1295.765137	0.976177
380.303864	1218.341675	8954.370117	1295.839478	1.001778
380.667450	1217.598755	8906.147461	1288.929199	0.927749
381.030945	1219.084839	8873.379883	1293.461792	0.971702
381.394501	1214.255005	8917.144531	1299.777466	1.110265
381.757935	1220.942261	8932.153320	1309.362671	1.146648
382.121399	1224.360352	8947.013672	1321.325195	1.255590
382.484741	1222.279785	8999.916992	1333.585205	1.431096
382.848145	1217.301514	9038.925781	1348.965942	1.683339
383.211487	1215.592407	9100.374023	1356.321899	1.784824
383.574768	1214.477905	9196.967773	1374.377319	2.003127
383.938019	1211.282959	9302.032227	1395.107788	2.272037
384.301270	1213.214844	9435.851563	1431.887695	2.659401
384.664459	1213.512207	9503.168945	1477.509399	3.184658
385.027649	1219.902222	9575.391602	1532.790649	3.744705
385.390778	1215.369629	9638.994141	1593.050293	4.483588
385.753876	1222.874146	9683.874023	1656.802124	5.128566
386.116943	1225.920532	9758.696289	1720.776733	5.799475
386.479980	1231.939087	9784.479492	1796.045410	6.595775
386.842987	1235.505615	9830.174805	1871.239624	7.396841
387.205994	1230.453125	9890.731445	1966.941772	8.504214
387.568909	1225.028931	9950.545898	2061.380615	9.585125
387.931793	1217.672974	9998.620117	2162.877930	10.764271
388.294678	1216.186890	10034.731445	2257.911133	11.812881
388.657471	1217.227173	10064.526367	2354.801758	12.857875
389.020294	1220.050781	10069.727539	2473.314697	14.161692
389.383057	1224.062988	10072.030273	2594.279541	15.486231
389.745819	1219.233398	10094.842773	2723.714844	16.950739
390.108521	1220.570801	10126.420898	2841.187500	18.197216
390.471191	1213.066284	10208.154297	2973.372070	19.569633
390.833801	1216.409790	10320.425781	3108.602783	20.784159
391.196442	1212.991943	10515.692383	3265.158936	22.059906
391.558960	1214.032104	10690.081055	3431.596924	23.401789
391.921509	1213.809204	10894.635742	3598.703857	24.635237
392.284027	1215.369629	11064.864258	3753.327393	25.767391
392.646484	1213.066162	11225.655273	3883.431641	26.670080
393.008911	1218.713257	11236.949219	4010.935547	27.871395
393.371307	1214.998169	11210.200195	4141.559082	29.279657
393.733673	1220.570801	11108.703125	4249.818359	30.635183
394.096008	1217.152954	11063.081055	4350.870117	31.827547
394.458344	1218.638916	11067.835938	4448.355469	32.791672
394.820587	1223.542847	11069.321289	4571.475098	34.003731
395.182831	1221.462402	11092.801758	4696.897949	35.207333
395.545013	1223.097046	11012.926758	4801.144531	36.548615
395.907196	1218.044434	10898.426758	4871.211426	37.737835
396.269287	1215.443848	10755.245117	4906.654297	38.692741
396.631409	1211.282837	10631.679688	4950.790039	39.695858
396.993469	1207.047607	10491.172852	4980.065918	40.639462
397.355530	1207.716431	10351.929688	5052.956543	42.051079
397.717499	1209.053833	10262.691406	5106.009277	43.042980
398.079468	1212.769043	10241.589844	5206.614746	44.234413
398.441376	1219.456299	10253.552734	5269.920410	44.835297
398.803284	1224.360352	10274.059570	5360.049316	45.699741
399.165131	1227.555298	10299.026367	5448.247070	46.527096
399.526978	1224.806030	10295.385742	5530.797363	47.472061
399.888763	1220.868042	10283.050781	5607.700684	48.408123
400.250519	1217.301636	10294.196289	5668.628906	49.040199
400.612244	1216.112671	10307.050781	5768.120605	50.071922
400.973938	1216.187012	10300.512695	5840.193848	50.900932
401.335602	1216.558472	10317.378906	5910.855957	51.581036
401.697205	1211.431519	10391.533203	5987.833496	52.029945
402.058807	1210.762817	10500.907227	6081.752441	52.431797
402.420349	1222.057007	10586.428711	6202.865723	53.188923
402.781860	1223.468628	10690.453125	6308.523438	53.713562
403.143341	1228.967041	10854.215820	6460.547363	54.352673
403.504822	1218.787598	11049.260742	6612.867188	54.871010
403.866241	1221.388184	11230.632813	6762.662109	55.361561
404.227631	1225.251831	11361.480469	6906.734863	56.051250
404.588959	1227.778198	11559.125000	7056.306641	56.415958
404.950287	1224.583130	11732.995117	7197.258301	56.837086
405.311554	1221.611084	11855.370117	7289.691406	57.064301
405.672821	1215.889771	11900.026367	7373.281738	57.631161
406.034027	1225.549194	11882.492188	7416.972168	58.097549
406.395203	1218.490356	11813.612305	7430.644043	58.632206
406.756348	1220.050781	11706.691406	7419.869629	59.121117
407.117493	1214.998047	11630.307617	7428.638184	59.658718
407.478516	1217.672974	11597.688477	7437.776855	59.923840
407.839600	1222.874146	11584.760742	7451.521973	60.111137
408.200592	1220.942383	11579.261719	7475.894043	60.385777
408.561554	1220.719360	11573.911133	7491.274902	60.566402
408.922485	1216.929932	11597.540039	7523.521973	60.753574
409.283417	1221.536743	11608.239258	7551.831543	60.946148
409.644257	1226.812134	11709.515625	7653.774902	61.310169
410.005096	1237.511841	11829.215820	7784.324707	61.810760
410.365906	1234.316772	11962.515625	7888.794434	62.027908
410.726715	1231.344727	12081.399414	7988.434082	62.277008
411.087433	1221.016724	12144.928711	8051.889160	62.531376
411.448120	1225.400513	12200.135742	8154.872559	63.140221
411.808807	1223.840210	12183.045898	8196.333008	63.622242
412.169434	1218.044556	12121.596680	8191.207031	63.953129
412.530029	1213.586426	12106.958008	8179.317871	63.944683
412.890564	1214.552368	12075.528320	8185.560059	64.183990
413.251099	1219.084839	12078.651367	8213.868164	64.411255
413.611572	1221.090942	12073.746094	8262.239258	64.879501
413.972076	1220.570801	12126.203125	8324.133789	65.136642
414.332489	1221.536621	12226.066406	8413.520508	65.354759
414.692871	1220.273560	12378.981445	8526.460938	65.475212
415.053223	1216.855591	12549.729492	8632.639648	65.436043
415.413574	1215.741089	12768.328125	8780.873047	65.484306
415.773834	1219.827759	12953.491211	8897.825195	65.435638
416.134094	1226.366455	13118.813477	9030.157227	65.619720
416.494263	1228.521240	13285.176758	9132.175781	65.554283
416.854462	1226.366455	13574.215820	9339.926758	65.708290
417.214630	1229.412842	13881.382813	9600.803711	66.166695
417.574738	1230.304443	14218.791992	9871.934570	66.532997
417.934784	1226.737915	14529.672852	10121.740234	66.864960
418.294861	1222.056763	14929.644531	10371.545898	66.747627
418.654846	1223.171387	15400.203125	10694.093750	66.804688
419.014832	1224.583130	15904.645508	11031.948242	66.807381
419.374756	1217.747314	16441.632813	11404.948242	66.915909
419.734680	1211.951660	17002.542969	11813.909180	67.140976
420.094543	1217.227173	17562.117188	12235.502930	67.411133
420.454376	1230.081543	18076.142578	12616.973633	67.593803
420.814148	1240.558228	18590.390625	12983.583008	67.683792
421.173920	1239.295044	19095.353516	13325.968750	67.689484
421.533691	1227.555176	19616.585938	13690.350586	67.772980
421.893341	1225.623413	20006.230469	13957.765625	67.794090
422.253021	1221.165161	20288.134766	14170.866211	67.916939
422.612640	1224.286011	20380.865234	14258.617188	68.041016
422.972260	1215.072510	20358.353516	14250.964844	68.096436
423.331757	1215.221069	20291.406250	14241.528320	68.285706
423.691315	1223.617310	20265.994141	14260.996094	68.465080
424.050781	1232.607910	20364.148438	14374.828125	68.694000
424.410248	1237.065918	20445.658203	14427.953125	68.671806
424.769653	1225.251831	20528.951172	14495.866211	68.746483
425.128998	1216.855591	20549.679688	14500.621094	68.710945
425.488373	1214.923828	20468.763672	14431.296875	68.642792
425.847656	1217.450195	20275.279297	14290.270508	68.595543
426.206940	1222.651245	20017.154297	14141.515625	68.737457
426.566193	1222.131104	19639.027344	13905.307617	68.867065
426.925385	1224.657349	19275.759766	13658.325195	68.880386
427.284576	1220.793579	18708.904297	13280.421875	68.959007
427.643677	1217.375732	18307.818359	13019.620117	69.057564
428.002777	1220.719360	17925.236328	12755.696289	69.053040
428.361847	1223.022705	17587.158203	12543.933594	69.181236
428.720856	1228.595337	17220.027344	12297.916992	69.220329
429.079865	1226.886597	16935.595703	12105.325195	69.250999
429.438812	1231.418945	16710.162109	11962.070313	69.325081
429.797760	1227.703857	16594.474609	11896.163086	69.425514
430.156616	1227.926758	16371.268555	11782.406250	69.697159
430.515503	1224.508667	16296.147461	11672.661133	69.323265
430.874268	1226.663452	16187.589844	11599.398438	69.332169
431.233093	1222.354126	16199.329102	11591.745117	69.235550
431.591827	1225.028931	16234.252930	11640.414063	69.393227
431.950562	1218.936157	16289.385742	11653.340820	69.237511
432.309204	1225.251831	16350.684570	11717.761719	69.369980
432.667877	1221.165283	16467.710938	11778.616211	69.244873
433.026459	1228.446899	16617.357422	11872.163086	69.164848
433.385010	1224.211548	16747.386719	11968.161133	69.212318
433.743561	1230.898804	16875.337891	12102.500977	69.491798
434.102051	1228.818481	17014.283203	12220.643555	69.632568
434.460510	1231.716187	17200.857422	12340.940430	69.566826
434.818939	1225.994873	17279.767578	12402.015625	69.616165
435.177338	1219.753418	17326.578125	12451.055664	69.730087
435.535675	1214.032104	17260.001953	12392.281250	69.663902
435.894012	1213.066162	17195.208984	12351.268555	69.691544
436.252289	1217.598755	17197.291016	12368.950195	69.784523
436.610535	1219.679077	17170.615234	12353.199219	69.798538
436.968719	1220.347778	17300.052734	12439.910156	69.774681
437.326935	1220.793701	17417.375000	12493.780273	69.601021
437.685028	1221.388184	17580.841797	12645.356445	69.830994
438.043152	1225.326172	17704.183594	12739.871094	69.874657
438.401215	1231.270386	17901.234375	12890.407227	69.940979
438.759277	1227.332397	18174.222656	13039.385742	69.700417
439.117249	1225.994995	18576.126953	13322.331055	69.718979
439.475250	1216.335571	18908.556641	13559.281250	69.764816
439.833130	1221.685303	19290.250000	13864.218750	69.969772
440.191071	1217.598633	19550.679688	14028.129883	69.876579
440.548889	1225.623413	19864.533203	14222.284180	69.728653
440.906708	1222.948608	20154.462891	14414.207031	69.678841
441.264496	1224.286011	20365.482422	14611.258789	69.938011
441.622223	1224.731812	20513.273438	14741.512695	70.076744
441.979950	1222.279785	20601.990234	14788.100586	70.000114
442.337616	1220.719360	20696.875000	14780.893555	69.624489
442.695251	1217.450073	20606.595703	14701.387695	69.543739
443.052887	1223.691528	20452.714844	14628.422852	69.710930
443.410461	1224.731812	20277.285156	14559.989258	69.991974
443.768005	1223.988770	20103.492188	14499.656250	70.317886
444.125458	1222.948486	19983.642578	14386.864258	70.167534
444.482941	1228.298340	19973.314453	14355.954102	70.032784
444.840393	1230.230103	20101.337891	14382.109375	69.693199
445.197754	1234.465454	20343.416016	14586.664063	69.874054
445.555084	1230.453003	20573.976563	14760.085938	69.943993
445.912415	1227.406616	20952.326172	15052.541992	70.089691
446.269714	1218.639038	21237.425781	15248.182617	70.081886
446.626953	1215.666870	21559.529297	15506.680664	70.247292
446.984161	1215.518188	21863.130859	15715.992188	70.228325
447.341309	1217.524292	22129.431641	15884.063477	70.134865
447.698456	1223.468628	22340.525391	15985.784180	69.907066
448.055542	1227.406616	22436.748047	16103.108398	70.137497
448.412598	1225.177612	22406.134766	16105.635742	70.253944
448.769653	1220.570801	22260.648438	16052.359375	70.493034
449.126617	1219.827759	21935.947266	15788.065430	70.323196
449.483582	1225.103149	21692.158203	15614.046875	70.302948
449.840515	1229.635742	21344.050781	15352.206055	70.211197
450.197388	1230.750366	21103.904297	15192.530273	70.254478
450.554230	1225.400513	20863.980469	15052.468750	70.407677
450.911041	1218.564575	20686.843750	14927.714844	70.417885
451.267822	1216.038208	20466.314453	14817.449219	70.655670
451.624573	1217.227173	20214.798828	14653.165039	70.724495
451.981262	1218.564575	20002.738281	14568.683594	71.071098
452.337921	1221.462524	19798.406250	14450.541992	71.212357
452.694580	1222.428345	19684.572266	14371.112305	71.219696
453.051147	1222.577026	19675.138672	14337.824219	71.075478
453.407715	1216.632813	19574.085938	14270.729492	71.110611
453.764221	1221.610962	19561.751953	14255.645508	71.068344
454.120728	1226.663696	19310.832031	14119.671875	71.294449
454.477142	1227.852417	19263.205078	14083.188477	71.278534
454.833557	1228.001099	19072.095703	13958.879883	71.345055
455.189911	1227.703979	18903.501953	13859.539063	71.464012
455.546265	1225.400513	18693.673828	13695.403320	71.386581
455.902557	1219.604858	18522.109375	13609.065430	71.605019
456.258820	1216.855713	18521.216797	13573.621094	71.408386
456.615051	1210.911499	18555.695313	13628.679688	71.593681
456.971252	1214.106445	18554.580078	13632.542969	71.615326
457.327393	1217.672974	18724.730469	13795.192383	71.842567
457.683502	1229.635620	19028.257813	14019.510742	71.858788
458.039612	1233.722290	19532.177734	14360.338867	71.736198
458.395630	1237.883301	20031.791016	14692.098633	71.588173
458.751648	1230.007202	20476.494141	15027.354492	71.687622
459.107605	1228.892700	21119.359375	15525.924805	71.878815
459.463562	1222.502563	21740.828125	15963.864258	71.844856
459.819458	1223.691528	22345.353516	16406.263672	71.881523
460.175323	1210.465576	22873.275391	16755.412109	71.758675
460.531158	1209.722534	23373.703125	17153.527344	71.935654
460.886932	1210.614258	23744.697266	17385.128906	71.778008
461.242676	1223.394287	23926.666016	17501.189453	71.698013
461.598419	1221.090942	23784.451172	17402.884766	71.717133
461.954102	1220.422241	23422.447266	17157.761719	71.783272
462.309723	1216.484253	22794.736328	16749.914063	71.986504
462.665344	1214.255127	22103.945313	16269.696289	72.071159
463.020905	1215.443970	21503.951172	15858.281250	72.173058
463.376373	1221.536743	21011.173828	15525.627930	72.280716
463.731873	1229.858521	20617.521484	15221.506836	72.167793
464.087341	1240.632568	20267.775391	14970.512695	72.159439
464.442749	1234.093872	20057.648438	14832.829102	72.243187
464.798126	1232.013550	19943.074219	14778.885742	72.400345
465.153503	1223.394287	20011.134766	14838.179688	72.466324
465.508820	1220.942261	20050.142578	14852.668945	72.396736
465.864105	1213.586304	20179.058594	14944.506836	72.399574
466.219330	1215.220825	20466.164063	15108.343750	72.168533
466.574524	1220.273560	20645.382813	15268.911133	72.322052
466.929657	1223.617188	20848.228516	15387.127930	72.172188
467.284790	1229.710083	20932.267578	15518.569336	72.522873
467.639893	1215.666870	21084.585938	15596.958008	72.380836
467.994934	1223.319946	21205.998047	15715.769531	72.525063
468.349945	1214.998169	21247.310547	15738.653320	72.501144
468.704926	1223.320068	21241.958984	15727.804688	72.454895
469.059875	1215.592529	21094.021484	15600.301758	72.363403
469.414764	1215.741089	20890.507813	15435.573242	72.274460
469.769653	1219.456299	20691.970703	15294.323242	72.280693
470.124451	1217.227173	20558.671875	15199.883789	72.293747
470.479248	1213.734985	20372.617188	15079.291992	72.371429
470.834015	1212.323242	20263.837891	15005.063477	72.397079
471.188721	1213.660645	20300.023438	15034.635742	72.412827
471.543365	1216.855713	20420.837891	15124.765625	72.422012
471.898010	1218.787598	20578.062500	15216.528320	72.305084
472.252625	1216.186890	20702.445313	15328.206055	72.420364
472.607178	1213.140503	20938.730469	15488.773438	72.371132
472.961700	1215.295410	21127.384766	15623.484375	72.359001
473.316193	1217.524414	21423.779297	15800.547852	72.170845
473.670654	1226.440796	21579.441406	15914.973633	72.168884
474.025055	1225.326172	21789.421875	16114.180664	72.402184
474.379456	1230.007446	21941.818359	16258.549805	72.560249
474.733795	1230.973267	22116.798828	16400.542969	72.630928
475.088104	1229.338501	22279.296875	16503.451172	72.561249
475.442383	1229.189819	22319.869141	16539.634766	72.593422
475.796570	1224.657349	22452.947266	16609.480469	72.473213
476.150787	1221.016602	22673.773438	16743.076172	72.354614
476.504944	1215.443970	22918.007813	16936.636719	72.439331
476.859070	1209.945435	23135.044922	17126.406250	72.594704
477.213135	1218.193237	23339.970703	17330.291016	72.833649
477.567200	1227.406616	23780.064453	17620.593750	72.688492
477.921173	1235.059692	24234.648438	17949.902344	72.674530
478.275146	1228.521240	24760.859375	18316.958984	72.616829
478.629089	1225.474854	25098.937500	18582.144531	72.702774
478.983002	1220.793823	25562.218750	18914.351563	72.689079
479.336823	1221.908203	25976.380859	19191.427734	72.591003
479.690643	1217.672974	26438.392578	19551.052734	72.691742
480.044403	1220.199219	26951.677734	19958.677734	72.823174
480.398163	1222.948486	27666.468750	20514.314453	72.953094
480.751862	1228.669800	28646.447266	21235.273438	72.969460
481.105499	1230.453125	29795.611328	22121.779297	73.135689
481.459137	1229.932983	31322.236328	23322.658203	73.416527
481.812744	1222.577026	33220.671875	24732.849609	73.473976
482.166290	1225.697632	35548.949219	26518.271484	73.689331
482.519806	1221.165161	38310.183594	28559.736328	73.710686
482.873291	1221.536743	41386.984375	30936.384766	73.981117
483.226715	1212.917603	44752.675781	33508.375000	74.174637
483.580139	1211.357300	47867.750000	36077.089844	74.728737
483.933502	1211.580200	50816.449219	38607.097656	75.386787
484.286804	1216.261230	53276.542969	40895.402344	76.217682
484.640106	1214.032227	55283.378906	42956.035156	77.200867
484.993347	1220.422241	56534.859375	44432.875000	78.121475
485.346558	1220.942383	57114.871094	45197.156250	78.677979
485.699738	1224.063110	56959.949219	45085.253906	78.694702
486.052887	1221.016602	56322.949219	44355.300781	78.280891
486.405975	1220.273560	55342.671875	43246.410156	77.650177
486.759064	1226.069214	54104.265625	41874.488281	76.871796
487.112061	1225.028931	52803.527344	40509.769531	76.164955
487.464996	1226.217773	51637.792969	39325.234375	75.575928
487.817963	1225.920532	50908.437500	38662.828125	75.352280
488.170868	1225.028931	50500.886719	38292.949219	75.225319
488.523743	1220.793579	50382.000000	38220.503906	75.262009
488.876587	1215.518311	50287.339844	38145.605469	75.257217
489.229401	1214.180908	50102.175781	38000.789063	75.246712
489.582153	1217.598755	49632.363281	37618.503906	75.185547
489.934845	1219.307739	48912.000000	37009.292969	75.042915
490.287537	1218.639038	48075.050781	36311.074219	74.893562
490.640198	1219.233398	47250.437500	35682.324219	74.868973
490.992798	1222.279785	46509.417969	35079.578125	74.761398
491.345337	1226.366333	46018.718750	34720.398438	74.776230
491.697876	1224.211670	45654.792969	34382.839844	74.630196
492.050354	1232.607788	45633.984375	34406.691406	74.714088
492.402832	1237.363281	45543.332031	34362.632813	74.764801
492.755219	1242.267212	45336.699219	34222.574219	74.794724
493.107605	1231.270508	44720.062500	33724.296875	74.715866
493.459930	1227.109497	43753.828125	32979.261719	74.664009
493.812225	1222.428345	42408.578125	31941.552734	74.586060
494.164490	1222.354004	40756.675781	30663.841797	74.470711
494.516724	1214.626587	38919.988281	29220.140625	74.274612
494.868896	1212.248901	37080.328125	27843.828125	74.248695
495.221039	1210.317017	35484.824219	26635.146484	74.180000
495.573120	1215.369751	34108.218750	25622.103516	74.200737
495.925201	1221.090942	33190.804688	24924.400391	74.143013
496.277222	1220.645020	32563.240234	24474.351563	74.192024
496.629211	1223.691528	32271.601563	24245.794922	74.150253
496.981140	1217.970215	32089.787109	24137.087891	74.239616
497.333069	1224.286011	32090.601563	24154.103516	74.287514
497.684967	1220.868042	32105.685547	24209.681641	74.434029
498.036804	1219.530518	32176.345703	24214.068359	74.279404
498.388580	1214.998169	32105.015625	24161.908203	74.285843
498.740326	1215.369629	32027.890625	24085.005859	74.221893
499.092072	1217.004272	31759.361328	23914.181641	74.313774
499.443756	1215.443970	31451.525391	23696.177734	74.350685
499.795410	1214.106445	31102.376953	23424.974609	74.312988
500.147003	1217.821655	30735.992188	23164.914063	74.351128
500.498566	1227.258057	30346.570313	22862.203125	74.297585
500.850098	1234.985474	29940.505859	22555.111328	74.271866
501.201599	1227.183716	29615.281250	22283.681641	74.173683
501.553009	1222.651245	29267.619141	22046.734375	74.252480
501.904449	1217.004272	29029.625000	21848.271484	74.179512
502.255859	1224.211548	28753.962891	21650.253906	74.196251
502.607178	1221.982544	28676.539063	21541.548828	74.011635
502.958405	1223.319946	28545.396484	21461.152344	74.071358
503.309692	1228.075317	28467.525391	21406.986328	74.079727
503.660919	1227.778198	28384.974609	21378.230469	74.199310
504.012115	1228.298340	28367.884766	21392.869141	74.299477
504.363251	1220.645020	28438.251953	21410.626953	74.179855
504.714294	1220.125000	28483.427734	21456.025391	74.223953
505.065369	1220.199219	28509.732422	21476.830078	74.228569
505.416443	1224.063110	28494.724609	21514.279297	74.403099
505.767395	1221.165283	28552.455078	21501.275391	74.201073
506.118317	1221.388062	28527.564453	21450.599609	74.082916
506.469238	1216.335571	28559.662109	21425.189453	73.907806
506.820160	1221.610962	28512.181641	21450.376953	74.123642
507.170929	1224.137329	28536.703125	21486.044922	74.185295
507.521729	1231.344727	28591.835938	21574.017578	74.350533
507.872498	1231.939087	28712.726563	21591.330078	74.085907
508.223236	1225.548950	28888.677734	21728.865234	74.117851
508.573883	1220.199219	29049.837891	21818.919922	74.017204
508.924500	1213.140503	29161.587891	21929.781250	74.124481
509.275116	1218.118774	29335.382813	22060.703125	74.127357
509.625702	1219.976318	29565.646484	22231.150391	74.124809
509.976196	1222.799927	29860.554688	22468.326172	74.187119
510.326660	1217.895874	30139.931641	22610.390625	73.966072
510.677124	1218.936157	30392.859375	22793.400391	73.951195
511.027557	1213.883545	30592.658203	22948.916016	73.982094
511.377869	1216.855591	30837.931641	23151.093750	74.049431
511.728180	1212.174683	30968.927734	23288.328125	74.188721
512.078430	1220.422241	31106.312500	23347.101563	74.037209
512.428650	1219.753540	31166.724609	23411.744141	74.104294
512.778931	1221.462524	31307.525391	23474.679688	73.965202
513.129028	1215.295410	31344.677734	23553.960938	74.142464
513.479126	1218.936157	31364.443359	23588.806641	74.206314
513.829285	1217.524414	31286.203125	23546.162109	74.258789
514.179382	1227.480957	31223.267578	23505.070313	74.269066
514.529297	1227.258057	31139.005859	23421.109375	74.197777
514.879272	1226.143433	31151.935547	23479.062500	74.360336
515.229187	1229.115601	31085.062500	23424.451172	74.341423
515.579163	1227.035034	31109.880859	23488.056641	74.494316
515.928955	1235.134155	31089.966797	23468.812500	74.472626
516.278748	1228.669800	31285.607422	23605.826172	74.449219
516.628540	1229.412964	31547.005859	23809.412109	74.478203
516.978333	1223.097046	31987.837891	24105.658203	74.379173
517.327942	1222.428223	32515.462891	24519.005859	74.446526
517.677612	1221.165161	33060.175781	24937.851563	74.489395
518.027222	1223.394287	33625.992188	25355.505859	74.475853
518.376831	1222.205444	34292.269531	25843.525391	74.451996
518.726379	1222.428345	34917.820313	26275.595703	74.351913
519.075867	1221.536743	35450.050781	26676.685547	74.368248
519.425293	1222.279785	35794.886719	26980.062500	74.503448
519.774658	1218.638916	36034.738281	27190.484375	74.597237
520.124084	1223.468628	36115.429688	27299.414063	74.733391
520.473389	1220.942261	36061.187500	27201.037109	74.569206
520.822693	1220.496460	35838.656250	27025.609375	74.542130
521.171997	1217.895874	35526.878906	26783.382813	74.515427
521.521240	1218.341675	35134.265625	26524.140625	74.613319
521.870361	1217.598633	34742.019531	26234.134766	74.621826
522.219482	1217.821655	34352.453125	25940.789063	74.613670
522.568604	1221.685425	34021.433594	25683.552734	74.579430
522.917664	1223.245728	33808.855469	25549.662109	74.653862
523.266724	1217.821533	33773.039063	25528.259766	74.674477
523.615662	1216.038330	33945.496094	25700.494141	74.808617
523.964600	1209.351196	34286.027344	25982.101563	74.894920
524.313538	1209.202515	34784.671875	26395.373047	75.013603
524.662354	1218.416016	35403.464844	26890.822266	75.098351
525.011169	1227.332397	36255.046875	27504.341797	75.017769
525.359985	1230.750366	37266.156250	28293.656250	75.100876
525.708740	1225.920654	38478.109375	29210.406250	75.121727
526.057434	1227.778198	39760.203125	30260.599609	75.346466
526.406067	1231.419067	41283.632813	31477.976563	75.517815
526.754700	1224.731812	42963.019531	32803.984375	75.660149
527.103333	1226.960815	44964.886719	34350.964844	75.732910
527.451782	1228.075317	47032.953125	36018.687500	75.953949
527.800293	1233.796631	49117.363281	37778.992188	76.320953
528.148743	1235.877075	51038.464844	39497.761719	76.827103
528.497131	1232.533569	52706.488281	41051.582031	77.357666
528.845642	1224.880249	54078.488281	42417.492188	77.937180
529.193909	1217.301392	55153.050781	43664.738281	78.700005
529.542175	1217.152832	55930.042969	44601.019531	79.293686
529.890503	1218.787598	56306.457031	45136.300781	79.722946
530.238770	1214.775146	56271.312500	45112.078125	79.731316
530.586914	1214.329468	55886.496094	44692.718750	79.525635
530.934998	1213.363403	55164.941406	43820.105469	78.972191
531.283142	1221.388184	54154.425781	42736.101563	78.428741
531.631226	1217.450073	52847.437500	41350.355469	77.731773
531.979248	1226.663574	51282.480469	39905.687500	77.271790
532.327148	1221.982544	49655.167969	38381.441406	76.723137
532.675110	1224.062988	48160.941406	37098.605469	76.431465
533.023071	1216.335449	47146.417969	36198.425781	76.163788
533.370850	1220.273560	46493.292969	35614.929688	75.971642
533.718689	1218.787598	46343.199219	35466.175781	75.895477
534.066467	1223.171387	46319.125000	35473.234375	75.949303
534.414246	1217.895874	46390.980469	35545.457031	75.991180
534.761963	1220.422241	46327.003906	35494.335938	75.984283
535.109619	1222.131226	46173.125000	35374.035156	75.975861
535.457153	1222.354126	45810.300781	35098.300781	75.975571
535.804749	1225.697754	45186.457031	34651.074219	76.034576
536.152344	1221.313843	44442.246094	34048.777344	75.952698
536.499817	1229.338501	43545.558594	33358.359375	75.926025
536.847229	1223.691406	42624.277344	32566.064453	75.705147
537.194641	1225.028931	41617.253906	31782.837891	75.652695
537.542114	1219.604858	40770.949219	31137.072266	75.642097
537.889404	1229.412720	40073.910156	30601.945313	75.615692
538.236694	1229.338501	39588.785156	30198.853516	75.521202
538.583984	1233.796753	39278.945313	29927.724609	75.420731
538.931213	1227.555298	39127.816406	29842.869141	75.501625
539.278381	1230.378784	39115.777344	29880.837891	75.624016
539.625488	1221.982544	39212.886719	30001.880859	75.754715
539.972595	1218.193237	39545.468750	30228.130859	75.690056
540.319641	1215.295288	40028.878906	30632.560547	75.791161
540.666687	1217.004272	40712.839844	31145.099609	75.775322
541.013611	1223.914429	41654.328125	31870.664063	75.801224
541.360596	1222.354126	42729.046875	32634.421875	75.679527
541.707458	1225.994995	43922.488281	33555.699219	75.719818
542.054260	1210.614258	44921.566406	34421.925781	75.979385
542.401062	1212.917603	45848.863281	35231.082031	76.212486
542.747864	1219.307617	46414.753906	35758.035156	76.420815
543.094666	1237.437378	46641.300781	35940.675781	76.432350
543.441284	1234.539673	46370.250000	35695.402344	76.349442
543.787903	1229.858521	45766.687500	35153.511719	76.169891
544.134460	1220.793701	44853.285156	34417.093750	76.081604
544.481079	1224.806152	43676.179688	33514.613281	76.063042
544.827637	1223.542969	42224.453125	32367.976563	75.960350
545.174072	1229.041382	40617.656250	31100.593750	75.838043
545.520508	1227.035156	39136.878906	29930.994141	75.716377
545.866943	1234.391235	37853.816406	28910.447266	75.577530
546.213318	1234.985596	36823.761719	28138.513672	75.595535
546.559631	1239.666626	35999.519531	27484.130859	75.502235
546.905823	1237.660400	35314.152344	26944.541016	75.438751
547.252136	1233.128052	34725.375000	26446.640625	75.281639
547.598389	1223.840210	34150.644531	25960.255859	75.125465
547.944458	1216.558350	33657.050781	25603.380859	75.174019
548.290588	1224.434448	33101.785156	25176.734375	75.138931
548.636658	1229.115601	32523.937500	24771.041016	75.226265
548.982727	1226.589355	31899.197266	24287.109375	75.182785
549.328735	1215.666870	31214.275391	23825.759766	75.370476
549.674622	1211.505859	30523.705078	23297.171875	75.346329
550.020569	1213.363403	29853.421875	22784.929688	75.319565
550.366455	1222.354126	29128.970703	22181.218750	75.103569
550.712280	1224.880371	28462.029297	21677.373047	75.090431
551.058044	1222.725586	27830.751953	21236.757813	75.218018
551.403748	1215.369629	27407.154297	20868.736328	75.036377
551.749512	1221.610962	27080.666016	20587.648438	74.890739
552.095154	1228.001099	26831.009766	20377.371094	74.793434
552.440735	1227.332397	26668.359375	20287.019531	74.917130
552.786316	1221.536743	26573.103516	20231.960938	74.987175
553.131897	1217.598633	26530.158203	20215.318359	75.052544
553.477417	1221.685303	26543.009766	20216.656250	75.015709
553.822815	1228.595581	26460.982422	20151.417969	74.994186
554.168213	1230.155884	26428.882813	20087.591797	74.834877
554.513672	1225.549072	26298.259766	20005.042969	74.900131
554.859009	1224.286011	26194.384766	19965.216797	75.053490
555.204285	1218.564575	26015.017578	19874.343750	75.235680
555.549500	1226.589355	25784.755859	19713.626953	75.278572
555.894714	1220.125000	25569.427734	19502.162109	75.082382
556.239990	1229.412964	25283.880859	19275.166016	75.020378
556.585022	1223.914429	25049.826172	19055.376953	74.840630
556.930115	1218.564697	24764.650391	18872.521484	74.976189
557.275146	1213.809326	24503.255859	18643.369141	74.838875
557.620178	1217.078613	24279.677734	18468.240234	74.801460
557.965149	1223.319946	24081.291016	18294.818359	74.685097
558.310059	1212.471802	23929.935547	18187.300781	74.721497
558.654968	1213.734985	23799.978516	18111.064453	74.812485
558.999756	1208.756714	23685.703125	18037.728516	74.872147
559.344604	1215.443848	23599.585938	17967.958984	74.840996
559.689331	1212.100342	23488.281250	17893.060547	74.882500
560.033997	1222.502686	23425.343750	17822.623047	74.765747
560.378723	1228.372681	23399.859375	17808.429688	74.780991
560.723389	1221.982544	23372.365234	17767.712891	74.697266
561.067932	1216.929932	23356.093750	17781.087891	74.818352
561.412476	1215.592529	23320.726563	17740.962891	74.758064
561.757019	1221.982544	23316.789063	17747.650391	74.794357
562.101501	1219.604858	23316.046875	17703.365234	74.599159
562.445862	1223.245728	23267.451172	17690.513672	74.701118
562.790222	1227.406616	23236.765625	17681.966797	74.761650
563.134644	1227.852539	23200.353516	17684.271484	74.895523
563.478943	1227.852417	23225.841797	17691.404297	74.841171
563.823181	1221.239380	23288.181641	17693.187500	74.645355
564.167358	1223.022827	23361.666016	17707.603516	74.460663
564.511536	1222.799927	23461.158203	17759.318359	74.360336
564.855774	1223.542847	23482.556641	17760.802734	74.294662
565.199768	1225.400513	23557.529297	17835.773438	74.378815
565.543823	1217.672974	23626.333984	17915.054688	74.513069
565.887817	1217.970215	23817.437500	18070.349609	74.569809
566.231812	1217.895874	23964.187500	18211.078125	74.707481
566.575745	1222.502563	24095.927734	18319.189453	74.744759
566.919617	1225.549072	24208.343750	18457.464844	74.977463
567.263428	1223.171387	24258.576172	18522.626953	75.099419
567.607239	1220.793701	24412.531250	18593.660156	74.909721
567.950989	1218.787598	24501.468750	18644.408203	74.843704
568.294678	1219.679199	24634.843750	18661.650391	74.490067
568.638367	1224.508911	24579.935547	18634.751953	74.544746
568.981995	1222.725708	24497.755859	18536.595703	74.388176
569.325623	1228.521240	24342.833984	18453.898438	74.522560
569.669128	1228.075317	24197.720703	18369.044922	74.624443
570.012573	1231.270386	24043.320313	18325.056641	74.933144
570.356140	1228.892700	23993.906250	18305.441406	75.012253
570.699524	1233.648071	23927.482422	18256.625000	75.011459
571.042908	1235.134155	23995.392578	18263.609375	74.816704
571.386230	1224.583130	24005.203125	18290.878906	74.915855
571.729492	1220.199219	24108.853516	18411.322266	75.107620
572.072815	1215.220947	24168.890625	18502.195313	75.312462
572.416016	1221.759644	24245.869141	18574.564453	75.367973
572.759094	1221.982544	24393.880859	18611.791016	75.046974
573.102234	1222.874146	24457.185547	18638.912109	74.958267
573.445374	1223.171387	24530.150391	18687.876953	74.933372
573.788391	1214.552368	24519.154297	18718.117188	75.107758
574.131409	1220.422241	24539.513672	18727.630859	75.076721
574.474365	1219.753540	24576.218750	18729.787109	74.968681
574.817261	1217.227173	24485.570313	18667.666016	74.996483
575.160156	1208.979614	24331.021484	18561.490234	75.047485
575.502930	1207.567749	24060.187500	18389.255859	75.184761
575.845703	1208.310913	23872.720703	18229.652344	75.101631
576.188477	1210.911499	23621.427734	18063.140625	75.197861
576.531250	1209.202515	23422.076172	17897.369141	75.128357
576.873901	1217.004272	23165.880859	17756.714844	75.355614
577.216431	1214.923828	22955.380859	17565.535156	75.208221
577.559082	1214.255005	22679.048828	17349.314453	75.169884
577.901611	1217.524414	22396.029297	17076.400391	74.881943
578.244080	1219.530518	22084.994141	16819.388672	74.764015
578.586487	1221.759644	21774.560547	16592.541016	74.786797
578.928955	1247.319702	21411.814453	16352.246094	74.908531
579.271301	1249.177368	21086.369141	16104.520508	74.886322
579.613647	1247.542725	20724.587891	15848.398438	74.964432
579.955872	1214.998169	20416.457031	15628.463867	75.064430
580.298157	1211.728882	20107.802734	15443.375000	75.315361
580.640320	1218.787598	19865.203125	15238.967773	75.189674
580.982483	1224.137329	19655.595703	15063.539063	75.085762
581.324524	1228.595581	19444.724609	14894.871094	75.022942
581.666626	1234.168213	19269.964844	14807.045898	75.255219
582.008728	1236.174438	19099.068359	14725.015625	75.513184
582.350647	1234.837036	18963.986328	14611.109375	75.447914
582.692566	1229.635620	18842.798828	14496.312500	75.322510
583.034424	1229.635620	18775.853516	14398.008789	75.049637
583.376343	1225.920532	18663.804688	14329.129883	75.142189
583.718201	1224.806030	18578.353516	14267.905273	75.161003
584.059937	1216.929932	18443.718750	14190.928711	75.312927
584.401611	1221.165161	18369.638672	14134.308594	75.302002
584.743347	1222.874146	18307.373047	14052.575195	75.095573
585.085022	1221.982544	18274.087891	14003.387695	74.954994
585.426514	1224.583130	18191.462891	13976.416992	75.157219
585.768127	1217.152832	18134.619141	13925.518555	75.119789
586.109619	1226.366333	18055.115234	13877.666992	75.176720
586.451172	1223.171265	18041.962891	13810.645508	74.841736
586.792542	1218.415894	17984.453125	13795.786133	75.016953
587.133850	1218.787476	17944.775391	13747.860352	74.907822
587.475220	1217.598755	17918.994141	13735.378906	74.950508
587.816589	1232.161987	17909.630859	13727.278320	74.922142
588.157776	1228.892700	17931.105469	13735.081055	74.877434
588.498962	1234.836914	17959.638672	13764.429688	74.916245
588.840210	1225.474731	17994.853516	13796.752930	74.965675
589.181335	1225.549194	18062.025391	13850.250000	74.984222
589.522400	1217.450195	18080.156250	13850.027344	74.914291
589.863403	1217.375854	18109.132813	13833.010742	74.685150
590.204407	1217.301514	18033.937500	13807.897461	74.869881
590.545410	1215.072388	18075.546875	13824.465820	74.786705
590.886353	1216.632690	18041.146484	13821.272461	74.918297
591.227112	1220.868042	18020.193359	13788.355469	74.809471
591.567932	1223.914429	17957.406250	13758.262695	74.905754
591.908752	1225.920532	17918.843750	13728.393555	74.896843
592.249512	1225.177612	17979.845703	13769.334961	74.869629
592.590149	1230.824585	17932.218750	13736.492188	74.877983
592.930786	1234.836792	17902.275391	13732.257813	74.981049
593.271423	1232.607788	17796.171875	13648.444336	74.958725
593.612000	1229.858643	17727.216797	13615.973633	75.079391
593.952576	1226.143555	17711.613281	13589.223633	74.993805
594.292969	1224.285889	17740.070313	13599.329102	74.928581
594.633484	1216.632690	17796.988281	13635.366211	74.900284
594.973877	1213.957886	17840.900391	13675.860352	74.950050
595.314209	1211.654419	17911.414063	13734.411133	74.987648
595.654480	1213.512085	18066.482422	13838.211914	74.910828
595.994812	1215.889771	18241.541016	13978.421875	74.960617
596.335022	1217.747437	18446.763672	14136.166992	74.980606
596.675171	1221.610962	18585.785156	14241.899414	74.983635
597.015320	1223.617188	18741.375000	14317.316406	74.745293
597.355408	1223.394287	18756.458984	14370.592773	74.985168
597.695496	1225.623413	18813.820313	14371.187500	74.740829
598.035461	1222.279663	18733.052734	14317.762695	74.785294
598.375366	1221.759644	18760.990234	14289.454102	74.505516
598.715271	1221.908325	18712.173828	14280.760742	74.663544
599.055176	1228.744141	18621.154297	14203.187500	74.598305
599.395081	1230.453125	18436.585938	14053.317383	74.524963
599.734802	1224.880371	18178.085938	13878.187500	74.636665
600.074524	1221.610962	17924.119141	13700.901367	74.715065
600.414246	1220.496460	17621.857422	13459.195313	74.620018
600.753906	1220.645020	17291.357422	13181.301758	74.425179
601.093506	1221.908203	16968.585938	12947.843750	74.466095
601.433044	1218.044556	16696.712891	12766.842773	74.611061
601.772583	1218.267456	16555.091797	12640.601563	74.476524
602.112122	1211.728760	16512.888672	12593.864258	74.387405
602.451538	1221.313843	16524.330078	12615.487305	74.457047
602.790894	1219.010376	16574.263672	12707.176758	74.815872
603.130310	1223.097046	16692.701172	12801.465820	74.845932
603.469604	1215.369629	16878.236328	12941.453125	74.865501
603.808838	1220.868042	17134.654297	13086.640625	74.562851
604.148010	1221.165161	17386.615234	13261.625000	74.482674
604.487305	1219.456177	17654.625000	13430.514648	74.298347
604.826416	1219.010376	17834.289063	13574.289063	74.360939
605.165527	1213.734985	17977.320313	13672.293945	74.319176
605.504456	1214.403687	18062.173828	13744.442383	74.372093
605.843445	1218.267456	18140.935547	13793.631836	74.310768
606.182434	1224.583130	18150.000000	13838.211914	74.524780
606.521423	1227.703857	18083.423828	13786.793945	74.509361
606.860229	1219.679199	17982.818359	13681.284180	74.339333
607.199036	1224.137207	17816.158203	13536.097656	74.204102
607.537903	1221.313843	17653.583984	13428.359375	74.287033
607.876648	1226.143555	17394.490234	13277.598633	74.537338
608.215271	1219.159058	17177.599609	13096.226563	74.424988
608.553955	1222.502686	16931.509766	12904.969727	74.367950
608.892578	1226.069214	16749.466797	12721.368164	74.051437
609.231140	1224.954712	16577.083984	12605.902344	74.132698
609.569641	1220.645142	16431.154297	12456.182617	73.866936
609.908081	1222.502808	16294.511719	12413.458008	74.249924
610.246521	1222.428467	16236.036133	12339.898438	74.049294
610.584961	1224.508911	16222.067383	12319.019531	73.975449
610.923340	1215.815308	16227.566406	12296.282227	73.811951
611.261597	1220.124878	16156.831055	12252.518555	73.860954
611.599854	1222.651245	16101.104492	12210.165039	73.848495
611.938110	1224.657471	15998.788086	12102.723633	73.629143
612.276245	1220.570801	15865.710938	11990.081055	73.536407
612.614319	1219.604858	15626.457031	11828.993164	73.641266
612.952393	1218.341675	15376.726563	11650.592773	73.682495
613.290466	1217.672852	15097.421875	11471.151367	73.873657
613.628479	1220.273560	14798.723633	11240.738281	73.796822
613.966370	1225.103149	14510.875977	11043.464844	73.901321
614.304260	1232.013306	14264.934570	10855.626953	73.840805
614.642151	1234.242432	14073.307617	10738.303711	74.024559
614.979980	1230.601685	13908.132813	10611.766602	73.998360
615.317749	1232.310669	13746.002930	10485.526367	73.944725
615.655396	1223.988770	13668.208008	10382.245117	73.594460
615.993164	1217.672974	13601.039063	10317.973633	73.488098
616.330811	1211.134399	13587.143555	10263.435547	73.143944
616.668396	1212.991943	13510.760742	10261.949219	73.582108
617.005859	1211.951660	13465.585938	10238.915039	73.667633
617.343445	1209.945435	13431.109375	10256.375977	74.022659
617.680908	1210.539917	13426.725586	10211.497070	73.680588
618.018311	1218.564575	13417.213867	10212.834961	73.731689
618.355652	1224.062988	13435.343750	10214.543945	73.624382
618.692993	1228.744019	13424.198242	10235.274414	73.851540
619.030273	1234.316772	13434.377930	10220.264648	73.654945
619.367554	1223.765747	13392.323242	10200.500000	73.769913
619.704712	1222.279785	13414.761719	10195.373047	73.595299
620.041870	1223.468628	13384.891602	10208.822266	73.884064
620.379028	1229.189941	13366.019531	10188.612305	73.820114
620.716064	1221.759644	13283.765625	10141.282227	73.947258
621.053040	1217.004272	13240.372070	10071.585938	73.644775
621.389954	1218.267456	13180.708008	10000.997070	73.419212
621.726929	1222.799927	13139.098633	9926.026367	73.036324
622.063843	1222.577026	13089.092773	9907.747070	73.190567
622.400635	1219.010376	13058.554688	9883.747070	73.184715
622.737427	1221.462402	13014.567383	9894.967773	73.547256
623.074219	1217.524292	12962.183594	9851.203125	73.511528
623.410889	1224.137329	12884.092773	9833.221680	73.834625
623.747559	1222.502563	12859.645508	9797.036133	73.682465
624.084167	1224.806030	12829.924805	9776.379883	73.687950
624.420715	1223.097046	12862.097656	9779.426758	73.514297
624.757324	1227.035034	12858.010742	9781.507813	73.549057
625.093750	1228.149658	12905.789063	9820.887695	73.582832
625.430176	1222.131226	12953.936523	9852.690430	73.565483
625.766602	1214.180786	13007.954102	9891.995117	73.579628
626.102905	1214.775146	13076.461914	9944.527344	73.596214
626.439209	1220.125000	13123.495117	9993.566406	73.705528
626.775452	1218.861816	13236.508789	10079.981445	73.734230
627.111694	1213.437744	13296.991211	10100.489258	73.546677
627.447876	1215.592407	13380.210938	10138.903320	73.354630
627.783997	1223.097046	13406.215820	10148.859375	73.263359
628.120056	1228.966919	13455.034180	10205.627930	73.422310
628.456055	1229.115601	13432.668945	10204.883789	73.550446
628.792053	1220.942261	13409.041992	10205.850586	73.718697
629.128052	1213.363403	13325.597656	10148.042969	73.765739
629.463928	1208.756714	13292.608398	10111.411133	73.673981
629.799744	1209.648315	13226.627930	10049.517578	73.561493
630.135559	1208.088013	13154.703125	9983.760742	73.457397
630.471375	1202.812622	13012.784180	9882.187500	73.491920
630.807068	1202.961060	12859.721680	9768.950195	73.485161
631.142700	1211.505981	12710.296875	9672.876953	73.584877
631.478333	1223.245728	12538.807617	9589.434570	73.935249
631.813965	1228.669800	12385.594727	9502.946289	74.162697
632.149475	1231.493286	12255.713867	9387.704102	73.984467
632.484924	1221.759644	12192.409180	9293.488281	73.575668
632.820435	1219.901978	12115.579102	9219.778320	73.422485
633.155884	1214.478149	12041.202148	9181.661133	73.588127
633.491150	1224.806152	11965.116211	9131.803711	73.619820
633.826477	1228.075317	11878.702148	9098.963867	73.900711
634.161804	1224.137207	11805.141602	9054.901367	74.007759
634.497009	1213.066162	11768.956055	9026.071289	74.015602
634.832153	1209.722534	11730.096680	8959.496094	73.664429
635.167297	1217.598755	11670.429688	8903.100586	73.525551
635.502380	1227.926636	11586.245117	8830.506836	73.395889
635.837463	1224.806030	11512.909180	8781.318359	73.449028
636.172424	1227.332153	11439.276367	8745.653320	73.622818
636.507324	1223.468628	11356.426758	8699.882813	73.783134
636.842224	1231.790405	11280.043945	8656.712891	73.892662
637.177124	1234.911133	11187.092773	8569.481445	73.698112
637.511963	1230.453003	11075.637695	8489.829102	73.735298
637.846741	1225.177612	10975.106445	8397.842773	73.566330
638.181396	1215.221069	10866.475586	8308.752930	73.498543
638.516113	1216.409790	10761.487305	8244.555664	73.631104
638.850769	1215.369629	10638.069336	8156.655762	73.665581
639.185303	1214.032104	10540.137695	8087.033691	73.696373
639.519836	1208.830933	10467.321289	8027.071777	73.643120
639.854370	1216.335571	10403.867188	7973.722656	73.549545
640.188843	1223.765869	10336.772461	7935.828125	73.653656
640.523254	1230.824707	10263.509766	7882.626953	73.641472
640.857605	1225.177612	10174.198242	7827.346191	73.775322
641.191895	1224.360229	10105.169922	7764.560059	73.644180
641.526184	1221.833862	10019.053711	7699.768066	73.636154
641.860413	1222.799927	9973.952148	7635.273438	73.275764
642.194580	1222.502563	9896.750977	7568.104004	73.154488
642.528748	1223.765869	9831.735352	7503.534668	72.952957
642.862793	1225.028931	9753.346680	7476.562988	73.303253
643.196838	1223.171509	9698.139648	7460.736816	73.599869
643.530823	1225.994995	9656.307617	7425.739746	73.541100
643.864746	1223.394409	9603.180664	7388.216797	73.567772
644.198669	1211.431641	9579.106445	7352.997559	73.396324
644.532532	1212.248901	9537.793945	7336.427734	73.558891
644.866333	1212.768921	9495.293945	7297.492676	73.464592
645.200073	1223.245605	9449.151367	7278.991699	73.617981
645.533813	1215.146729	9423.145508	7272.453125	73.797607
645.867554	1221.388184	9423.071289	7262.868652	73.661469
646.201172	1225.772095	9398.402344	7226.088379	73.419647
646.534729	1226.292114	9391.121094	7216.131348	73.361481
646.868225	1227.480957	9386.959961	7238.645996	73.670944
647.201782	1222.799805	9400.408203	7267.103516	73.912857
647.535217	1224.063110	9407.690430	7258.855469	73.742271
647.868591	1216.112671	9414.823242	7254.472168	73.650108
648.201965	1218.936157	9393.573242	7233.072754	73.570686
648.535278	1229.487183	9369.202148	7226.756348	73.679108
648.868591	1231.493286	9354.637695	7212.564941	73.630005
649.201782	1229.784302	9354.563477	7195.921875	73.431381
649.534912	1217.152954	9346.761719	7168.281250	73.203133
649.868103	1214.923706	9309.983398	7144.058105	73.243866
650.201172	1213.437744	9280.558594	7129.123535	73.330811
650.534180	1221.536743	9238.131836	7119.909668	73.577034
650.867188	1222.725586	9201.128906	7076.739746	73.373253
651.200134	1225.994995	9196.298828	7056.900879	73.157890
651.533020	1221.313843	9155.953125	7025.173828	73.145859
651.865845	1222.279785	9115.680664	7013.285156	73.365150
652.198608	1220.868042	9037.217773	6987.725098	73.779411
652.531433	1222.948486	9016.338867	6966.994629	73.704071
652.864136	1225.623413	8992.338867	6934.227051	73.500870
653.196777	1313.969238	9042.493164	6980.443359	73.318970
653.529358	1322.142578	8983.792969	6954.511719	73.513786
653.861938	1313.820679	8938.022461	6911.193359	73.415848
654.194519	1225.177612	8802.866211	6781.460938	73.324249
654.526978	1214.700928	8785.033203	6740.593750	72.994057
654.859375	1217.895874	8726.706055	6687.170410	72.838097
655.191833	1215.146729	8704.265625	6662.278809	72.733948
655.524170	1224.137329	8632.340820	6611.529785	72.721985
655.856445	1224.360352	8588.057617	6589.759766	72.862846
656.188660	1228.669800	8542.361328	6573.041504	73.073517
656.520874	1224.434570	8515.834961	6553.945801	73.093109
656.853088	1223.171509	8488.194336	6558.181152	73.434174
657.185181	1219.084839	8480.541992	6535.296387	73.211357
657.517212	1214.180786	8503.500977	6551.642090	73.223030
657.849243	1210.539917	8555.512695	6567.542969	72.934280
658.181274	1209.499634	8617.184570	6619.629395	73.034019
658.513123	1214.700806	8657.901367	6659.752441	73.154709
658.844971	1224.731689	8730.867188	6700.842285	72.955124
659.176819	1227.035034	8797.219727	6744.012207	72.877708
659.508667	1223.617188	8881.478516	6788.073730	72.663322
659.840393	1223.542847	8920.487305	6831.689453	72.861984
660.172058	1227.703857	8946.418945	6878.128906	73.204216
660.503662	1230.230103	8970.938477	6905.472168	73.316833
660.835266	1228.075317	9002.442383	6930.140625	73.344429
661.166931	1224.657471	8978.443359	6894.252441	73.120338
661.498413	1226.737915	8943.743164	6864.753906	73.059639
661.829773	1225.400391	8885.936523	6800.927734	72.782471
662.161194	1230.601685	8814.159180	6732.049316	72.544418
662.492615	1226.960815	8717.417969	6654.552246	72.460083
662.823975	1232.162109	8583.079102	6568.063965	72.588249
663.155212	1231.270386	8453.048828	6484.026855	72.734940
663.486450	1238.329224	8285.199219	6369.377441	72.813156
663.817627	1234.911133	8155.986816	6277.762207	72.862244
664.148743	1230.527344	8035.244629	6178.494141	72.713776
664.479858	1224.806030	7949.722656	6104.117188	72.555710
664.810913	1217.895996	7866.354004	6026.693848	72.329521
665.141907	1218.416016	7789.896973	5980.328613	72.463310
665.472778	1217.450073	7711.136230	5933.814941	72.630013
665.803711	1231.344727	7659.421875	5902.905762	72.674316
666.134583	1231.641968	7580.586426	5862.707520	72.942291
666.465454	1229.709961	7556.958496	5831.872559	72.735603
666.796143	1220.199219	7494.692871	5781.939941	72.702927
667.126831	1218.341675	7490.457520	5768.193848	72.540947
667.457458	1222.131226	7455.832031	5746.423828	72.577957
667.788147	1224.954590	7438.147949	5757.940918	72.957436
668.118774	1228.149536	7401.739746	5728.665527	72.899490
668.449219	1225.994751	7387.102051	5714.770996	72.856651
668.779663	1233.499390	7372.242188	5695.749512	72.689964
669.110107	1224.954712	7364.143066	5664.839355	72.320389
669.440552	1227.480835	7346.756348	5653.693848	72.332306
669.770874	1213.957886	7335.907715	5637.570313	72.258224
670.101135	1214.552246	7314.806152	5643.514160	72.602913
670.431396	1213.437744	7271.561035	5614.388184	72.645439
670.761597	1218.713257	7221.481934	5574.338379	72.560272
671.091797	1223.765747	7199.710938	5538.078613	72.194656
671.421875	1224.731812	7188.490723	5526.785156	72.136604
671.751892	1217.524414	7172.515625	5516.828125	72.196640
672.081909	1218.787598	7134.250000	5488.593750	72.180428
672.411865	1213.660645	7079.562988	5457.980957	72.355797
672.741821	1220.050659	7032.009277	5419.565918	72.256454
673.071716	1216.706909	6985.050293	5399.950195	72.520706
673.401550	1216.186890	6939.130859	5374.687012	72.663651
673.731262	1218.118774	6888.233887	5347.492676	72.826988
674.060974	1217.747192	6857.917969	5309.375488	72.544403
674.390625	1225.326050	6845.360840	5279.356934	72.135330
674.720276	1222.056763	6833.101563	5252.831055	71.836433
675.049927	1220.645020	6788.296875	5235.295410	72.106705
675.379395	1221.239624	6750.848145	5205.574219	72.054550
675.708923	1219.456177	6702.699707	5166.119629	71.976807
676.038330	1220.422241	6688.805176	5135.729980	71.599007
676.367737	1222.279785	6665.474121	5095.011719	71.148148
676.697083	1223.542969	6643.480469	5084.163574	71.229980
677.026428	1228.521240	6602.465332	5051.470215	71.138603
677.355652	1221.462402	6563.382324	5049.910156	71.668015
677.684875	1221.982544	6547.035156	5049.984375	71.886650
678.013977	1218.416016	6554.688965	5069.525879	72.168533
678.343079	1217.895874	6564.645996	5077.179199	72.179985
678.672180	1218.861816	6573.859375	5078.590820	72.077141
679.001221	1223.319946	6595.035156	5087.284180	71.931664
679.330139	1222.577026	6622.972656	5102.070801	71.837212
679.659058	1222.056885	6641.177246	5127.630859	72.070259
679.987976	1218.267456	6661.536621	5149.104004	72.214630
680.316772	1218.639038	6696.310059	5170.577637	72.146332
680.645630	1214.032227	6744.458496	5190.193848	71.896118
680.974304	1217.747314	6771.132813	5196.212402	71.640350
681.302979	1215.666870	6790.377441	5200.744629	71.484924
681.631653	1222.279785	6797.287598	5198.069824	71.314522
681.960266	1220.942383	6816.754395	5223.258301	71.523415
682.288757	1227.480957	6818.611816	5234.700684	71.671005
682.617249	1225.326172	6830.425781	5256.396973	71.917915
682.945679	1222.874268	6815.714355	5245.549316	71.925446
683.274109	1222.502686	6787.330566	5234.626953	72.097900
683.602478	1225.994995	6727.442871	5179.494629	71.862892
683.930725	1227.629639	6645.857910	5106.083008	71.581573
684.259033	1221.833984	6571.853027	5051.024902	71.573410
684.587280	1215.221069	6520.509766	5014.393066	71.611031
684.915344	1217.152954	6486.701660	4988.981934	71.577835
685.243469	1222.948608	6430.454590	4948.412598	71.540276
685.571533	1229.115723	6354.665527	4909.255371	71.799904
685.899536	1228.298340	6287.125000	4862.369629	71.836250
686.227539	1233.053589	6223.595703	4810.804199	71.690620
686.555420	1233.722290	6196.994629	4783.312500	71.517136
686.883301	1230.453125	6177.453613	4777.293457	71.696785
687.211121	1223.988647	6197.515625	4774.247070	71.383110
687.538940	1221.982544	6186.072754	4755.819824	71.188019
687.866638	1223.097046	6182.506348	4745.343262	71.021484
688.194336	1226.589233	6158.506348	4745.343262	71.346573
688.521973	1227.629517	6145.429688	4730.111328	71.220497
688.849609	1229.115601	6125.664551	4717.628418	71.244316
689.177063	1226.737915	6104.117188	4705.739746	71.329330
689.504578	1229.338623	6069.789063	4686.124023	71.414543
689.832031	1230.973267	5999.053223	4651.201660	71.731773
690.159485	1223.394287	5903.277344	4588.192871	71.899208
690.486816	1213.512085	5817.977051	4542.570801	72.300659
690.814087	1212.546021	5776.517090	4497.320801	71.971855
691.141296	1220.348022	5719.749512	4456.528809	71.924690
691.468506	1227.109497	5673.979004	4403.996582	71.440979
691.795715	1224.880371	5594.623535	4339.947754	71.287193
692.122803	1220.868042	5533.323730	4294.846191	71.281387
692.449829	1218.267456	5456.717285	4259.849121	71.761650
692.776855	1217.673096	5386.501465	4235.403809	72.387985
693.103821	1227.629517	5352.916016	4193.348145	71.891220
693.430664	1229.487183	5310.192383	4152.185059	71.622368
693.757568	1234.168213	5278.985352	4104.333984	70.959099
694.084351	1223.542969	5236.187012	4073.052490	71.013268
694.411133	1225.549072	5217.239746	4051.950439	70.807121
694.737854	1218.564575	5171.692383	4039.987549	71.371910
695.064575	1221.536743	5133.277832	4033.820313	71.893402
695.391174	1221.165161	5093.971680	4015.616455	72.155708
695.717773	1224.583130	5099.990234	4001.944580	71.666306
696.044250	1223.765747	5101.402344	3989.907471	71.335762
696.370789	1219.456299	5103.631348	4000.607178	71.602097
696.697205	1217.152832	5106.751465	4012.421143	71.865211
697.023621	1209.499634	5151.036133	4035.678467	71.702461
697.349915	1214.180786	5208.174805	4072.680908	71.569962
697.676208	1214.478027	5276.830566	4132.791992	71.838028
698.002380	1219.159058	5348.458496	4190.228027	71.950920
698.328674	1219.530640	5428.111328	4242.091309	71.819000
698.654724	1221.016724	5522.549316	4289.645020	71.338020
698.980896	1221.388184	5594.994629	4340.987793	71.327850
699.306946	1215.072388	5655.105469	4382.522949	71.338448
699.632935	1214.700806	5685.421387	4410.757813	71.488632
699.958862	1222.651245	5693.074707	4413.953125	71.387016
700.284729	1221.982544	5694.635254	4403.847656	71.140450
700.610596	1226.589355	5669.817871	4382.448730	71.026268
700.936340	1220.942383	5636.009766	4359.786621	71.093918
701.262146	1223.097168	5569.212402	4305.991699	70.934486
701.587830	1223.765869	5471.280762	4234.140625	70.873795
701.913513	1224.806030	5360.569824	4147.429199	70.667068
702.239075	1223.319946	5235.443848	4058.934814	70.676147
702.564697	1217.598755	5123.320801	3984.706299	70.847527
702.890137	1215.369629	5000.127441	3897.475342	70.865982
703.215698	1213.586304	4889.713379	3835.506592	71.322899
703.541016	1214.849487	4806.939941	3769.377197	71.115356
703.866455	1212.397339	4743.263184	3716.473633	70.919609
704.191711	1217.747192	4687.684570	3681.105469	70.991432
704.517029	1224.137329	4624.080566	3639.495850	71.041138
704.842163	1229.710083	4564.713379	3605.539307	71.239182
705.167419	1234.911255	4527.041504	3555.831055	70.499031
705.492493	1232.013550	4489.221680	3520.462891	70.258003
705.817566	1227.555176	4456.528320	3503.967773	70.499580
706.142578	1214.775146	4416.479004	3485.912109	70.935257
706.467590	1207.716431	4394.188477	3475.286377	71.162392
706.792480	1210.242676	4368.256836	3458.865967	71.203712
707.117371	1220.273560	4348.492676	3449.503906	71.261963
707.442200	1224.880249	4336.306641	3449.355225	71.493744
707.766907	1228.446777	4329.024902	3438.135498	71.266991
708.091675	1228.818237	4334.969238	3436.129150	71.062584
708.416321	1229.858521	4341.136230	3441.107422	71.072052
708.741028	1230.081665	4361.718262	3458.568604	71.160454
709.065552	1228.744263	4376.059082	3474.171875	71.344231
709.390137	1228.001099	4395.451660	3475.806641	70.965767
709.714600	1226.515015	4419.897461	3484.500000	70.708252
710.039063	1225.994995	4446.646484	3507.013916	70.824776
710.363403	1228.669800	4469.531250	3534.060303	71.135124
710.687744	1222.428345	4505.196777	3565.936279	71.388153
711.012085	1224.137329	4546.955078	3584.140381	71.024147
711.336304	1221.090820	4580.614258	3597.737549	70.743568
711.660461	1225.474731	4605.654297	3613.712891	70.654182
711.984619	1223.765747	4617.616699	3626.938721	70.809616
712.308716	1226.440796	4624.081055	3632.660156	70.820313
712.632751	1226.663696	4607.288574	3613.564209	70.605301
712.956726	1219.679199	4577.716309	3598.406250	70.836830
713.280701	1218.267456	4550.149414	3578.418945	70.835388
713.604553	1217.895874	4525.406738	3553.156250	70.604767
713.928467	1227.035034	4497.395020	3537.032471	70.634354
714.252258	1228.669800	4466.931152	3521.206055	70.795280
714.575989	1228.223999	4431.117188	3489.181396	70.591103
714.899719	1219.307739	4389.210449	3449.057861	70.341270
715.223267	1212.917603	4344.702637	3412.352539	70.229439
715.546936	1212.769043	4297.743652	3404.773682	71.054222
715.870422	1217.004272	4264.158691	3380.848389	71.011971
716.193970	1221.313843	4229.533691	3340.353271	70.441650
716.517395	1223.691528	4202.562012	3315.981689	70.237694
716.840820	1223.319946	4177.150391	3286.483643	69.847054
717.164124	1222.502563	4145.274902	3280.167969	70.401154
717.487488	1217.152954	4110.203613	3251.561279	70.320518
717.810730	1215.369751	4077.510498	3247.920654	71.015060
718.133972	1214.700928	4037.832764	3215.078857	70.856697
718.457092	1219.010498	3995.554443	3191.598877	71.044739
718.780212	1221.313843	3947.852295	3151.178467	70.780754
719.103210	1223.765991	3899.035156	3123.091797	70.995697
719.426208	1220.645142	3858.168701	3082.671143	70.597511
719.749207	1219.604858	3819.977295	3041.656250	70.068863
720.072083	1218.118774	3784.311768	3016.022217	70.061119
720.394958	1219.456177	3742.331055	2994.919922	70.374619
720.717773	1222.428345	3688.015625	2970.028320	70.879662
721.040527	1228.446899	3651.681641	2953.755859	71.198586
721.363281	1230.007202	3620.771484	2931.019531	71.149315
721.685913	1224.063110	3611.781006	2922.697510	71.140503
722.008545	1215.741089	3581.539795	2890.524414	70.791451
722.331055	1213.437866	3540.376221	2873.211914	71.328659
722.653503	1220.793701	3510.729492	2854.635986	71.348824
722.976013	1225.251831	3509.168945	2859.168701	71.540115
723.298401	1224.731812	3510.283447	2843.342041	70.819237
723.620789	1219.010498	3500.178467	2826.252686	70.456985
723.943115	1215.221069	3482.717041	2800.543701	69.915123
724.265381	1216.112671	3468.971436	2802.921875	70.435356
724.587585	1220.273560	3469.937256	2801.509766	70.287674
724.909790	1228.223999	3461.243408	2808.865967	70.784958
725.231873	1231.270386	3475.212646	2810.649170	70.384109
725.553894	1228.521118	3464.067139	2815.032471	70.967514
725.875916	1244.496216	3495.794189	2828.333008	70.352165
726.197937	1248.137207	3492.822266	2823.280518	70.172127
726.519775	1251.926636	3498.840576	2818.450928	69.718925
726.841675	1228.892700	3487.323486	2807.602783	69.902969
727.163513	1223.542847	3492.748047	2806.190674	69.744591
727.485291	1215.666870	3508.054443	2818.970703	69.940346
727.806946	1207.344971	3523.509521	2822.463135	69.732445
728.128662	1206.230469	3548.029297	2835.763428	69.584671
728.450256	1209.796997	3574.555420	2835.986328	68.767677
728.771790	1217.895996	3585.329102	2849.137939	68.903404
729.093323	1218.416138	3590.158936	2859.837158	69.207382
729.414795	1217.524414	3580.722412	2866.376221	69.772057
729.736145	1220.570801	3571.508789	2865.930420	69.987366
730.057495	1218.416016	3574.778320	2866.450439	69.939774
730.378845	1225.177612	3572.029053	2877.224365	70.394173
730.700134	1223.319946	3568.462646	2872.468750	70.321899
731.021301	1220.050781	3563.484375	2870.239502	70.417557
731.342468	1218.490356	3572.994873	2863.478271	69.865570
731.663574	1216.930054	3584.734619	2884.059814	70.408249
731.984680	1220.496582	3599.000732	2885.620361	70.007187
732.305664	1218.639038	3598.109131	2884.208740	69.997505
732.626648	1223.988770	3599.818115	2874.103516	69.454262
732.947571	1225.251831	3570.542725	2874.697998	70.330132
733.268433	1219.827759	3577.453125	2873.509033	70.141815
733.589233	1212.843384	3575.075439	2869.422607	70.127716
733.909973	1214.626587	3577.007080	2848.543213	69.163994
734.230713	1215.146851	3536.289307	2840.593018	70.027847
734.551331	1216.930054	3485.391846	2809.014404	70.183426
734.871948	1213.512085	3444.822998	2790.884521	70.692627
735.192505	1216.112671	3402.395752	2763.763672	70.789139
735.513062	1217.301514	3372.823486	2745.336914	70.889343
735.833435	1222.799805	3352.464600	2723.789063	70.480072
736.153931	1222.577026	3336.935303	2699.640625	69.858711
736.474304	1227.926880	3311.597900	2673.040283	69.354202
736.794617	1230.675903	3268.130859	2661.003174	70.201660
737.114807	1237.883423	3245.914307	2637.375000	69.694725
737.434998	1234.911255	3225.629639	2633.511475	70.256058
737.755188	1235.654175	3242.050781	2625.486572	69.270073
738.075256	1224.583130	3250.149658	2632.322510	69.498550
738.395325	1224.806030	3264.935791	2631.505127	68.951454
738.715271	1222.279785	3267.387695	2639.826904	69.314049
739.035278	1232.161987	3272.886475	2638.712402	68.924072
739.355164	1230.230103	3288.787109	2646.514404	68.799850
739.675049	1229.710083	3285.369141	2638.266602	68.520920
739.994873	1222.205444	3271.920654	2640.644287	69.201752
740.314636	1222.279663	3255.350830	2624.520752	68.971573
740.634277	1220.942261	3245.022705	2617.461914	68.995262
740.953979	1224.211548	3241.530518	2611.740479	68.780838
741.273499	1215.369629	3215.375977	2604.979248	69.480263
741.593140	1209.722656	3188.329346	2590.192871	69.769814
741.912598	1206.824829	3140.776123	2559.877197	69.963104
742.232117	1215.964111	3115.884766	2534.614502	69.405548
742.551453	1217.152832	3082.151123	2514.329834	69.553787
742.870850	1224.137329	3052.207275	2499.840576	69.784157
743.190063	1226.069214	3022.783203	2479.481689	69.761383
743.509338	1234.391113	3000.195313	2460.385986	69.429832
743.828552	1230.750244	2992.096436	2439.878174	68.647942
744.147705	1230.230225	2959.700195	2427.469971	69.225822
744.466797	1222.131226	2930.201904	2400.646729	68.996880
744.785828	1218.936157	2900.183594	2387.940918	69.531990
745.104858	1216.632690	2890.895752	2374.789307	69.174110
745.423706	1219.307617	2886.660889	2364.386963	68.676468
745.742615	1221.239624	2875.663818	2355.098877	68.534981
746.061401	1223.022827	2871.577393	2349.451904	68.328285
746.380249	1221.833984	2858.648682	2346.479736	68.709412
746.698975	1221.908203	2838.141357	2340.609863	69.216599
747.017639	1220.645020	2818.896484	2329.464600	69.377045
747.336304	1219.084717	2815.255859	2317.576172	68.820404
747.654907	1226.366333	2812.060791	2307.099365	68.155190
747.973389	1228.075317	2808.791260	2298.851807	67.739967
748.291931	1231.121704	2791.999023	2295.954102	68.220123
748.610352	1224.583130	2792.667969	2296.102539	68.333000
748.928711	1221.685303	2797.943359	2303.978760	68.662201
749.247070	1219.084839	2803.813232	2313.266602	69.045380
749.565308	1215.369629	2806.636719	2305.539063	68.509521
749.883545	1218.787476	2792.965088	2299.223389	68.634941
750.201782	1216.409790	2784.568604	2281.019287	67.889137
750.519836	1216.707031	2776.618408	2280.573486	68.200439
750.837952	1212.991943	2767.925049	2276.932373	68.423553
751.155884	1221.610962	2747.640381	2279.384521	69.315414
751.473877	1223.468628	2740.952881	2274.183350	69.240570
751.791809	1226.366333	2728.172852	2268.239258	69.374641
752.109619	1225.846313	2731.665283	2252.561279	68.183159
752.427490	1223.617188	2724.829346	2255.607666	68.743813
752.745300	1223.988647	2722.302979	2256.127930	68.886696
753.062988	1217.821655	2718.810791	2263.929688	69.694580
753.380615	1218.787598	2716.284424	2251.075195	68.934212
753.698303	1215.741089	2703.950439	2242.753174	69.009918
754.015808	1219.604858	2697.783447	2239.335205	68.985596
754.333374	1223.097046	2686.935303	2230.567627	68.823898
754.650757	1227.926636	2704.693604	2230.418945	67.884262
754.968262	1229.264160	2697.114502	2219.422119	67.456329
755.285583	1227.406616	2696.148438	2216.524170	67.344551
755.602905	1219.753540	2674.823486	2205.527588	67.747536
755.920105	1214.180786	2673.040283	2204.933350	67.912819
756.237305	1215.666870	2655.207764	2196.760010	68.153198
756.554443	1214.849487	2653.052734	2177.069580	66.904320
756.871582	1214.923828	2637.300781	2177.738281	67.690529
757.188599	1211.282959	2645.548340	2185.837402	67.947983
757.505615	1222.651245	2655.133545	2199.509033	68.193359
757.822510	1233.499390	2681.733887	2201.961182	66.871887
758.139465	1236.768677	2698.229248	2204.561768	66.220955
758.456238	1228.966919	2704.990479	2211.174805	66.544189
758.773010	1222.205444	2722.080078	2220.611084	66.565941
759.089783	1227.629517	2731.591064	2221.279541	66.068848
759.406433	1229.264160	2741.844971	2225.069092	65.834824
759.723145	1223.468628	2735.083252	2235.991699	66.982887
760.039673	1215.963989	2740.507080	2258.876953	68.408234
760.356201	1216.187012	2746.451416	2261.700684	68.322418
760.672668	1223.468628	2739.169922	2255.459229	68.086678
760.989136	1228.001099	2716.358887	2244.833740	68.319099
761.305481	1227.555298	2703.058838	2246.914307	69.085503
761.621826	1226.069214	2721.931396	2245.428223	68.145248
761.938049	1226.440796	2744.890869	2250.183594	67.420250
762.254333	1229.635742	2767.925049	2270.319580	67.652023
762.570496	1230.973267	2786.574951	2293.947754	68.332047
762.886597	1231.790649	2861.843750	2346.702881	68.397293
763.202637	1227.480957	2957.397217	2408.894287	68.293091
763.518677	1225.771851	3084.677734	2490.404297	68.031013
763.834656	1219.158936	3196.874756	2561.809326	67.888947
764.150574	1217.152832	3304.241943	2623.108887	67.364449
764.466370	1212.323120	3363.386719	2663.826660	67.478416
764.782288	1209.871216	3379.733398	2676.160889	67.575241
765.097961	1210.465576	3358.557373	2661.300293	67.540627
765.413696	1214.403687	3312.266602	2623.183350	67.153091
765.729309	1222.948486	3251.338623	2560.397461	65.936478
766.044861	1221.462280	3160.466064	2496.943115	65.780212
766.360474	1218.713135	3060.677734	2429.104492	65.711975
766.675903	1212.991821	2951.081055	2368.102051	66.458626
766.991394	1218.341675	2867.416260	2310.220215	66.211594
767.306763	1222.428345	2781.522461	2257.836914	66.410912
767.622131	1227.480957	2713.981201	2218.827881	66.689995
767.937378	1223.988647	2633.585693	2180.562012	67.861473
768.252625	1229.412842	2588.632568	2150.097900	67.736290
768.567810	1229.709961	2544.793701	2110.791748	66.998154
768.882996	1228.001099	2522.874512	2086.494873	66.299438
769.197998	1230.973145	2491.667236	2060.191406	65.774742
769.513062	1222.948486	2458.231201	2048.823242	66.857147
769.828064	1224.211670	2422.417480	2025.640747	66.885757
770.142944	1225.920532	2392.176270	2009.294312	67.169983
770.457825	1232.459229	2380.510742	1999.263306	66.791786
770.772705	1232.756470	2364.312500	1989.752563	66.898682
771.087402	1218.713257	2351.606689	1981.059204	67.291939
771.402100	1213.214844	2320.176514	1963.300781	67.760788
771.716736	1211.580200	2313.861084	1948.217407	66.828445
772.031372	1213.289185	2301.972656	1940.861328	66.830460
772.345947	1219.456299	2307.693848	1933.653931	65.628838
772.660461	1227.332397	2280.945068	1923.771851	66.100143
772.974854	1229.487061	2261.328857	1908.465332	65.802559
773.289246	1229.264160	2229.007324	1899.177368	67.008530
773.603638	1224.285767	2221.428467	1892.936157	67.056641
773.917908	1226.663696	2209.168701	1884.911499	66.996887
774.232178	1227.035156	2206.122070	1879.413086	66.631256
774.546265	1223.914551	2207.385254	1879.264282	66.636429
774.860474	1213.437866	2209.168701	1875.623657	66.502487
775.174561	1210.837158	2196.314209	1862.843628	66.161507
775.488586	1217.375854	2172.760010	1861.654663	67.436623
775.802551	1226.663574	2157.230713	1855.784668	67.606201
776.116516	1227.778198	2155.819092	1851.995239	67.261803
776.430359	1227.703857	2152.772705	1840.849731	66.281105
776.744202	1224.137329	2134.419922	1827.995483	66.337440
777.057922	1220.570679	2117.552979	1816.032837	66.385048
777.371704	1216.855591	2111.460205	1803.921509	65.622948
777.685303	1219.976318	2120.228271	1798.200073	64.229103
777.998962	1225.994873	2121.119873	1802.212402	64.372856
778.312500	1222.354126	2110.791748	1797.531372	64.740311
778.626038	1222.577026	2107.002197	1802.435547	65.563324
778.939453	1214.032227	2104.996094	1797.828735	65.524155
779.252869	1219.530640	2100.612061	1806.522095	66.621704
779.566223	1230.676025	2088.946533	1806.076172	67.041817
779.879578	1237.363159	2083.596924	1809.940063	67.661789
780.192749	1235.282715	2082.631104	1799.686157	66.608192
780.505920	1219.233398	2074.680664	1801.395142	68.053490
780.819031	1214.329468	2061.157471	1796.268433	68.719856
781.132141	1216.409912	2061.677490	1799.463257	68.978554
781.445190	1214.626587	2070.148193	1786.311646	66.822983
781.758118	1213.586304	2074.977783	1785.494507	66.393532
782.071045	1214.180786	2069.553711	1773.234497	65.357895
782.383911	1209.796875	2053.801514	1774.274780	66.880898
782.696838	1209.648315	2048.377686	1761.271606	65.768929
783.009583	1206.824829	2036.414673	1759.488403	66.618896
783.322266	1218.564697	2018.805054	1745.965332	65.905281
783.634888	1225.697754	2004.092896	1737.717773	65.778931
783.947510	1224.434448	1995.622437	1732.293579	65.854126
784.260132	1222.279785	1996.365601	1730.881836	65.703575
784.572571	1220.496460	1986.186035	1734.671387	67.151878
784.885010	1231.047485	1976.823853	1723.674438	66.055588
785.197449	1238.403442	1969.319214	1720.776733	65.995743
785.509766	1235.579956	1970.285156	1710.968750	64.704697
785.822083	1228.446899	1967.981812	1708.145142	64.864853
786.134277	1218.936157	1958.693970	1699.080444	64.905609
786.446533	1215.889771	1955.350220	1703.984375	66.006859
786.758606	1214.329346	1952.006836	1714.906860	67.858589
787.070740	1225.028931	1964.861206	1728.207031	68.012459
787.382690	1234.762695	1969.244995	1726.795288	66.990395
787.694641	1236.991699	1985.071411	1730.881836	66.021057
788.006653	1222.279785	2001.640991	1733.482422	65.592514
788.318481	1215.295288	2032.105103	1746.856934	65.077774
788.630310	1217.524414	2049.194580	1759.339844	65.147873
788.942017	1224.434570	2058.631348	1770.485352	65.458267
789.253784	1232.236328	2063.906738	1770.708374	64.745850
789.565430	1229.264282	2067.176025	1764.392578	63.864517
789.877014	1225.474731	2057.293701	1753.989868	63.537277
790.188538	1221.536621	2025.566406	1753.246948	66.130676
790.500061	1228.521118	2000.972168	1744.999390	66.862267
790.811462	1238.106079	1989.529663	1739.723999	66.755676
791.122925	1236.694458	1979.424438	1723.005859	65.476204
791.434204	1225.103271	1958.545410	1716.615723	67.014481
791.745483	1218.713257	1938.780884	1704.355835	67.444023
792.056702	1220.422119	1919.684937	1696.479858	68.079948
792.367920	1234.985474	1912.403320	1682.288086	66.030533
792.678955	1232.310547	1891.672852	1679.018677	67.748512
792.990112	1228.149658	1886.174683	1673.520142	67.682907
793.301086	1221.165161	1882.385132	1669.062134	67.737968
793.612122	1225.177612	1880.304688	1654.498657	65.532486
793.922974	1235.728394	1875.177734	1642.758789	63.653267
794.233826	1228.223999	1867.004517	1642.090210	64.790047
794.544556	1220.422241	1873.394531	1642.610229	64.656342
794.855286	1213.957886	1871.908569	1652.418335	66.640320
795.166016	1212.026001	1868.787720	1653.458374	67.213478
795.476624	1216.632813	1870.942383	1662.077515	68.078583
795.787292	1215.146729	1884.168335	1677.458130	69.102608
796.097778	1218.341675	1904.601563	1686.820313	68.265488
796.408264	1220.199219	1923.548828	1692.393188	67.135033
796.718689	1220.719360	1935.882935	1684.219727	64.810402
797.029053	1219.679077	1937.146118	1684.739868	64.819809
797.339355	1226.292114	1924.737671	1678.870117	64.797890
797.649658	1220.570801	1914.409546	1678.498413	65.999138
797.959839	1223.691528	1908.614136	1673.297241	65.643288
798.270020	1212.991943	1907.350952	1675.377930	66.591774
798.580078	1218.861938	1899.994751	1666.461548	65.713997
798.890137	1223.542969	1894.942383	1657.916626	64.696762
799.200195	1222.056763	1885.208618	1646.027954	63.932747
799.510071	1225.549072	1871.314087	1641.272827	64.376938
799.820007	1220.421997	1855.636108	1639.117798	65.914124
800.129883	1219.753296	1837.357788	1632.653687	66.855148
800.439575	1210.762817	1827.698364	1632.653687	68.384918
800.749329	1211.208740	1821.902832	1620.913696	67.088409
801.058960	1217.078735	1820.862671	1622.771484	67.191711
801.368591	1219.159058	1825.989258	1617.198730	65.593254
801.678162	1221.611084	1824.057617	1617.050171	65.638870
801.987671	1223.765747	1823.983276	1613.855103	64.991333
802.297119	1223.765869	1811.203125	1607.836548	65.380714
802.606506	1220.570801	1814.769531	1603.378540	64.424194
802.915894	1221.759644	1806.299194	1602.784180	65.183708
803.225159	1222.799927	1801.246582	1601.149414	65.407845
803.534424	1222.428345	1784.082642	1601.966797	67.575096
803.843628	1213.289063	1784.379883	1593.124634	66.510536
804.152771	1215.889648	1790.918579	1596.245483	66.145515
804.461792	1218.787598	1789.506714	1590.747070	65.173820
804.770874	1222.502808	1789.432495	1599.217407	66.448204
805.079773	1218.787598	1787.351929	1601.000610	67.224236
805.388733	1213.140625	1801.172241	1606.796387	66.944656
805.697571	1213.066284	1807.710938	1607.687988	66.362610
806.006470	1218.416016	1818.484741	1607.019165	64.759773
806.315125	1220.645142	1817.221680	1617.050171	66.446632
806.623901	1226.886475	1824.503296	1625.446289	66.691536
806.932495	1224.137207	1816.107056	1627.229492	68.093384
807.241150	1217.970215	1813.283691	1616.529907	66.949547
807.549622	1217.895996	1796.639771	1611.923218	68.083191
807.858154	1216.484253	1789.655273	1609.322632	68.537727
808.166565	1225.474731	1781.853516	1608.208130	68.790077
808.474915	1221.833984	1776.652344	1594.907837	67.242523
808.783264	1223.988770	1775.760742	1585.397095	65.499580
809.091492	1225.400513	1764.541016	1580.790405	65.917862
809.399719	1222.651245	1763.946655	1575.886353	65.257362
809.707825	1222.205444	1762.609009	1569.645020	64.292610
810.015930	1218.193115	1761.197266	1562.660522	63.437344
810.323975	1214.032104	1760.751587	1560.134277	63.305256
810.632080	1205.264404	1752.057983	1557.236450	64.370186
810.939880	1206.527466	1759.191040	1548.542969	61.884937
811.247864	1210.837158	1753.395508	1549.211548	62.366451
811.555664	1219.679199	1740.244141	1547.354126	62.946022
811.863464	1228.966919	1723.303101	1550.474731	65.038292
812.171143	1232.607910	1715.947144	1539.849609	63.566471
812.478882	1240.186768	1719.216309	1544.010620	63.424870
812.786438	1237.437622	1729.470093	1547.205566	62.956810
813.094055	1235.059814	1729.692993	1552.183960	64.112991
813.401489	1227.035034	1726.423828	1539.478149	62.565102
813.708984	1219.381958	1715.946899	1530.190063	62.591633
814.016357	1221.982544	1710.745972	1525.286133	62.055294
814.323730	1223.319946	1706.064819	1530.190308	63.567814
814.630981	1219.084839	1701.086548	1530.413208	64.590721
814.938232	1212.843262	1697.891602	1538.734985	67.187469
815.245361	1211.505859	1697.594360	1537.769165	67.120148
815.552490	1207.642090	1703.390015	1537.026001	66.441811
815.859619	1210.837158	1705.247559	1528.704102	64.292122
816.166565	1210.911499	1714.460938	1530.115845	63.390865
816.473572	1224.062988	1706.510620	1536.283081	64.715851
816.780457	1228.446777	1702.795532	1538.363647	65.335236
817.087341	1225.028931	1699.005981	1532.865234	64.947510
817.394043	1217.004272	1706.213379	1524.543335	62.864540
817.700806	1210.763062	1713.792358	1526.846558	62.836002
818.007507	1209.871216	1723.600220	1533.385254	62.973675
818.314209	1215.369629	1738.312134	1544.382202	62.915630
818.620667	1223.617065	1749.234741	1548.468750	61.803799
818.927246	1230.750122	1750.572144	1558.053711	62.964550
819.233704	1227.406616	1764.615234	1574.846069	64.674957
819.540161	1225.697632	1785.419922	1598.623047	66.626862
819.846497	1227.852417	1824.206055	1619.056274	65.599304
820.152832	1223.022827	1858.088257	1644.913574	66.432640
820.458984	1217.970215	1905.716309	1676.120728	66.616226
820.765259	1211.803101	1969.096558	1712.677734	66.140099
821.071350	1216.855591	2052.984131	1759.934448	64.951599
821.377502	1214.552246	2194.605225	1839.661133	63.783173
821.683472	1214.477905	2438.615479	2005.802124	64.643402
821.989441	1216.707031	2878.190430	2286.592041	64.393364
822.295349	1219.233276	3501.515625	2680.693604	64.035042
822.601196	1223.171387	4227.156250	3134.237549	63.617702
822.907043	1226.143555	4834.952637	3518.382568	63.517879
823.212769	1219.976440	5185.437988	3742.999268	63.624954
823.518494	1220.125000	5212.930176	3777.698975	64.054565
823.824097	1213.437866	5004.511230	3655.693604	64.421227
824.129700	1223.617188	4676.984863	3443.114014	64.270508
824.435242	1224.211548	4315.428223	3200.886963	63.944897
824.740723	1221.016602	3975.344482	2984.294678	64.018456
825.046082	1228.744019	3655.248047	2786.500732	64.197578
825.351501	1227.257935	3344.662842	2589.969971	64.357651
825.656799	1232.533447	3060.083252	2402.875977	64.038887
825.962036	1217.450073	2809.906006	2251.595459	64.940285
826.267212	1215.220947	2656.322510	2147.497314	64.691925
826.572449	1216.707031	2584.397461	2099.943604	64.578690
826.877502	1221.090942	2629.573242	2117.627686	63.652679
827.182495	1225.549072	2746.302734	2188.438232	63.316578
827.487488	1224.806030	2889.038330	2281.985107	63.523529
827.792419	1226.960815	2992.764893	2360.374756	64.186844
828.097290	1221.313843	3008.443115	2378.950195	64.776306
828.402100	1220.347778	2959.625977	2340.833008	64.422424
828.706848	1217.227173	2833.682861	2264.152588	64.766724
829.011597	1224.286011	2685.226074	2169.490967	64.698410
829.316223	1227.926758	2536.546387	2074.234619	64.671799
829.620789	1226.292114	2406.590820	1976.155151	63.531631
829.925354	1218.564575	2284.214355	1897.097046	63.673122
830.229797	1213.957886	2154.779053	1823.463013	64.784378
830.534302	1216.855591	2035.746094	1749.680542	65.066689
830.838562	1221.165161	1941.530151	1688.232056	64.837532
831.142944	1225.920532	1867.301758	1634.288452	63.670078
831.447144	1227.332397	1811.128906	1605.681763	64.808434
831.751404	1228.818481	1773.011719	1591.044067	66.561943
832.055542	1226.589355	1754.807495	1578.561401	66.633842
832.359619	1230.007202	1757.333618	1573.880249	65.210663
832.663635	1229.635742	1771.302612	1565.335449	61.975307
832.967651	1228.966919	1795.153687	1583.613892	62.637806
833.271545	1226.663574	1846.942505	1613.929321	62.434128
833.575439	1225.474731	1933.579590	1675.823608	63.599178
833.879211	1227.183716	2049.268799	1755.401733	64.253448
834.183044	1224.880371	2166.964355	1830.150391	64.247986
834.486694	1220.199219	2251.520752	1881.567749	64.128258
834.790344	1221.165161	2288.375244	1905.418945	64.116127
835.093933	1217.895874	2270.245361	1895.313965	64.371971
835.397522	1219.901978	2215.038574	1862.472168	64.571053
835.700928	1215.963989	2147.868896	1817.370483	64.535179
836.004395	1220.942261	2081.070557	1777.246948	64.676941
836.307739	1218.341675	2012.637817	1746.559692	66.501396
836.611023	1216.409790	1950.520874	1704.950195	66.548569
836.914307	1215.666870	1883.276855	1664.009399	67.156357
837.217529	1220.719360	1821.159790	1611.105957	65.016708
837.520691	1226.143433	1756.739258	1576.332153	65.999146
837.823730	1227.480957	1712.752075	1539.255249	64.247444
838.126831	1222.428345	1673.594604	1512.283203	64.245689
838.429749	1222.279785	1652.789673	1492.221680	62.702831
838.732727	1217.301636	1622.994263	1480.481812	64.871819
839.035522	1216.112671	1612.294556	1482.859375	67.329353
839.338379	1212.917603	1600.257813	1478.178345	68.482628
839.641113	1213.957886	1606.573364	1477.063843	67.013649
839.943848	1216.929932	1620.022095	1481.298950	65.585251
840.246460	1216.261230	1640.455444	1496.010864	65.948479
840.549072	1222.131226	1666.981445	1520.233765	67.011887
840.851563	1223.022827	1685.780151	1528.258301	65.960159
841.154053	1220.422241	1695.662476	1522.314087	63.524052
841.456482	1217.450073	1686.002930	1510.054199	62.448479
841.758850	1221.165283	1665.941406	1497.720093	62.178429
842.061157	1222.354126	1645.433716	1483.676758	61.766777
842.363403	1223.543091	1622.994507	1475.206177	63.002178
842.665588	1216.632935	1603.675781	1462.426147	63.505428
842.967712	1226.069214	1578.115601	1458.339478	65.977173
843.269775	1228.001099	1557.682251	1442.215820	64.976334
843.571777	1228.966919	1539.106445	1428.469727	64.326790
843.873840	1223.765747	1525.286133	1402.835449	59.388920
844.175659	1216.855591	1508.791016	1398.154297	62.102333
844.477600	1220.645142	1497.645630	1386.042969	59.710300
844.779297	1219.827759	1482.413574	1394.662109	66.581795
845.081116	1222.131104	1474.611816	1387.528931	65.509094
845.382751	1223.839966	1466.735718	1393.844727	69.990829
845.684387	1219.159058	1462.351685	1385.820190	68.530502
845.985962	1214.849487	1454.847290	1377.275269	67.678032
846.287537	1217.970093	1449.200195	1369.770630	65.649124
846.588989	1222.799805	1446.822632	1375.046021	67.960136
846.890381	1222.651245	1448.160034	1370.290649	65.469467
847.191711	1220.645020	1441.993042	1369.622070	67.304443
847.493042	1220.422241	1431.739258	1359.516724	65.822662
847.794250	1225.697632	1424.531860	1362.934937	69.020966
848.095459	1218.044556	1419.776367	1361.597290	71.160187
848.396606	1214.998047	1420.296509	1357.064941	69.200172
848.697693	1221.239624	1418.364624	1349.931763	65.284538
848.998657	1228.075439	1427.355347	1352.235229	62.304218
849.299622	1230.007202	1433.968262	1357.362061	62.440773
849.600464	1217.004272	1434.191040	1367.244263	69.175484
849.901367	1211.728882	1427.429565	1365.535522	71.305588
850.202087	1210.094116	1417.695923	1355.504517	70.042938
850.502808	1217.747314	1416.432983	1345.845093	64.472580
850.803467	1219.084595	1417.770142	1341.907104	61.817535
851.104065	1224.211548	1421.708374	1346.885376	62.114330
851.404663	1222.576782	1421.633911	1354.166992	66.106758
851.705139	1225.474731	1423.788696	1350.526367	63.057404
852.005615	1227.703735	1425.571899	1347.925659	60.758598
852.306030	1224.062988	1413.386353	1342.650146	62.637360
852.606384	1225.994873	1407.145020	1349.857544	68.375694
852.906616	1221.833862	1403.504272	1347.554077	69.202362
853.206909	1227.703857	1414.649536	1347.776978	64.228882
853.506958	1220.347778	1419.330688	1346.290894	63.293434
853.807129	1219.604858	1423.491577	1349.040161	63.483929
854.107178	1219.233276	1420.222168	1347.182617	63.659908
854.407166	1227.778198	1412.717773	1345.176514	63.479282
854.707092	1222.577026	1412.346069	1340.198242	61.981247
855.007019	1216.484253	1420.147949	1333.510864	57.460712
855.306763	1208.830933	1420.222168	1328.681274	56.695984
855.606567	1215.220947	1421.411011	1328.606934	54.991005
855.906250	1214.998169	1413.014771	1331.058838	58.611584
856.205933	1217.004272	1409.225220	1328.755493	58.136860
856.505493	1216.484253	1403.726929	1329.052734	60.119030
856.805054	1219.084717	1407.590698	1332.322144	60.070999
857.104492	1218.267456	1408.482422	1335.294189	61.523411
857.403931	1219.233398	1408.482422	1343.095947	65.449509
857.703308	1219.902100	1406.401855	1343.170288	66.095627
858.002563	1219.530640	1411.751587	1343.021606	64.244278
858.301819	1218.490356	1412.940430	1339.900879	62.437889
858.601013	1215.221069	1410.711548	1337.151733	62.371662
858.900208	1221.462524	1408.333862	1333.585083	59.999870
859.199219	1216.038330	1404.692993	1336.037109	63.607639
859.498291	1219.827759	1401.200806	1336.557251	64.358788
859.797302	1215.369507	1406.401978	1343.393066	67.016647
860.096191	1215.369507	1405.510254	1334.848389	62.837074
860.395020	1213.066162	1409.745483	1330.687378	59.803551
860.693787	1213.140503	1400.011719	1322.142578	58.330051
860.992554	1224.880371	1396.742554	1319.765015	55.209728
861.291260	1219.902222	1393.918945	1320.953857	58.070072
861.589844	1224.137451	1398.005737	1319.096191	54.615330
861.888428	1226.292114	1400.086304	1324.223022	56.348782
862.186890	1236.768799	1395.479370	1321.250977	53.230339
862.485413	1231.939087	1391.392700	1331.207520	62.255367
862.783813	1226.143555	1389.683716	1334.253906	66.106300
863.082153	1223.914429	1393.250366	1343.913330	70.864403
863.380371	1234.688354	1398.674438	1330.984619	58.722218
863.678589	1229.635742	1399.343140	1324.594604	55.954464
863.976746	1228.595581	1401.052124	1321.102417	53.640663
864.274902	1218.564575	1405.361694	1329.498535	59.387405
864.572937	1221.833862	1407.813599	1339.752319	63.403927
864.870911	1228.075317	1413.757813	1335.516968	57.863102
865.168884	1223.097168	1410.488647	1336.482910	60.507416
865.466736	1218.638916	1409.819824	1331.727661	59.152740
865.764587	1210.317017	1407.144897	1330.984619	61.306152
866.062317	1215.146606	1401.349243	1328.681274	60.973717
866.360107	1214.329224	1399.937500	1325.189087	59.727867
866.657715	1218.267456	1390.055298	1332.545044	66.522514
866.955322	1219.456177	1394.662109	1342.352905	70.144157
867.252808	1225.028931	1389.980957	1341.758423	70.765724
867.550293	1222.354126	1392.358765	1338.563599	68.356651
867.847717	1222.354126	1389.386597	1326.452148	62.322029
868.145081	1221.313843	1393.621704	1333.882446	65.329926
868.442383	1221.165161	1392.358765	1338.860718	68.749969
868.739624	1218.936157	1396.519653	1339.529419	67.907921
869.036804	1220.199219	1400.383423	1332.470703	62.309280
869.333984	1225.028931	1401.720825	1325.411987	56.812485
869.631042	1219.679199	1399.714722	1322.068359	56.871643
869.928101	1213.586304	1392.432983	1321.176636	60.157860
870.224976	1212.991821	1396.593872	1324.817505	60.906555
870.521851	1218.267334	1401.052124	1335.071289	63.902447
870.818726	1223.988647	1405.658813	1333.213745	60.122749
871.115479	1221.908325	1408.482422	1334.551147	60.374310
871.412231	1217.227173	1410.711548	1338.489136	62.672741
871.708862	1217.301392	1415.764038	1347.256958	65.481125
872.005493	1214.477905	1412.568970	1349.337402	68.079544
872.302063	1222.948364	1397.708496	1346.439575	70.663261
872.598572	1219.679077	1391.392578	1346.439575	73.820930
872.895020	1219.753540	1396.445313	1346.811157	71.909187
873.191406	1218.118896	1407.813599	1342.575806	65.609062
873.487671	1222.354126	1416.358521	1343.467407	62.428112
873.783997	1225.251831	1416.432739	1342.204224	61.173679
874.080200	1220.942261	1415.169556	1344.210449	63.465946
874.376343	1214.998169	1413.832153	1338.117676	61.920757
874.672424	1212.471802	1413.386353	1341.238403	64.090233
874.968445	1216.038452	1411.231445	1342.947388	65.017159
875.264465	1221.388062	1419.479126	1348.891602	64.366127
875.560364	1225.623413	1425.051880	1353.052612	63.897198
875.856201	1225.028931	1426.983765	1349.857666	61.810223
876.152039	1223.765747	1419.850708	1346.959839	62.826893
876.447754	1209.053833	1418.438843	1338.786377	61.958851
876.743469	1202.886841	1424.085938	1338.712036	61.404045
877.039063	1194.267700	1426.612183	1340.272339	62.839725
877.334595	1206.824829	1430.178711	1338.191895	58.815662
877.630127	1215.666870	1419.330566	1332.470703	57.351326
877.925537	1223.617188	1419.033203	1328.086792	53.460102
878.221008	1228.298340	1414.575195	1329.572876	54.367752
878.516296	1224.062988	1430.178711	1340.198242	56.344685
878.811646	1226.292114	1438.129272	1339.380859	53.384754
879.106812	1211.208618	1449.497559	1343.690430	55.597130
879.401978	1214.700806	1458.562378	1348.074341	54.692314
879.697083	1213.809204	1464.506470	1369.622070	62.151802
879.992126	1222.874146	1484.791382	1387.380371	62.808475
880.287109	1226.440552	1512.134766	1404.544312	62.340694
880.582031	1225.177490	1575.068970	1440.878296	61.647915
880.876892	1231.344727	1695.811035	1508.196655	59.606461
881.171753	1234.390991	1905.864746	1630.350220	58.968681
881.466492	1241.301147	2198.097412	1802.807007	58.686043
881.761230	1242.118530	2522.428955	2009.145508	59.909454
882.055786	1238.106201	2815.478760	2203.744385	61.218143
882.350403	1229.858521	3005.545166	2319.508057	61.364967
882.644958	1229.635742	3067.885010	2364.461182	61.734035
882.939453	1230.155762	3012.901123	2327.904297	61.576294
883.233826	1230.230103	2908.059814	2274.703369	62.251446
883.528137	1220.050659	2788.952393	2192.673584	61.993870
883.822449	1215.741089	2669.622314	2120.822510	62.252777
884.116577	1218.564697	2544.125244	2040.055542	61.973091
884.410828	1219.679199	2410.157471	1963.003540	62.439137
884.704956	1217.524292	2255.905029	1870.273804	62.862251
884.999023	1215.295288	2095.485352	1767.735962	62.763794
885.292969	1226.960815	1940.861450	1665.867065	61.480019
885.586914	1230.007202	1824.280396	1586.585938	60.002495
885.880798	1231.938965	1741.358521	1533.831055	59.261974
886.174622	1223.320068	1677.904175	1501.212280	61.131088
886.468384	1225.103394	1633.025024	1477.286743	61.821518
886.762085	1225.177612	1597.508423	1458.636719	62.702065
887.055664	1224.211548	1575.589233	1442.661499	62.169556
887.349304	1223.988770	1557.385132	1426.314941	60.686375
887.642822	1216.335571	1539.626587	1412.494629	60.675690
887.936340	1221.759644	1519.342163	1397.708496	59.126072
888.229736	1214.775269	1502.401001	1384.408325	58.977009
888.523071	1213.363403	1479.664429	1377.423828	61.607132
888.816284	1211.060059	1464.209351	1376.606445	65.394768
889.109619	1210.391479	1450.166138	1377.200806	69.569206
889.402710	1218.861816	1446.302368	1373.411499	67.951683
889.695862	1214.106445	1436.568726	1358.476685	64.896500
889.988892	1223.245728	1426.983765	1350.377563	62.399658
890.281921	1234.242432	1415.243896	1341.015381	58.990101
>>>>>End Processed Spectral Data<<<<<
