Jaz Data File
++++++++++++++++++++++++++++++++++++
Date: Fri Jun 04 16:39:12 2021
User: jaz
Dark Spectrum Present: Yes
Reference Spectrum Present: Yes
Processed Spectrum Present: Yes
Spectrometers: JAZA3586
Integration Time (usec): 24500 (JAZA3586)
Spectra Averaged: 10 (JAZA3586)
Boxcar Smoothing: 1 (JAZA3586)
Correct for Electrical Dark: No (JAZA3586)
Strobe/Lamp Enabled: Yes (JAZA3586)
Correct for Detector Non-linearity: No (JAZA3586)
Correct for Stray Light: No (JAZA3586)
Number of Pixels in Processed Spectrum: 2048
>>>>>Begin Processed Spectral Data<<<<<
W	D	R	S	P
191.335022	0.000000	0.000000	0.000000	0.000000
191.713211	234.722305	237.694412	231.601563	-105.001030
192.091385	468.330078	472.342407	469.964691	40.739754
192.469528	711.002747	710.185364	707.213318	463.605133
192.847641	720.513489	715.535156	716.426819	82.089134
193.225739	732.476257	730.321472	726.234863	289.652740
193.603790	736.860046	741.615417	734.185242	-56.248074
193.981842	742.209778	745.999268	736.785828	-143.131409
194.359863	749.714417	747.931152	743.695984	337.495300
194.737854	753.281006	751.571960	748.748535	265.204803
195.115829	747.039551	756.253113	753.132385	66.128983
195.493774	744.364685	757.144714	752.909424	66.860085
195.871704	749.268555	759.448059	757.962097	85.402412
196.249603	759.002258	755.435791	768.215820	-258.338623
196.627457	760.636963	752.909485	767.770020	-92.307693
197.005310	755.881531	750.606140	763.757629	-149.298874
197.383133	752.166443	758.853760	761.528564	139.998169
197.760910	752.389343	761.008484	760.339661	92.240257
198.138687	755.287109	762.420227	764.500671	129.165985
198.516449	752.240723	760.859863	754.692688	28.447910
198.894180	751.274841	756.847473	747.039551	-76.001617
199.271866	746.296570	753.726746	743.993164	-31.000690
199.649536	747.931152	745.553467	749.937317	-84.374680
200.027191	745.330566	743.918762	754.469788	-647.343384
200.404816	742.061218	748.822815	750.606140	126.374321
200.782410	740.872375	757.516296	747.782532	41.517597
201.159988	741.615479	771.856628	753.132324	38.083359
201.537537	743.101563	774.977356	757.590515	45.454407
201.915070	746.668030	783.076355	759.596680	35.510147
202.292557	738.271790	776.314758	760.934143	59.570412
202.670029	741.838379	782.556213	764.575012	55.839497
203.047485	737.751770	773.491272	766.061035	79.210014
203.424911	742.655762	778.766846	763.237549	56.995762
203.802292	737.677429	770.742126	756.253113	56.179810
204.179688	736.042786	779.286926	755.658691	45.360840
204.557037	742.358459	782.481934	756.698914	35.740810
204.934357	742.358459	784.562439	758.482178	38.204262
205.311661	743.324463	778.692566	760.116882	47.478992
205.688934	732.030457	775.125977	752.166321	46.723801
206.066177	735.225403	778.692566	749.119934	31.965582
206.443390	736.340027	784.785339	749.863037	27.913971
206.820587	742.284180	788.723389	754.989929	27.359961
207.197769	739.312195	785.676941	760.859863	46.474251
207.574921	737.305908	784.488098	759.745300	47.559029
207.952042	735.225403	780.773010	757.664856	49.265930
208.329147	738.271790	777.726563	756.921875	47.269527
208.706223	746.816589	772.748291	765.912415	73.638924
209.083267	751.720642	772.971191	776.909180	118.531227
209.460297	741.764099	775.125977	768.067200	78.841789
209.837280	732.476257	776.983459	752.017822	43.906525
210.214264	727.052063	778.915344	738.569092	22.206518
210.591217	727.275085	770.890686	742.507141	34.923412
210.968124	726.309082	769.999023	741.095398	33.843754
211.345016	731.064453	772.525391	744.959045	33.512489
211.721893	742.878601	779.509827	743.472961	1.622551
212.098724	746.965271	777.800842	748.451233	4.818986
212.475555	745.181946	776.983582	744.587585	-1.868962
212.852356	737.528809	783.670715	744.290344	14.653785
213.229126	732.476257	784.933899	737.825989	10.198193
213.605865	729.504089	784.413818	736.265625	12.313911
213.982590	729.355469	781.144531	736.562927	13.916951
214.359283	726.531921	778.320984	744.587585	34.863857
214.735931	722.593933	775.794678	744.141785	40.502914
215.112579	726.383484	769.924805	735.225403	20.306961
215.489197	734.482422	771.708069	732.104675	-6.387388
215.865799	739.163513	761.231262	738.271912	-4.040292
216.242355	740.872375	756.921692	747.856934	43.519348
216.618896	738.197571	758.927979	748.079773	47.670082
216.995407	736.860046	766.655457	746.222168	31.421354
217.371902	734.036560	771.410828	743.918884	26.441519
217.748367	731.138855	767.472839	746.742432	42.944855
218.124802	726.754883	769.404602	744.587646	41.812149
218.501236	720.810730	764.203430	748.154114	63.013786
218.877609	726.680603	767.175598	748.005554	52.660709
219.253983	730.990234	767.621399	747.782532	45.841560
219.630295	736.414307	768.513000	746.445129	31.249941
220.006592	731.361633	767.398499	748.079834	46.391941
220.382889	731.956055	768.884521	753.652527	58.752701
220.759140	731.733154	773.416992	751.423401	47.237125
221.135391	734.853943	773.714172	748.154114	34.225662
221.511581	736.414307	767.844299	748.376953	38.061245
221.887772	730.247131	762.197266	752.166443	68.604759
222.263931	726.680664	763.014648	749.119934	61.758350
222.640060	721.627991	770.073425	750.308838	59.202374
223.016159	727.572266	773.194153	757.441956	65.472282
223.392212	730.692932	771.336609	766.506836	88.116791
223.768265	734.631042	769.701843	769.701904	100.000175
224.144302	739.014832	768.736023	767.918640	97.249832
224.520294	741.615417	766.358215	762.717468	85.285629
224.896286	742.284180	761.380066	752.909424	55.641533
225.272217	745.553528	764.500671	753.132385	40.000000
225.648148	747.782715	772.302490	752.909485	20.908716
226.024048	749.045715	777.726563	761.751526	44.300682
226.399902	737.008728	783.819397	754.618469	37.619076
226.775772	730.618652	778.395325	757.962097	57.231789
227.151581	730.395752	777.206482	750.160217	42.222084
227.527374	737.974609	774.160095	753.280945	42.299656
227.903137	734.556702	774.308594	745.924988	28.598101
228.278870	734.631042	769.850403	747.633972	36.919834
228.654572	725.120300	775.348877	745.702148	40.976372
229.030273	726.754883	784.562500	751.126221	42.159389
229.405930	725.343201	791.175354	748.525635	35.214455
229.781555	723.708496	789.169189	751.423401	42.338238
230.157181	725.194580	786.494324	743.027161	29.090792
230.532761	719.250305	783.968018	744.884766	39.609653
230.908325	726.606262	784.413818	741.541199	25.835613
231.283859	726.903503	780.104248	748.971436	41.480495
231.659332	735.745544	779.807068	752.612305	38.280022
232.034821	736.340027	779.509949	751.051941	34.079082
232.410263	733.739319	776.686340	750.308899	38.581440
232.785690	726.829163	774.828796	750.754700	49.845249
233.161087	726.086182	766.729797	756.624573	75.136993
233.536469	732.996338	774.977356	767.844299	83.008850
233.911804	735.745544	775.200256	765.838196	76.271378
234.287140	735.671204	777.726563	765.243713	70.318054
234.662430	741.764099	776.166260	759.745300	52.267651
235.037704	744.884766	777.355164	762.123047	53.089222
235.412933	741.689758	781.218811	760.265442	46.992485
235.788162	731.658936	779.212646	752.983704	44.843540
236.163345	727.275085	773.937195	749.714539	48.089237
236.538513	732.253357	771.708069	750.754700	46.892605
236.913635	726.234802	775.348938	756.624573	61.875813
237.288742	724.748718	783.447937	755.807312	52.911427
237.663834	727.052185	782.333313	753.726807	48.252674
238.038879	726.754883	773.639893	742.655701	33.914501
238.413910	728.538147	772.822571	740.946777	28.020304
238.788910	724.228516	773.937195	740.278015	32.287117
239.163879	733.962219	775.720398	753.206726	46.085598
239.538834	739.757996	768.290222	755.510071	55.208012
239.913757	741.689758	763.906311	759.522400	80.267365
240.288651	742.209900	771.485168	752.612305	35.533081
240.663528	741.615417	779.881348	759.299500	46.213646
241.038361	743.324402	791.918396	759.150879	32.568794
241.413177	738.569031	783.670715	763.683411	55.683907
241.787979	733.962219	784.785339	765.169495	61.403698
242.162735	732.401917	779.435547	761.305725	61.453491
242.537476	730.395813	794.370422	759.448181	45.412342
242.912170	735.522644	798.382751	750.829102	24.350035
243.286865	725.863281	805.664368	755.584412	37.244019
243.661514	721.256531	802.097839	757.293274	44.577141
244.036148	714.346375	802.543701	752.612244	43.386654
244.410751	722.148193	802.915222	755.658691	41.490318
244.785339	732.922058	803.286804	743.770264	15.417103
245.159882	738.940613	799.051453	749.491516	17.552414
245.534378	739.014893	794.816162	739.980774	1.730931
245.908890	738.271790	791.175293	745.330566	13.342740
246.283356	728.909668	791.621155	748.228333	30.805624
246.657791	726.086182	802.915222	748.748535	29.497120
247.032196	719.696106	809.379456	753.206726	37.365486
247.406586	720.141907	821.565186	753.652405	33.040245
247.780960	720.290588	824.165833	758.110596	36.409065
248.155289	720.662109	822.977051	755.807312	34.350021
248.529602	725.863281	819.856262	750.011658	25.691681
248.903870	730.024231	817.998718	756.996094	30.658733
249.278122	731.733215	818.593079	758.110657	30.367813
249.652344	732.996399	816.141113	762.717468	35.746193
250.026550	735.671204	813.391846	749.640137	17.973261
250.400711	734.631042	809.453857	748.005554	17.874910
250.774857	731.956116	810.642639	741.095398	11.614799
251.148987	725.640381	808.785156	752.166443	31.903461
251.523071	727.572266	813.317627	752.315125	28.856207
251.897125	734.556702	819.336121	755.807312	25.065765
252.271164	731.956055	817.255676	756.104492	28.310135
252.645187	731.138733	816.438293	756.921814	30.226511
253.019165	726.160461	814.283508	758.036377	36.172054
253.393112	731.287415	820.376282	753.058105	24.437050
253.767044	731.881836	827.509460	753.058105	22.144510
254.140930	734.779602	828.178162	754.172668	20.763775
254.514801	736.488586	824.314392	753.875427	19.796961
254.888657	736.934387	819.410400	751.051941	17.117163
255.262466	728.686829	816.141113	743.250183	16.652534
255.636276	725.640381	817.998596	739.312012	14.802832
256.010010	728.538269	823.274170	745.924988	18.352829
256.383759	731.658936	823.571350	753.206604	23.443697
256.757446	734.259521	830.704407	758.184998	24.807407
257.131134	727.720886	831.596008	758.482117	29.613665
257.504791	730.395752	839.472168	758.556458	25.817410
257.878418	726.680664	837.391602	760.339783	30.402704
258.252014	729.875671	847.793945	762.643127	27.788277
258.625580	730.024231	853.441101	761.454285	25.466578
258.999115	732.476257	867.112732	754.098328	16.059593
259.372650	729.206848	873.874329	747.856873	12.891649
259.746124	730.618652	899.434387	752.612305	13.028200
260.119598	733.293518	920.313477	756.921875	12.634136
260.493042	744.141785	938.963562	764.054871	10.221181
260.866425	742.209900	934.208191	759.596680	9.055696
261.239838	745.033386	931.236023	763.609070	9.976058
261.613159	737.751709	921.056580	756.996094	10.498567
261.986511	734.482422	913.031799	755.584412	11.818574
262.359802	727.200745	894.530457	752.835205	15.319730
262.733063	726.234863	885.316895	757.590576	19.710405
263.106293	726.309082	884.202332	757.590576	19.811800
263.479523	727.349365	886.877258	756.327393	18.164865
263.852692	730.618652	888.214661	750.383118	12.541222
264.225861	737.751709	881.378906	752.463684	10.243168
264.598969	737.677429	885.688477	752.835205	10.240976
264.972076	739.460693	890.963928	760.859863	14.124563
265.345154	734.259521	902.109375	756.550293	13.280186
265.718201	740.649475	903.966980	754.767090	8.644276
266.091217	739.460693	907.310547	758.110657	11.111099
266.464203	740.500977	910.356934	753.058105	7.392810
266.837158	735.894104	922.393982	756.550293	11.075712
267.210114	729.281250	927.818054	743.993164	7.410170
267.583038	724.377258	939.706543	749.045715	11.456155
267.955902	720.736328	941.118164	745.627869	11.294733
268.328766	718.507324	947.285339	750.234619	13.868157
268.701569	718.358704	949.737366	757.516296	16.923597
269.074371	719.696106	959.396790	755.064209	14.755112
269.447144	723.782776	972.102539	748.897156	10.113726
269.819885	730.915833	981.984863	742.209900	4.498391
270.192596	730.544373	980.572998	745.033386	5.794942
270.565277	736.414246	988.671936	752.389343	6.332849
270.937927	731.213074	1000.114563	758.110657	10.002765
271.310577	733.813660	1036.225708	756.178711	7.395555
271.683136	730.618652	1056.881836	753.355286	6.968801
272.055725	733.813660	1076.869263	745.850769	3.508793
272.428284	732.253235	1078.652588	747.113831	4.290018
272.800812	730.841553	1081.476074	751.051941	5.763947
273.173279	730.841553	1078.801147	757.367676	7.623334
273.545776	729.727051	1080.435913	763.237549	9.555076
273.918152	729.281189	1073.674316	766.581238	10.830660
274.290558	734.185120	1064.609375	771.113586	11.176076
274.662964	736.934387	1053.835449	767.101318	9.519353
275.035278	744.587585	1049.451660	757.293274	4.167657
275.407593	741.912659	1057.996460	753.801086	3.761163
275.779907	741.912659	1066.689819	755.212891	4.095187
276.152161	737.231628	1078.206665	763.831970	7.801258
276.524384	731.064453	1083.556519	764.872253	9.591082
276.896606	723.857117	1100.126099	760.191162	9.656402
277.268799	726.754883	1112.534546	759.373840	8.455334
277.640930	732.401855	1129.401245	755.435791	5.802008
278.013031	739.089172	1128.658325	757.070374	4.615664
278.385162	734.779602	1133.413696	754.544128	4.958062
278.757233	733.590820	1134.082397	755.212891	5.398883
279.129272	725.789001	1130.292969	753.578125	6.869926
279.501282	725.120300	1138.614868	751.720642	6.433057
279.873230	722.965515	1154.515747	759.076599	8.367759
280.245178	731.287354	1174.948975	760.191162	6.514832
280.617126	725.417480	1190.701172	768.290222	9.214323
280.988983	727.052063	1203.555542	762.346008	7.406860
281.360870	727.126465	1232.459351	768.067200	8.101736
281.732697	730.470032	1257.424927	759.596741	5.527363
282.104492	727.349426	1283.579590	754.321228	4.849036
282.476288	723.931458	1308.099487	752.092102	4.820641
282.848053	735.522644	1320.805054	756.178894	3.529279
283.219757	740.575195	1323.554321	757.962097	2.982423
283.591461	739.460632	1315.158203	763.386169	4.155921
283.963135	732.179016	1321.771118	758.259277	4.423441
284.334747	728.389587	1330.910278	761.305664	5.463062
284.706360	730.172852	1347.628418	757.070496	4.356207
285.077942	727.275085	1367.095703	762.271667	5.469749
285.449524	728.315247	1379.430054	765.912415	5.774276
285.821014	727.943787	1393.770508	766.358337	5.769452
286.192535	731.807434	1411.157227	761.751465	4.407749
286.563995	736.785828	1446.228149	762.197266	3.581889
286.935425	734.185242	1468.518921	758.779358	3.349174
287.306824	731.064453	1487.763306	759.745361	3.790267
287.678223	727.423645	1474.166016	755.510071	3.761194
288.049561	732.476257	1462.351929	752.612305	2.758832
288.420898	727.869446	1436.048828	751.943604	3.399443
288.792145	728.761047	1424.977661	750.457520	3.116339
289.163452	727.200867	1432.333618	756.327393	4.130644
289.534668	726.160461	1451.280884	758.927979	4.518907
289.905914	724.525879	1481.150391	756.401672	4.212894
290.277039	730.692932	1508.493774	763.609070	4.231949
290.648193	736.860046	1546.759766	768.884583	3.954136
291.019318	737.900330	1590.747070	775.051697	4.356160
291.390381	725.566101	1606.796387	768.067200	4.822927
291.761475	721.776672	1592.010132	765.318054	5.003414
292.132507	717.244141	1570.908203	765.392334	5.640181
292.503510	720.885010	1553.892944	757.962097	4.450988
292.874481	723.634216	1554.858765	758.779358	4.228117
293.245422	722.668274	1553.149902	764.352051	5.019229
293.616364	719.176025	1580.493164	768.438660	5.719454
293.987213	721.107910	1610.511353	768.438721	5.321636
294.358093	726.383362	1655.093140	761.157043	3.744300
294.728943	737.900391	1706.064819	754.767029	1.742125
295.099731	736.785828	1745.519653	752.537903	1.561569
295.470490	737.305969	1773.977539	748.005432	1.032098
295.841248	737.900391	1790.175415	756.773254	1.793530
296.211975	741.318298	1813.952148	756.773193	1.440836
296.582642	743.695984	1860.911621	761.974365	1.636066
296.953308	733.813721	1909.134155	768.958801	2.990255
297.323883	729.058289	1959.362793	762.123047	2.687526
297.694519	724.748718	1980.687500	761.379944	2.916641
298.065063	736.340027	1975.040527	755.287170	1.529598
298.435608	737.974609	1957.133667	761.974426	1.968555
298.806122	743.250183	1912.180542	763.163269	1.703530
299.176575	743.621643	1859.128418	766.655457	2.064874
299.547028	744.290344	1809.345703	771.039307	2.511509
299.917450	743.027161	1784.825562	771.782410	2.760155
300.287872	731.361755	1781.184937	765.020813	3.206164
300.658234	728.166687	1773.457397	760.414063	3.085015
301.028564	727.795166	1778.212524	751.126160	2.221117
301.398865	728.983948	1789.581055	752.760925	2.241848
301.769135	733.293518	1800.280640	745.702148	1.162960
302.139374	730.098450	1802.658325	757.664856	2.570151
302.509583	732.550476	1801.395142	756.178894	2.210650
302.879791	733.888000	1799.463257	762.866028	2.719473
303.249939	735.596985	1789.952515	753.801086	1.726562
303.620087	744.364685	1769.593750	758.259277	1.355267
303.990173	746.073547	1766.547241	753.132385	0.691722
304.360260	743.027161	1755.179077	756.476013	1.328739
304.730286	734.036621	1775.537720	753.132324	1.833479
305.100281	730.395752	1785.271484	757.070374	2.528698
305.470276	733.442139	1799.983398	755.212830	2.041242
305.840179	732.476257	1797.977173	758.779358	2.468613
306.210144	735.819824	1801.098022	761.157043	2.378460
306.579987	736.191406	1817.221680	766.581238	2.811192
306.949890	738.049011	1827.995605	767.324219	2.685930
307.319702	735.448303	1842.410156	775.720398	3.638074
307.689484	729.578430	1860.391479	775.868958	4.093562
308.059265	734.853943	1888.254883	775.200195	3.498025
308.429016	730.321472	1928.526978	758.927979	2.387446
308.798737	739.609314	1979.721802	756.996094	1.402032
309.168396	730.693054	2026.681030	756.104492	1.960777
309.538055	731.287415	2058.854248	759.448059	2.121222
309.907684	720.439209	2069.330811	755.955872	2.633026
310.277313	724.525879	2089.912598	755.138611	2.242056
310.646851	725.417480	2111.906250	755.361511	2.159702
311.016388	733.367859	2136.203125	758.482178	1.790254
311.385895	734.779541	2137.466064	759.745300	1.779853
311.755371	737.677429	2142.444580	764.797913	1.930604
312.124817	729.801270	2142.816162	768.290039	2.723876
312.494232	724.748779	2144.450928	768.513000	3.082634
312.863617	729.875671	2126.246826	768.810242	2.788268
313.232971	739.014893	2119.187744	765.689514	1.932701
313.602295	740.946777	2107.002197	762.866028	1.604565
313.971619	735.225403	2114.209717	762.643066	1.988250
314.340820	729.429871	2124.909180	760.488281	2.225645
314.710083	725.937561	2148.463135	761.825745	2.522850
315.079285	727.943665	2180.487549	760.636963	2.250762
315.448486	732.179016	2205.379150	765.540955	2.264590
315.817596	727.275085	2204.561523	766.804016	2.675780
316.186707	723.931396	2166.221436	765.466614	2.879810
316.555786	722.148132	2112.797607	759.448181	2.682204
316.924866	739.386414	2075.200439	757.739075	1.373893
317.293884	740.278015	2064.352295	752.983704	0.959590
317.662872	742.284180	2065.912842	755.064209	0.965530
318.031830	732.179016	2081.070801	753.058105	1.547870
318.400757	737.603088	2088.426758	756.921875	1.430149
318.769684	736.117004	2105.293213	758.630798	1.644331
319.138550	740.649475	2125.354736	763.980530	1.684911
319.507416	739.609192	2139.695313	770.519226	2.207724
319.876190	738.940613	2156.636475	776.314758	2.636260
320.244995	739.757874	2152.401367	781.664612	2.966547
320.613770	739.460693	2139.398193	770.593567	2.223876
320.982483	739.460693	2119.262451	767.472839	2.030157
321.351166	739.014832	2095.485352	757.887695	1.391321
321.719818	733.144958	2091.993164	770.073425	2.717630
322.088440	731.361633	2093.850586	773.119812	3.064845
322.457062	727.423645	2121.491455	776.612061	3.528409
322.825623	733.144958	2147.720215	777.577942	3.141083
323.194183	732.179016	2188.958008	774.234314	2.886869
323.562653	735.819885	2233.614258	767.918518	2.143060
323.931183	721.479492	2286.517578	761.157043	2.535245
324.299591	722.519714	2340.238525	759.150879	2.264372
324.668060	713.231750	2393.662109	767.175598	3.210121
325.036407	722.445313	2434.528564	769.033203	2.721123
325.404755	724.525879	2452.955811	771.633789	2.725474
325.773102	730.618652	2464.101074	763.163269	1.877413
326.141388	733.293518	2477.252441	764.575134	1.793713
326.509674	730.544250	2485.722900	761.900146	1.786479
326.877899	731.510254	2495.531006	767.695801	2.051311
327.246124	727.052063	2502.069580	764.500732	2.109763
327.614288	728.166687	2508.831299	764.797913	2.057166
327.982422	724.377258	2498.280273	762.271667	2.136216
328.350525	727.795166	2480.447754	761.751465	1.937423
328.718628	730.841553	2475.618164	759.968262	1.669366
329.086700	738.791931	2477.104248	759.150879	1.171191
329.454712	732.773438	2490.552979	759.076660	1.496389
329.822693	729.132629	2488.175537	756.996094	1.584013
330.190674	726.903564	2503.927490	756.996094	1.693423
330.558563	732.476257	2524.137695	763.757629	1.745942
330.926483	726.977844	2556.162109	768.587402	2.274760
331.294312	726.829163	2578.229980	772.079529	2.444115
331.662231	737.083008	2604.458984	769.850525	1.754736
332.029999	743.398743	2636.854980	765.318054	1.157635
332.397766	736.785828	2676.309814	767.695740	1.593686
332.765503	730.470032	2718.216553	768.884521	1.932565
333.133240	730.841553	2771.937500	771.485168	1.991264
333.500916	741.466858	2816.964844	771.708069	1.457058
333.868561	743.027161	2857.385498	767.918640	1.177259
334.236176	746.519470	2873.434814	763.683350	0.806985
334.603790	738.940613	2889.558594	759.373779	0.950107
334.971344	740.723816	2890.227295	756.773193	0.746655
335.338867	737.825989	2879.378906	762.345886	1.144959
335.706360	735.522644	2871.948975	757.516296	1.029460
336.073853	729.727051	2871.057373	754.023987	1.134665
336.441284	729.058289	2885.917725	759.745361	1.422766
336.808655	735.596985	2869.125000	761.008484	1.191055
337.176086	736.117004	2835.243164	766.358215	1.440657
337.543396	732.922058	2761.311768	757.367676	1.205174
337.910706	731.658875	2715.615967	769.107422	1.887568
338.277954	726.234863	2720.668213	769.404602	2.164511
338.645264	728.761047	2801.287109	775.051697	2.233538
339.012421	725.640320	2928.938721	769.181824	1.976196
339.379669	720.587708	3041.804688	774.903076	2.339952
339.746796	721.553711	3142.039063	776.017578	2.250122
340.113953	728.686768	3204.527588	780.104187	2.076766
340.481018	739.757874	3231.945313	775.051697	1.416178
340.848114	737.974609	3236.329346	773.937195	1.439451
341.215118	738.494812	3222.731689	770.221985	1.277140
341.582153	737.008728	3233.951416	769.033203	1.282547
341.949066	734.110840	3242.570557	770.742126	1.460310
342.316010	727.200684	3254.830811	774.085754	1.854902
342.682922	723.559875	3274.074951	787.385925	2.502477
343.049835	729.355530	3300.006836	803.435303	2.881751
343.416656	731.807556	3341.913330	826.543457	3.629581
343.783478	735.374023	3393.479736	841.701172	4.000110
344.150269	733.739441	3490.296143	867.558594	4.854577
344.516998	726.829285	3600.412842	901.886414	6.091945
344.883728	723.782776	3714.541748	954.492737	7.714094
345.250427	725.120300	3771.457764	992.312805	8.770943
345.617065	731.138855	3817.525146	1015.941101	9.227693
345.983704	733.145020	3830.528320	999.074402	8.585614
346.350281	738.866272	3835.060547	964.226379	7.278616
346.716827	739.534973	3793.302734	902.034973	5.321295
347.083405	745.702148	3741.736328	851.657898	3.536533
347.449860	741.392578	3681.179688	813.168945	2.441550
347.816376	741.987000	3639.570313	791.101074	1.695001
348.182770	737.305969	3602.864502	780.401550	1.503916
348.549194	739.609375	3588.152588	773.119812	1.176406
348.915558	739.683594	3599.446533	769.181824	1.031492
349.281921	735.596985	3623.669678	770.370605	1.204042
349.648193	723.039795	3660.003662	773.194092	1.707692
350.014526	715.683838	3693.291260	774.977356	1.991314
350.380737	715.089355	3740.696289	770.444885	1.829568
350.746948	719.176025	3793.154053	773.491272	1.766937
351.113159	722.148132	3841.525146	780.252869	1.862703
351.479309	723.188416	3882.540039	790.283691	2.123704
351.845428	728.315247	3920.285889	787.906067	1.866897
352.211517	723.708496	3929.871094	790.506653	2.083430
352.577576	725.046082	3966.353516	782.630554	1.776582
352.943604	723.039795	3998.898193	784.933899	1.889401
353.309601	733.665100	4078.402344	784.413818	1.517271
353.675537	739.832214	4157.386230	790.432312	1.480594
354.041473	742.209900	4284.071777	786.717224	1.256608
354.407379	743.027161	4396.640625	791.398254	1.323925
354.773254	741.466980	4482.312012	796.971008	1.483730
355.139038	742.284180	4540.861816	812.203064	1.840660
355.504913	741.615479	4626.087402	830.555847	2.289639
355.870636	732.253235	4728.477051	851.360596	2.980498
356.236389	729.504089	4845.577637	878.629700	3.623006
356.602081	728.835388	4943.806152	901.514954	4.096815
356.967804	735.448303	5051.247559	936.957336	4.669101
357.333405	734.779602	5159.135254	949.514465	4.853472
357.699036	733.144958	5311.084473	952.932434	4.801013
358.064606	730.841553	5491.119629	946.988098	4.540628
358.430176	734.185242	5608.518066	953.006653	4.489259
358.795654	733.219238	5662.981934	953.080994	4.459885
359.161163	738.346130	5632.443848	943.198730	4.185707
359.526581	734.928223	5611.416016	910.282532	3.595914
359.892029	737.008728	5634.746582	879.669861	2.912796
360.257416	730.693054	5726.808105	849.651550	2.381020
360.622772	732.327637	5919.623535	837.317383	2.023978
360.988098	728.315369	6162.964844	838.877686	2.034396
361.353394	735.076843	6449.179199	855.149963	2.101347
361.718658	724.971680	6712.136230	879.595642	2.582591
362.083893	722.593933	6919.143066	916.375488	3.127249
362.449097	715.386536	7072.505371	963.112000	3.896820
362.814209	732.773438	7076.070801	1026.863647	4.636236
363.179382	731.956055	6912.753906	1084.522583	5.704224
363.544434	730.395752	6573.709473	1137.054565	6.959387
363.909546	728.018066	6196.771973	1175.766357	8.187391
364.274536	727.943787	5903.201660	1220.125122	9.510277
364.639587	734.185242	5701.470215	1269.536255	10.777537
365.004517	729.132629	5594.028809	1346.068237	12.681373
365.369507	734.110840	5514.524902	1419.256348	14.332347
365.734344	732.327637	5468.457031	1469.187622	15.558274
366.099274	727.795166	5431.454590	1445.782227	15.264437
366.464081	727.349365	5398.835938	1379.281372	13.955559
366.828918	726.234863	5378.551270	1269.833496	11.684472
367.193665	730.693054	5381.746094	1168.410278	9.411142
367.558411	729.206848	5401.807617	1051.309204	6.893428
367.923126	729.578369	5413.398926	952.263672	4.754352
368.287781	732.550537	5401.659180	872.016785	2.987000
368.652435	735.076843	5365.919434	839.695068	2.259162
369.017059	733.962219	5340.285156	822.456726	1.921153
369.381653	739.386414	5309.003906	820.524902	1.775608
369.746185	738.049011	5287.158691	813.837708	1.666012
370.110687	734.928223	5296.074707	819.038879	1.844068
370.475220	732.401917	5327.728027	828.921204	2.100379
370.839661	735.819824	5384.346191	844.524719	2.338481
371.204041	746.445129	5449.584473	875.657532	2.747365
371.568451	737.603088	5539.267578	908.425049	3.557557
371.932770	728.166687	5621.297363	961.328613	4.765087
372.297150	732.327637	5661.718750	1018.838867	5.812304
372.661377	734.853943	5667.291504	1105.550171	7.515478
373.025696	743.621582	5686.907715	1179.109863	8.809692
373.389862	735.225403	5688.914063	1245.982300	10.310638
373.754059	731.733154	5698.053223	1275.703491	10.953187
374.118225	726.457703	5699.687500	1272.805542	10.985775
374.482361	717.764343	5735.798828	1222.948364	10.067369
374.846436	721.405090	5790.856934	1124.869019	7.958729
375.210510	724.823059	5879.054199	1019.210449	5.711568
375.574524	731.213074	5988.873535	918.158691	3.555681
375.938538	728.761047	6134.655762	853.366699	2.304996
376.302460	726.829285	6289.873535	812.871765	1.546680
376.666412	726.309082	6452.373535	802.172180	1.324873
377.030304	728.389587	6607.145996	803.806885	1.282878
377.394196	725.268860	6757.015137	803.806824	1.302077
377.757996	727.795166	6889.421875	803.955505	1.236043
378.121796	733.665039	6934.895996	796.971008	1.020861
378.485565	736.562805	6936.753418	797.119629	0.976693
378.849304	733.070618	6836.444824	805.664368	1.189404
379.212982	728.463867	6727.813965	821.788086	1.555572
379.576630	731.510254	6549.486816	835.088196	1.780309
379.940277	729.801331	6433.203125	843.707458	1.997161
380.303864	724.525818	6312.238770	849.651611	2.239302
380.667450	722.742615	6298.567871	845.193420	2.196102
381.030945	730.544434	6288.982422	829.366943	1.777883
381.394501	741.615540	6365.365234	807.447571	1.170607
381.757935	742.878601	6368.560547	794.816223	0.923224
382.121399	737.751709	6376.808594	787.311584	0.878868
382.484741	733.962219	6389.811035	786.271301	0.924867
382.848145	732.996338	6440.560059	783.447937	0.883943
383.211487	734.556641	6509.513184	782.556335	0.831170
383.574768	728.463867	6596.447266	779.138367	0.863576
383.938019	733.590820	6688.285156	778.766846	0.758662
384.301270	727.423645	6805.757813	783.596497	0.924149
384.664459	731.287415	6885.187500	799.200012	1.103570
385.027649	732.922058	6949.162109	807.967773	1.207253
385.390778	736.488586	7000.282715	821.639404	1.359413
385.753876	736.042786	7025.321777	831.967529	1.525210
386.116943	723.188293	7071.092285	852.920898	2.043708
386.479980	727.572266	7084.838379	876.103333	2.336398
386.842987	728.092346	7139.896973	896.165100	2.621302
387.205994	733.665039	7189.011230	905.824463	2.666928
387.568909	728.463867	7263.017090	897.279602	2.583432
387.931793	722.593933	7311.164551	877.663757	2.353619
388.294678	732.030457	7347.053223	853.069519	1.829760
388.657471	736.191406	7350.322266	826.023254	1.358181
389.020294	741.912659	7326.694824	807.521973	0.996378
389.383057	731.956116	7336.947754	790.209473	0.881960
389.745819	737.157288	7339.027832	784.339539	0.714680
390.108521	739.980774	7380.712402	775.125977	0.529237
390.471191	739.163391	7442.308594	778.692566	0.589711
390.833801	735.671204	7591.583496	778.692566	0.627508
391.196442	733.739319	7776.522949	774.680176	0.581316
391.558960	734.928223	7959.976563	778.469543	0.602644
391.921509	733.516418	8136.593750	775.720459	0.570088
392.284027	734.333801	8269.967773	787.683167	0.707961
392.646484	739.237793	8379.563477	780.327332	0.537798
393.008911	744.290344	8373.767578	780.401550	0.473312
393.371307	745.330627	8352.888672	784.116638	0.509835
393.733673	744.884766	8266.548828	792.884338	0.638151
394.096008	734.556702	8242.251953	804.104004	0.926347
394.458344	733.070618	8239.428711	797.268250	0.855243
394.820587	726.234802	8270.785156	793.701660	0.894246
395.182831	729.132629	8315.885742	789.986511	0.802107
395.545013	730.024231	8295.304688	790.432312	0.798491
395.907196	730.618652	8214.909180	792.512756	0.826987
396.269287	723.782776	8054.563965	786.791504	0.859509
396.631409	716.203918	7934.787598	785.305481	0.957273
396.993469	716.203918	7832.175293	785.082520	0.967944
397.355530	724.377258	7760.101563	787.460266	0.896610
397.717499	730.172852	7739.966309	788.351990	0.829969
398.079468	731.436035	7705.267090	791.175476	0.856623
398.441376	728.984070	7713.439941	801.280579	1.035106
398.803284	724.228699	7696.201172	806.258850	1.176570
399.165131	723.559875	7743.234375	804.698486	1.155874
399.526978	723.857117	7753.637207	794.890564	1.010465
399.888763	727.646545	7758.169922	796.673767	0.981822
400.250519	727.052185	7760.473145	804.178406	1.096568
400.612244	735.596924	7800.670410	820.450684	1.201032
400.973938	733.293518	7827.568359	826.543457	1.314439
401.335602	735.374023	7845.252441	816.809814	1.145389
401.697205	732.699036	7872.967285	805.218567	1.015642
402.058807	735.671204	7940.285645	804.549805	0.956035
402.420349	738.940613	8060.285156	803.881165	0.887003
402.781860	732.327637	8162.376953	798.308411	0.888026
403.143341	725.937561	8279.180664	796.599426	0.935517
403.504822	724.823059	8394.795898	809.528137	1.104373
403.866241	726.383484	8574.163086	826.246277	1.272497
404.227631	732.699158	8723.659180	838.283264	1.321294
404.588959	735.002502	8902.803711	852.697998	1.440969
404.950287	736.711487	9025.550781	869.341797	1.600107
405.311554	736.785828	9134.924805	882.196106	1.731458
405.672821	734.333801	9179.060547	888.511963	1.825733
406.034027	739.460693	9167.098633	887.546082	1.757140
406.395203	741.912598	9097.700195	887.174500	1.738459
406.756348	738.791931	9006.975586	874.988831	1.647241
407.117493	734.853821	8949.093750	856.115906	1.476242
407.478516	733.367859	8943.669922	840.512390	1.305001
407.839600	734.482422	8933.565430	843.633118	1.331255
408.200592	732.996338	8921.230469	868.227295	1.651528
408.561554	734.259460	8890.469727	894.530518	1.965019
408.922485	732.773438	8909.936523	931.013123	2.424309
409.283417	731.881836	8926.952148	967.644348	2.876882
409.644257	731.287415	9036.473633	1005.910339	3.306644
410.005096	737.380188	9146.367188	1049.154419	3.707631
410.365906	736.117004	9286.055664	1065.352417	3.850734
410.726715	727.423584	9396.098633	1069.364746	3.944561
411.087433	719.473206	9493.436523	1036.374390	3.611836
411.448120	718.433044	9568.629883	1013.489075	3.333892
411.808807	724.674500	9579.774414	1002.343689	3.135698
412.169434	724.005676	9522.934570	1015.421082	3.311942
412.530029	726.160461	9458.811523	1058.293701	3.803349
412.890564	730.024231	9433.696289	1113.872192	4.410184
413.251099	734.036621	9420.693359	1183.122192	5.169832
413.611572	733.739319	9461.262695	1243.976196	5.846296
413.972076	727.126465	9483.924805	1277.189453	6.281553
414.332489	730.024231	9560.977539	1266.341187	6.073149
414.692871	736.191406	9687.885742	1223.914429	5.448388
415.053223	735.671204	9819.773438	1157.710693	4.645913
415.413574	736.562927	10034.062500	1109.116821	4.007033
415.773834	729.504089	10168.252930	1094.181885	3.863624
416.134094	733.442078	10338.257813	1148.274292	4.319003
416.494263	728.835388	10454.244141	1236.174316	5.216633
416.854462	732.699036	10709.623047	1369.101929	6.378748
417.214630	730.024231	10957.570313	1505.596069	7.583167
417.574738	731.510254	11260.206055	1667.055664	8.885673
417.934784	729.504089	11535.051758	1807.859375	9.979644
418.294861	731.213074	11897.054688	1943.461914	10.856761
418.654846	735.671204	12291.231445	2033.368164	11.230065
419.014832	734.036560	12734.372070	2073.714600	11.163671
419.374756	736.117004	13176.918945	2061.677490	10.654944
419.734680	731.733215	13698.300781	2047.634399	10.148416
420.094543	732.178955	14186.395508	2089.169678	10.085988
420.454376	730.395691	14630.799805	2209.985596	10.644221
420.814148	728.018005	15044.666992	2425.017822	11.853331
421.173920	719.027405	15502.519531	2686.043213	13.305489
421.533691	714.123474	15985.932617	2984.071533	14.863647
421.893341	719.324707	16308.555664	3271.474365	16.371235
422.253021	729.727051	16513.556641	3549.143799	17.862690
422.612640	734.631042	16533.248047	3765.438721	19.184006
422.972260	731.138855	16521.507813	3892.199219	20.018913
423.331757	730.544373	16427.736328	3901.115967	20.198336
423.691315	728.835449	16457.087891	3862.775391	19.925545
424.050781	727.720886	16589.123047	3858.986084	19.741415
424.410248	722.222412	16720.712891	3933.808838	20.074310
424.769653	723.039795	16876.748047	4106.785645	20.947178
425.128998	728.835388	16896.216797	4343.588867	22.358311
425.488373	736.414246	16812.179688	4613.158691	24.115458
425.847656	744.364563	16581.916016	4809.466309	25.667488
426.206940	738.494812	16335.602539	4946.480469	26.979271
426.566193	740.500916	16032.372070	4948.338379	27.516825
426.925385	738.569031	15719.038086	4947.744141	28.097754
427.284576	737.305908	15281.097656	4883.249512	28.506618
427.643677	734.408020	14951.937500	4905.465332	29.337425
428.002777	728.761047	14609.698242	4955.322754	30.448675
428.361847	734.556702	14295.546875	5059.420410	31.891947
428.720856	739.906494	13951.227539	5211.964355	33.850193
429.079865	741.243958	13744.592773	5448.692871	36.201820
429.438812	740.352295	13607.206055	5737.433105	38.836853
429.797760	735.745605	13554.004883	5999.796387	41.066814
430.156616	730.692932	13375.752930	6133.466797	42.726360
430.515503	727.795166	13286.367188	6175.670410	43.379730
430.874268	720.885010	13236.137695	6175.744629	43.585690
431.233093	719.547546	13281.016602	6191.423340	43.560799
431.591827	718.581543	13311.778320	6265.056641	44.043423
431.950562	724.600098	13361.932617	6391.892090	44.845638
432.309204	730.990173	13402.278320	6595.183594	46.279377
432.667877	736.488525	13498.277344	6841.423340	47.837608
433.026459	735.076843	13618.425781	7102.521973	49.423836
433.385010	734.853821	13769.706055	7328.254395	50.582855
433.743561	729.949951	13953.828125	7545.515625	51.539841
434.102051	728.166687	14108.600586	7717.303223	52.234009
434.460510	725.491699	14255.870117	7880.472656	52.880863
434.818939	727.795166	14282.989258	7979.294922	53.496098
435.177338	732.104675	14299.113281	8073.659668	54.113293
435.535675	734.853943	14267.756836	8174.117188	54.971672
435.894012	735.671204	14238.852539	8311.725586	56.105698
436.252289	736.488586	14254.976563	8522.521484	57.595440
436.610535	731.733215	14225.703125	8735.027344	59.310150
436.968719	736.711426	14326.010742	9010.838867	60.887077
437.326935	737.603088	14397.637695	9287.171875	62.588192
437.685028	745.702148	14568.981445	9525.756836	63.516438
438.043152	742.284180	14700.051758	9704.455078	64.209198
438.401215	739.237793	14914.414063	9865.394531	64.381256
438.759277	737.157410	15086.500000	10017.790039	64.676361
439.117249	732.253357	15465.963867	10271.310547	64.743073
439.475250	737.677429	15744.152344	10449.191406	64.715492
439.833130	739.460693	16142.636719	10679.307617	64.531151
440.191071	741.689758	16375.948242	10842.476563	64.606750
440.548889	740.278015	16688.166016	11093.692383	64.920288
440.906708	735.596924	17007.000000	11384.663086	65.446518
441.264496	735.225403	17249.080078	11621.539063	65.922302
441.622223	736.488586	17406.230469	11812.870117	66.446030
441.979950	737.528809	17422.279297	11951.518555	67.211014
442.337616	736.042786	17422.650391	12079.987305	67.982330
442.695251	736.711426	17278.056641	12112.903320	68.774277
443.052887	736.488586	17108.126953	12080.507813	69.290680
443.410461	735.968445	16918.210938	12039.270508	69.850037
443.768005	731.287415	16818.943359	12003.307617	70.066269
444.125458	730.098572	16754.076172	11950.106445	70.020119
444.482941	731.213135	16791.300781	11982.281250	70.056084
444.840393	730.395752	16891.240234	12076.198242	70.205505
445.197754	731.287354	17137.402344	12308.023438	70.563545
445.555084	734.259460	17418.787109	12498.015625	70.506973
445.912415	734.705383	17770.609375	12727.758789	70.398689
446.269714	738.643372	18044.861328	12872.426758	70.112274
446.626953	737.528809	18350.767578	13008.770508	69.670563
446.984161	730.321472	18676.509766	13187.171875	69.412239
447.341309	729.727051	18923.492188	13288.668945	69.028816
447.698456	726.829285	19070.908203	13352.125000	68.824913
448.055542	727.646545	19133.917969	13329.164063	68.463173
448.412598	723.931458	19063.923828	13268.458008	68.399849
448.769653	723.634277	18944.890625	13166.292969	68.286499
449.126617	727.275085	18663.060547	13002.827148	68.441673
449.483582	732.401917	18453.898438	12910.989258	68.722115
449.840515	735.671204	18120.054688	12801.690430	69.407234
450.197388	737.528809	17871.587891	12736.527344	70.030098
450.554230	731.584656	17661.533203	12678.867188	70.568916
450.911041	728.166687	17491.009766	12604.120117	70.846886
451.267822	725.640320	17342.107422	12525.581055	71.013535
451.624573	725.789001	17128.857422	12422.523438	71.308212
451.981262	724.154297	17034.863281	12386.635742	71.501991
452.337921	730.767273	16923.556641	12317.682617	71.556015
452.694580	731.584534	16862.705078	12315.304688	71.809769
453.051147	735.596924	16855.125000	12313.520508	71.825447
453.407715	731.138733	16747.388672	12223.985352	71.757416
453.764221	729.058289	16788.625000	12169.670898	71.238609
454.120728	730.692932	16549.074219	11972.174805	71.065941
454.477142	726.754883	16497.431641	11913.549805	70.934143
454.833557	732.327637	16313.831055	11720.659180	70.521637
455.189911	732.922058	16171.020508	11577.403320	70.244926
455.546265	741.169617	15981.104492	11387.561523	69.858513
455.902557	732.401917	15854.640625	11280.416992	69.751678
456.258820	727.423645	15866.528320	11287.401367	69.752983
456.615051	727.200745	15928.421875	11355.536133	69.917641
456.971252	740.129395	15916.385742	11358.285156	69.965584
457.327393	746.296570	16121.536133	11496.562500	69.919342
457.683502	739.014893	16354.028320	11697.773438	70.180908
458.039612	731.881836	16780.451172	12077.460938	70.695267
458.395630	728.835449	17191.494141	12428.914063	71.070404
458.751648	726.754883	17683.750000	12787.200195	71.123711
459.107605	725.640381	18303.806641	13270.687500	71.367210
459.463562	725.417480	18956.927734	13762.944336	71.510956
459.819458	727.497986	19533.738281	14237.738281	71.839134
460.175323	734.110901	20068.494141	14601.895508	71.726028
460.531158	736.117126	20545.148438	14929.273438	71.649925
460.886932	733.442200	20857.589844	15096.901367	71.374245
461.242676	725.640381	20965.107422	15144.456055	71.241081
461.598419	718.061523	20737.591797	14966.276367	71.171570
461.954102	721.851013	20328.630859	14638.973633	70.981178
462.309723	726.829285	19702.853516	14113.281250	70.544029
462.665344	726.903503	19064.888672	13589.522461	70.141945
463.020905	728.909729	18530.951172	13158.789063	69.822777
463.376373	726.977844	18105.046875	12864.847656	69.845909
463.731873	733.070618	17779.304688	12628.789063	69.785027
464.087341	737.380188	17472.878906	12463.166992	70.065361
464.442749	739.832214	17360.310547	12394.436523	70.121956
464.798126	741.020996	17226.640625	12348.071289	70.407127
465.153503	742.061279	17365.064453	12469.629883	70.550232
465.508820	739.163391	17378.291016	12534.200195	70.887352
465.864105	740.278015	17549.484375	12701.530273	71.158928
466.219330	733.962219	17795.576172	12943.088867	71.559044
466.574524	734.036621	18008.156250	13153.290039	71.895149
466.929657	729.281250	18198.816406	13327.679688	72.116394
467.284790	731.584534	18316.140625	13447.456055	72.312721
467.639893	720.290527	18483.990234	13608.023438	72.550949
467.994934	726.160461	18639.507813	13758.708008	72.753281
468.349945	724.897400	18651.171875	13789.991211	72.882370
468.704926	734.556702	18595.148438	13751.055664	72.878319
469.059875	725.937561	18366.220703	13602.450195	72.994934
469.414764	724.748718	18173.703125	13432.965820	72.830818
469.769653	727.646545	17958.744141	13307.988281	73.009521
470.124451	739.609192	17895.216797	13270.614258	73.043198
470.479248	742.878601	17787.103516	13199.655273	73.085030
470.834015	744.438965	17752.183594	13150.987305	72.946472
471.188721	731.881836	17828.494141	13128.250000	72.507744
471.543365	725.566101	17879.167969	13163.395508	72.508560
471.898010	718.953125	17982.968750	13221.872070	72.421844
472.252625	722.371033	18120.873047	13296.026367	72.268608
472.607178	729.058289	18408.349609	13450.054688	71.954224
472.961700	731.807434	18638.541016	13565.223633	71.668098
473.316193	728.018066	18915.541016	13765.323242	71.682686
473.670654	722.668274	19036.654297	13856.045898	71.712288
474.025055	727.200745	19274.646484	13991.351563	71.514702
474.379456	729.578430	19402.298828	14084.526367	71.521172
474.733795	733.665039	19576.537109	14208.760742	71.512962
475.088104	727.126465	19636.648438	14331.954102	71.946976
475.442383	728.909668	19631.966797	14356.995117	72.094612
475.796570	730.098450	19709.242188	14430.257813	72.185333
476.150787	735.299744	19914.244141	14573.885742	72.155090
476.504944	736.637207	20175.564453	14786.464844	72.276764
476.859070	735.076843	20437.408203	15002.610352	72.415451
477.213135	736.339905	20716.787109	15222.027344	72.499313
477.567200	735.745544	21162.974609	15537.590820	72.461349
477.921173	744.661865	21562.873047	15835.916992	72.490646
478.275146	741.169678	22025.927734	16122.055664	72.262444
478.629089	738.494812	22312.437500	16282.698242	72.050819
478.983002	725.268860	22719.765625	16525.148438	71.835609
479.336823	711.745789	23072.181641	16767.447266	71.804062
479.690643	717.244141	23455.806641	17065.849609	71.898148
480.044403	721.182190	23912.326172	17396.048828	71.901871
480.398163	733.293640	24545.162109	17819.724609	71.755943
480.751862	723.708496	25414.130859	18452.634766	71.804871
481.105499	719.993347	26489.513672	19242.546875	71.877754
481.459137	720.290588	27865.005859	20309.162109	72.164589
481.812744	728.166687	29599.156250	21619.638672	72.361465
482.166290	728.909668	31767.978516	23231.787109	72.498558
482.519806	730.470032	34455.289063	25197.611328	72.549355
482.873291	735.151062	37544.871094	27456.787109	72.593971
483.226715	738.569031	41051.210938	30053.294922	72.718445
483.580139	738.420410	44443.500000	32665.554688	73.051315
483.933502	732.104675	47737.863281	35355.015625	73.656746
484.286804	732.104736	50474.949219	37801.882813	74.522835
484.640106	727.646484	52568.730469	39880.945313	75.525612
484.993347	726.754883	53736.988281	41152.339844	76.259964
485.346558	717.838562	53940.878906	41436.996094	76.506638
485.699738	723.485596	53275.644531	40783.425781	76.228912
486.052887	722.148132	52015.699219	39496.355469	75.592751
486.405975	734.110840	50471.832031	37949.816406	74.823906
486.759064	732.476257	48882.277344	36468.812500	74.219070
487.112061	733.888000	47490.437500	35320.765625	73.972267
487.464996	732.179016	46687.968750	34704.574219	73.924080
487.817963	736.340027	46510.531250	34546.082031	73.862022
488.170868	734.705322	46599.917969	34633.535156	73.909676
488.523743	726.754883	46685.812500	34810.230469	74.160522
488.876587	725.045959	46498.050781	34717.429688	74.262947
489.229401	724.600159	46092.355469	34318.718750	74.048447
489.582153	726.754883	45307.644531	33558.898438	73.646225
489.934845	719.770447	44265.843750	32669.345703	73.369591
490.287537	714.123352	43194.402344	31742.570313	73.042007
490.640198	721.627991	42324.464844	31027.626953	72.845993
490.992798	719.398926	41751.812500	30513.304688	72.610657
491.345337	724.080017	41634.859375	30420.351563	72.587883
491.697876	719.547546	41709.015625	30448.810547	72.529030
492.050354	726.754944	42139.156250	30829.759766	72.690796
492.402832	731.881836	42349.949219	31049.250000	72.846649
492.755219	732.104736	42224.007813	31074.810547	73.129219
493.107605	732.699158	41521.699219	30615.248047	73.261292
493.459930	737.380188	40283.222656	29793.978516	73.475731
493.812225	745.776367	38559.324219	28534.177734	73.487953
494.164490	744.884766	36603.601563	27094.115234	73.480682
494.516724	740.055115	34629.972656	25611.033203	73.387543
494.868896	727.423645	32918.777344	24307.837891	73.250771
495.221039	723.485596	31504.205078	23238.619141	73.146873
495.573120	725.640381	30437.517578	22426.640625	73.038132
495.925201	731.510254	29779.937500	21946.494141	73.033157
496.277222	730.395752	29422.169922	21670.314453	72.982307
496.629211	736.042786	29331.373047	21573.794922	72.871170
496.981140	733.070618	29320.744141	21550.537109	72.819733
497.333069	737.751709	29407.755859	21657.310547	72.966713
497.684967	732.773438	29471.951172	21723.958984	73.040314
498.036804	739.163391	29554.650391	21799.451172	73.086700
498.388580	744.661865	29445.796875	21775.673828	73.275887
498.740326	741.318176	29278.468750	21673.806641	73.351715
499.092072	735.819824	28940.462891	21457.212891	73.468018
499.443756	728.389648	28645.408203	21188.832031	73.290207
499.795410	730.470032	28328.208984	20957.974609	73.294067
500.147003	737.825989	28012.796875	20713.443359	73.237907
500.498566	736.191406	27610.000000	20463.712891	73.407982
500.850098	734.779602	27247.849609	20177.943359	73.334259
501.201599	728.092285	26916.755859	19938.689453	73.354630
501.553009	727.423645	26673.931641	19678.109375	73.037521
501.904449	721.702332	26449.687500	19523.041016	73.077385
502.255859	727.052185	26275.373047	19377.259766	72.999741
502.607178	729.652649	26182.791016	19335.126953	73.096977
502.958405	734.779602	26059.375000	19276.501953	73.216263
503.309692	729.801270	26003.576172	19237.716797	73.229721
503.660919	727.869446	26016.056641	19234.298828	73.182114
504.012115	727.052063	26085.306641	19241.210938	73.010384
504.363251	720.885010	26164.958984	19332.306641	73.146393
504.714294	717.689941	26183.166016	19392.117188	73.332329
505.065369	716.129639	26217.197266	19448.738281	73.458138
505.416443	724.005676	26240.601563	19443.611328	73.362473
505.767395	732.401917	26258.507813	19430.162109	73.249557
506.118317	737.825989	26217.046875	19397.246094	73.233871
506.469238	737.974609	26224.625000	19418.423828	73.295036
506.820160	739.089172	26244.835938	19413.814453	73.217712
507.170929	741.020996	26282.210938	19483.734375	73.382301
507.521729	735.002502	26317.578125	19526.531250	73.454407
507.872498	729.949951	26413.056641	19646.009766	73.651756
508.223236	726.680664	26596.210938	19801.599609	73.735077
508.573883	733.144958	26757.078125	19945.822266	73.826958
508.924500	737.083008	26943.947266	20074.664063	73.788239
509.275116	738.569031	27163.513672	20163.826172	73.511063
509.625702	739.609192	27428.255859	20321.273438	73.370766
509.976196	744.141785	27677.615234	20515.277344	73.407295
510.326660	743.472961	27917.166016	20711.289063	73.482155
510.677124	745.033386	28120.087891	20860.935547	73.482605
511.027557	737.900330	28321.892578	20989.107422	73.416519
511.377869	735.671204	28543.462891	21149.376953	73.410019
511.728180	729.875671	28724.689453	21236.236328	73.250572
512.078430	731.138855	28840.306641	21314.330078	73.225899
512.428650	731.956116	28953.544922	21394.130859	73.214073
512.778931	727.720886	29057.865234	21559.306641	73.531517
513.129028	723.188293	29134.023438	21634.427734	73.603043
513.479126	717.318420	29155.791016	21693.125000	73.758553
513.829285	717.541443	29096.349609	21655.304688	73.779572
514.179382	717.392761	29047.087891	21623.875000	73.797058
514.529297	722.296692	28904.650391	21517.251953	73.787148
514.879272	726.309082	28891.720703	21485.968750	73.706215
515.229187	729.875671	28760.353516	21407.208984	73.767326
515.579163	730.544373	28791.041016	21406.091797	73.682045
515.928955	736.191406	28828.341797	21422.958984	73.638962
516.278748	733.739441	29056.375000	21541.175781	73.465752
516.628540	730.247131	29323.195313	21726.857422	73.432823
516.978333	725.566101	29779.041016	22031.873047	73.334801
517.327942	730.024231	30329.179688	22502.580078	73.558029
517.677612	730.692932	30971.304688	23003.453125	73.651817
518.027222	730.098450	31562.458984	23494.000000	73.831200
518.376831	731.584656	32263.578125	23996.806641	73.782906
518.726379	738.271790	32891.285156	24473.978516	73.821098
519.075867	739.163391	33421.285156	24880.414063	73.866837
519.425293	736.637207	33805.660156	25172.794922	73.894402
519.774658	729.132568	34004.121094	25327.197266	73.923584
520.124084	722.445374	34035.550781	25380.322266	74.018547
520.473389	716.055359	33784.109375	25198.353516	74.036102
520.822693	718.730225	33445.878906	24949.070313	74.037430
521.171997	721.107910	32992.042969	24600.740234	73.997337
521.521240	725.343079	32582.634766	24296.765625	73.990669
521.870361	734.333801	32192.546875	23999.556641	73.955956
522.219482	734.259521	31882.851563	23726.123047	73.813492
522.568604	735.002502	31585.937500	23503.437500	73.801445
522.917664	722.668274	31407.982422	23359.289063	73.770210
523.266724	725.714661	31446.171875	23363.005859	73.688004
523.615662	729.429871	31728.447266	23542.000000	73.591270
523.964600	731.435974	32172.111328	23875.619141	73.612236
524.313538	726.606262	32714.896484	24263.923828	73.581047
524.662354	724.080017	33432.808594	24759.447266	73.483040
525.011169	730.395752	34276.515625	25378.093750	73.474060
525.359985	733.888000	35308.878906	26151.955078	73.515755
525.708740	730.024231	36468.890625	27056.814453	73.664314
526.057434	725.937561	37830.714844	28056.039063	73.656555
526.406067	731.584656	39328.726563	29187.593750	73.725693
526.754700	732.476257	40954.097656	30386.693359	73.727058
527.103333	734.556641	42805.500000	31788.193359	73.812546
527.451782	736.042725	44880.777344	33444.843750	74.094460
527.800293	741.541199	47032.582031	35196.011719	74.430107
528.148743	743.027161	49121.531250	37004.464844	74.953613
528.497131	737.751709	50966.542969	38693.292969	75.565308
528.845642	739.683594	52533.285156	40368.222656	76.512421
529.193909	741.020996	53700.582031	41828.347656	77.582451
529.542175	737.825989	54525.417969	42858.253906	78.308823
529.890503	735.299744	54858.144531	43276.800781	78.601746
530.238770	732.327637	54649.500000	43042.601563	78.472725
530.586914	732.847717	53827.265625	42216.949219	78.132698
530.934998	736.042786	52508.468750	40848.441406	77.478310
531.283142	735.894226	50954.800781	39196.097656	76.585106
531.631226	739.534973	49159.425781	37347.371094	75.604958
531.979248	738.420410	47390.050781	35696.660156	74.934654
532.327148	734.705322	45789.941406	34234.683594	74.353127
532.675110	733.219238	44670.949219	33316.968750	74.158928
533.023071	730.915833	44099.406250	32774.410156	73.886574
533.370850	728.835449	43993.750000	32652.552734	73.786621
533.718689	727.126465	44245.488281	32791.425781	73.679932
534.066467	730.321472	44500.792969	33005.046875	73.736298
534.414246	730.618652	44597.160156	33094.582031	73.778236
534.761963	731.213074	44428.566406	33009.949219	73.868858
535.109619	729.206848	44122.738281	32756.353516	73.806267
535.457153	730.321472	43475.488281	32347.541016	73.966766
535.804749	729.875671	42666.777344	31772.585938	74.022423
536.152344	725.640381	41706.562500	31137.744141	74.210396
536.499817	730.990173	40799.027344	30461.142578	74.199173
536.847229	726.309082	39902.343750	29813.369141	74.247078
537.194641	729.058289	39125.656250	29234.255859	74.238861
537.542114	729.801331	38517.046875	28810.880859	74.313644
537.889404	734.259460	38062.535156	28431.343750	74.198669
538.236694	736.414307	37618.425781	28100.173828	74.192696
538.583984	733.219238	37218.605469	27793.156250	74.166512
538.931213	734.036621	36920.722656	27573.515625	74.169479
539.278381	735.225403	36747.601563	27420.232422	74.099548
539.625488	736.637207	36838.250000	27367.625000	73.766754
539.972595	740.352295	37159.906250	27548.849609	73.610176
540.319641	734.036621	37871.355469	27996.671875	73.410347
540.666687	728.835388	38818.269531	28668.439453	73.352638
541.013611	728.166687	40065.144531	29693.744141	73.634483
541.360596	724.748718	41400.957031	30768.087891	73.859741
541.707458	727.646667	42812.039063	31944.968750	74.177910
542.054260	723.411316	43990.332031	32879.398438	74.320023
542.401062	727.572266	44976.703125	33729.277344	74.581581
542.747864	725.046082	45421.031250	34183.191406	74.857162
543.094666	727.349365	45414.042969	34248.355469	75.013397
543.441284	724.600159	44779.871094	33751.636719	74.967278
543.787903	728.463867	43805.832031	32963.808594	74.831276
544.134460	729.429871	42482.730469	31956.931641	74.790497
544.481079	739.163513	41053.812500	30895.369141	74.802101
544.827637	738.717590	39477.925781	29736.617188	74.854141
545.174072	743.175781	37955.242188	28499.921875	74.590714
545.520508	734.779602	36584.355469	27486.728516	74.622780
545.866943	731.733215	35508.156250	26589.970703	74.355659
546.213318	724.897400	34689.191406	25931.130859	74.213921
546.559631	724.674377	34014.894531	25328.759766	73.907852
546.905823	723.485596	33440.609375	24844.007813	73.724457
547.252136	727.572266	32986.917969	24456.890625	73.557968
547.598389	733.516418	32536.937500	24104.619141	73.486130
547.944458	727.720886	32159.181641	23868.931641	73.624359
548.290588	724.525818	31614.546875	23536.724609	73.849739
548.636658	723.114075	31043.455078	23113.867188	73.847298
548.982727	738.197510	30292.697266	22595.162109	73.954781
549.328735	741.243958	29592.244141	22070.507813	73.929024
549.674622	737.900330	28838.369141	21565.025391	74.116646
550.020569	734.631042	28162.142578	21068.386719	74.136353
550.366455	733.293518	27458.125000	20532.962891	74.087166
550.712280	733.665039	26853.078125	20075.478516	74.051476
551.058044	739.832214	26360.822266	19705.898438	74.025497
551.403748	743.175781	25974.078125	19447.919922	74.134262
551.749512	741.392578	25736.234375	19254.361328	74.067154
552.095154	731.807556	25525.437500	19074.251953	73.980476
552.440735	726.383484	25467.851563	19000.765625	73.861351
552.786316	729.727051	25387.828125	18976.839844	74.000481
553.131897	733.813721	25478.923828	19043.638672	73.993706
553.477417	737.380188	25503.296875	19094.089844	74.120857
553.822815	733.219238	25551.517578	19089.556641	73.962921
554.168213	729.429749	25495.642578	19011.687500	73.819351
554.513672	726.234802	25349.634766	18902.759766	73.818100
554.859009	728.389587	25149.759766	18784.248047	73.934669
555.204285	730.247131	24914.818359	18638.541016	74.048424
555.549500	738.940491	24691.091797	18477.898438	74.059975
555.894714	742.581360	24449.384766	18277.355469	73.965157
556.239990	739.460632	24130.255859	18039.513672	73.960945
556.585022	732.179016	23850.056641	17825.818359	73.941216
556.930115	728.166687	23597.205078	17626.685547	73.892563
557.275146	728.092346	23388.564453	17454.080078	73.811295
557.620178	726.309082	23222.052734	17295.593750	73.655197
557.965149	730.767273	23018.462891	17172.103516	73.768669
558.310059	726.531982	22841.400391	17056.189453	73.840172
558.654968	727.646484	22659.876953	16954.023438	73.984161
558.999756	724.080017	22546.046875	16870.806641	73.992996
559.344604	728.240906	22512.087891	16864.191406	74.073006
559.689331	730.395691	22486.679688	16823.474609	73.969803
560.033997	723.931396	22458.294922	16751.994141	73.745262
560.378723	731.510315	22394.544922	16730.001953	73.851570
560.723389	726.606384	22378.048828	16762.767578	74.065094
561.067932	732.253357	22398.630859	16820.353516	74.253761
561.412476	724.600098	22433.478516	16835.808594	74.214836
561.757019	728.018066	22427.162109	16828.156250	74.197113
562.101501	731.213074	22432.958984	16853.642578	74.290932
562.445862	735.225403	22382.728516	16825.257813	74.327423
562.790222	731.807434	22349.587891	16793.306641	74.297630
563.134644	731.213135	22315.263672	16769.900391	74.308052
563.478943	731.064514	22351.671875	16750.582031	74.093742
563.823181	739.534973	22393.501953	16722.642578	73.811455
564.167358	737.305908	22424.337891	16685.271484	73.536880
564.511536	735.002502	22480.287109	16717.294922	73.497734
564.855774	731.361633	22498.416016	16773.318359	73.698334
565.199768	734.779602	22582.751953	16890.419922	73.945717
565.543823	730.098633	22723.705078	16999.570313	73.973648
565.887817	730.247131	22995.726563	17157.759766	73.780190
566.231812	728.761047	23234.460938	17287.865234	73.577377
566.575745	734.853943	23419.697266	17412.767578	73.520073
566.919617	725.937683	23540.068359	17565.458984	73.811806
567.263428	727.126465	23654.046875	17675.130859	73.921852
567.607239	725.045959	23717.353516	17770.611328	74.135948
567.950989	733.962219	23736.525391	17756.494141	74.002762
568.294678	728.092468	23709.330078	17729.744141	73.980576
568.638367	728.463867	23638.593750	17632.630859	73.784691
568.981995	724.377258	23499.201172	17556.841797	73.908211
569.325623	732.253357	23325.330078	17424.656250	73.882820
569.669128	733.739441	23156.591797	17355.480469	74.128578
570.012573	728.984070	23044.990234	17238.751953	73.981735
570.356140	726.234802	23037.111328	17198.255859	73.829559
570.699524	729.504089	23018.833984	17129.005859	73.575569
571.042908	736.191406	23109.556641	17161.251953	73.413452
571.386230	739.609314	23203.328125	17190.900391	73.234940
571.729492	736.117004	23395.250000	17254.875000	72.901100
572.072815	738.494812	23540.216797	17339.728516	72.806931
572.416016	731.807434	23679.087891	17418.861328	72.719093
572.759094	732.327637	23795.968750	17545.843750	72.900528
573.102234	727.869446	23866.703125	17570.140625	72.787903
573.445374	731.881836	23930.900391	17612.197266	72.763062
573.788391	731.584534	23913.812500	17580.767578	72.681465
574.131409	732.476257	23888.771484	17584.185547	72.773773
574.474365	731.807434	23841.513672	17561.001953	72.823059
574.817261	731.956055	23725.601563	17514.414063	72.987373
575.160156	734.556702	23565.630859	17406.525391	73.023148
575.502930	734.036621	23317.013672	17285.041016	73.289734
575.845703	728.984070	23056.728516	17153.451172	73.560799
576.188477	729.875671	22828.546875	17032.486328	73.771904
576.531250	728.018066	22593.673828	16871.472656	73.830185
576.873901	732.030457	22368.984375	16689.357422	73.750343
577.216431	732.476257	22092.205078	16494.759766	73.794395
577.559082	738.569031	21801.087891	16285.077148	73.811241
577.901611	735.671204	21505.810547	16082.601563	73.889397
578.244080	727.720886	21172.339844	15820.535156	73.822922
578.586487	725.268860	20862.570313	15574.073242	73.737808
578.928955	758.556458	20549.904297	15294.471680	73.445808
579.271301	762.643127	20247.564453	15051.725586	73.334045
579.613647	764.649231	19905.103516	14762.835938	73.134033
579.955872	732.179016	19588.054688	14530.639648	73.178574
580.298157	730.915833	19331.414063	14311.668945	73.012848
580.640320	727.126465	19086.511719	14159.645508	73.164322
580.982483	729.875671	18895.181641	13994.100586	73.019547
581.324524	732.699158	18692.111328	13869.495117	73.147141
581.666626	737.974609	18571.744141	13768.145508	73.064590
582.008728	741.169617	18472.472656	13724.381836	73.221985
582.350647	741.763977	18403.818359	13660.257813	73.142647
582.692566	736.414246	18308.412109	13603.489258	73.224884
583.034424	730.841492	18187.224609	13523.317383	73.282509
583.376343	727.274963	18061.060547	13446.637695	73.379021
583.718201	728.686829	17971.748047	13415.801758	73.578094
584.059937	726.309143	17884.740234	13379.987305	73.746124
584.401611	727.795166	17796.914063	13339.270508	73.884750
584.743347	725.491760	17749.062500	13277.004883	73.730202
585.085022	725.937561	17668.072266	13209.018555	73.680687
585.426514	724.748718	17624.085938	13129.366211	73.402977
585.768127	726.383362	17518.277344	13050.976563	73.396080
586.109619	730.618652	17495.392578	12988.190430	73.115051
586.451172	733.293518	17426.216797	12961.588867	73.254364
586.792542	730.544373	17386.318359	12940.116211	73.305344
587.133850	733.962219	17325.314453	12895.608398	73.301117
587.475220	737.380188	17315.580078	12877.627930	73.230194
587.816589	741.021179	17338.986328	12847.757813	72.941086
588.157776	736.711487	17392.705078	12856.674805	72.766373
588.498962	731.584656	17451.183594	12879.262695	72.655312
588.840210	730.990173	17493.312500	12903.558594	72.618629
589.181335	730.098572	17577.794922	12930.902344	72.418228
589.522400	733.590820	17606.476563	12960.995117	72.467766
589.863403	732.179016	17644.593750	13004.760742	72.565521
590.204407	732.401917	17598.599609	13036.487305	72.951149
590.545410	730.544373	17653.359375	13068.585938	72.907745
590.886353	732.550537	17626.388672	13034.778320	72.820801
591.227112	731.807434	17604.691406	13010.109375	72.769424
591.567932	728.835449	17529.423828	12951.260742	72.749992
591.908752	725.045959	17457.498047	12899.917969	72.762039
592.249512	727.349304	17415.146484	12871.164063	72.770630
592.590149	723.188293	17300.794922	12832.600586	73.046799
592.930786	725.343079	17274.787109	12833.268555	73.162132
593.271423	731.510254	17198.626953	12795.077148	73.258522
593.612000	732.699158	17173.216797	12776.426758	73.256378
593.952576	731.807434	17145.277344	12792.847656	73.482567
594.292969	728.018066	17189.634766	12836.834961	73.557877
594.633484	730.395752	17233.550781	12875.026367	73.589752
594.973877	726.309082	17309.041016	12941.528320	73.662277
595.314209	719.919128	17442.490234	13019.026367	73.547951
595.654480	719.696106	17633.521484	13141.921875	73.444206
595.994812	721.107910	17831.091797	13267.344727	73.326988
596.335022	720.216309	18037.283203	13408.372070	73.269661
596.675171	723.782898	18225.566406	13566.041992	73.376862
597.015320	724.971680	18386.505859	13696.590820	73.445595
597.355408	733.070618	18469.576172	13784.416992	73.584656
597.695496	731.733215	18490.751953	13803.141602	73.604332
598.035461	732.104675	18469.650391	13743.997070	73.357910
598.375366	728.983948	18416.597656	13677.200195	73.204994
598.715271	725.863281	18331.148438	13587.589844	73.056053
599.055176	727.126404	18144.425781	13455.850586	73.080933
599.395081	723.782776	17911.414063	13298.403320	73.160866
599.734802	726.903503	17602.388672	13085.898438	73.236389
600.074524	726.457703	17283.630859	12873.540039	73.364464
600.414246	734.036621	16949.714844	12601.370117	73.184326
600.753906	734.110840	16623.599609	12341.831055	73.052826
601.093506	729.801270	16342.809570	12108.743164	72.881165
601.433044	726.383362	16122.054688	11976.632813	73.074104
601.772583	728.166687	16025.090820	11910.502930	73.101860
602.112122	735.968445	15994.700195	11889.401367	73.095413
602.451538	730.618652	16026.502930	11911.840820	73.099548
602.790894	730.544250	16127.703125	11990.155273	73.127846
603.130310	729.206848	16335.973633	12158.079102	73.230240
603.469604	734.482422	16575.822266	12331.725586	73.208725
603.808838	730.024231	16855.646484	12536.651367	73.216568
604.148010	729.578430	17122.466797	12741.058594	73.272507
604.487305	731.436035	17379.853516	12935.137695	73.302467
604.826416	729.281189	17598.302734	13101.204102	73.341080
605.165527	728.240906	17769.050781	13202.999023	73.205193
605.504456	722.296692	17921.818359	13300.855469	73.133186
605.843445	726.532043	17981.705078	13328.867188	73.035110
606.182434	726.383484	17943.214844	13341.871094	73.274147
606.521423	728.389648	17842.386719	13242.007813	73.119209
606.860229	728.984070	17653.656250	13124.833008	73.241295
607.199036	735.151123	17413.214844	12921.020508	73.065247
607.537903	736.860046	17115.929688	12748.117188	73.332962
607.876648	745.999268	16862.111328	12533.457031	73.140831
608.215271	745.256287	16614.685547	12338.932617	73.056671
608.553955	745.999329	16397.646484	12138.911133	72.790497
608.892578	738.643372	16211.293945	11991.715820	72.728798
609.231140	735.671204	16113.808594	11910.503906	72.667007
609.569641	731.435974	16043.145508	11882.789063	72.828926
609.908081	737.380127	16014.093750	11885.315430	72.973389
610.246521	738.048889	16009.487305	11879.667969	72.957237
610.584961	741.838379	16026.502930	11883.754883	72.896049
610.923340	736.637207	16032.967773	11868.671875	72.775856
611.261597	731.584656	15911.334961	11808.262695	72.970093
611.599854	731.213135	15769.266602	11715.682617	73.044487
611.938110	730.172852	15557.058594	11608.909180	73.371689
612.276245	733.739319	15352.875000	11472.414063	73.456291
612.614319	738.123230	15093.410156	11287.475586	73.487579
612.952393	744.364685	14817.895508	11064.640625	73.331108
613.290466	746.296570	14565.562500	10860.381836	73.188293
613.628479	740.352295	14247.546875	10640.966797	73.298820
613.966370	740.278015	13977.233398	10460.485352	73.432350
614.304260	740.649597	13750.832031	10297.539063	73.457001
614.642151	739.980774	13586.549805	10162.011719	73.342781
614.979980	738.271790	13443.070313	10056.947266	73.347687
615.317749	732.253357	13303.010742	9943.709961	73.276863
615.655396	729.206848	13230.788086	9865.765625	73.083221
615.993164	724.674500	13210.652344	9811.525391	72.776443
616.330811	727.423645	13229.153320	9807.513672	72.630669
616.668396	733.590820	13204.632813	9813.829102	72.810585
617.005859	739.460693	13158.342773	9795.699219	72.923134
617.343445	737.751709	13113.835938	9788.864258	73.133896
617.680908	735.671204	13127.879883	9761.667969	72.836060
618.018311	734.408020	13146.975586	9782.919922	72.897987
618.355652	734.408142	13168.449219	9784.256836	72.782845
618.692993	734.705261	13136.870117	9805.284180	73.137062
619.030273	729.429749	13119.484375	9789.308594	73.122185
619.367554	728.389648	13079.507813	9750.375000	73.045898
619.704712	727.052185	13081.290039	9715.005859	72.751991
620.041870	728.092468	13059.817383	9673.396484	72.538948
620.379028	736.340027	13006.246094	9651.774414	72.660980
620.716064	742.952942	12951.929688	9608.752930	72.617058
621.053040	753.132324	12892.339844	9575.763672	72.678810
621.389954	749.788757	12837.801758	9531.627930	72.649155
621.726929	751.646301	12772.265625	9502.054688	72.794991
622.063843	741.243958	12712.304688	9463.416992	72.860489
622.400635	745.479187	12655.164063	9440.754883	73.010124
622.737427	742.284180	12609.023438	9425.448242	73.172287
623.074219	740.872498	12564.590820	9375.146484	73.025032
623.410889	730.395752	12555.452148	9317.561523	72.618393
623.747559	724.080017	12563.178711	9282.043945	72.285606
624.084167	718.210144	12519.859375	9266.960938	72.436920
624.420715	720.439209	12513.543945	9278.849609	72.571304
624.757324	724.897278	12505.445313	9287.915039	72.687767
625.093750	729.355469	12607.090820	9314.291992	72.277550
625.430176	730.395752	12674.854492	9373.660156	72.362129
625.766602	725.863281	12737.640625	9395.950195	72.179886
626.102905	724.600159	12810.160156	9478.946289	72.436409
626.439209	723.634277	12895.385742	9539.651367	72.430145
626.775452	724.451599	13026.976563	9639.440430	72.464706
627.111694	731.510315	13085.006836	9670.573242	72.360588
627.447876	726.754883	13163.171875	9730.536133	72.398514
627.783997	726.309082	13171.049805	9750.894531	72.517273
628.120056	717.690002	13214.070313	9799.339844	72.674240
628.456055	721.479492	13188.288086	9751.415039	72.431816
628.792053	722.742615	13176.547852	9737.818359	72.388123
629.128052	730.841553	13088.276367	9684.840820	72.458397
629.463928	734.631042	13011.520508	9632.233398	72.474403
629.799744	737.083008	12900.067383	9525.757813	72.257553
630.135559	731.435974	12799.164063	9420.321289	72.001007
630.471375	724.302917	12674.557617	9311.914063	71.861320
630.807068	722.891113	12508.789063	9205.735352	71.974518
631.142700	728.686768	12384.628906	9107.432617	71.883904
631.478333	738.717590	12217.670898	8989.811523	71.880196
631.813965	739.534973	12108.000000	8896.190430	71.748077
632.149475	736.785828	11985.102539	8790.309570	71.597595
632.484924	736.414246	11913.920898	8728.786133	71.504066
632.820435	737.157288	11830.627930	8682.124023	71.618408
633.155884	733.367859	11754.319336	8637.170898	71.716164
633.491150	736.860046	11674.815430	8596.601563	71.857506
633.826477	732.922058	11611.879883	8538.050781	71.745186
634.161804	738.866272	11571.905273	8510.708008	71.742027
634.497009	736.340027	11537.131836	8457.506836	71.487045
634.832153	738.420410	11480.140625	8403.786133	71.360687
635.167297	730.767273	11385.331055	8346.202148	71.475807
635.502380	721.702393	11328.713867	8306.003906	71.502716
635.837463	718.953125	11281.828125	8282.969727	71.609451
636.172424	726.457703	11193.481445	8233.260742	71.718605
636.507324	730.024231	11090.350586	8186.524902	71.971680
636.842224	734.185242	10988.777344	8123.888184	72.062386
637.177124	726.606384	10902.809570	8051.740234	71.982979
637.511963	728.389587	10782.364258	7954.998047	71.878128
637.846741	728.909668	10653.895508	7858.998535	71.839783
638.181396	728.018066	10547.938477	7797.921875	71.995537
638.516113	729.058350	10443.766602	7752.746094	72.299522
638.850769	728.166687	10363.817383	7716.263672	72.523354
639.185303	734.036560	10274.803711	7645.675781	72.443222
639.519836	730.544373	10202.581055	7571.447266	72.222084
639.854370	735.522644	10092.613281	7503.534668	72.330307
640.188843	738.717712	10008.502930	7425.368652	72.133827
640.523254	745.924988	9904.701172	7368.304688	72.306381
640.857605	739.832214	9824.231445	7289.988770	72.103355
641.191895	737.677429	9744.356445	7241.692871	72.213249
641.526184	725.566101	9701.186523	7177.271484	71.880333
641.860413	725.268860	9646.424805	7132.541016	71.821091
642.194580	725.863281	9615.960938	7072.132813	71.385826
642.528748	727.497864	9555.181641	7042.932129	71.541237
642.862793	727.869446	9523.751953	6990.623535	71.200974
643.196838	728.389587	9460.000000	6945.447266	71.201729
643.530823	732.179016	9404.942383	6893.212402	71.038872
643.864746	738.197510	9338.291992	6851.751465	71.087051
644.198669	735.225403	9307.307617	6822.921875	71.017708
644.532532	739.014832	9274.540039	6777.225098	70.742104
644.866333	735.151123	9222.899414	6743.492188	70.788399
645.200073	735.671204	9151.047852	6724.916504	71.170250
645.533813	737.231628	9132.397461	6738.662109	71.486740
645.867554	735.522644	9139.382813	6735.244629	71.392456
646.201172	738.940613	9148.076172	6736.507813	71.322044
646.534729	736.637207	9151.495117	6725.585938	71.171127
646.868225	736.340027	9169.252930	6744.978516	71.252228
647.201782	735.448303	9174.157227	6762.365234	71.419891
647.535217	738.494812	9178.615234	6771.578613	71.481018
647.868591	744.513245	9172.596680	6783.393066	71.651878
648.201965	746.222229	9190.131836	6784.953125	71.515823
648.535278	739.163513	9149.860352	6774.625000	71.759346
648.868591	736.414246	9142.800781	6757.164063	71.621140
649.201782	737.157410	9108.176758	6729.003418	71.578453
649.534912	738.643372	9098.517578	6716.816895	71.510330
649.868103	731.213074	9046.653320	6685.833496	71.609200
650.201172	724.005676	9019.830078	6657.152344	71.519676
650.534180	729.875671	8994.269531	6621.560547	71.289986
650.867188	729.206848	8986.989258	6589.462402	70.966454
651.200134	733.442139	8975.471680	6566.502441	70.772141
651.533020	735.002502	8931.335938	6541.908691	70.847610
651.865845	739.089172	8883.632813	6512.633301	70.888489
652.198608	736.488586	8830.581055	6479.048340	70.947540
652.531433	729.504150	8814.235352	6439.816895	70.630821
652.864136	730.024231	8781.913086	6411.804688	70.564568
653.196777	854.332703	8868.252930	6530.763184	70.832130
653.529358	854.555603	8827.237305	6520.658203	71.068970
653.861938	850.617615	8781.318359	6493.537109	71.152847
654.194519	719.621887	8584.713867	6302.133301	70.978333
654.526978	718.135803	8550.385742	6263.570313	70.802574
654.859375	721.999512	8504.838867	6227.385254	70.737495
655.191833	723.708496	8483.810547	6198.704590	70.553146
655.524170	723.188416	8419.092773	6177.156738	70.868454
655.856445	719.696228	8363.366211	6157.912109	71.146660
656.188660	728.761047	8331.637695	6172.104004	71.595833
656.520874	731.064453	8295.006836	6164.971191	71.839607
656.853088	733.739319	8300.356445	6178.122559	71.952675
657.185181	730.470032	8278.882813	6175.967285	72.140953
657.517212	731.435974	8298.127930	6198.630371	72.253426
657.849243	735.002502	8322.870117	6214.679688	72.216301
658.181274	740.872375	8404.529297	6251.607910	71.907387
658.513123	747.411072	8482.993164	6275.013184	71.456833
658.844971	749.342957	8570.448242	6341.143066	71.496292
659.176819	747.931213	8661.467773	6400.361816	71.427368
659.508667	735.596985	8750.557617	6467.531250	71.515442
659.840393	737.380188	8832.067383	6503.345703	71.231483
660.172058	736.265625	8877.093750	6532.026855	71.193756
660.503662	740.798157	8907.409180	6561.895996	71.279236
660.835266	737.677429	8922.047852	6572.818848	71.296158
661.166931	740.500916	8849.973633	6538.937012	71.502014
661.498413	738.197510	8802.198242	6486.181641	71.279556
661.829773	734.482422	8665.703125	6424.213379	71.738403
662.161194	729.504089	8570.818359	6343.297363	71.592506
662.492615	732.104736	8431.649414	6233.626465	71.452553
662.823975	733.813660	8286.387695	6103.299316	71.094780
663.155212	734.333801	8154.278809	5985.529785	70.771362
663.486450	733.739441	7991.703613	5884.850098	70.971840
663.817627	733.219238	7889.685547	5808.838379	70.923538
664.148743	729.875671	7751.705566	5754.151855	71.552238
664.479858	732.476257	7653.328613	5685.496094	71.566620
664.810913	732.996399	7560.450684	5618.697754	71.559631
665.141907	737.454590	7504.203125	5575.453125	71.496651
665.472778	732.401917	7440.525879	5539.861816	71.666237
665.803711	732.550537	7402.260254	5498.029785	71.449577
666.134583	726.086182	7365.332031	5452.482422	71.188751
666.465454	733.739441	7346.978516	5439.851074	71.161980
666.796143	729.727051	7313.171387	5442.896973	71.591248
667.126831	736.785828	7305.443359	5427.293457	71.407402
667.457458	735.002502	7284.935547	5420.309082	71.532127
667.788147	735.968445	7268.736816	5401.064941	71.410713
668.118774	734.556702	7211.673340	5383.454590	71.774185
668.449219	735.002502	7189.902344	5370.006348	71.805977
668.779663	738.940613	7179.871582	5360.940918	71.759819
669.110107	743.993164	7187.153809	5351.430176	71.508957
669.440552	742.655762	7166.126465	5334.638184	71.487556
669.770874	746.445129	7144.355469	5322.378418	71.522308
670.101135	742.432800	7132.838379	5320.223145	71.635368
670.431396	742.804260	7115.228516	5291.691406	71.383934
670.761597	742.432800	7063.290527	5234.924316	71.074081
671.091797	740.798157	7012.244629	5188.113281	70.913704
671.421875	740.278015	6972.642090	5158.763672	70.895821
671.751892	739.832214	6937.570801	5135.952637	70.931038
672.081909	748.154114	6906.884277	5117.896973	70.952011
672.411865	747.113831	6858.066406	5076.064941	70.839218
672.741821	746.519531	6832.654785	5063.730469	70.935181
673.071716	736.265686	6803.082520	5045.972168	71.037361
673.401550	745.925049	6770.166504	5040.919434	71.295189
673.731262	741.838379	6749.139160	5007.408691	71.006439
674.060974	739.014893	6707.231934	4972.709473	70.937340
674.390625	725.343079	6680.482910	4924.561035	70.514175
674.720276	723.336975	6612.570313	4901.156250	70.939949
675.049927	730.470032	6574.453125	4891.050781	71.194260
675.379395	732.773438	6542.205566	4886.964355	71.507690
675.708923	740.278015	6509.438965	4865.713379	71.508415
676.038330	739.163391	6470.429688	4821.354980	71.226700
676.367737	741.912598	6418.046387	4796.166504	71.426331
676.697083	739.460693	6386.689941	4780.785156	71.562958
677.026428	742.952942	6350.876465	4771.349609	71.834023
677.355652	741.912659	6350.505371	4757.008789	71.588303
677.684875	736.340027	6335.124512	4756.414551	71.802628
678.013977	727.052185	6340.696777	4748.464355	71.636383
678.343079	725.120178	6347.904297	4755.819824	71.685120
678.672180	728.612488	6384.164063	4753.441895	71.165993
679.001221	732.847717	6423.618652	4781.305176	71.140755
679.330139	729.727051	6460.472656	4806.865723	71.144997
679.659058	727.720764	6493.760254	4834.803711	71.228836
679.987976	728.984070	6536.113281	4856.202637	71.071579
680.316772	733.962341	6593.475098	4892.462402	70.970062
680.645630	733.516418	6639.170410	4928.499512	71.033333
680.974304	732.327637	6672.458496	4959.038086	71.155174
681.302979	731.287354	6673.350098	4962.456055	71.207077
681.631653	734.631042	6688.285156	4968.028809	71.105873
681.960266	734.779602	6690.068359	4972.337891	71.156219
682.288757	740.129395	6704.260254	4987.644531	71.217674
682.617249	738.271912	6675.431152	4983.780762	71.507408
682.945679	737.157410	6652.025879	4968.771484	71.541985
683.274109	736.562927	6604.620605	4928.127930	71.430191
683.602478	738.717712	6553.797363	4878.196289	71.185242
683.930725	741.987000	6481.128906	4817.714355	71.016319
684.259033	734.408142	6405.935059	4775.286621	71.248512
684.587280	728.538147	6349.539063	4733.751465	71.254448
684.915344	719.176025	6283.632813	4691.547852	71.388313
685.243469	724.154297	6217.502441	4642.582520	71.330421
685.571533	737.528809	6163.187500	4596.663574	71.127487
685.899536	742.061279	6096.390137	4546.435059	71.052299
686.227539	744.438965	6041.703125	4527.933105	71.423553
686.555420	740.352295	5996.526855	4513.444336	71.783989
686.883301	737.083008	6007.078125	4517.753906	71.739555
687.211121	736.562927	6013.021973	4496.800293	71.264412
687.538940	728.761169	5996.898438	4482.905762	71.261330
687.866638	734.333801	5989.021973	4476.218750	71.210411
688.194336	729.504089	5991.697266	4466.410645	71.014236
688.521973	729.727051	5989.468750	4460.095215	70.923027
688.849609	731.881836	5968.440918	4442.931152	70.868088
689.177063	734.853821	5928.613770	4421.234863	70.977119
689.504578	737.454529	5886.632813	4399.612793	71.121216
689.832031	737.305908	5827.041504	4351.167480	71.002937
690.159485	739.534973	5760.615723	4305.248535	71.014862
690.486816	738.123230	5695.674316	4247.440918	70.787315
690.814087	742.729980	5630.511719	4207.540527	70.887177
691.141296	736.785828	5550.115723	4149.732910	70.906151
691.468506	736.117126	5465.113770	4080.037109	70.710983
691.795715	728.315247	5383.158203	4007.591797	70.448708
692.122803	726.903503	5316.136719	3956.322998	70.369476
692.449829	727.200684	5257.140137	3920.954834	70.503242
692.776855	727.720886	5209.289063	3885.512451	70.461754
693.103821	735.225403	5171.692383	3844.571289	70.086090
693.430664	737.083008	5141.451172	3813.958984	69.859642
693.757568	743.770203	5098.058594	3784.832031	69.840614
694.084351	735.374023	5047.606934	3768.188232	70.330482
694.411133	734.259460	5012.015625	3745.154541	70.384911
694.737854	726.457703	4967.285156	3728.584961	70.791069
695.064575	727.275085	4933.329590	3699.978516	70.676765
695.391174	727.349365	4892.982910	3676.052734	70.786430
695.717773	730.024231	4883.546387	3660.820557	70.561714
696.044250	729.652649	4877.082031	3657.551514	70.595512
696.370789	730.321472	4879.979492	3673.972412	70.937187
696.697205	729.429749	4890.753418	3698.492188	71.348991
697.023621	735.225403	4930.728516	3731.111084	71.407074
697.349915	735.522644	5008.003418	3776.510010	71.176147
697.676208	738.791992	5100.064453	3824.955322	70.762909
698.002380	732.624817	5196.583496	3890.267578	70.736382
698.328674	733.962219	5288.496094	3953.201904	70.682091
698.654724	733.144958	5376.693848	4010.340820	70.575241
698.980896	738.346130	5460.804199	4077.658936	70.711327
699.306946	736.637207	5527.082031	4119.491211	70.616699
699.632935	734.779602	5580.431641	4168.085449	70.853333
699.958862	737.157288	5622.115234	4157.088379	70.009430
700.284729	729.727051	5620.406250	4160.654785	70.152374
700.610596	731.733215	5577.607910	4140.370605	70.341019
700.936340	728.835388	5499.070313	4105.299805	70.781929
701.262146	733.813660	5380.705566	4027.876221	70.887436
701.587830	729.206848	5260.707031	3929.945313	70.633095
701.913513	729.355469	5123.543945	3842.342529	70.843277
702.239075	735.894226	5010.232422	3752.956299	70.585472
702.564697	736.785828	4877.602051	3670.108643	70.839233
702.890137	733.739319	4754.185059	3577.824951	70.740555
703.215698	730.024231	4644.068359	3486.655273	70.429230
703.541016	724.674377	4549.109863	3417.553711	70.412468
703.866455	730.247070	4460.169434	3355.139404	70.373917
704.191711	729.206848	4384.751953	3319.771484	70.866714
704.517029	734.259521	4342.176270	3271.920166	70.335899
704.842163	726.977844	4303.167480	3233.357422	70.085197
705.167419	732.476257	4272.480957	3203.784912	69.810883
705.492493	736.785828	4236.889648	3185.357422	69.957115
705.817566	737.900391	4213.632813	3172.057373	70.032921
706.142578	731.436035	4188.444336	3146.274414	69.853416
706.467590	729.652771	4147.726563	3124.578125	70.066521
706.792480	734.556641	4132.345703	3111.798096	69.964363
707.117371	735.299744	4130.042480	3107.339844	69.873924
707.442200	735.819824	4136.952637	3111.575195	69.851883
707.766907	733.070618	4118.896973	3110.534912	70.218140
708.091675	737.305908	4111.541016	3128.070313	70.853523
708.416321	732.922058	4134.648926	3123.983643	70.289642
708.741028	734.853943	4163.404297	3138.621094	70.110306
709.065552	728.241028	4191.193848	3143.970947	69.759254
709.390137	732.179016	4178.562012	3159.128662	70.420197
709.714600	727.795166	4193.199707	3171.537109	70.518227
710.039063	738.494690	4201.596191	3182.905518	70.584442
710.363403	733.813660	4244.765625	3198.955078	70.212906
710.687744	739.980774	4290.907715	3219.537109	69.828423
711.012085	731.064453	4342.622559	3248.738037	69.711563
711.336304	735.522644	4400.727051	3278.236328	69.374405
711.660461	729.875671	4425.395996	3293.839844	69.380325
711.984619	734.854004	4455.562500	3311.077881	69.240143
712.308716	735.076843	4452.441895	3323.486328	69.630219
712.632751	740.872375	4440.479004	3320.811523	69.735497
712.956726	737.900330	4404.442383	3292.947998	69.685486
713.280701	742.061279	4373.829590	3270.731445	69.626419
713.604553	740.500916	4321.743652	3229.939453	69.513260
713.928467	734.631042	4264.307129	3200.886719	69.872009
714.252258	726.903564	4209.100586	3158.013916	69.815414
714.575989	723.708496	4167.341797	3136.391846	70.062141
714.899719	726.606262	4112.952637	3094.782471	69.933075
715.223267	725.789001	4070.748779	3059.563232	69.769875
715.546936	727.126465	4042.365234	3042.547852	69.841766
715.870422	727.943787	4015.839111	3032.219971	70.083626
716.193970	731.064514	3978.762451	3017.953857	70.415703
716.517395	726.383484	3945.771729	2994.771240	70.460213
716.840820	725.491699	3934.849365	2982.808594	70.335472
717.164124	723.485596	3903.047607	2969.285400	70.632362
717.487488	733.516418	3871.691650	2933.545654	70.105370
717.810730	735.225403	3828.968018	2900.109375	69.976212
718.133972	735.225403	3789.216064	2858.500000	69.524597
718.457092	732.699158	3731.036865	2842.004883	70.349167
718.780212	737.751709	3671.965820	2799.949219	70.281082
719.103210	736.265625	3627.161377	2775.206787	70.529739
719.426208	729.652649	3585.775146	2739.764404	70.379044
719.749207	723.857117	3551.893311	2717.473633	70.494728
720.072083	728.686768	3494.382813	2683.517090	70.681313
720.394958	732.996338	3471.943359	2644.582764	69.792747
720.717773	731.956055	3433.380127	2610.477539	69.538193
721.040527	729.058289	3427.287354	2590.713135	68.995430
721.363281	728.761047	3390.953125	2570.799805	69.192558
721.685913	726.977783	3363.460938	2555.047607	69.337433
722.008545	726.606262	3313.306641	2526.143799	69.568848
722.331055	727.052063	3279.201904	2514.775391	70.047745
722.653503	731.733215	3244.799805	2485.128662	69.771149
722.976013	731.510254	3234.991943	2480.076172	69.845367
723.298401	740.649475	3238.855469	2470.342529	69.237411
723.620789	739.757996	3238.409912	2471.457031	69.305336
723.943115	742.804382	3230.905273	2460.088867	69.019890
724.265381	736.934387	3212.180664	2442.702148	68.913055
724.587585	740.352295	3196.354492	2439.432617	69.180733
724.909790	740.723816	3183.797607	2445.451172	69.777969
725.231873	733.516418	3184.243164	2454.218750	70.211922
725.553894	734.556702	3202.521484	2457.488281	69.811836
725.875916	763.311829	3255.425049	2488.100830	69.209900
726.197937	774.903076	3252.378906	2497.686035	69.537834
726.519775	768.958801	3248.886719	2491.444580	69.457092
726.841675	743.993164	3236.923828	2460.906250	68.871277
727.163513	730.024170	3247.994873	2471.457031	69.160172
727.485291	734.259460	3267.313477	2489.512695	69.293953
727.806946	732.104675	3273.109131	2502.961426	69.691208
728.128662	736.637146	3292.204834	2509.425781	69.369659
728.450256	736.860107	3321.479736	2527.852783	69.294243
728.771790	729.058289	3325.343750	2526.441162	69.229012
729.093323	729.949890	3342.359375	2536.472168	69.151573
729.414795	724.451477	3340.947510	2535.951904	69.233833
729.736145	729.504150	3340.798828	2547.840576	69.633522
730.057495	727.572266	3334.408936	2535.803223	69.364952
730.378845	733.293518	3324.377930	2532.459473	69.436798
730.700134	733.739319	3334.408936	2533.648438	69.209450
731.021301	725.268860	3324.972412	2536.249023	69.661026
731.342468	722.816895	3313.901611	2545.982666	70.363029
731.663574	721.702332	3307.585938	2541.153076	70.360893
731.984680	733.665039	3327.572998	2536.843506	69.515900
732.305664	728.315247	3348.452148	2534.168701	68.922104
732.626648	727.200684	3369.331299	2543.010742	68.725220
732.947571	729.652649	3368.811279	2555.790771	69.193954
733.268433	734.853821	3362.941406	2544.868164	68.871918
733.589233	740.129395	3338.124023	2544.719727	69.460892
733.909973	737.008728	3322.520508	2522.948975	69.074921
734.230713	741.689758	3293.765625	2499.915283	68.893936
734.551331	737.454590	3262.038086	2468.485107	68.566971
734.871948	739.460632	3223.846436	2452.212891	68.940674
735.192505	743.472961	3175.921143	2425.092041	69.132782
735.513062	742.061279	3138.472656	2399.457764	69.161598
735.833435	740.575195	3085.346436	2357.105469	68.941917
736.153931	729.727051	3042.250732	2322.628906	68.881538
736.474304	729.504150	3002.275635	2289.638428	68.644569
736.794617	728.761047	2975.080811	2281.019287	69.102287
737.114807	733.962219	2971.588867	2282.430908	69.201385
737.434998	732.996399	2953.458984	2265.787109	69.030243
737.755188	735.745605	2949.594971	2257.836670	68.753143
738.075256	736.785828	2948.926514	2258.134033	68.772667
738.395325	744.587585	2966.759033	2276.783936	68.950409
738.715271	741.392578	2997.000244	2290.604248	68.682678
739.035278	735.151123	3008.294189	2298.777588	68.786980
739.355164	726.754883	3022.783203	2304.127197	68.700035
739.675049	722.222473	3017.135986	2312.077881	69.277359
739.994873	724.600098	3016.467529	2306.281982	69.012802
740.314636	731.510254	3005.693604	2300.486572	68.990761
740.634277	735.299744	2986.895264	2276.412354	68.445358
740.953979	734.408020	2973.669189	2264.152344	68.314690
741.273499	731.064453	2954.573486	2237.180420	67.735992
741.593140	730.618652	2931.985352	2222.245605	67.759132
741.912598	730.470032	2890.821533	2203.818604	68.199486
742.232117	738.197510	2842.896484	2187.026367	68.837822
742.551453	745.330566	2797.794189	2167.336182	69.282867
742.870850	740.352295	2761.088867	2141.701904	69.348457
743.190063	732.476257	2732.036377	2116.736084	69.228218
743.509338	732.550537	2712.049316	2084.562988	68.300743
743.828552	741.318298	2676.606934	2058.556885	68.064194
744.147705	749.119934	2647.331787	2040.129883	68.011902
744.466797	747.633972	2610.774658	2024.452148	68.530418
744.785828	744.513184	2600.743896	2014.421265	68.413269
745.104858	739.163513	2587.592285	2002.681274	68.356316
745.423706	736.637207	2577.412842	2003.052734	68.797928
745.742615	735.299744	2554.527588	1989.158203	68.922562
746.061401	732.847839	2535.431885	1985.071411	69.468254
746.380249	734.333801	2535.357422	1972.291382	68.736328
746.698975	739.089172	2535.506348	1971.028198	68.577553
747.017639	737.825989	2526.812744	1957.133423	68.156311
747.336304	738.123230	2508.385742	1946.954102	68.285400
747.654907	735.968506	2517.747803	1945.765259	67.898239
747.973389	739.386414	2528.595947	1961.889160	68.326416
748.291931	741.987000	2534.466064	1967.015991	68.342728
748.610352	738.048889	2527.258545	1961.963379	68.405319
748.928711	736.265625	2529.339111	1944.353516	67.375259
749.247070	730.990173	2526.218262	1939.672729	67.327522
749.565308	735.968506	2529.636230	1938.557983	67.046394
749.883545	738.791992	2515.741455	1941.158569	67.664650
750.201782	744.290344	2502.218506	1940.192749	68.029076
750.519836	741.987000	2493.079346	1930.161743	67.853348
750.837952	741.838379	2490.924561	1921.319702	67.434143
751.155884	737.528809	2475.766602	1913.369141	67.645538
751.473877	735.374023	2453.104492	1911.808960	68.487747
751.791809	731.584534	2432.448242	1912.329102	69.420296
752.109619	726.086121	2431.779541	1896.205566	68.600807
752.427490	728.686768	2426.503662	1900.589233	69.024078
752.745300	732.030457	2429.698975	1892.639038	68.364861
753.062988	735.151123	2425.612061	1891.821655	68.423378
753.380615	738.346130	2431.036377	1880.081909	67.450966
753.698303	733.665039	2428.584473	1873.097290	67.226334
754.015808	734.185120	2432.076660	1863.140747	66.491615
754.333374	730.172852	2420.188232	1857.419556	66.700378
754.650757	731.733215	2407.928467	1853.109863	66.900124
754.968262	730.024231	2402.206787	1851.698242	67.078445
755.285583	731.213074	2395.073730	1847.016968	67.061142
755.602905	735.225403	2390.244141	1838.918091	66.687622
755.920105	732.699158	2372.188721	1843.301758	67.740753
756.237305	732.699036	2374.120361	1836.094360	67.221939
756.554443	728.463867	2372.782959	1837.432007	67.442390
756.871582	733.887939	2378.727295	1837.803345	67.113876
757.188599	733.962219	2371.817139	1848.354492	68.039742
757.505615	729.727051	2372.857422	1846.422485	67.961464
757.822510	730.470032	2384.894287	1851.921021	67.784966
758.139465	732.476257	2397.005615	1847.834351	67.007423
758.456238	734.408142	2413.798096	1864.626831	67.299362
758.773010	732.550537	2424.423584	1879.338867	67.782173
759.089783	726.309082	2435.791992	1902.967163	68.831230
759.406433	731.956055	2446.788574	1918.124634	69.171104
759.723145	733.590820	2451.841064	1917.604614	68.908112
760.039673	737.380188	2467.593262	1914.038086	68.006531
760.356201	735.745544	2462.912109	1905.121704	67.704895
760.672668	730.247131	2462.020752	1899.028931	67.490440
760.989136	725.789001	2450.726563	1890.038452	67.495171
761.305481	723.708496	2456.225098	1891.524414	67.405754
761.621826	730.544373	2465.512939	1898.360229	67.310493
761.938049	732.847839	2473.388916	1903.115601	67.235863
762.254333	738.940613	2492.781738	1915.821289	67.103035
762.570496	732.922058	2540.781494	1941.752930	66.865311
762.886597	734.556641	2624.594971	2000.526367	66.981163
763.202637	729.281250	2748.309326	2078.321533	66.816322
763.518677	730.024231	2892.084717	2180.264893	67.076782
763.834656	724.080078	3052.281494	2278.418701	66.761345
764.150574	727.423645	3179.785156	2356.956787	66.447510
764.466370	729.875671	3250.001221	2396.559814	66.134964
764.782288	739.534973	3262.260986	2423.606201	66.756012
765.097961	744.587585	3231.796875	2419.073486	67.323883
765.413696	747.113831	3186.843750	2396.634033	67.610771
765.729309	737.528809	3077.916016	2333.625732	68.197983
766.044861	730.767273	2943.874023	2258.134033	69.014595
766.360474	726.754944	2796.754639	2160.500244	69.263069
766.675903	734.482422	2682.625244	2073.046143	68.709732
766.991394	742.507141	2588.335205	1997.554565	67.993729
767.306763	742.804382	2504.150146	1938.112183	67.863327
767.622131	741.615479	2427.544189	1880.156128	67.531960
767.937378	734.036621	2365.798584	1837.208984	67.606209
768.252625	733.516418	2311.928955	1804.069946	67.824692
768.567810	730.321350	2264.746826	1770.039429	67.759430
768.882996	730.247070	2220.685547	1739.129395	67.690300
769.197998	729.875671	2181.379639	1711.563110	67.632439
769.513062	731.881836	2151.583984	1693.136108	67.708168
769.828064	729.875671	2125.057861	1669.730835	67.364334
770.142944	733.070618	2109.454346	1661.483276	67.453033
770.457825	736.488586	2091.324463	1651.526489	67.538651
770.772705	734.705261	2066.730225	1633.619629	67.484802
771.087402	731.361633	2040.649902	1604.121460	66.659103
771.402100	727.423645	2010.260132	1583.688110	66.747749
771.716736	729.801331	1985.442993	1572.765625	67.134148
772.031372	729.949951	1963.672241	1565.632690	67.736694
772.345947	731.361633	1965.604126	1561.620239	67.268684
772.660461	725.045898	1960.180054	1547.725586	66.606506
772.974854	727.795166	1944.427734	1537.026001	66.513985
773.289246	727.795166	1927.412598	1520.382324	66.069992
773.603638	729.652649	1910.099976	1506.561890	65.814819
773.917908	729.206848	1905.270508	1502.921265	65.788475
774.232178	736.042786	1887.363281	1493.856079	65.821228
774.546265	738.123230	1883.499634	1493.038940	65.909836
774.860474	738.123230	1865.072632	1487.168945	66.466667
775.174561	728.835449	1852.069702	1478.252563	66.719574
775.488586	735.151184	1836.317505	1469.484863	66.686905
775.802551	732.996338	1823.983276	1456.927734	66.355644
776.116516	731.436035	1807.413696	1449.274536	66.715004
776.430359	724.600098	1793.147583	1432.779419	66.274948
776.744202	726.383484	1788.243652	1428.098267	66.083542
777.057922	734.705322	1773.605957	1417.918823	65.763123
777.371704	737.454529	1773.828735	1419.107788	65.772888
777.685303	736.637207	1761.420288	1410.859985	65.791756
777.998962	732.476257	1769.965210	1409.819824	65.286819
778.312500	738.494690	1767.810181	1407.888062	65.032867
778.626038	741.541077	1765.284058	1407.293579	65.031212
778.939453	734.853821	1767.810547	1413.832397	65.731560
779.252869	728.240967	1767.438843	1412.346313	65.830132
779.566223	730.618652	1768.256226	1408.928223	65.370567
779.879578	738.643372	1756.664917	1406.030640	65.557281
780.192749	736.934387	1746.931274	1402.984009	65.945709
780.505920	734.853943	1735.265625	1403.206909	66.807793
780.819031	739.757813	1729.247070	1397.782837	66.501480
781.132141	744.513184	1722.336914	1394.662109	66.489380
781.445190	738.791992	1717.061523	1383.888184	65.942581
781.758118	734.036621	1710.374390	1381.807617	66.347015
782.071045	730.470032	1703.315552	1377.052246	66.462990
782.383911	734.408142	1694.919434	1364.420898	65.591393
782.696838	727.497986	1676.715210	1347.034058	65.268105
783.009583	727.275085	1658.882446	1334.031128	65.130020
783.322266	718.135742	1645.508179	1332.024902	66.196617
783.634888	725.789001	1642.684570	1330.613159	65.964348
783.947510	731.213074	1628.567017	1329.201294	66.639061
784.260132	735.151123	1621.062500	1325.932007	66.686226
784.572571	730.915833	1610.882935	1320.210815	66.967842
784.885010	723.114075	1610.214355	1315.604004	66.789513
785.197449	724.080078	1617.793335	1316.644165	66.303604
785.509766	721.702332	1611.923218	1309.734009	66.054581
785.822083	726.903564	1607.242188	1303.641235	65.513161
786.134277	731.956116	1586.808960	1289.969604	65.275970
786.446533	742.730042	1589.483887	1281.944824	63.680229
786.758606	742.878601	1580.864746	1281.796265	64.311050
787.070740	740.946777	1582.127930	1281.276123	64.234596
787.382690	732.847717	1583.019531	1291.678589	65.731522
787.694641	728.984070	1609.991211	1302.823975	65.134537
788.006653	725.640381	1644.244995	1326.080688	65.364388
788.318481	730.098572	1669.953735	1344.061890	65.325310
788.630310	732.104736	1692.690308	1361.597290	65.532166
788.942017	731.658875	1696.256836	1373.560059	66.545982
789.253784	729.504150	1709.185547	1380.990356	66.499802
789.565430	736.414246	1702.869751	1378.687012	66.456528
789.877014	739.534973	1696.479614	1375.194702	66.425964
790.188538	731.361755	1680.207397	1358.625366	66.108078
790.500061	730.767273	1663.266235	1344.062012	65.768944
790.811462	730.693054	1644.987915	1319.765015	64.429100
791.122925	739.683594	1622.548462	1308.991089	64.484100
791.434204	737.528809	1600.554810	1302.600952	65.475677
791.745483	736.860107	1586.957520	1290.043823	65.072983
792.056702	740.352295	1568.604614	1269.907837	63.936501
792.367920	736.785828	1561.843140	1246.576782	61.788551
792.678955	738.197510	1538.214844	1247.839966	63.703926
792.990112	733.739319	1534.202637	1252.966797	64.865868
793.301086	736.637146	1515.775513	1247.171143	65.525459
793.612122	741.392578	1513.100586	1233.499390	63.768524
793.922974	745.107605	1495.342285	1226.960815	64.226997
794.233826	745.850647	1491.404175	1232.756470	65.307961
794.544556	742.432800	1492.667358	1241.747070	66.554420
794.855286	738.048828	1499.354614	1244.273438	66.494255
795.166016	743.324402	1502.475220	1252.966797	67.133224
795.476624	739.386414	1511.020142	1244.644897	65.479057
795.787292	741.392578	1525.063354	1242.490112	63.942352
796.097778	729.504089	1545.942383	1242.192871	62.795780
796.408264	725.937561	1564.443726	1256.979126	63.331863
796.718689	725.789001	1564.220825	1270.947876	65.021255
797.029053	723.114075	1565.484009	1267.901489	64.673180
797.339355	733.888000	1550.474976	1259.133911	64.322105
797.649658	736.340027	1550.177612	1262.477539	64.648956
797.959839	741.615417	1538.437866	1258.465210	64.863861
798.270020	739.534973	1535.168579	1258.985229	65.287621
798.580078	732.327637	1531.676270	1246.428223	64.314941
798.890137	735.522644	1521.050903	1247.394165	65.162712
799.200195	729.652832	1506.487671	1239.518066	65.633675
799.510071	743.398743	1482.190552	1232.384888	66.187271
799.820007	734.928223	1475.429199	1220.867920	65.623100
800.129883	736.042786	1474.091675	1214.626587	64.844460
800.439575	727.275085	1475.651978	1205.487305	63.899918
800.749329	731.733154	1465.175415	1203.555542	64.329865
801.058960	737.974609	1444.296265	1195.010742	64.706512
801.368591	736.117004	1443.999023	1183.345093	63.178337
801.678162	734.631042	1431.962036	1173.091309	62.876923
801.987671	728.315247	1437.014648	1173.611450	62.832874
802.297119	722.445313	1425.126343	1185.054077	65.834816
802.606506	716.129578	1417.844727	1187.283081	67.143127
802.915894	720.141907	1408.185181	1188.694946	68.099358
803.225159	731.361633	1393.398926	1182.676392	68.170593
803.534424	736.785828	1392.878906	1179.258423	67.440521
803.843628	731.064453	1385.671387	1168.781738	66.867195
804.152771	724.600098	1383.293579	1161.797241	66.373383
804.461792	727.126465	1378.909790	1153.698364	65.446884
804.770874	732.476257	1385.299927	1162.837524	65.923050
805.079773	738.569092	1395.850952	1173.537231	66.176804
805.388733	739.832214	1417.621582	1193.598999	66.948051
805.697571	741.392578	1430.624634	1197.982788	66.246223
806.006470	735.596924	1436.346069	1194.861938	65.539146
806.315125	733.665039	1436.048828	1183.716675	64.074890
806.623901	723.262695	1430.773071	1188.471924	65.752991
806.932495	724.228577	1429.212891	1188.026245	65.788368
807.241150	719.770447	1427.429565	1186.837402	66.001686
807.549622	724.748718	1429.064331	1178.143921	64.373871
807.858154	721.999512	1426.092163	1175.320435	64.383705
808.166565	724.525818	1426.760864	1178.069702	64.585770
808.474915	725.268799	1417.324585	1164.026367	63.399162
808.783264	726.309082	1403.355469	1157.190552	63.641350
809.091492	732.104675	1381.733398	1148.571411	64.108421
809.399719	730.767273	1369.176270	1143.518921	64.653168
809.707825	729.801331	1367.095703	1148.125610	65.640671
810.015930	730.172852	1365.312500	1137.277466	64.096870
810.323975	730.841553	1363.157837	1141.661255	64.970604
810.632080	734.482422	1356.619141	1132.744995	64.015282
810.939880	729.504089	1344.433472	1131.630493	65.393913
811.247864	729.355469	1336.631714	1123.085571	64.835419
811.555664	727.795105	1326.823730	1112.163086	64.165215
811.863464	734.482422	1324.891724	1111.568726	63.868626
812.171143	735.448303	1315.009521	1112.980469	65.141037
812.478882	738.791992	1316.941528	1110.231323	64.246239
812.786438	734.036621	1310.848633	1109.042358	65.013512
813.094055	737.083008	1313.597900	1110.825684	64.827934
813.401489	733.145020	1309.065430	1110.231323	65.475418
813.708984	735.522644	1303.938477	1096.559570	63.516338
814.016357	740.723816	1297.028320	1096.485352	63.950863
814.323730	744.661865	1303.418335	1095.816528	62.845745
814.630981	749.714417	1303.046875	1102.801025	63.810932
814.938232	745.776367	1295.542236	1087.197388	62.102985
815.245361	739.014832	1287.814697	1082.070557	62.510170
815.552490	734.036621	1289.746582	1081.699097	62.561859
815.859619	732.550537	1294.799194	1095.816406	64.609467
816.166565	738.049011	1295.988037	1105.624512	65.880943
816.473572	730.470032	1299.182983	1103.469727	65.586639
816.780457	726.457703	1302.452271	1102.206665	65.234810
817.087341	718.061523	1309.362427	1095.890747	63.897961
817.394043	723.114075	1318.353149	1101.686401	63.600048
817.700806	726.011902	1326.229370	1092.844360	61.116592
818.007507	729.801270	1323.405762	1092.695679	61.134041
818.314209	725.268860	1324.891724	1096.931030	61.982655
818.620667	718.507324	1340.941162	1108.447998	62.647732
818.927246	724.228577	1362.191772	1122.937134	62.497108
819.233704	732.179016	1378.909790	1138.763550	62.867664
819.540161	740.129395	1402.315308	1164.843750	64.138237
819.846497	742.878601	1432.184937	1197.536987	65.958832
820.152832	743.175781	1482.487915	1232.310547	66.160789
820.458984	740.575195	1541.261353	1263.071899	65.256119
820.765259	737.008728	1617.347290	1309.511108	65.032066
821.071350	727.572266	1719.364868	1358.625366	63.627525
821.377502	727.869446	1881.790649	1473.645874	64.629753
821.683472	731.807434	2198.617432	1665.421265	63.649265
821.989441	738.643372	2746.451416	2008.179688	63.229965
822.295349	735.374023	3469.714111	2467.370361	63.342388
822.601196	725.566101	4281.025391	2973.669189	63.229610
822.907043	723.262695	4961.266602	3414.730225	63.507904
823.212769	724.525879	5378.328125	3674.121094	63.380329
823.518494	726.977844	5410.203613	3720.337158	63.916618
823.824097	725.863281	5149.326660	3567.793945	64.246735
824.129700	724.674500	4765.256348	3328.464844	64.440971
824.435242	734.556641	4363.798828	3076.207031	64.521744
824.740723	737.603088	4010.563477	2870.536865	65.168335
825.046082	743.324402	3684.894531	2660.631592	65.179718
825.351501	737.305908	3380.328125	2474.948975	65.744553
825.656799	739.832214	3066.175781	2265.044189	65.562630
825.962036	735.225342	2782.636719	2085.974609	65.973518
826.267212	730.915833	2566.044434	1932.465332	65.474953
826.572449	732.996277	2455.407715	1852.144043	64.975632
826.877502	742.135498	2460.608887	1856.899292	64.869423
827.182495	742.581299	2564.335449	1922.731445	64.780975
827.487488	743.547302	2710.860596	2015.684082	64.663658
827.792419	737.900391	2828.630127	2086.197510	64.489304
828.097290	740.129395	2858.425781	2095.410889	63.979786
828.402100	735.299744	2799.503174	2052.909912	63.831409
828.706848	737.231628	2651.715576	1958.248413	63.777859
829.011597	737.008728	2467.816162	1849.915039	64.299835
829.316223	741.392578	2291.273193	1737.346313	64.260033
829.620789	739.609314	2141.181641	1633.693848	63.791538
829.925354	743.027161	2024.303345	1553.669922	63.268391
830.229797	739.089111	1907.127930	1484.048218	63.778625
830.534302	740.872498	1794.410767	1410.934448	63.601097
830.838562	735.894104	1671.514038	1331.579102	63.667412
831.142944	737.603088	1562.883423	1255.418823	62.744225
831.447144	739.312012	1474.389038	1207.122070	63.640957
831.751404	743.101501	1425.423462	1173.165649	63.029503
832.055542	736.265625	1402.092285	1151.246460	62.325657
832.359619	730.172852	1381.139038	1139.655151	62.903774
832.663635	724.971680	1382.253540	1151.617798	64.910683
832.967651	728.166687	1405.361694	1180.521606	66.798325
833.271545	728.984070	1483.156616	1222.725586	65.467979
833.575439	726.234863	1592.455933	1281.647583	64.119049
833.879211	724.228699	1733.779663	1362.711914	63.244278
834.183044	728.909668	1872.799927	1454.178345	63.403694
834.486694	734.110901	1974.000366	1513.026367	62.821365
834.790344	735.151123	2003.498657	1537.917603	63.292313
835.093933	730.915833	1976.452515	1524.468872	63.711739
835.397522	724.228699	1912.626465	1492.072876	64.611717
835.700928	727.200867	1840.181274	1441.250000	64.156487
836.004395	723.559998	1768.182007	1390.723999	63.866543
836.307739	729.652771	1693.359009	1345.622192	63.916721
836.611023	731.658936	1624.851929	1304.904297	64.179337
836.914307	733.367859	1552.629517	1260.545654	64.347916
837.217529	733.888000	1487.317505	1214.255005	63.757393
837.520691	730.395691	1414.129272	1171.531006	64.518600
837.823730	729.652649	1347.925659	1129.178345	64.619621
838.126831	727.349365	1298.885864	1092.027222	63.806572
838.429749	731.733215	1264.409302	1063.346313	62.254173
838.732727	735.894104	1234.391113	1033.996826	59.800304
839.035522	738.197571	1208.756592	1023.965881	60.729538
839.338379	733.813660	1194.416260	1017.947327	61.687378
839.641113	736.637207	1195.679321	1020.770813	61.897068
839.943848	737.454529	1208.310791	1041.426880	64.557358
840.246460	735.596924	1236.768677	1057.550659	64.240196
840.549072	733.293518	1266.341309	1084.522583	65.890724
840.851563	729.801331	1278.824097	1084.225342	64.555428
841.154053	730.990234	1278.601196	1086.677246	64.952499
841.456482	734.779602	1271.170898	1076.200562	63.651474
841.758850	734.408020	1261.362915	1061.488647	62.069946
842.061157	732.179016	1235.208496	1045.439331	62.274742
842.363403	725.566101	1200.731934	1031.916260	64.472260
842.665588	731.881836	1178.143921	1014.826660	63.403286
842.967712	737.305908	1165.512329	1002.863770	62.016319
843.269775	742.135559	1155.481567	990.603821	60.111446
843.571777	734.631042	1124.051636	982.356262	63.613796
843.873840	733.293518	1099.234375	970.765076	64.893425
844.175659	729.132629	1076.646484	959.916809	66.410065
844.477600	734.928223	1064.757935	952.189270	65.870674
844.779297	732.253357	1050.343262	939.186340	65.054871
845.081116	730.024231	1039.420776	926.257751	63.424599
845.382751	730.321472	1037.711792	917.489929	60.889507
845.684387	728.612488	1038.454956	916.301086	60.575493
845.985962	728.463867	1024.783081	914.666504	62.838528
846.287537	731.361755	1016.238342	912.065918	63.432438
846.588989	737.751709	1002.417969	906.047424	63.587898
846.890381	741.095398	996.548035	906.864746	64.892403
847.191711	737.305908	991.049622	899.657410	63.982471
847.493042	733.516418	987.929016	898.691406	64.924057
847.794250	740.352356	994.690613	894.604797	60.648540
848.095459	734.556702	991.049622	897.799805	63.644291
848.396606	727.795166	986.740173	886.951599	61.463409
848.697693	725.417480	983.396484	875.657532	58.237316
848.998657	729.355469	976.337708	869.564758	56.768978
849.299622	740.426575	972.622620	866.741211	54.399994
849.600464	735.968506	960.065430	875.063171	62.068977
849.901367	729.875671	957.093445	875.286072	63.996052
850.202087	723.857117	958.133606	882.642029	67.776718
850.502808	723.634216	969.130371	882.567688	64.739700
850.803467	727.052063	974.628723	892.078430	66.656677
851.104065	732.179016	976.932129	896.016418	66.939865
851.404663	726.754883	971.582336	892.375671	67.647964
851.705139	729.281250	965.266602	882.344788	64.861458
852.005615	731.287415	967.049805	876.177734	61.456078
852.306030	733.145020	967.272766	877.069336	61.472557
852.606384	731.807556	975.817688	873.651428	58.130322
852.906616	723.188416	973.588562	868.078674	57.863487
853.206909	729.132629	976.709290	868.004395	56.092430
853.506958	729.578430	966.975586	872.908386	60.375599
853.807129	738.569031	955.607361	880.858704	65.559700
854.107178	731.510254	953.229675	879.595520	66.789490
854.407166	734.185242	951.223450	883.013489	68.572372
854.707092	721.405090	954.046936	882.567688	69.274979
855.007019	724.600159	951.297668	877.366516	67.387756
855.306763	728.241028	952.115051	869.341980	63.026943
855.606567	733.888000	944.536316	863.992004	61.763611
855.906250	735.076843	938.666321	873.279968	67.883232
856.205933	728.983948	941.415466	874.840271	68.660400
856.505493	732.253357	949.885986	872.685486	64.527145
856.805054	732.179016	957.687805	865.032288	58.912682
857.104492	729.652771	957.539246	860.945618	57.613270
857.403931	720.810730	957.390625	855.298645	56.846722
857.703308	719.176025	959.248230	853.218079	55.834057
858.002563	726.383362	956.201660	851.509277	54.445583
858.301819	734.928223	953.898254	859.162415	56.735706
858.601013	742.135559	944.833313	867.187073	61.693584
858.900208	738.717590	949.663086	870.382019	62.416325
859.199219	741.987000	948.251282	871.719482	62.896244
859.498291	735.596924	953.601257	863.546204	58.691162
859.797302	735.671204	948.399902	860.054016	58.470161
860.096191	731.510315	952.189453	856.338928	56.565662
860.395020	727.869446	940.821106	857.676331	60.956032
860.693787	725.194519	933.242188	860.499817	65.035721
860.992554	724.080078	925.217468	858.642273	66.900635
861.291260	722.222473	926.480652	857.750671	66.351418
861.589844	719.696106	932.350525	863.620544	67.679970
861.888428	720.736328	937.700256	867.930115	67.842514
862.186890	728.463867	947.879822	867.707214	63.460903
862.485413	734.928223	952.560852	862.877502	58.791405
862.783813	738.197510	949.068665	863.917786	59.619476
863.082153	742.655762	948.474304	870.530701	62.129940
863.380371	736.117004	950.034668	869.787659	62.486965
863.678589	730.321472	953.081055	864.809387	60.373569
863.976746	725.640381	948.102722	865.775330	62.992661
864.274902	724.080078	946.467957	875.360352	68.025414
864.572937	729.206970	948.697083	883.607910	70.345284
864.870911	727.943665	955.161438	884.351013	68.835876
865.168884	732.996338	953.303955	879.669922	66.576721
865.466736	731.807434	952.338074	876.846436	65.768188
865.764587	730.915833	946.690979	871.199402	65.013779
866.062317	731.658875	952.635254	870.530701	62.844646
866.360107	729.058289	944.090393	868.524597	64.858368
866.657715	727.943787	942.901550	862.060242	62.392002
866.955322	722.668274	936.139954	862.060120	65.297585
867.252808	726.011902	944.610535	867.038391	64.513893
867.550293	726.829163	943.124451	870.902161	66.609406
867.847717	734.408020	943.421692	875.806152	67.650185
868.145081	739.906433	937.031555	868.301575	65.133827
868.442383	751.274841	940.523865	868.673096	62.033745
868.739624	753.429626	932.573425	867.632874	63.749485
869.036804	752.612305	938.294739	867.409912	61.824699
869.333984	745.850769	939.632263	868.375916	63.228508
869.631042	744.067444	944.833435	860.202576	57.846020
869.928101	735.002502	950.034607	861.688660	58.914997
870.224976	726.606262	953.378235	857.007568	57.503273
870.521851	730.915833	950.257507	858.642273	58.231724
870.818726	737.454529	948.771484	854.852844	55.555557
871.115479	748.302734	948.028503	859.162354	55.505917
871.412231	741.020996	955.533020	859.162354	55.074471
871.708862	739.609314	951.966492	863.992004	58.572399
872.005493	732.401917	950.108887	865.923828	61.331024
872.302063	739.460693	954.789978	861.317139	56.590744
872.598572	733.293518	951.669250	859.385254	57.740726
872.895020	731.510254	951.966492	860.202637	58.375477
873.191406	726.086182	949.960266	872.536865	65.416542
873.487671	729.578430	964.003418	881.007324	64.595886
873.783997	733.219238	969.278992	883.905212	63.833828
874.080200	735.002502	967.644348	883.162109	63.685707
874.376343	734.110840	958.950989	884.350891	66.820831
874.672424	737.157288	961.031433	879.372620	63.524677
874.968445	734.185242	972.399719	878.035217	60.386749
875.264465	733.293518	975.297546	872.982727	57.721851
875.560364	733.516418	962.368896	875.657532	62.110367
875.856201	736.711487	953.303955	872.908386	62.881641
876.152039	742.284180	960.288330	879.298523	62.849419
876.447754	737.825989	969.278992	888.957825	65.296989
876.743469	730.321472	967.124207	887.471741	66.363365
877.039063	725.491760	963.260437	885.242676	67.187538
877.334595	727.052185	966.975586	874.543030	61.474140
877.630127	730.395752	972.473938	876.772156	60.466583
877.925537	732.030457	970.542175	879.669983	61.900322
878.221008	734.705261	971.507996	882.270508	62.315685
878.516296	731.658875	975.074524	882.716309	62.057404
878.811646	725.788879	989.117859	877.069336	57.449226
879.106812	722.148132	993.798889	894.679016	63.512020
879.401978	726.903503	1008.362244	904.264160	63.014797
879.697083	730.098572	1024.783203	914.592102	62.607109
879.992126	733.590759	1060.597046	931.458923	60.508980
880.287109	729.652771	1101.240723	955.532959	60.787811
880.582031	727.349304	1166.329834	1000.708984	62.271481
880.876892	724.748718	1280.087402	1065.575195	61.372723
881.171753	724.822937	1495.862427	1195.679321	61.067738
881.466492	732.550476	1816.701538	1397.262695	61.311768
881.761230	727.720886	2192.598877	1633.173828	61.810810
882.055786	735.596924	2543.084961	1858.534180	62.126953
882.350403	733.516418	2783.677002	2006.396484	62.086849
882.644958	736.191345	2888.369873	2061.380371	61.574306
882.939453	731.881836	2857.533936	2053.132568	62.157433
883.233826	728.315247	2753.287354	1981.133423	61.868412
883.528137	723.708496	2607.728271	1911.883301	63.065941
883.822449	722.816895	2480.447754	1829.407227	62.959202
884.116577	725.640381	2361.117920	1782.670898	64.631310
884.410828	730.172852	2243.644775	1704.875977	64.401794
884.704956	740.426575	2093.033447	1602.561035	63.738728
884.999023	736.340027	1910.545898	1475.875000	62.981716
885.292969	738.717712	1722.857056	1351.492310	62.265022
885.586914	730.247131	1549.657593	1246.056641	62.948856
885.880798	738.494812	1421.336792	1159.642578	61.675728
886.174622	743.770203	1329.275513	1108.225098	62.246216
886.468384	742.135559	1265.003784	1070.776489	62.853489
886.762085	735.448303	1214.329346	1043.656006	64.359970
887.055664	729.578430	1172.942871	1019.284668	65.342690
887.349304	730.024231	1139.952515	993.427429	64.255920
887.642822	734.408142	1105.698853	973.142761	64.298569
887.936340	737.231628	1086.231567	960.808533	64.062164
888.229736	733.219299	1072.708374	954.790039	65.265938
888.523071	728.538269	1063.569214	948.102783	65.535591
888.816284	731.510254	1042.318481	934.356750	65.264198
889.109619	733.219238	1027.681030	918.753174	63.007813
889.402710	729.429871	1014.380676	900.623291	60.078236
889.695862	724.823059	1008.362244	889.329285	58.018867
889.988892	725.788879	994.170410	886.059998	59.717640
890.281921	726.457642	979.458496	888.511902	64.052849
>>>>>End Processed Spectral Data<<<<<
