Jaz Data File
++++++++++++++++++++++++++++++++++++
Date: Fri Jun 04 16:39:02 2021
User: jaz
Dark Spectrum Present: Yes
Reference Spectrum Present: Yes
Processed Spectrum Present: Yes
Spectrometers: JAZA3586
Integration Time (usec): 24500 (JAZA3586)
Spectra Averaged: 10 (JAZA3586)
Boxcar Smoothing: 1 (JAZA3586)
Correct for Electrical Dark: No (JAZA3586)
Strobe/Lamp Enabled: Yes (JAZA3586)
Correct for Detector Non-linearity: No (JAZA3586)
Correct for Stray Light: No (JAZA3586)
Number of Pixels in Processed Spectrum: 2048
>>>>>Begin Processed Spectral Data<<<<<
W	D	R	S	P
191.335022	0.000000	0.000000	0.000000	0.000000
191.713211	234.722305	237.694412	239.254761	152.499741
192.091385	468.330078	472.342407	479.772705	285.186646
192.469528	711.002747	710.185364	714.420715	-418.160095
192.847641	720.513489	715.535156	721.479492	-19.404156
193.225739	732.476257	730.321472	722.296692	472.416718
193.603790	736.860046	741.615417	734.853943	-42.186054
193.981842	742.209778	745.999268	738.123230	-107.838997
194.359863	749.714417	747.931152	745.256348	249.994873
194.737854	753.281006	751.571960	761.751465	-495.625153
195.115829	747.039551	756.253113	761.825867	160.484253
195.493774	744.364685	757.144714	764.575012	158.139908
195.871704	749.268555	759.448059	750.531799	12.409687
196.249603	759.002258	755.435791	750.383240	241.668228
196.627457	760.636963	752.909485	750.606140	129.807205
197.005310	755.881531	750.606140	753.355286	47.887356
197.383133	752.166443	758.853760	757.144714	74.443481
197.760910	752.389343	761.008484	762.123047	112.931252
198.138687	755.287109	762.420227	766.581116	158.331985
198.516449	752.240723	760.859863	764.723633	144.827774
198.894180	751.274841	756.847473	768.141602	302.671356
199.271866	746.296570	753.726746	761.379944	203.001572
199.649536	747.931152	745.553467	764.203552	-684.379822
200.027191	745.330566	743.918762	753.949707	-610.505371
200.404816	742.061218	748.822815	752.909363	160.437622
200.782410	740.872375	757.516296	756.921692	96.427498
201.159988	741.615479	771.856628	764.872253	76.904404
201.537537	743.101563	774.977356	763.534729	64.102455
201.915070	746.668030	783.076355	756.327393	26.530643
202.292557	738.271790	776.314758	748.451355	26.758074
202.670029	741.838379	782.556213	755.064270	32.481815
203.047485	737.751770	773.491272	755.807312	50.519848
203.424911	742.655762	778.766846	760.414063	49.176868
203.802292	737.677429	770.742126	758.110657	61.797714
204.179688	736.042786	779.286926	755.732971	45.532608
204.557037	742.358459	782.481934	760.116882	44.259434
204.934357	742.358459	784.562439	765.169434	54.049343
205.311661	743.324463	778.692566	768.215820	70.377983
205.688934	732.030457	775.125977	761.008484	67.241394
206.066177	735.225403	778.692566	756.921875	49.914627
206.443390	736.340027	784.785339	754.989929	38.496815
206.820587	742.284180	788.723389	748.897156	14.240070
207.197769	739.312195	785.676941	752.686523	28.845901
207.574921	737.305908	784.488098	757.664856	43.149647
207.952042	735.225403	780.773010	757.590576	49.102852
208.329147	738.271790	777.726563	757.590576	48.964386
208.706223	746.816589	772.748291	757.887695	42.693325
209.083267	751.720642	772.971191	766.209656	68.181831
209.460297	741.764099	775.125977	760.116882	55.011242
209.837280	732.476257	776.983459	756.847473	54.757915
210.214264	727.052063	778.915344	755.732971	55.300991
210.591217	727.275085	770.890686	757.962097	70.357880
210.968124	726.309082	769.999023	755.064270	65.816498
211.345016	731.064453	772.525391	755.361511	58.602287
211.721893	742.878601	779.509827	748.079834	14.198905
212.098724	746.965271	777.800842	745.627869	-4.337206
212.475555	745.181946	776.983582	751.051941	18.458155
212.852356	737.528809	783.670715	761.751465	52.496002
213.229126	732.476257	784.933899	764.649231	61.331337
213.605865	729.504089	784.413818	755.955872	48.173214
213.982590	729.355469	781.144531	754.989929	49.497826
214.359283	726.531921	778.320984	756.847473	58.536591
214.735931	722.593933	775.794678	761.379944	72.905014
215.112579	726.383484	769.924805	755.732971	67.406059
215.489197	734.482422	771.708069	752.389343	48.103722
215.865799	739.163513	761.231262	752.537903	60.606045
216.242355	740.872375	756.921692	749.491516	53.704098
216.618896	738.197571	758.927979	754.321106	77.777222
216.995407	736.860046	766.655457	746.965149	33.914963
217.371902	734.036560	771.410828	747.188171	35.188946
217.748367	731.138855	767.472839	743.695984	34.560287
218.124802	726.754883	769.404602	748.748535	51.568108
218.501236	720.810730	764.203430	754.841492	78.425087
218.877609	726.680603	767.175598	751.869324	62.202061
219.253983	730.990234	767.621399	748.599915	48.072948
219.630295	736.414307	768.513000	740.278015	12.036964
220.006592	731.361633	767.398499	740.203674	24.536098
220.382889	731.956055	768.884521	742.284180	27.967922
220.759140	731.733154	773.416992	750.977600	46.167645
221.135391	734.853943	773.714172	755.955872	54.302120
221.511581	736.414307	767.844299	760.191101	75.650017
221.887772	730.247131	762.197266	762.940369	102.325821
222.263931	726.680664	763.014648	763.386169	101.022514
222.640060	721.627991	770.073425	759.522461	78.220932
223.016159	727.572266	773.194153	754.469910	58.957764
223.392212	730.692932	771.336609	754.767029	59.232082
223.768265	734.631042	769.701843	753.652527	54.237381
224.144302	739.014832	768.736023	756.327332	58.249683
224.520294	741.615417	766.358215	755.584412	56.456810
224.896286	742.284180	761.380066	766.358337	126.069862
225.272217	745.553528	764.500671	764.054932	97.647453
225.648148	747.782715	772.302490	765.763855	73.333214
226.024048	749.045715	777.726563	752.017822	10.362689
226.399902	737.008728	783.819397	747.039551	21.428497
226.775772	730.618652	778.395325	751.126282	42.923939
227.151581	730.395752	777.206482	751.943542	46.031734
227.527374	737.974609	774.160095	755.584412	48.665375
227.903137	734.556702	774.308594	751.646301	42.990658
228.278870	734.631042	769.850403	756.178772	61.181492
228.654572	725.120300	775.348877	760.265442	69.970413
229.030273	726.754883	784.562500	756.030212	50.642685
229.405930	725.343201	791.175354	751.349121	39.503372
229.781555	723.708496	789.169189	748.154114	37.343964
230.157181	725.194580	786.494324	753.355286	45.939354
230.532761	719.250305	783.968018	761.082825	64.638443
230.908325	726.606262	784.413818	763.906250	64.524414
231.283859	726.903503	780.104248	759.076599	60.474895
231.659332	735.745544	779.807068	758.036377	50.590244
232.034821	736.340027	779.509949	755.807312	45.094559
232.410263	733.739319	776.686340	760.562683	62.456867
232.785690	726.829163	774.828796	755.212891	59.133217
233.161087	726.086182	766.729797	748.451355	55.027519
233.536469	732.996338	774.977356	743.547363	25.132849
233.911804	735.745544	775.200256	742.358459	16.760775
234.287140	735.671204	777.726563	744.438965	20.848143
234.662430	741.764099	776.166260	749.342957	22.030178
235.037704	744.884766	777.355164	750.085938	16.018196
235.412933	741.689758	781.218811	752.166504	26.503912
235.788162	731.658936	779.212646	751.200500	41.093670
236.163345	727.275085	773.937195	756.698914	63.057217
236.538513	732.253357	771.708069	757.887756	64.971703
236.913635	726.234802	775.348938	752.463684	53.403938
237.288742	724.748718	783.447937	751.051941	44.810177
237.663834	727.052185	782.333313	754.915710	50.403324
238.038879	726.754883	773.639893	755.881592	62.123714
238.413910	728.538147	772.822571	750.754639	50.167732
238.788910	724.228516	773.937195	744.141785	40.059944
239.163879	733.962219	775.720398	746.222168	29.359396
239.538834	739.757996	768.290222	749.120117	32.812447
239.913757	741.689758	763.906311	749.194336	33.779217
240.288651	742.209900	771.485168	751.869202	32.994751
240.663528	741.615417	779.881348	755.732910	36.893112
241.038361	743.324402	791.918396	756.253113	26.605574
241.413177	738.569031	783.670715	758.556458	44.316364
241.787979	733.962219	784.785339	751.051941	33.625881
242.162735	732.401917	779.435547	754.618469	47.235462
242.537476	730.395813	794.370422	746.073669	24.506372
242.912170	735.522644	798.382751	748.228333	20.212643
243.286865	725.863281	805.664368	745.850769	25.046637
243.661514	721.256531	802.097839	744.810364	29.135887
244.036148	714.346375	802.543701	746.073547	35.972942
244.410751	722.148193	802.915222	746.296570	29.898806
244.785339	732.922058	803.286804	752.686523	28.088591
245.159882	738.940613	799.051453	753.949707	24.969030
245.534378	739.014893	794.816162	755.361511	29.294350
245.908890	738.271790	791.175293	750.754700	23.595621
246.283356	728.909668	791.621155	746.296570	27.725227
246.657791	726.086182	802.915222	750.531799	31.818199
247.032196	719.696106	809.379456	759.225159	44.076244
247.406586	720.141907	821.565186	765.540955	44.761959
247.780960	720.290588	824.165833	765.541016	43.562283
248.155289	720.662109	822.977051	751.794922	30.428413
248.529602	725.863281	819.856262	750.308899	26.007917
248.903870	730.024231	817.998718	744.216064	16.131760
249.278122	731.733215	818.593079	749.788818	20.787050
249.652344	732.996399	816.141113	745.404968	14.924063
250.026550	735.671204	813.391846	750.383240	18.929380
250.400711	734.631042	809.453857	749.417297	19.761692
250.774857	731.956116	810.642639	751.200500	24.457027
251.148987	725.640381	808.785156	748.079773	26.988337
251.523071	727.572266	813.317627	742.358459	17.244308
251.897125	734.556702	819.336121	742.581482	9.465482
252.271164	731.956055	817.255676	748.674255	19.599384
252.645187	731.138733	816.438293	754.618469	27.526211
253.019165	726.160461	814.283508	759.299500	37.605415
253.393112	731.287415	820.376282	752.909485	24.270227
253.767044	731.881836	827.509460	759.373779	28.748955
254.140930	734.779602	828.178162	758.853699	25.775661
254.514801	736.488586	824.314392	752.315125	18.020374
254.888657	736.934387	819.410400	751.274841	17.387424
255.262466	728.686829	816.141113	752.835205	27.612572
255.636276	725.640381	817.998596	763.014648	40.466640
256.010010	728.538269	823.274170	769.924805	43.686222
256.383759	731.658936	823.571350	767.621399	39.126884
256.757446	734.259521	830.704407	766.952637	33.898235
257.131134	727.720886	831.596008	759.150879	30.257479
257.504791	730.395752	839.472168	763.237549	30.108980
257.878418	726.680664	837.391602	763.311829	33.087215
258.252014	729.875671	847.793945	758.927979	24.637663
258.625580	730.024231	853.441101	752.389343	18.121601
258.999115	732.476257	867.112732	751.423401	14.072816
259.372650	729.206848	873.874329	746.519348	11.967098
259.746124	730.618652	899.434387	747.782532	10.167227
260.119598	733.293518	920.313477	749.640137	8.740575
260.493042	744.141785	938.963562	754.692688	5.415669
260.866425	742.209900	934.208191	754.098328	6.191945
261.239838	745.033386	931.236023	755.955872	5.865913
261.613159	737.751709	921.056580	757.218994	10.620168
261.986511	734.482422	913.031799	756.327393	12.234694
262.359802	727.200745	894.530457	757.590576	18.161648
262.733063	726.234863	885.316895	759.299500	20.784645
263.106293	726.309082	884.202332	762.197266	22.729397
263.479523	727.349365	886.877258	755.584412	17.699129
263.852692	730.618652	888.214661	756.550293	16.454504
264.225861	737.751709	881.378906	758.630798	14.537003
264.598969	737.677429	885.688477	760.488464	15.411711
264.972076	739.460693	890.963928	763.906311	16.135376
265.345154	734.259521	902.109375	762.717468	16.954407
265.718201	740.649475	903.966980	757.516296	10.327626
266.091217	739.460693	907.310547	758.482178	11.332440
266.464203	740.500977	910.356934	756.327393	9.317552
266.837158	735.894104	922.393982	762.643066	14.342617
267.210114	729.281250	927.818054	752.240723	11.564341
267.583038	724.377258	939.706543	755.807312	14.596274
267.955902	720.736328	941.118164	756.698914	16.318308
268.328766	718.507324	947.285339	765.763855	20.656063
268.701569	718.358704	949.737366	768.067200	21.483612
269.074371	719.696106	959.396790	768.215820	20.241793
269.447144	723.782776	972.102539	768.884583	18.162794
269.819885	730.915833	981.984863	762.271667	12.488930
270.192596	730.544373	980.572998	756.030090	10.193120
270.565277	736.414246	988.671936	757.887695	8.512506
270.937927	731.213074	1000.114563	754.172607	8.538269
271.310577	733.813660	1036.225708	752.537903	6.191633
271.683136	730.618652	1056.881836	749.937317	5.921190
272.055725	733.813660	1076.869263	758.333496	7.147482
272.428284	732.253235	1078.652588	762.271667	8.665846
272.800812	730.841553	1081.476074	762.568848	9.048537
273.173279	730.841553	1078.801147	759.819641	8.328004
273.545776	729.727051	1080.435913	758.259277	8.135588
273.918152	729.281189	1073.674316	754.023926	7.184445
274.290558	734.185120	1064.609375	758.259216	7.285814
274.662964	736.934387	1053.835449	755.287109	5.791310
275.035278	744.587585	1049.451660	754.469910	3.241551
275.407593	741.912659	1057.996460	751.200500	2.938411
275.779907	741.912659	1066.689819	766.432556	7.549760
276.152161	737.231628	1078.206665	770.221985	9.675300
276.524384	731.064453	1083.556519	770.519226	11.193095
276.896606	723.857117	1100.126099	758.184875	9.123197
277.268799	726.754883	1112.534546	753.652405	6.972250
277.640930	732.401855	1129.401245	752.240662	4.997188
278.013031	739.089172	1128.658325	754.767029	4.024409
278.385162	734.779602	1133.413696	761.305664	6.654238
278.757233	733.590820	1134.082397	761.900146	7.068645
279.129272	725.789001	1130.292969	768.438782	10.543724
279.501282	725.120300	1138.614868	765.838196	9.847262
279.873230	722.965515	1154.515747	764.054932	9.521352
280.245178	731.287354	1174.948975	757.516296	5.911925
280.617126	725.417480	1190.701172	758.110657	7.026504
280.988983	727.052063	1203.555542	763.683411	7.687530
281.360870	727.126465	1232.459351	765.243713	7.542998
281.732697	730.470032	1257.424927	763.237549	6.218277
282.104492	727.349426	1283.579590	762.494446	6.318431
282.476288	723.931458	1308.099487	765.020813	7.033825
282.848053	735.522644	1320.805054	764.203430	4.900333
283.219757	740.575195	1323.554321	766.952698	4.524605
283.591461	739.460632	1315.158203	758.259277	3.265368
283.963135	732.179016	1321.771118	761.454346	4.965353
284.334747	728.389587	1330.910278	756.847595	4.723158
284.706360	730.172852	1347.628418	761.825867	5.126363
285.077942	727.275085	1367.095703	759.819641	5.086513
285.449524	728.315247	1379.430054	760.042542	4.872765
285.821014	727.943787	1393.770508	762.048767	5.122200
286.192535	731.807434	1411.157227	765.615234	4.976494
286.563995	736.785828	1446.228149	762.197266	3.581889
286.935425	734.185242	1468.518921	760.265381	3.551538
287.306824	731.064453	1487.763306	758.333557	3.603693
287.678223	727.423645	1474.166016	762.717468	4.726372
288.049561	732.476257	1462.351929	764.129211	4.336760
288.420898	727.869446	1436.048828	763.757629	5.067668
288.792145	728.761047	1424.977661	758.110657	4.215586
289.163452	727.200867	1432.333618	762.197327	4.963102
289.534668	726.160461	1451.280884	763.534729	5.154215
289.905914	724.525879	1481.150391	767.324219	5.656483
290.277039	730.692932	1508.493774	762.940247	4.145960
290.648193	736.860046	1546.759766	767.101257	3.733945
291.019318	737.900330	1590.747070	770.147705	3.781145
291.390381	725.566101	1606.796387	768.587402	4.881959
291.761475	721.776672	1592.010132	760.637024	4.465509
292.132507	717.244141	1570.908203	749.120056	3.734012
292.503510	720.885010	1553.892944	749.640137	3.451963
292.874481	723.634216	1554.858765	752.389343	3.459369
293.245422	722.668274	1553.149902	764.203430	5.001334
293.616364	719.176025	1580.493164	769.181824	5.805736
293.987213	721.107910	1610.511353	771.336609	5.647460
294.358093	726.383362	1655.093140	769.033142	4.592369
294.728943	737.900391	1706.064819	764.352051	2.732145
295.099731	736.785828	1745.519653	757.441956	2.047728
295.470490	737.305969	1773.977539	755.807312	1.784687
295.841248	737.900391	1790.175415	761.454285	2.238378
296.211975	741.318298	1813.952148	766.581238	2.355225
296.582642	743.695984	1860.911621	766.804016	2.068359
296.953308	733.813721	1909.134155	765.615234	2.705774
297.323883	729.058289	1959.362793	765.020813	2.923059
297.694519	724.748718	1980.687500	764.500671	3.165119
298.065063	736.340027	1975.040527	761.602844	2.039461
298.435608	737.974609	1957.133667	767.918640	2.456122
298.806122	743.250183	1912.180542	768.513000	2.161191
299.176575	743.621643	1859.128418	768.438721	2.224735
299.547028	744.290344	1809.345703	759.522461	1.430171
299.917450	743.027161	1784.825562	763.609070	1.975614
300.287872	731.361755	1781.184937	761.380066	2.859368
300.658234	728.166687	1773.457397	764.426453	3.468869
301.028564	727.795166	1778.212524	757.664856	2.843602
301.398865	728.983948	1789.581055	760.116882	2.935416
301.769135	733.293518	1800.280640	757.887756	2.305017
302.139374	730.098450	1802.658325	759.968262	2.784909
302.509583	732.550476	1801.395142	756.401672	2.231493
302.879791	733.888000	1799.463257	756.476013	2.119795
303.249939	735.596985	1789.952515	753.429688	1.691337
303.620087	744.364685	1769.593750	756.921875	1.224818
303.990173	746.073547	1766.547241	762.345886	1.594587
304.360260	743.027161	1755.179077	767.175537	2.385845
304.730286	734.036621	1775.537720	768.141541	3.274593
305.100281	730.395752	1785.271484	764.872253	3.268300
305.470276	733.442139	1799.983398	773.491272	3.755048
305.840179	732.476257	1797.977173	771.410828	3.654109
306.210144	735.819824	1801.098022	776.240479	3.794375
306.579987	736.191406	1817.221680	765.838196	2.742457
306.949890	738.049011	1827.995605	768.141602	2.760924
307.319702	735.448303	1842.410156	764.277832	2.604383
307.689484	729.578430	1860.391479	765.540955	3.180236
308.059265	734.853943	1888.254883	761.379944	2.299808
308.429016	730.321472	1928.526978	763.237610	2.747119
308.798737	739.609314	1979.721802	761.602844	1.773511
309.168396	730.693054	2026.681030	766.061096	2.729041
309.538055	731.287415	2058.854248	765.169434	2.552189
309.907684	720.439209	2069.330811	766.581238	3.420737
310.277313	724.525879	2089.912598	762.494568	2.780801
310.646851	725.417480	2111.906250	760.042480	2.497316
311.016388	733.367859	2136.203125	760.934082	1.965037
311.385895	734.779541	2137.466064	763.534729	2.050008
311.755371	737.677429	2142.444580	765.095032	1.951754
312.124817	729.801270	2142.816162	761.974304	2.276907
312.494232	724.748779	2144.450928	766.283936	2.925625
312.863617	729.875671	2126.246826	760.191101	2.171015
313.232971	739.014893	2119.187744	768.215820	2.115744
313.602295	740.946777	2107.002197	768.884521	2.045140
313.971619	735.225403	2114.209717	779.212646	3.189829
314.340820	729.429871	2124.909180	773.194092	3.136143
314.710083	725.937561	2148.463135	771.930969	3.233222
315.079285	727.943665	2180.487549	772.228210	3.048758
315.448486	732.179016	2205.379150	779.658447	3.222877
315.817596	727.275085	2204.561523	775.794678	3.284373
316.186707	723.931396	2166.221436	768.810242	3.111638
316.555786	722.148132	2112.797607	762.791748	2.922636
316.924866	739.386414	2075.200439	753.801086	1.079093
317.293884	740.278015	2064.352295	753.429504	0.993259
317.662872	742.284180	2065.912842	753.132324	0.819576
318.031830	732.179016	2081.070801	763.163269	2.297015
318.400757	737.603088	2088.426758	761.454285	1.765678
318.769684	736.117004	2105.293213	759.819641	1.731160
319.138550	740.649475	2125.354736	761.825745	1.529298
319.507416	739.609192	2139.695313	763.311829	1.692941
319.876190	738.940613	2156.636475	763.534851	1.734804
320.244995	739.757874	2152.401367	763.683350	1.693667
320.613770	739.460693	2139.398193	772.525391	2.361870
320.982483	739.460693	2119.262451	780.178528	2.950992
321.351166	739.014832	2095.485352	776.760681	2.782652
321.719818	733.144958	2091.993164	777.652344	3.275376
322.088440	731.361633	2093.850586	775.125977	3.212088
322.457062	727.423645	2121.491455	777.355042	3.581705
322.825623	733.144958	2147.720215	775.497375	2.994003
323.194183	732.179016	2188.958008	778.246643	3.162293
323.562653	735.819885	2233.614258	776.983582	2.748287
323.931183	721.479492	2286.517578	779.955627	3.736403
324.299591	722.519714	2340.238525	775.497498	3.274845
324.668060	713.231750	2393.662109	781.664612	4.072341
325.036407	722.445313	2434.528564	771.782410	2.881700
325.404755	724.525879	2452.955811	772.525391	2.777059
325.773102	730.618652	2464.101074	764.797852	1.971707
326.141388	733.293518	2477.252441	768.735901	2.032295
326.509674	730.544250	2485.722900	770.147705	2.256377
326.877899	731.510254	2495.531006	772.971191	2.350366
327.246124	727.052063	2502.069580	774.085754	2.649759
327.614288	728.166687	2508.831299	772.748291	2.503650
327.982422	724.377258	2498.280273	768.438721	2.483871
328.350525	727.795166	2480.447754	764.500671	2.094283
328.718628	730.841553	2475.618164	765.243652	1.971719
329.086700	738.791931	2477.104248	767.992920	1.679847
329.454712	732.773438	2490.552979	767.027039	1.948686
329.822693	729.132629	2488.175537	767.101318	2.158486
330.190674	726.903564	2503.927490	764.575012	2.119918
330.558563	732.476257	2524.137695	767.621399	1.961595
330.926483	726.977844	2556.162109	765.838196	2.124463
331.294312	726.829163	2578.229980	768.290100	2.239436
331.662231	737.083008	2604.458984	773.491272	1.949702
332.029999	743.398743	2636.854980	772.450989	1.534350
332.397766	736.785828	2676.309814	775.274597	1.984444
332.765503	730.470032	2718.216553	769.181824	1.947521
333.133240	730.841553	2771.937500	771.782410	2.005827
333.500916	741.466858	2816.964844	770.296326	1.389039
333.868561	743.027161	2857.385498	769.404602	1.247539
334.236176	746.519470	2873.434814	767.695740	0.995633
334.603790	738.940613	2889.558594	772.302490	1.551269
334.971344	740.723816	2890.227295	773.268494	1.514056
335.338867	737.825989	2879.378906	771.187927	1.557839
335.706360	735.522644	2871.948975	763.757629	1.321599
336.073853	729.727051	2871.057373	766.135315	1.700264
336.441284	729.058289	2885.917725	773.119812	2.042856
336.808655	735.596985	2869.125000	771.559509	1.685589
337.176086	736.117004	2835.243164	769.627625	1.596408
337.543396	732.922058	2761.311768	763.831970	1.523865
337.910706	731.658875	2715.615967	768.364441	1.850119
338.277954	726.234863	2720.668213	769.776184	2.183142
338.645264	728.761047	2801.287109	777.949463	2.373356
339.012421	725.640320	2928.938721	775.423157	2.259469
339.379669	720.587708	3041.804688	775.125977	2.349555
339.746796	721.553711	3142.039063	769.924805	1.998405
340.113953	728.686768	3204.527588	767.547058	1.569579
340.481018	739.757874	3231.945313	768.958801	1.171699
340.848114	737.974609	3236.329346	761.974365	0.960622
341.215118	738.494812	3222.731689	766.655457	1.133573
341.582153	737.008728	3233.951416	768.215820	1.249812
341.949066	734.110840	3242.570557	777.057861	1.712087
342.316010	727.200684	3254.830811	779.584167	2.072435
342.682922	723.559875	3274.074951	791.323975	2.656879
343.049835	729.355530	3300.006836	795.930725	2.589818
343.416656	731.807556	3341.913330	807.893494	2.915052
343.783478	735.374023	3393.479736	825.503235	3.390731
344.150269	733.739441	3490.296143	854.927063	4.396341
344.516998	726.829285	3600.412842	896.536682	5.905776
344.883728	723.782776	3714.541748	939.780762	7.222179
345.250427	725.120300	3771.457764	989.043457	8.663622
345.617065	731.138855	3817.525146	1014.975098	9.196394
345.983704	733.145020	3830.528320	1007.842102	8.868682
346.350281	738.866272	3835.060547	958.430847	7.091434
346.716827	739.534973	3793.302734	901.737793	5.311563
347.083405	745.702148	3741.736328	838.803406	3.107483
347.449860	741.392578	3681.179688	810.048157	2.335393
347.816376	741.987000	3639.570313	794.593262	1.815522
348.182770	737.305969	3602.864502	792.141296	1.913600
348.549194	739.609375	3588.152588	789.763672	1.760700
348.915558	739.683594	3599.446533	786.494324	1.636874
349.281921	735.596985	3623.669678	786.048523	1.746893
349.648193	723.039795	3660.003662	780.550110	1.958155
350.014526	715.683838	3693.291260	768.290222	1.766733
350.380737	715.089355	3740.696289	771.856689	1.876230
350.746948	719.176025	3793.154053	776.091980	1.851541
351.113159	722.148132	3841.525146	789.540710	2.160450
351.479309	723.188416	3882.540039	790.209412	2.121353
351.845428	728.315247	3920.285889	793.775940	2.050792
352.211517	723.708496	3929.871094	792.587097	2.148319
352.577576	725.046082	3966.353516	791.992676	2.065419
352.943604	723.039795	3998.898193	796.748108	2.250046
353.309601	733.665100	4078.402344	795.336365	1.843830
353.675537	739.832214	4157.386230	790.506653	1.482769
354.041473	742.209900	4284.071777	778.246765	1.017455
354.407379	743.027161	4396.640625	777.800842	0.951761
354.773254	741.466980	4482.312012	788.054688	1.245379
355.139038	742.284180	4540.861816	802.692322	1.590283
355.504913	741.615479	4626.087402	824.983154	2.146178
355.870636	732.253235	4728.477051	845.936523	2.844768
356.236389	729.504089	4845.577637	874.245789	3.516499
356.602081	728.835388	4943.806152	912.437317	4.355948
356.967804	735.448303	5051.247559	944.610535	4.846431
357.333405	734.779602	5159.135254	970.022034	5.316988
357.699036	733.144958	5311.084473	968.090149	5.132117
358.064606	730.841553	5491.119629	965.786804	4.935536
358.430176	734.185242	5608.518066	956.944824	4.570053
358.795654	733.219238	5662.981934	954.938538	4.497565
359.161163	738.346130	5632.443848	933.985168	3.997449
359.526581	734.928223	5611.416016	904.561340	3.478592
359.892029	737.008728	5634.746582	860.202637	2.515323
360.257416	730.693054	5726.808105	838.877747	2.165376
360.622772	732.327637	5919.623535	830.184326	1.886468
360.988098	728.315369	6162.964844	839.323547	2.042601
361.353394	735.076843	6449.179199	855.224365	2.102649
361.718658	724.971680	6712.136230	880.710205	2.601207
362.083893	722.593933	6919.143066	923.137024	3.236367
362.449097	715.386536	7072.505371	971.285156	4.025387
362.814209	732.773438	7076.070801	1027.681030	4.649121
363.179382	731.956055	6912.753906	1087.717651	5.755917
363.544434	730.395752	6573.709473	1144.707642	7.090359
363.909546	728.018066	6196.771973	1199.022949	8.612655
364.274536	727.943787	5903.201660	1241.375610	9.920894
364.639587	734.185242	5701.470215	1299.851685	11.387839
365.004517	729.132629	5594.028809	1371.702515	13.208297
365.369507	734.110840	5514.524902	1449.943359	14.974278
365.734344	732.327637	5468.457031	1487.168945	15.937937
366.099274	727.795166	5431.454590	1461.608765	15.600909
366.464081	727.349365	5398.835938	1382.253540	14.019182
366.828918	726.234863	5378.551270	1279.790039	11.898485
367.193665	730.693054	5381.746094	1166.849976	9.377595
367.558411	729.206848	5401.807617	1053.241089	6.934773
367.923126	729.578369	5413.398926	946.765198	4.636959
368.287781	732.550537	5401.659180	870.010559	2.944031
368.652435	735.076843	5365.919434	826.840637	1.981579
369.017059	733.962219	5340.285156	816.958435	1.801789
369.381653	739.386414	5309.003906	821.639465	1.799999
369.746185	738.049011	5287.158691	828.846863	1.995948
370.110687	734.928223	5296.074707	831.521729	2.117746
370.475220	732.401917	5327.728027	834.270996	2.216798
370.839661	735.819824	5384.346191	853.441101	2.530292
371.204041	746.445129	5449.584473	877.143738	2.778965
371.568451	737.603088	5539.267578	918.901855	3.775748
371.932770	728.166687	5621.297363	965.712585	4.854681
372.297150	732.327637	5661.718750	1034.293945	6.125834
372.661377	734.853943	5667.291504	1107.407837	7.553140
373.025696	743.621582	5686.907715	1193.747559	9.105804
373.389862	735.225403	5688.914063	1262.626099	10.646626
373.754059	731.733154	5698.053223	1303.789795	11.518723
374.118225	726.457703	5699.687500	1301.932251	11.571445
374.482361	717.764343	5735.798828	1253.932739	10.684829
374.846436	721.405090	5790.856934	1159.048218	8.632948
375.210510	724.823059	5879.054199	1033.848022	5.995559
375.574524	731.213074	5988.873535	929.378357	3.769077
375.938538	728.761047	6134.655762	854.406921	2.324238
376.302460	726.829285	6289.873535	819.484680	1.665552
376.666412	726.309082	6452.373535	799.125793	1.271671
377.030304	728.389587	6607.145996	796.525208	1.159014
377.394196	725.268860	6757.015137	796.673828	1.183819
377.757996	727.795166	6889.421875	789.689270	1.004509
378.121796	733.665039	6934.895996	788.946289	0.891456
378.485565	736.562805	6936.753418	793.701660	0.921566
378.849304	733.070618	6836.444824	811.608643	1.286797
379.212982	728.463867	6727.813965	830.778809	1.705434
379.576630	731.510254	6549.486816	844.896301	1.948891
379.940277	729.801331	6433.203125	859.979736	2.282470
380.303864	724.525818	6312.238770	863.546204	2.487966
380.667450	722.742615	6298.567871	862.803223	2.511926
381.030945	730.544434	6288.982422	850.394714	2.156186
381.394501	741.615540	6365.365234	829.292725	1.559052
381.757935	742.878601	6368.560547	806.927551	1.138510
382.121399	737.751709	6376.808594	782.259094	0.789270
382.484741	733.962219	6389.811035	780.029968	0.814515
382.848145	732.996338	6440.560059	784.488098	0.902167
383.211487	734.556641	6509.513184	791.026855	0.977847
383.574768	728.463867	6596.447266	790.358093	1.054778
383.938019	733.590820	6688.285156	788.426270	0.920878
384.301270	727.423645	6805.757813	794.444763	1.102623
384.664459	731.287415	6885.187500	806.184570	1.217068
385.027649	732.922058	6949.162109	819.633301	1.394915
385.390778	736.488586	7000.282715	830.778748	1.505320
385.753876	736.042786	7025.321777	840.735291	1.664619
386.116943	723.188293	7071.092285	851.211975	2.016787
386.479980	727.572266	7084.838379	864.735046	2.157575
386.842987	728.092346	7139.896973	883.087891	2.417347
387.205994	733.665039	7189.011230	898.765808	2.557582
387.568909	728.463867	7263.017090	897.576904	2.587982
387.931793	722.593933	7311.164551	878.035217	2.359257
388.294678	732.030457	7347.053223	849.131531	1.770229
388.657471	736.191406	7350.322266	825.131775	1.344702
389.020294	741.912659	7326.694824	808.785156	1.015561
389.383057	731.956116	7336.947754	796.376526	0.975329
389.745819	737.157288	7339.027832	788.649109	0.779958
390.108521	739.980774	7380.712402	782.779114	0.644482
390.471191	739.163391	7442.308594	779.658508	0.604121
390.833801	735.671204	7591.583496	784.636719	0.714209
391.196442	733.739319	7776.522949	783.819397	0.711084
391.558960	734.928223	7959.976563	783.373596	0.670520
391.921509	733.516418	8136.593750	783.596497	0.676477
392.284027	734.333801	8269.967773	785.231201	0.675423
392.646484	739.237793	8379.563477	788.277527	0.641854
393.008911	744.290344	8373.767578	792.438477	0.631080
393.371307	745.330627	8352.888672	796.153625	0.668059
393.733673	744.884766	8266.548828	807.224792	0.828806
394.096008	734.556702	8242.251953	806.481689	0.958017
394.458344	733.070618	8239.428711	806.704590	0.980955
394.820587	726.234802	8270.785156	800.537537	0.984853
395.182831	729.132629	8315.885742	803.435303	0.979374
395.545013	730.024231	8295.304688	798.085510	0.899653
395.907196	730.618652	8214.909180	794.593262	0.854785
396.269287	723.782776	8054.563965	792.438477	0.936540
396.631409	716.203918	7934.787598	798.679993	1.142552
396.993469	716.203918	7832.175293	800.686218	1.187221
397.355530	724.377258	7760.101563	792.512878	0.968424
397.717499	730.172852	7739.966309	799.571594	0.990026
398.079468	731.436035	7705.267090	795.633484	0.920548
398.441376	728.984070	7713.439941	800.908997	1.029786
398.803284	724.228699	7696.201172	794.741943	1.011382
399.165131	723.559875	7743.234375	801.057617	1.104008
399.526978	723.857117	7753.637207	806.853271	1.180637
399.888763	727.646545	7758.169922	812.351746	1.204821
400.250519	727.052185	7760.473145	815.918152	1.263481
400.612244	735.596924	7800.670410	817.775696	1.163169
400.973938	733.293518	7827.568359	818.741699	1.204467
401.335602	735.374023	7845.252441	811.088440	1.064919
401.697205	732.699036	7872.967285	801.652039	0.965692
402.058807	735.671204	7940.285645	797.193909	0.853935
402.420349	738.940613	8060.285156	800.611816	0.842348
402.781860	732.327637	8162.376953	804.847107	0.976029
403.143341	725.937561	8279.180664	803.658203	1.028970
403.504822	724.823059	8394.795898	809.899658	1.109216
403.866241	726.383484	8574.163086	816.438293	1.147520
404.227631	732.699158	8723.659180	833.750793	1.264574
404.588959	735.002502	8902.803711	843.261536	1.325437
404.950287	736.711487	9025.550781	866.295410	1.563354
405.311554	736.785828	9134.924805	878.852600	1.691646
405.672821	734.333801	9179.060547	892.970032	1.878524
406.034027	739.460693	9167.098633	892.821472	1.819736
406.395203	741.912598	9097.700195	886.728699	1.733123
406.756348	738.791931	9006.975586	864.289246	1.517834
407.117493	734.853821	8949.093750	850.766174	1.411115
407.478516	733.367859	8943.669922	846.159363	1.373780
407.839600	734.482422	8933.565430	868.970276	1.640279
408.200592	732.996338	8921.230469	889.403503	1.910145
408.561554	734.259460	8890.469727	909.613831	2.149949
408.922485	732.773438	8909.936523	933.316467	2.452477
409.283417	731.881836	8926.952148	968.907471	2.892295
409.644257	731.287415	9036.473633	1017.947266	3.451576
410.005096	737.380188	9146.367188	1064.832275	3.894073
410.365906	736.117004	9286.055664	1091.655640	4.158377
410.726715	727.423584	9396.098633	1087.791870	4.157132
411.087433	719.473206	9493.436523	1057.996460	3.858271
411.448120	718.433044	9568.629883	1024.560181	3.458987
411.808807	724.674500	9579.774414	1009.922607	3.221286
412.169434	724.005676	9522.934570	1024.560303	3.415809
412.530029	726.160461	9458.811523	1062.008789	3.845892
412.890564	730.024231	9433.696289	1121.971069	4.503235
413.251099	734.036621	9420.693359	1193.301636	5.287017
413.611572	733.739319	9461.262695	1263.369263	6.068502
413.972076	727.126465	9483.924805	1300.966309	6.553078
414.332489	730.024231	9560.977539	1295.988037	6.408864
414.692871	736.191406	9687.885742	1244.124756	5.674159
415.053223	735.671204	9819.773438	1175.469116	4.841402
415.413574	736.562927	10034.062500	1125.091797	4.178853
415.773834	729.504089	10168.252930	1120.930786	4.147019
416.134094	733.442078	10338.257813	1169.747803	4.542572
416.494263	728.835388	10454.244141	1258.985352	5.451184
416.854462	732.699036	10709.623047	1386.042969	6.548551
417.214630	730.024231	10957.570313	1531.081909	7.832355
417.574738	731.510254	11260.206055	1691.872925	9.121384
417.934784	729.504089	11535.051758	1833.642578	10.218255
418.294861	731.213074	11897.054688	1966.941772	11.067045
418.654846	735.671204	12291.231445	2054.247314	11.410750
419.014832	734.036560	12734.372070	2086.420654	11.269551
419.374756	736.117004	13176.918945	2083.225342	10.828148
419.734680	731.733215	13698.300781	2067.473389	10.301417
420.094543	732.178955	14186.395508	2121.194092	10.324014
420.454376	730.395691	14630.799805	2234.059814	10.817412
420.814148	728.018005	15044.666992	2452.286865	12.043801
421.173920	719.027405	15502.519531	2735.305908	13.638717
421.533691	714.123474	15985.932617	3050.275391	15.297152
421.893341	719.324707	16308.555664	3344.440186	16.839289
422.253021	729.727051	16513.556641	3608.883057	18.241175
422.612640	734.631042	16533.248047	3824.583984	19.558376
422.972260	731.138855	16521.507813	3941.090576	20.328541
423.331757	730.544373	16427.736328	3967.393799	20.620562
423.691315	728.835449	16457.087891	3926.378662	20.329933
424.050781	727.720886	16589.123047	3921.623291	20.136318
424.410248	722.222412	16720.712891	3969.102783	20.294918
424.769653	723.039795	16876.748047	4148.469238	21.205221
425.128998	728.835388	16896.216797	4413.953125	22.793533
425.488373	736.414246	16812.179688	4667.622559	24.454252
425.847656	744.364563	16581.916016	4888.523926	26.166666
426.206940	738.494812	16335.602539	5024.944336	27.482338
426.566193	740.500916	16032.372070	5072.869629	28.331188
426.925385	738.569031	15719.038086	5039.582031	28.710806
427.284576	737.305908	15281.097656	4977.019043	29.151358
427.643677	734.408020	14951.937500	4985.787109	29.902374
428.002777	728.761047	14609.698242	5046.937988	31.108683
428.361847	734.556702	14295.546875	5140.559570	32.490273
428.720856	739.906494	13951.227539	5323.344238	34.693256
429.079865	741.243958	13744.592773	5570.846191	37.141216
429.438812	740.352295	13607.206055	5866.126465	39.837048
429.797760	735.745605	13554.004883	6122.024902	42.020363
430.156616	730.692932	13375.752930	6253.391113	43.674751
430.515503	727.795166	13286.367188	6306.145996	44.418667
430.874268	720.885010	13236.137695	6296.561035	44.551044
431.233093	719.547546	13281.016602	6325.464844	44.627884
431.591827	718.581543	13311.778320	6401.625488	45.127888
431.950562	724.600098	13361.932617	6512.855957	45.802830
432.309204	730.990173	13402.278320	6691.033691	47.035812
432.667877	736.488525	13498.277344	6942.251465	48.627686
433.026459	735.076843	13618.425781	7226.830566	50.388714
433.385010	734.853821	13769.706055	7474.110840	51.701828
433.743561	729.949951	13953.828125	7694.046875	52.663044
434.102051	728.166687	14108.600586	7859.072754	53.293537
434.460510	725.491699	14255.870117	8016.594238	53.886906
434.818939	727.795166	14282.989258	8087.479004	54.294193
435.177338	732.104675	14299.113281	8193.063477	54.993397
435.535675	734.853943	14267.756836	8296.641602	55.877052
435.894012	735.671204	14238.852539	8437.074219	57.033985
436.252289	736.488586	14254.976563	8649.803711	58.536980
436.610535	731.733215	14225.703125	8861.936523	60.250641
436.968719	736.711426	14326.010742	9189.463867	62.201530
437.326935	737.603088	14397.637695	9465.274414	63.892014
437.685028	745.702148	14568.981445	9741.458008	65.076859
438.043152	742.284180	14700.051758	9913.766602	65.708809
438.401215	739.237793	14914.414063	10108.883789	66.098976
438.759277	737.157410	15086.500000	10270.716797	66.438995
439.117249	732.253357	15465.963867	10493.104492	66.248428
439.475250	737.677429	15744.152344	10653.003906	66.073654
439.833130	739.460693	16142.636719	10861.646484	65.714928
440.191071	741.689758	16375.948242	11043.465820	65.892326
440.548889	740.278015	16688.166016	11294.905273	66.181976
440.906708	735.596924	17007.000000	11576.067383	66.622841
441.264496	735.225403	17249.080078	11831.965820	67.196541
441.622223	736.488586	17406.230469	12025.747070	67.723053
441.979950	737.528809	17422.279297	12188.840820	68.633408
442.337616	736.042786	17422.650391	12312.926758	69.378296
442.695251	736.711426	17278.056641	12332.541992	70.102097
443.052887	736.488586	17108.126953	12257.421875	70.371292
443.410461	735.968445	16918.210938	12191.441406	70.790390
443.768005	731.287415	16818.943359	12171.379883	71.111000
444.125458	730.098572	16754.076172	12141.286133	71.213203
444.482941	731.213135	16791.300781	12191.367188	71.357979
444.840393	730.395752	16891.240234	12270.872070	71.410110
445.197754	731.287354	17137.402344	12495.414063	71.705742
445.555084	734.259460	17418.787109	12657.691406	71.464005
445.912415	734.705383	17770.609375	12901.553711	71.418861
446.269714	738.643372	18044.861328	13075.198242	71.283943
446.626953	737.528809	18350.767578	13287.257813	71.251678
446.984161	730.321472	18676.509766	13435.863281	70.798004
447.341309	729.727051	18923.492188	13525.992188	70.333244
447.698456	726.829285	19070.908203	13568.493164	70.004410
448.055542	727.646545	19133.917969	13623.700195	70.063370
448.412598	723.931458	19063.923828	13572.358398	70.056885
448.769653	723.634277	18944.890625	13509.200195	70.168411
449.126617	727.275085	18663.060547	13297.214844	70.083015
449.483582	732.401917	18453.898438	13201.809570	70.363174
449.840515	735.671204	18120.054688	13047.632813	70.821968
450.197388	737.528809	17871.587891	12995.991211	71.544418
450.554230	731.584656	17661.533203	12922.133789	72.005821
450.911041	728.166687	17491.009766	12864.178711	72.398285
451.267822	725.640320	17342.107422	12784.823242	72.573685
451.624573	725.789001	17128.857422	12702.718750	73.016396
451.981262	724.154297	17034.863281	12612.811523	72.888657
452.337921	730.767273	16923.556641	12561.915039	73.064301
452.694580	731.584534	16862.705078	12525.729492	73.114235
453.051147	735.596924	16855.125000	12535.612305	73.203232
453.407715	731.138733	16747.388672	12431.959961	73.055939
453.764221	729.058289	16788.625000	12402.684570	72.689545
454.120728	730.692932	16549.074219	12196.346680	72.483101
454.477142	726.754883	16497.431641	12117.065430	72.224617
454.833557	732.327637	16313.831055	11927.518555	71.849236
455.189911	732.922058	16171.020508	11806.331055	71.727806
455.546265	741.169617	15981.104492	11640.413086	71.517654
455.902557	732.401917	15854.640625	11529.331055	71.397690
456.258820	727.423645	15866.528320	11508.526367	71.213608
456.615051	727.200745	15928.421875	11553.031250	71.216850
456.971252	740.129395	15916.385742	11542.109375	71.176849
457.327393	746.296570	16121.536133	11719.172852	71.367188
457.683502	739.014893	16354.028320	11943.790039	71.756424
458.039612	731.881836	16780.451172	12338.709961	72.323135
458.395630	728.835449	17191.494141	12693.801758	72.679436
458.751648	726.754883	17683.750000	13043.249023	72.633705
459.107605	725.640381	18303.806641	13523.541992	72.805672
459.463562	725.417480	18956.927734	13992.316406	72.769058
459.819458	727.497986	19533.738281	14467.184570	73.059189
460.175323	734.110901	20068.494141	14844.570313	72.981171
460.531158	736.117126	20545.148438	15218.536133	73.110184
460.886932	733.442200	20857.589844	15415.734375	72.958572
461.242676	725.640381	20965.107422	15449.838867	72.749931
461.598419	718.061523	20737.591797	15235.473633	72.516243
461.954102	721.851013	20328.630859	14848.284180	72.048721
462.309723	726.829285	19702.853516	14355.286133	71.819351
462.665344	726.903503	19064.888672	13831.081055	71.459206
463.020905	728.909729	18530.951172	13428.210938	71.336205
463.376373	726.977844	18105.046875	13093.550781	71.161957
463.731873	733.070618	17779.304688	12840.327148	71.025993
464.087341	737.380188	17472.878906	12659.918945	71.241020
464.442749	739.832214	17360.310547	12623.140625	71.497993
464.798126	741.020996	17226.640625	12626.112305	72.093697
465.153503	742.061279	17365.064453	12751.164063	72.243874
465.508820	739.163391	17378.291016	12834.829102	72.694115
465.864105	740.278015	17549.484375	12964.041992	72.720642
466.219330	733.962219	17795.576172	13198.614258	73.056702
466.574524	734.036621	18008.156250	13354.651367	73.060829
466.929657	729.281250	18198.816406	13553.558594	73.409378
467.284790	731.584534	18316.140625	13706.696289	73.786972
467.639893	720.290527	18483.990234	13883.909180	74.104042
467.994934	726.160461	18639.507813	14013.790039	74.177254
468.349945	724.897400	18651.171875	14035.635742	74.252670
468.704926	734.556702	18595.148438	14010.668945	74.331871
469.059875	725.937561	18366.220703	13893.643555	74.645660
469.414764	724.748718	18173.703125	13734.411133	74.558403
469.769653	727.646545	17958.744141	13604.604492	74.730919
470.124451	739.609192	17895.216797	13509.868164	74.437813
470.479248	742.878601	17787.103516	13381.993164	74.154823
470.834015	744.438965	17752.183594	13298.105469	73.811470
471.188721	731.881836	17828.494141	13330.799805	73.692474
471.543365	725.566101	17879.167969	13423.083008	74.022453
471.898010	718.953125	17982.968750	13484.532227	73.943275
472.252625	722.371033	18120.873047	13569.238281	73.838928
472.607178	729.058289	18408.349609	13703.948242	73.390327
472.961700	731.807434	18638.541016	13850.621094	73.261894
473.316193	728.018066	18915.541016	14035.709961	73.169342
473.670654	722.668274	19036.654297	14148.426758	73.308777
474.025055	727.200745	19274.646484	14296.809570	73.161606
474.379456	729.578430	19402.298828	14394.221680	73.179710
474.733795	733.665039	19576.537109	14491.112305	73.011421
475.088104	727.126465	19636.648438	14585.698242	73.288857
475.442383	728.909668	19631.966797	14603.976563	73.401176
475.796570	730.098450	19709.242188	14694.031250	73.575142
476.150787	735.299744	19914.244141	14879.416992	73.748146
476.504944	736.637207	20175.564453	15083.453125	73.804565
476.859070	735.076843	20437.408203	15301.085938	73.930382
477.213135	736.339905	20716.787109	15484.018555	73.810555
477.567200	735.745544	21162.974609	15787.916992	73.686806
477.921173	744.661865	21562.873047	16076.507813	73.646317
478.275146	741.169678	22025.927734	16408.714844	73.609222
478.629089	738.494812	22312.437500	16627.314453	73.648193
478.983002	725.268860	22719.765625	16907.138672	73.572365
479.336823	711.745789	23072.181641	17118.158203	73.372505
479.690643	717.244141	23455.806641	17381.931641	73.288216
480.044403	721.182190	23912.326172	17707.601563	73.245285
480.398163	733.293640	24545.162109	18205.724609	73.376984
480.751862	723.708496	25414.130859	18871.253906	73.500343
481.105499	719.993347	26489.513672	19643.853516	73.435051
481.459137	720.290588	27865.005859	20682.609375	73.540352
481.812744	728.166687	29599.156250	21962.546875	73.549194
482.166290	728.909668	31767.978516	23623.361328	73.760109
482.519806	730.470032	34455.289063	25576.109375	73.671669
482.873291	735.151062	37544.871094	27948.150391	73.928848
483.226715	738.569031	41051.210938	30594.591797	74.061195
483.580139	738.420410	44443.500000	33313.105469	74.532951
483.933502	732.104675	47737.863281	36007.843750	75.045570
484.286804	732.104736	50474.949219	38481.234375	75.888565
484.640106	727.646484	52568.730469	40590.089844	76.893539
484.993347	726.754883	53736.988281	41910.003906	77.689247
485.346558	717.838562	53940.878906	42245.925781	78.026520
485.699738	723.485596	53275.644531	41548.894531	77.685501
486.052887	722.148132	52015.699219	40222.148438	77.007729
486.405975	734.110840	50471.832031	38683.562500	76.299133
486.759064	732.476257	48882.277344	37192.152344	75.721344
487.112061	733.888000	47490.437500	36039.269531	75.508957
487.464996	732.179016	46687.968750	35382.066406	75.398308
487.817963	736.340027	46510.531250	35247.058594	75.393402
488.170868	734.705322	46599.917969	35313.781250	75.392815
488.523743	726.754883	46685.812500	35456.812500	75.567383
488.876587	725.045959	46498.050781	35377.308594	75.704582
489.229401	724.600159	46092.355469	35031.128906	75.618744
489.582153	726.754883	45307.644531	34269.531250	75.240257
489.934845	719.770447	44265.843750	33365.042969	74.967201
490.287537	714.123352	43194.402344	32465.978516	74.744934
490.640198	721.627991	42324.464844	31718.568359	74.506798
490.992798	719.398926	41751.812500	31198.968750	74.281693
491.345337	724.080017	41634.859375	31022.873047	74.060654
491.697876	719.547546	41709.015625	31103.416016	74.126038
492.050354	726.754944	42139.156250	31477.974609	74.256058
492.402832	731.881836	42349.949219	31695.607422	74.399727
492.755219	732.104736	42224.007813	31674.656250	74.574913
493.107605	732.699158	41521.699219	31169.544922	74.620232
493.459930	737.380188	40283.222656	30321.603516	74.809944
493.812225	745.776367	38559.324219	29081.341797	74.934959
494.164490	744.884766	36603.601563	27630.062500	74.975288
494.516724	740.055115	34629.972656	26124.318359	74.902107
494.868896	727.423645	32918.777344	24743.400391	74.603813
495.221039	723.485596	31504.205078	23622.171875	74.392952
495.573120	725.640381	30437.517578	22797.634766	74.286774
495.925201	731.510254	29779.937500	22323.583984	74.331299
496.277222	730.395752	29422.169922	22072.736328	74.384872
496.629211	736.042786	29331.373047	21956.453125	74.209358
496.981140	733.070618	29320.744141	21937.060547	74.171791
497.333069	737.751709	29407.755859	22050.966797	74.339767
497.684967	732.773438	29471.951172	22158.781250	74.553307
498.036804	739.163391	29554.650391	22255.818359	74.670456
498.388580	744.661865	29445.796875	22193.703125	74.732376
498.740326	741.318176	29278.468750	22070.062500	74.740273
499.092072	735.819824	28940.462891	21842.029297	74.832390
499.443756	728.389648	28645.408203	21596.607422	74.750885
499.795410	730.470032	28328.208984	21359.359375	74.748474
500.147003	737.825989	28012.796875	21119.212891	74.725601
500.498566	736.191406	27610.000000	20866.732422	74.907661
500.850098	734.779602	27247.849609	20592.330078	74.897217
501.201599	728.092285	26916.755859	20329.298828	74.846153
501.553009	727.423645	26673.931641	20070.130859	74.548401
501.904449	721.702332	26449.687500	19904.880859	74.561523
502.255859	727.052185	26275.373047	19731.830078	74.387581
502.607178	729.652649	26182.791016	19691.707031	74.497902
502.958405	734.779602	26059.375000	19588.947266	74.450027
503.309692	729.801270	26003.576172	19588.650391	74.618256
503.660919	727.869446	26016.056641	19573.044922	74.521652
504.012115	727.052063	26085.306641	19648.017578	74.614624
504.363251	720.885010	26164.958984	19691.781250	74.559196
504.714294	717.689941	26183.166016	19730.642578	74.661682
505.065369	716.129639	26217.197266	19752.857422	74.650711
505.416443	724.005676	26240.601563	19784.212891	74.697296
505.767395	732.401917	26258.507813	19806.058594	74.722153
506.118317	737.825989	26217.046875	19797.736328	74.805702
506.469238	737.974609	26224.625000	19832.955078	74.921501
506.820160	739.089172	26244.835938	19848.189453	74.920761
507.170929	741.020996	26282.210938	19888.830078	74.968353
507.521729	735.002502	26317.578125	19962.763672	75.159599
507.872498	729.949951	26413.056641	20021.982422	75.115654
508.223236	726.680664	26596.210938	20156.173828	75.105698
508.573883	733.144958	26757.078125	20261.609375	75.040405
508.924500	737.083008	26943.947266	20447.958984	75.212646
509.275116	738.569031	27163.513672	20594.412109	75.140526
509.625702	739.609192	27428.255859	20761.740234	75.021156
509.976196	744.141785	27677.615234	20914.878906	74.890961
510.326660	743.472961	27917.166016	21080.498047	74.840858
510.677124	745.033386	28120.087891	21243.890625	74.881523
511.027557	737.900330	28321.892578	21414.119141	74.957314
511.377869	735.671204	28543.462891	21574.017578	74.937080
511.728180	729.875671	28724.689453	21668.830078	74.795837
512.078430	731.138855	28840.306641	21753.013672	74.786545
512.428650	731.956116	28953.544922	21845.966797	74.815102
512.778931	727.720886	29057.865234	21951.625000	74.916328
513.129028	723.188293	29134.023438	22032.314453	75.003517
513.479126	717.318420	29155.791016	22072.140625	75.091309
513.829285	717.541443	29096.349609	22061.666016	75.211494
514.179382	717.392761	29047.087891	22025.927734	75.216255
514.529297	722.296692	28904.650391	21965.962891	75.379318
514.879272	726.309082	28891.720703	21973.171875	75.436012
515.229187	729.875671	28760.353516	21861.271484	75.387215
515.579163	730.544373	28791.041016	21837.570313	75.219719
515.928955	736.191406	28828.341797	21837.048828	75.112999
516.278748	733.739441	29056.375000	22019.687500	75.155251
516.628540	730.247131	29323.195313	22249.130859	75.259407
516.978333	725.566101	29779.041016	22555.853516	75.138298
517.327942	730.024231	30329.179688	22972.023438	75.144035
517.677612	730.692932	30971.304688	23478.398438	75.222374
518.027222	730.098450	31562.458984	23949.328125	75.307983
518.376831	731.584656	32263.578125	24462.312500	75.259209
518.726379	738.271790	32891.285156	24921.802734	75.213890
519.075867	739.163391	33421.285156	25346.593750	75.293243
519.425293	736.637207	33805.660156	25655.765625	75.354897
519.774658	729.132568	34004.121094	25769.523438	75.252892
520.124084	722.445374	34035.550781	25804.072266	75.290573
520.473389	716.055359	33784.109375	25644.171875	75.384285
520.822693	718.730225	33445.878906	25412.421875	75.453232
521.171997	721.107910	32992.042969	25072.857422	75.460320
521.521240	725.343079	32582.634766	24741.171875	75.385658
521.870361	734.333801	32192.546875	24423.898438	75.304863
522.219482	734.259521	31882.851563	24156.781250	75.196083
522.568604	735.002502	31585.937500	23938.626953	75.212059
522.917664	722.668274	31407.982422	23834.828125	75.319939
523.266724	725.714661	31446.171875	23833.265625	75.218773
523.615662	729.429871	31728.447266	24025.708984	75.151672
523.964600	731.435974	32172.111328	24344.914063	75.104866
524.313538	726.606262	32714.896484	24780.255859	75.195175
524.662354	724.080017	33432.808594	25273.845703	75.055702
525.011169	730.395752	34276.515625	25868.492188	74.935921
525.359985	733.888000	35308.878906	26612.781250	74.848587
525.708740	730.024231	36468.890625	27491.412109	74.880348
526.057434	725.937561	37830.714844	28481.939453	74.804390
526.406067	731.584656	39328.726563	29629.173828	74.869766
526.754700	732.476257	40954.097656	30916.023438	75.043091
527.103333	734.556641	42805.500000	32430.833984	75.340065
527.451782	736.042725	44880.777344	34129.023438	75.644310
527.800293	741.541199	47032.582031	35883.980469	75.916283
528.148743	743.027161	49121.531250	37750.609375	76.495918
528.497131	737.751709	50966.542969	39574.218750	77.319138
528.845642	739.683594	52533.285156	41247.371094	78.209831
529.193909	741.020996	53700.582031	42641.660156	79.118179
529.542175	737.825989	54525.417969	43678.113281	79.833076
529.890503	735.299744	54858.144531	44188.644531	80.286514
530.238770	732.327637	54649.500000	43982.230469	80.215454
530.586914	732.847717	53827.265625	43039.847656	79.682579
530.934998	736.042786	52508.468750	41610.269531	78.949799
531.283142	735.894226	50954.800781	39939.199219	78.064835
531.631226	739.534973	49159.425781	38143.156250	77.248459
531.979248	738.420410	47390.050781	36422.824219	76.491226
532.327148	734.705322	45789.941406	34972.804688	75.991386
532.675110	733.219238	44670.949219	33943.859375	75.585701
533.023071	730.915833	44099.406250	33404.421875	75.339272
533.370850	728.835449	43993.750000	33239.394531	75.143013
533.718689	727.126465	44245.488281	33375.445313	75.021935
534.066467	730.321472	44500.792969	33537.277344	74.952255
534.414246	730.618652	44597.160156	33624.210938	74.985611
534.761963	731.213074	44428.566406	33573.464844	75.158447
535.109619	729.206848	44122.738281	33415.714844	75.325760
535.457153	730.321472	43475.488281	32985.425781	75.459061
535.804749	729.875671	42666.777344	32429.791016	75.589554
536.152344	725.640381	41706.562500	31751.335938	75.707657
536.499817	730.990173	40799.027344	31074.884766	75.730919
536.847229	726.309082	39902.343750	30381.861328	75.698196
537.194641	729.058289	39125.656250	29780.306641	75.660995
537.542114	729.801331	38517.046875	29344.005859	75.724503
537.889404	734.259460	38062.535156	28953.617188	75.597801
538.236694	736.414307	37618.425781	28572.146484	75.472382
538.583984	733.219238	37218.605469	28236.000000	75.380264
538.931213	734.036621	36920.722656	28020.447266	75.404556
539.278381	735.225403	36747.601563	27880.162109	75.376694
539.625488	736.637207	36838.250000	27879.494141	75.184608
539.972595	740.352295	37159.906250	28070.898438	75.043602
540.319641	734.036621	37871.355469	28564.119141	74.938316
540.666687	728.835388	38818.269531	29248.000000	74.874214
541.013611	728.166687	40065.144531	30251.906250	75.053406
541.360596	724.748718	41400.957031	31376.255859	75.354881
541.707458	727.646667	42812.039063	32557.595703	75.633621
542.054260	723.411316	43990.332031	33502.207031	75.759483
542.401062	727.572266	44976.703125	34341.605469	75.965401
542.747864	725.046082	45421.031250	34820.335938	76.282669
543.094666	727.349365	45414.042969	34876.957031	76.420082
543.441284	724.600159	44779.871094	34378.976563	76.391258
543.787903	728.463867	43805.832031	33581.488281	76.265160
544.134460	729.429871	42482.730469	32598.537109	76.327156
544.481079	739.163513	41053.812500	31506.953125	76.319130
544.827637	738.717590	39477.925781	30316.029297	76.349815
545.174072	743.175781	37955.242188	29067.224609	76.115227
545.520508	734.779602	36584.355469	28009.005859	76.079636
545.866943	731.733215	35508.156250	27056.072266	75.695938
546.213318	724.897400	34689.191406	26395.447266	75.580994
546.559631	724.674377	34014.894531	25830.523438	75.415092
546.905823	723.485596	33440.609375	25408.556641	75.450005
547.252136	727.572266	32986.917969	25005.763672	75.259407
547.598389	733.516418	32536.937500	24619.537109	75.105194
547.944458	727.720886	32159.181641	24299.439453	74.994026
548.290588	724.525818	31614.546875	23968.720703	75.248230
548.636658	723.114075	31043.455078	23558.197266	75.312752
548.982727	738.197510	30292.697266	23077.978516	75.588425
549.328735	741.243958	29592.244141	22517.439453	75.478127
549.674622	737.900330	28838.369141	21964.330078	75.537636
550.020569	734.631042	28162.142578	21460.556641	75.566193
550.366455	733.293518	27458.125000	20944.451172	75.626884
550.712280	733.665039	26853.078125	20496.255859	75.662453
551.058044	739.832214	26360.822266	20091.900391	75.532089
551.403748	743.175781	25974.078125	19809.921875	75.569023
551.749512	741.392578	25736.234375	19602.396484	75.459587
552.095154	731.807556	25525.437500	19452.230469	75.504974
552.440735	726.383484	25467.851563	19407.796875	75.506485
552.786316	729.727051	25387.828125	19387.289063	75.665039
553.131897	733.813721	25478.923828	19435.736328	75.578255
553.477417	737.380188	25503.296875	19455.201172	75.578957
553.822815	733.219238	25551.517578	19436.029297	75.358955
554.168213	729.429749	25495.642578	19393.529297	75.361137
554.513672	726.234802	25349.634766	19294.781250	75.410164
554.859009	728.389587	25149.759766	19188.380859	75.589500
555.204285	730.247131	24914.818359	19024.394531	75.643875
555.549500	738.940491	24691.091797	18848.224609	75.606087
555.894714	742.581360	24449.384766	18622.490234	75.421005
556.239990	739.460632	24130.255859	18385.910156	75.441856
556.585022	732.179016	23850.056641	18165.900391	75.412292
556.930115	728.166687	23597.205078	17986.087891	75.464134
557.275146	728.092346	23388.564453	17776.255859	75.233047
557.620178	726.309082	23222.052734	17624.679688	75.118080
557.965149	730.767273	23018.462891	17486.701172	75.180199
558.310059	726.531982	22841.400391	17373.166016	75.273491
558.654968	727.646484	22659.876953	17272.337891	75.435516
558.999756	724.080017	22546.046875	17186.962891	75.441795
559.344604	728.240906	22512.087891	17174.701172	75.498421
559.689331	730.395691	22486.679688	17118.158203	75.324272
560.033997	723.931396	22458.294922	17108.720703	75.386559
560.378723	731.510315	22394.544922	17077.216797	75.454369
560.723389	726.606384	22378.048828	17073.279297	75.499229
561.067932	732.253357	22398.630859	17097.353516	75.532242
561.412476	724.600098	22433.478516	17103.150391	75.446320
561.757019	728.018066	22427.162109	17114.369141	75.516121
562.101501	731.213074	22432.958984	17088.138672	75.371475
562.445862	735.225403	22382.728516	17074.244141	75.477608
562.790222	731.807434	22349.587891	17052.326172	75.495811
563.134644	731.213135	22315.263672	17012.500000	75.432030
563.478943	731.064514	22351.671875	17004.845703	75.269768
563.823181	739.534973	22393.501953	17010.716797	75.141808
564.167358	737.305908	22424.337891	17027.138672	75.113243
564.511536	735.002502	22480.287109	17054.257813	75.047325
564.855774	731.361633	22498.416016	17050.244141	74.970558
565.199768	734.779602	22582.751953	17151.595703	75.141144
565.543823	730.098633	22723.705078	17253.759766	75.129387
565.887817	730.247131	22995.726563	17447.021484	75.079338
566.231812	728.761047	23234.460938	17578.464844	74.868607
566.575745	734.853943	23419.697266	17757.310547	75.038902
566.919617	725.937683	23540.068359	17929.693359	75.408333
567.263428	727.126465	23654.046875	18066.037109	75.626862
567.607239	725.045959	23717.353516	18115.746094	75.637039
567.950989	733.962219	23736.525391	18102.447266	75.506737
568.294678	728.092468	23709.330078	18080.453125	75.506645
568.638367	728.463867	23638.593750	18007.486328	75.420891
568.981995	724.377258	23499.201172	17911.488281	75.465393
569.325623	732.253357	23325.330078	17790.226563	75.500885
569.669128	733.739441	23156.591797	17675.650391	75.556450
570.012573	728.984070	23044.990234	17568.062500	75.457405
570.356140	726.234802	23037.111328	17496.656250	75.167023
570.699524	729.504089	23018.833984	17443.677734	74.987335
571.042908	736.191406	23109.556641	17460.992188	74.753174
571.386230	739.609314	23203.328125	17510.548828	74.657898
571.729492	736.117004	23395.250000	17607.812500	74.458694
572.072815	738.494812	23540.216797	17708.865234	74.425827
572.416016	731.807434	23679.087891	17805.013672	74.401871
572.759094	732.327637	23795.968750	17900.416016	74.437889
573.102234	727.869446	23866.703125	17895.958984	74.195999
573.445374	731.881836	23930.900391	17892.318359	73.970528
573.788391	731.584534	23913.812500	17876.861328	73.958710
574.131409	732.476257	23888.771484	17940.835938	74.313957
574.474365	731.807434	23841.513672	17954.730469	74.526794
574.817261	731.956055	23725.601563	17901.751953	74.671921
575.160156	734.556702	23565.630859	17762.808594	74.583664
575.502930	734.036621	23317.013672	17614.054688	74.746643
575.845703	728.984070	23056.728516	17496.582031	75.097588
576.188477	729.875671	22828.546875	17370.863281	75.303116
576.531250	728.018066	22593.673828	17244.250000	75.535042
576.873901	732.030457	22368.984375	17039.767578	75.369843
577.216431	732.476257	22092.205078	16852.005859	75.466919
577.559082	738.569031	21801.087891	16590.830078	75.262886
577.901611	735.671204	21505.810547	16373.867188	75.291725
578.244080	727.720886	21172.339844	16100.136719	75.190521
578.586487	725.268860	20862.570313	15839.629883	75.056541
578.928955	758.556458	20549.904297	15568.128906	74.828522
579.271301	762.643127	20247.564453	15319.214844	74.706848
579.613647	764.649231	19905.103516	15070.598633	74.741951
579.955872	732.179016	19588.054688	14811.133789	74.666145
580.298157	730.915833	19331.414063	14586.589844	74.490875
580.640320	727.126465	19086.511719	14397.266602	74.458595
580.982483	729.875671	18895.181641	14241.527344	74.381630
581.324524	732.699158	18692.111328	14125.168945	74.570755
581.666626	737.974609	18571.744141	14027.015625	74.516167
582.008728	741.169617	18472.472656	13950.707031	74.498398
582.350647	741.763977	18403.818359	13858.645508	74.265892
582.692566	736.414246	18308.412109	13794.745117	74.313293
583.034424	730.841492	18187.224609	13753.878906	74.603294
583.376343	727.274963	18061.060547	13721.929688	74.967209
583.718201	728.686829	17971.748047	13696.815430	75.207817
584.059937	726.309143	17884.740234	13644.059570	75.285141
584.401611	727.795166	17796.914063	13570.945313	75.242020
584.743347	725.491760	17749.062500	13499.690430	75.038300
585.085022	725.937561	17668.072266	13436.085938	75.020935
585.426514	724.748718	17624.085938	13393.808594	74.967789
585.768127	726.383362	17518.277344	13326.268555	75.035515
586.109619	730.618652	17495.392578	13257.684570	74.722549
586.451172	733.293518	17426.216797	13197.054688	74.664932
586.792542	730.544373	17386.318359	13193.041992	74.823891
587.133850	733.962219	17325.314453	13128.918945	74.707336
587.475220	737.380188	17315.580078	13107.816406	74.618698
587.816589	741.021179	17338.986328	13045.551758	74.132767
588.157776	736.711487	17392.705078	13086.789063	74.147942
588.498962	731.584656	17451.183594	13084.411133	73.882309
588.840210	730.990173	17493.312500	13126.170898	73.946678
589.181335	730.098572	17577.794922	13140.882813	73.664574
589.522400	733.590820	17606.476563	13169.786133	73.705200
589.863403	732.179016	17644.593750	13219.122070	73.833008
590.204407	732.401917	17598.599609	13233.165039	74.117256
590.545410	730.544373	17653.359375	13291.046875	74.222305
590.886353	732.550537	17626.388672	13274.848633	74.241852
591.227112	731.807434	17604.691406	13277.897461	74.356522
591.567932	728.835449	17529.423828	13237.625000	74.454475
591.908752	725.045959	17457.498047	13184.870117	74.465027
592.249512	727.349304	17415.146484	13152.250000	74.455009
592.590149	723.188293	17300.794922	13094.739258	74.628082
592.930786	725.343079	17274.787109	13083.743164	74.675629
593.271423	731.510254	17198.626953	13045.924805	74.781845
593.612000	732.699158	17173.216797	13035.446289	74.831871
593.952576	731.807434	17145.277344	13028.387695	74.917610
594.292969	728.018066	17189.634766	13053.278320	74.872719
594.633484	730.395752	17233.550781	13084.487305	74.858971
594.973877	726.309082	17309.041016	13160.125977	74.980507
595.314209	719.919128	17442.490234	13250.254883	74.930679
595.654480	719.696106	17633.521484	13376.941406	74.833717
595.994812	721.107910	17831.091797	13494.636719	74.655411
596.335022	720.216309	18037.283203	13642.796875	74.623383
596.675171	723.782898	18225.566406	13780.108398	74.599968
597.015320	724.971680	18386.505859	13921.358398	74.718231
597.355408	733.070618	18469.576172	14002.421875	74.813789
597.695496	731.733215	18490.751953	14048.713867	74.987137
598.035461	732.104675	18469.650391	14015.573242	74.888992
598.375366	728.983948	18416.597656	13988.527344	74.965134
598.715271	725.863281	18331.148438	13901.444336	74.838783
599.055176	727.126404	18144.425781	13766.213867	74.862862
599.395081	723.782776	17911.414063	13580.901367	74.804482
599.734802	726.903503	17602.388672	13342.911133	74.759384
600.074524	726.457703	17283.630859	13113.315430	74.812630
600.414246	734.036621	16949.714844	12845.752930	74.691399
600.753906	734.110840	16623.599609	12590.820313	74.619827
601.093506	729.801270	16342.809570	12344.356445	74.390244
601.433044	726.383362	16122.054688	12186.463867	74.437027
601.772583	728.166687	16025.090820	12111.045898	74.412865
602.112122	735.968445	15994.700195	12132.593750	74.689201
602.451538	730.618652	16026.502930	12161.348633	74.730759
602.790894	730.544250	16127.703125	12251.031250	74.822159
603.130310	729.206848	16335.973633	12361.372070	74.532829
603.469604	734.482422	16575.822266	12508.789063	74.326454
603.808838	730.024231	16855.646484	12741.504883	74.486931
604.148010	729.578430	17122.466797	12957.206055	74.591049
604.487305	731.436035	17379.853516	13189.476563	74.830177
604.826416	729.281189	17598.302734	13318.316406	74.628128
605.165527	728.240906	17769.050781	13470.041992	74.772270
605.504456	722.296692	17921.818359	13551.850586	74.592506
605.843445	726.532043	17981.705078	13594.796875	74.576271
606.182434	726.383484	17943.214844	13566.117188	74.576630
606.521423	728.389648	17842.386719	13504.520508	74.653114
606.860229	728.984070	17653.656250	13385.784180	74.783134
607.199036	735.151123	17413.214844	13212.731445	74.814316
607.537903	736.860046	17115.929688	13013.527344	74.953384
607.876648	745.999268	16862.111328	12809.416992	74.853149
608.215271	745.256287	16614.685547	12582.868164	74.593811
608.553955	745.999329	16397.646484	12418.065430	74.574043
608.892578	738.643372	16211.293945	12272.655273	74.544510
609.231140	735.671204	16113.808594	12209.870117	74.613708
609.569641	731.435974	16043.145508	12128.210938	74.431763
609.908081	737.380127	16014.093750	12103.838867	74.403824
610.246521	738.048889	16009.487305	12089.795898	74.333191
610.584961	741.838379	16026.502930	12117.213867	74.423454
610.923340	736.637207	16032.967773	12089.051758	74.216583
611.261597	731.584656	15911.334961	12005.610352	74.270164
611.599854	731.213135	15769.266602	11870.899414	74.076653
611.938110	730.172852	15557.058594	11759.222656	74.385475
612.276245	733.739319	15352.875000	11628.523438	74.524132
612.614319	738.123230	15093.410156	11454.359375	74.650101
612.952393	744.364685	14817.895508	11244.231445	74.607201
613.290466	746.296570	14565.562500	11024.293945	74.374405
613.628479	740.352295	14247.546875	10833.931641	74.727432
613.966370	740.278015	13977.233398	10652.410156	74.882263
614.304260	740.649597	13750.832031	10495.705078	74.980156
614.642151	739.980774	13586.549805	10350.219727	74.807823
614.979980	738.271790	13443.070313	10206.371094	74.523804
615.317749	732.253357	13303.010742	10094.991211	74.480301
615.655396	729.206848	13230.788086	10035.623047	74.441910
615.993164	724.674500	13210.652344	10012.291016	74.384377
616.330811	727.423645	13229.153320	10007.610352	74.231224
616.668396	733.590820	13204.632813	9986.285156	74.193436
617.005859	739.460693	13158.342773	9963.994141	74.278290
617.343445	737.751709	13113.835938	9949.282227	74.430092
617.680908	735.671204	13127.879883	9934.125977	74.227730
618.018311	734.408020	13146.975586	9945.493164	74.207733
618.355652	734.408142	13168.449219	9948.093750	74.100494
618.692993	734.705261	13136.870117	9946.458984	74.275368
619.030273	729.429749	13119.484375	9949.655273	74.416344
619.367554	728.389648	13079.507813	9924.167969	74.453003
619.704712	727.052185	13081.290039	9908.639648	74.319336
620.041870	728.092468	13059.817383	9870.522461	74.137482
620.379028	736.340027	13006.246094	9859.153320	74.351128
620.716064	742.952942	12951.929688	9838.422852	74.498215
621.053040	753.132324	12892.339844	9796.071289	74.493660
621.389954	749.788757	12837.801758	9727.415039	74.268829
621.726929	751.646301	12772.265625	9662.918945	74.133224
622.063843	741.243958	12712.304688	9641.891602	74.351372
622.400635	745.479187	12655.164063	9627.700195	74.579811
622.737427	742.284180	12609.023438	9598.500000	74.630577
623.074219	740.872498	12564.590820	9534.822266	74.375504
623.410889	730.395752	12555.452148	9501.460938	74.173561
623.747559	724.080017	12563.178711	9490.241211	74.044159
624.084167	718.210144	12519.859375	9490.241211	74.328857
624.420715	720.439209	12513.543945	9493.286133	74.389626
624.757324	724.897278	12505.445313	9512.828125	74.596962
625.093750	729.355469	12607.090820	9506.067383	73.892136
625.430176	730.395752	12674.854492	9545.297852	73.799095
625.766602	725.863281	12737.640625	9548.791016	73.452309
626.102905	724.600159	12810.160156	9651.403320	73.863380
626.439209	723.634277	12895.385742	9714.486328	73.866539
626.775452	724.451599	13026.976563	9809.147461	73.844154
627.111694	731.510315	13085.006836	9844.960938	73.772232
627.447876	726.754883	13163.171875	9892.366211	73.699776
627.783997	726.309082	13171.049805	9942.966797	74.060669
628.120056	717.690002	13214.070313	9971.424805	74.051323
628.456055	721.479492	13188.288086	9939.920898	73.943878
628.792053	722.742615	13176.547852	9888.800781	73.600464
629.128052	730.841553	13088.276367	9840.131836	73.715057
629.463928	734.631042	13011.520508	9768.429688	73.583778
629.799744	737.083008	12900.067383	9672.801758	73.466499
630.135559	731.435974	12799.164063	9560.084961	73.159164
630.471375	724.302917	12674.557617	9460.073242	73.101120
630.807068	722.891113	12508.789063	9357.165039	73.259354
631.142700	728.686768	12384.628906	9233.375977	72.964409
631.478333	738.717590	12217.670898	9115.235352	72.972832
631.813965	739.534973	12108.000000	9024.660156	72.878136
632.149475	736.785828	11985.102539	8945.007813	72.972893
632.484924	736.414246	11913.920898	8884.895508	72.900703
632.820435	737.157288	11830.627930	8813.342773	72.801254
633.155884	733.367859	11754.319336	8765.565430	72.881165
633.491150	736.860046	11674.815430	8745.058594	73.214767
633.826477	732.922058	11611.879883	8716.229492	73.383018
634.161804	738.866272	11571.905273	8682.421875	73.327118
634.497009	736.340027	11537.131836	8622.534180	73.014961
634.832153	738.420410	11480.140625	8567.029297	72.880402
635.167297	730.767273	11385.331055	8504.540039	72.961906
635.502380	721.702393	11328.713867	8465.754883	73.008804
635.837463	718.953125	11281.828125	8396.281250	72.682182
636.172424	726.457703	11193.481445	8345.831055	72.794083
636.507324	730.024231	11090.350586	8267.960938	72.757713
636.842224	734.185242	10988.777344	8211.268555	72.914490
637.177124	726.606384	10902.809570	8167.131348	73.116905
637.511963	728.389587	10782.364258	8118.835449	73.507706
637.846741	728.909668	10653.895508	8052.036621	73.784760
638.181396	728.018066	10547.938477	7962.650879	73.673035
638.516113	729.058350	10443.766602	7881.512207	73.625000
638.850769	728.166687	10363.817383	7832.695313	73.731697
639.185303	734.036560	10274.803711	7778.380371	73.834137
639.519836	730.544373	10202.581055	7710.764160	73.692909
639.854370	735.522644	10092.613281	7645.080566	73.843018
640.188843	738.717712	10008.502930	7549.824707	73.476425
640.523254	745.924988	9904.701172	7478.717285	73.511925
640.857605	739.832214	9824.231445	7392.897949	73.236168
641.191895	737.677429	9744.356445	7342.594238	73.333549
641.526184	725.566101	9701.186523	7279.511719	73.019417
641.860413	725.268860	9646.424805	7230.695313	72.921333
642.194580	725.863281	9615.960938	7180.020020	72.599388
642.528748	727.497864	9555.181641	7152.008301	72.776855
642.862793	727.869446	9523.751953	7094.423340	72.381065
643.196838	728.389587	9460.000000	7050.510254	72.404976
643.530823	732.179016	9404.942383	7003.105469	72.305977
643.864746	738.197510	9338.291992	6964.839844	72.402023
644.198669	735.225403	9307.307617	6942.475098	72.412392
644.532532	739.014832	9274.540039	6918.623535	72.398697
644.866333	735.151123	9222.899414	6897.744629	72.605759
645.200073	735.671204	9151.047852	6877.236816	72.980278
645.533813	737.231628	9132.397461	6863.044922	72.968346
645.867554	735.522644	9139.382813	6885.558594	73.181084
646.201172	738.940613	9148.076172	6906.437500	73.342819
646.534729	736.637207	9151.495117	6904.283203	73.294716
646.868225	736.340027	9169.252930	6899.676270	73.086685
647.201782	735.448303	9174.157227	6892.394531	72.960762
647.535217	738.494812	9178.615234	6896.630371	72.962654
647.868591	744.513245	9172.596680	6883.106934	72.834991
648.201965	746.222229	9190.131836	6874.042480	72.570892
648.535278	739.163513	9149.860352	6866.388672	72.850380
648.868591	736.414246	9142.800781	6854.798340	72.782570
649.201782	737.157410	9108.176758	6842.611816	72.935616
649.534912	738.643372	9098.517578	6826.562500	72.823097
649.868103	731.213074	9046.653320	6787.553223	72.832466
650.201172	724.005676	9019.830078	6756.717285	72.719856
650.534180	729.875671	8994.269531	6731.083496	72.615227
650.867188	729.206848	8986.989258	6722.019043	72.571686
651.200134	733.442139	8975.471680	6702.849121	72.426422
651.533020	735.002502	8931.335938	6661.462402	72.306236
651.865845	739.089172	8883.632813	6624.013184	72.256027
652.198608	736.488586	8830.581055	6576.607910	72.152863
652.531433	729.504150	8814.235352	6552.756348	72.027771
652.864136	730.024231	8781.913086	6540.571777	72.163780
653.196777	854.332703	8868.252930	6644.520996	72.251633
653.529358	854.555603	8827.237305	6619.778809	72.312218
653.861938	850.617615	8781.318359	6574.750000	72.176880
654.194519	719.621887	8584.713867	6397.390137	72.189468
654.526978	718.135803	8550.385742	6354.071777	71.958069
654.859375	721.999512	8504.838867	6314.914063	71.862137
655.191833	723.708496	8483.810547	6315.136719	72.053543
655.524170	723.188416	8419.092773	6292.994629	72.373642
655.856445	719.696228	8363.366211	6294.629395	72.935295
656.188660	728.761047	8331.637695	6268.771973	72.867302
656.520874	731.064453	8295.006836	6243.212402	72.874008
656.853088	733.739319	8300.356445	6237.639160	72.739243
657.185181	730.470032	8278.882813	6239.942871	72.988495
657.517212	731.435974	8298.127930	6273.675781	73.245216
657.849243	735.002502	8322.870117	6313.279297	73.515739
658.181274	740.872375	8404.529297	6359.644531	73.317116
658.513123	747.411072	8482.993164	6405.638184	73.145462
658.844971	749.342957	8570.448242	6457.500488	72.984024
659.176819	747.931213	8661.467773	6517.611328	72.908997
659.508667	735.596985	8750.557617	6579.877441	72.917145
659.840393	737.380188	8832.067383	6618.143066	72.649658
660.172058	736.265625	8877.093750	6659.604004	72.760880
660.503662	740.798157	8907.409180	6664.954590	72.541183
660.835266	737.677429	8922.047852	6677.214355	72.571701
661.166931	740.500916	8849.973633	6635.232910	72.689461
661.498413	738.197510	8802.198242	6599.270996	72.681953
661.829773	734.482422	8665.703125	6516.274902	72.899147
662.161194	729.504089	8570.818359	6436.695801	72.783615
662.492615	732.104736	8431.649414	6315.953613	72.521797
662.823975	733.813660	8286.387695	6197.812500	72.346184
663.155212	734.333801	8154.278809	6079.076660	72.032104
663.486450	733.739441	7991.703613	6008.191895	72.671242
663.817627	733.219238	7889.685547	5938.570313	72.736328
664.148743	729.875671	7751.705566	5868.800293	73.184975
664.479858	732.476257	7653.328613	5773.841309	72.843124
664.810913	732.996399	7560.450684	5702.213379	72.782867
665.141907	737.454590	7504.203125	5646.561035	72.547493
665.472778	732.401917	7440.525879	5613.496094	72.763924
665.803711	732.550537	7402.260254	5583.032715	72.724037
666.134583	726.086182	7365.332031	5553.236816	72.706306
666.465454	733.739441	7346.978516	5535.329590	72.605728
666.796143	729.727051	7313.171387	5506.871582	72.562996
667.126831	736.785828	7305.443359	5508.357910	72.641510
667.457458	735.002502	7284.935547	5495.281250	72.676758
667.788147	735.968445	7268.736816	5479.677246	72.614067
668.118774	734.556702	7211.673340	5437.844727	72.613914
668.449219	735.002502	7189.902344	5433.312012	72.786713
668.779663	738.940613	7179.871582	5429.819824	72.829208
669.110107	743.993164	7187.153809	5426.030762	72.666786
669.440552	742.655762	7166.126465	5412.581543	72.700974
669.770874	746.445129	7144.355469	5381.969238	72.453720
670.101135	742.432800	7132.838379	5374.464355	72.484154
670.431396	742.804260	7115.228516	5344.817871	72.217628
670.761597	742.432800	7063.290527	5326.687500	72.525833
671.091797	740.798157	7012.244629	5291.394043	72.560547
671.421875	740.278015	6972.642090	5267.394043	72.638824
671.751892	739.832214	6937.570801	5241.388184	72.632233
672.081909	748.154114	6906.884277	5226.378906	72.713440
672.411865	747.113831	6858.066406	5186.403809	72.644814
672.741821	746.519531	6832.654785	5158.614746	72.494202
673.071716	736.265686	6803.082520	5129.042480	72.406616
673.401550	745.925049	6770.166504	5096.572266	72.219009
673.731262	741.838379	6749.139160	5093.005859	72.431320
674.060974	739.014893	6707.231934	5058.083496	72.367821
674.390625	725.343079	6680.482910	5056.522949	72.730110
674.720276	723.336975	6612.570313	5014.616699	72.866524
675.049927	730.470032	6574.453125	4988.090332	72.854767
675.379395	732.773438	6542.205566	4956.288574	72.700996
675.708923	740.278015	6509.438965	4930.653809	72.634064
676.038330	739.163391	6470.429688	4924.338379	73.023567
676.367737	741.912598	6418.046387	4908.363770	73.402977
676.697083	739.460693	6386.689941	4880.722656	73.332626
677.026428	742.952942	6350.876465	4850.185059	73.239799
677.355652	741.912659	6350.505371	4834.135254	72.963448
677.684875	736.340027	6335.124512	4847.435059	73.428352
678.013977	727.052185	6340.696777	4844.314453	73.343834
678.343079	725.120178	6347.904297	4841.788574	73.214058
678.672180	728.612488	6384.164063	4846.618164	72.813515
679.001221	732.847717	6423.618652	4867.571777	72.656662
679.330139	729.727051	6460.472656	4906.728516	72.887573
679.659058	727.720764	6493.760254	4921.737793	72.736526
679.987976	728.984070	6536.113281	4947.892578	72.650505
680.316772	733.962341	6593.475098	4968.103027	72.260971
680.645630	733.516418	6639.170410	5004.214355	72.315407
680.974304	732.327637	6672.458496	5035.495605	72.442307
681.302979	731.287354	6673.350098	5043.074707	72.563812
681.631653	734.631042	6688.285156	5037.278809	72.269028
681.960266	734.779602	6690.068359	5036.907715	72.240463
682.288757	740.129395	6704.260254	5046.046387	72.196892
682.617249	738.271912	6675.431152	5049.910156	72.621231
682.945679	737.157410	6652.025879	5020.411621	72.415039
683.274109	736.562927	6604.620605	4992.770996	72.531807
683.602478	738.717712	6553.797363	4955.173828	72.509003
683.930725	741.987000	6481.128906	4919.954590	72.797775
684.259033	734.408142	6405.935059	4860.661133	72.753830
684.587280	728.538147	6349.539063	4804.116699	72.506279
684.915344	719.176025	6283.632813	4761.095703	72.638168
685.243469	724.154297	6217.502441	4724.984375	72.830452
685.571533	737.528809	6163.187500	4679.659668	72.657188
685.899536	742.061279	6096.390137	4638.570801	72.773064
686.227539	744.438965	6041.703125	4593.022949	72.652298
686.555420	740.352295	5996.526855	4567.313965	72.808876
686.883301	737.083008	6007.078125	4549.704590	72.345825
687.211121	736.562927	6013.021973	4550.744629	72.286766
687.538940	728.761169	5996.898438	4570.211914	72.918579
687.866638	734.333801	5989.021973	4568.651855	72.969475
688.194336	729.504089	5991.697266	4574.298828	73.064491
688.521973	729.727051	5989.468750	4553.345215	72.695930
688.849609	731.881836	5968.440918	4535.884277	72.643166
689.177063	734.853821	5928.613770	4502.076172	72.533630
689.504578	737.454529	5886.632813	4470.126465	72.490631
689.832031	737.305908	5827.041504	4421.829590	72.391266
690.159485	739.534973	5760.615723	4377.990723	72.463600
690.486816	738.123230	5695.674316	4308.442871	72.017807
690.814087	742.729980	5630.511719	4265.050781	72.063789
691.141296	736.785828	5550.115723	4202.487793	72.002167
691.468506	736.117126	5465.113770	4170.017090	72.613708
691.795715	728.315247	5383.158203	4124.989746	72.970772
692.122803	726.903503	5316.136719	4070.228516	72.851494
692.449829	727.200684	5257.140137	4014.947266	72.578156
692.776855	727.720886	5209.289063	3958.180420	72.083237
693.103821	735.225403	5171.692383	3924.372314	71.884834
693.430664	737.083008	5141.451172	3883.357422	71.435318
693.757568	743.770203	5098.058594	3856.013916	71.475365
694.084351	735.374023	5047.606934	3823.395264	71.610725
694.411133	734.259460	5012.015625	3811.358154	71.932533
694.737854	726.457703	4967.285156	3770.863281	71.788002
695.064575	727.275085	4933.329590	3747.383545	71.803833
695.391174	727.349365	4892.982910	3726.058594	71.986870
695.717773	730.024231	4883.546387	3735.197998	72.352425
696.044250	729.652649	4877.082031	3739.804688	72.578743
696.370789	730.321472	4879.979492	3741.067627	72.554077
696.697205	729.429749	4890.753418	3757.191406	72.759583
697.023621	735.225403	4930.728516	3775.766846	72.471443
697.349915	735.522644	5008.003418	3804.893555	71.840477
697.676208	738.791992	5100.064453	3847.097656	71.270615
698.002380	732.624817	5196.583496	3912.632813	71.237404
698.328674	733.962219	5288.496094	3992.359375	71.541840
698.654724	733.144958	5376.693848	4072.235107	71.908150
698.980896	738.346130	5460.804199	4142.153809	72.077034
699.306946	736.637207	5527.082031	4198.475098	72.265480
699.632935	734.779602	5580.431641	4232.357422	72.179718
699.958862	737.157288	5622.115234	4239.787598	71.702362
700.284729	729.727051	5620.406250	4241.050781	71.796242
700.610596	731.733215	5577.607910	4195.428711	71.477203
700.936340	728.835388	5499.070313	4150.401855	71.727417
701.262146	733.813660	5380.705566	4067.627930	71.742882
701.587830	729.206848	5260.707031	3996.297119	72.097328
701.913513	729.355469	5123.543945	3905.276611	72.275490
702.239075	735.894226	5010.232422	3801.104248	71.711914
702.564697	736.785828	4877.602051	3704.659424	71.673630
702.890137	733.739319	4754.185059	3614.901611	71.662758
703.215698	730.024231	4644.068359	3540.598877	71.807434
703.541016	724.674377	4549.109863	3479.076172	72.021133
703.866455	730.247070	4460.169434	3422.606201	72.182709
704.191711	729.206848	4384.751953	3378.619141	72.476532
704.517029	734.259521	4342.176270	3320.588623	71.684830
704.842163	726.977844	4303.167480	3285.369141	71.539589
705.167419	732.476257	4272.480957	3266.793701	71.590790
705.492493	736.785828	4236.889648	3266.496094	72.275291
705.817566	737.900391	4213.632813	3229.196045	71.676857
706.142578	731.436035	4188.444336	3199.846436	71.403076
706.467590	729.652771	4147.726563	3178.075928	71.631660
706.792480	734.556641	4132.345703	3195.016846	72.413567
707.117371	735.299744	4130.042480	3192.936523	72.395378
707.442200	735.819824	4136.952637	3182.311279	71.931664
707.766907	733.070618	4118.896973	3154.819092	71.526070
708.091675	737.305908	4111.541016	3153.407471	71.604424
708.416321	732.922058	4134.648926	3141.667969	70.809502
708.741028	734.853943	4163.404297	3158.014404	70.675949
709.065552	728.241028	4191.193848	3159.946045	70.220566
709.390137	732.179016	4178.562012	3185.208984	71.176941
709.714600	727.795166	4193.199707	3190.707031	71.071411
710.039063	738.494690	4201.596191	3220.651367	71.674385
710.363403	733.813660	4244.765625	3245.617188	71.541954
710.687744	739.980774	4290.907715	3268.873779	71.217827
711.012085	731.064453	4342.622559	3283.585938	70.676460
711.336304	735.522644	4400.727051	3310.854736	70.264351
711.660461	729.875671	4425.395996	3332.997314	70.439919
711.984619	734.854004	4455.562500	3360.266357	70.562164
712.308716	735.076843	4452.441895	3359.597656	70.601646
712.632751	740.872375	4440.479004	3365.095947	70.932503
712.956726	737.900330	4404.442383	3343.548096	71.065536
713.280701	742.061279	4373.829590	3320.588623	70.999222
713.604553	740.500916	4321.743652	3278.681885	70.874306
713.928467	734.631042	4264.307129	3238.335205	70.932968
714.252258	726.903564	4209.100586	3198.806396	70.986877
714.575989	723.708496	4167.341797	3164.255859	70.871292
714.899719	726.606262	4112.952637	3129.407959	70.955582
715.223267	725.789001	4070.748779	3110.386475	71.289268
715.546936	727.126465	4042.365234	3089.804443	71.267204
715.870422	727.943787	4015.839111	3073.977783	71.353668
716.193970	731.064514	3978.762451	3057.333984	71.628258
716.517395	726.383484	3945.771729	3059.191406	72.461220
716.840820	725.491699	3934.849365	3042.176514	72.185310
717.164124	723.485596	3903.047607	3014.684326	72.060196
717.487488	733.516418	3871.691650	2964.678711	71.097443
717.810730	735.225403	3828.968018	2938.078125	71.203491
718.133972	735.225403	3789.216064	2911.180420	71.249565
718.457092	732.699158	3731.036865	2903.230469	72.391151
718.780212	737.751709	3671.965820	2870.908447	72.699425
719.103210	736.265625	3627.161377	2826.772461	72.313461
719.426208	729.652649	3585.775146	2773.572021	71.562737
719.749207	723.857117	3551.893311	2734.785889	71.106895
720.072083	728.686768	3494.382813	2710.934814	71.672661
720.394958	732.996338	3471.943359	2683.071289	71.197983
720.717773	731.956055	3433.380127	2655.950684	71.221497
721.040527	729.058289	3427.287354	2619.542480	70.063889
721.363281	728.761047	3390.953125	2605.425049	70.493187
721.685913	726.977783	3363.460938	2588.632568	70.611290
722.008545	726.606262	3313.306641	2578.973145	71.611191
722.331055	727.052063	3279.201904	2557.871094	71.736343
722.653503	731.733215	3244.799805	2531.790771	71.627930
722.976013	731.510254	3234.991943	2522.948975	71.557892
723.298401	740.649475	3238.855469	2505.933594	70.662071
723.620789	739.757996	3238.409912	2505.041992	70.649452
723.943115	742.804382	3230.905273	2495.010986	70.423454
724.265381	736.934387	3212.180664	2495.679688	71.053345
724.587585	740.352295	3196.354492	2489.661133	71.225868
724.909790	740.723816	3183.797607	2480.447510	71.210442
725.231873	733.516418	3184.243164	2471.382813	70.912285
725.553894	734.556702	3202.521484	2478.887451	70.678917
725.875916	763.311829	3255.425049	2518.862305	70.444252
726.197937	774.903076	3252.378906	2518.342041	70.371582
726.519775	768.958801	3248.886719	2515.295410	70.418846
726.841675	743.993164	3236.923828	2499.543213	70.421135
727.163513	730.024170	3247.994873	2508.013916	70.612007
727.485291	734.259460	3267.313477	2508.237061	70.033150
727.806946	732.104675	3273.109131	2506.750977	69.840347
728.128662	736.637146	3292.204834	2524.360596	69.954063
728.450256	736.860107	3321.479736	2555.939453	70.380928
728.771790	729.058289	3325.343750	2565.524414	70.734367
729.093323	729.949890	3342.359375	2567.010498	70.320541
729.414795	724.451477	3340.947510	2562.998047	70.267509
729.736145	729.504150	3340.798828	2574.589355	70.657867
730.057495	727.572266	3334.408936	2571.988525	70.753044
730.378845	733.293518	3324.377930	2578.750244	71.223335
730.700134	733.739319	3334.408936	2567.456055	70.509407
731.021301	725.268860	3324.972412	2567.381836	70.858582
731.342468	722.816895	3313.901611	2557.573975	70.810387
731.663574	721.702332	3307.585938	2564.187012	71.251648
731.984680	733.665039	3327.572998	2586.552002	71.432259
732.305664	728.315247	3348.452148	2597.177490	71.326897
732.626648	727.200684	3369.331299	2600.298096	70.893448
732.947571	729.652649	3368.811279	2592.124756	70.570679
733.268433	734.853821	3362.941406	2589.078369	70.554138
733.589233	740.129395	3338.124023	2574.886475	70.622047
733.909973	737.008728	3322.520508	2557.871338	70.425613
734.230713	741.689758	3293.765625	2537.735107	70.375862
734.551331	737.454590	3262.038086	2508.162842	70.138626
734.871948	739.460632	3223.846436	2478.590088	70.002388
735.192505	743.472961	3175.921143	2446.045654	69.994202
735.513062	742.061279	3138.472656	2419.222412	69.986359
735.833435	740.575195	3085.346436	2388.163818	70.266495
736.153931	729.727051	3042.250732	2355.470703	70.301712
736.474304	729.504150	3002.275635	2328.127197	70.338043
736.794617	728.761047	2975.080811	2302.195557	70.044991
737.114807	733.962219	2971.588867	2292.536133	69.652992
737.434998	732.996399	2953.458984	2276.858154	69.528839
737.755188	735.745605	2949.594971	2275.892334	69.568726
738.075256	736.785828	2948.926514	2272.697266	69.431000
738.395325	744.587585	2966.759033	2291.421631	69.609123
738.715271	741.392578	2997.000244	2315.421631	69.782928
739.035278	735.151123	3008.294189	2326.789795	70.019295
739.355164	726.754883	3022.783203	2336.077393	70.091576
739.675049	722.222473	3017.135986	2346.702881	70.786125
739.994873	724.600098	3016.467529	2343.879395	70.653267
740.314636	731.510254	3005.693604	2335.631592	70.536148
740.634277	735.299744	2986.895264	2315.198486	70.167961
740.953979	734.408020	2973.669189	2302.938477	70.046783
741.273499	731.064453	2954.573486	2288.672363	70.051788
741.593140	730.618652	2931.985352	2267.421631	69.811310
741.912598	730.470032	2890.821533	2242.307373	69.981079
742.232117	738.197510	2842.896484	2207.533936	69.812187
742.551453	745.330566	2797.794189	2175.583740	69.684700
742.870850	740.352295	2761.088867	2156.041992	70.058105
743.190063	732.476257	2732.036377	2140.141357	70.398735
743.509338	732.550537	2712.049316	2118.593506	70.019897
743.828552	741.318298	2676.606934	2094.519287	69.922440
744.147705	749.119934	2647.331787	2070.371094	69.605042
744.466797	747.633972	2610.774658	2058.705811	70.368912
744.785828	744.513184	2600.743896	2045.925415	70.110481
745.104858	739.163513	2587.592285	2043.027710	70.539063
745.423706	736.637207	2577.412842	2028.835938	70.198601
745.742615	735.299744	2554.527588	2016.724609	70.437843
746.061401	732.847839	2535.431885	2007.956665	70.737839
746.380249	734.333801	2535.357422	2004.761719	70.539215
746.698975	739.089172	2535.506348	1993.542358	69.830833
747.017639	737.825989	2526.812744	1982.471069	69.572624
747.336304	738.123230	2508.385742	1978.458496	70.065048
747.654907	735.968506	2517.747803	1976.898071	69.645523
747.973389	739.386414	2528.595947	1976.749512	69.156967
748.291931	741.987000	2534.466064	1976.749634	68.885757
748.610352	738.048889	2527.258545	1981.727905	69.509956
748.928711	736.265625	2529.339111	1984.105469	69.592232
749.247070	730.990173	2526.218262	1977.269653	69.421799
749.565308	735.968506	2529.636230	1987.671997	69.784576
749.883545	738.791992	2515.741455	1975.189087	69.579758
750.201782	744.290344	2502.218506	1969.096313	69.673264
750.519836	741.987000	2493.079346	1944.502075	68.672287
750.837952	741.838379	2490.924561	1945.914063	68.840271
751.155884	737.528809	2475.766602	1945.245117	69.479347
751.473877	735.374023	2453.104492	1937.592163	69.988754
751.791809	731.584534	2432.448242	1926.446655	70.250313
752.109619	726.086121	2431.779541	1908.019653	69.293442
752.427490	728.686768	2426.503662	1904.973145	69.282288
752.745300	732.030457	2429.698975	1895.016602	68.504898
753.062988	735.151123	2425.612061	1895.833862	68.660728
753.380615	738.346130	2431.036377	1891.152832	68.104996
753.698303	733.665039	2428.584473	1882.459473	67.778702
754.015808	734.185120	2432.076660	1872.948730	67.069283
754.333374	730.172852	2420.188232	1879.041504	67.979774
754.650757	731.733215	2407.928467	1883.053833	68.686539
754.968262	730.024231	2402.206787	1887.512085	69.220177
755.285583	731.213074	2395.073730	1877.258179	68.878677
755.602905	735.225403	2390.244141	1865.146851	68.272423
755.920105	732.699158	2372.188721	1854.224243	68.406975
756.237305	732.699036	2374.120361	1846.051147	67.828537
756.554443	728.463867	2372.782959	1842.336060	67.740631
756.871582	733.887939	2378.727295	1845.159546	67.561104
757.188599	733.962219	2371.817139	1847.685913	67.998917
757.505615	729.727051	2372.857422	1858.533813	68.698555
757.822510	730.470032	2384.894287	1864.106812	68.521523
758.139465	732.476257	2397.005615	1872.354126	68.480499
758.456238	734.408142	2413.798096	1881.419312	68.299278
758.773010	732.550537	2424.423584	1897.171387	68.836182
759.089783	726.309082	2435.791992	1895.462402	68.392220
759.406433	731.956055	2446.788574	1915.449829	69.015121
759.723145	733.590820	2451.841064	1911.437500	68.549194
760.039673	737.380188	2467.593262	1924.291870	68.599159
760.356201	735.745544	2462.912109	1910.768677	68.031845
760.672668	730.247131	2462.020752	1919.016235	68.644592
760.989136	725.789001	2450.726563	1926.223755	69.592949
761.305481	723.708496	2456.225098	1924.143188	69.288498
761.621826	730.544373	2465.512939	1916.564453	68.359741
761.938049	732.847839	2473.388916	1912.106323	67.752411
762.254333	738.940613	2492.781738	1934.991577	68.196091
762.570496	732.922058	2540.781494	1969.393677	68.394241
762.886597	734.556641	2624.594971	2033.516968	68.726669
763.202637	729.281250	2748.309326	2116.290039	68.696854
763.518677	730.024231	2892.084717	2221.874268	69.001312
763.834656	724.080078	3052.281494	2312.746338	68.235771
764.150574	727.423645	3179.785156	2392.547607	67.898796
764.466370	729.875671	3250.001221	2443.370361	67.992432
764.782288	739.534973	3262.260986	2455.853516	68.034286
765.097961	744.587585	3231.796875	2446.937256	68.444168
765.413696	747.113831	3186.843750	2401.687012	67.817886
765.729309	737.528809	3077.916016	2350.269775	68.909149
766.044861	730.767273	2943.874023	2266.827637	69.407425
766.360474	726.754944	2796.754639	2180.413330	70.225052
766.675903	734.482422	2682.625244	2087.609375	69.457275
766.991394	742.507141	2588.335205	2014.272461	68.899445
767.306763	742.804382	2504.150146	1960.700195	69.145752
767.622131	741.615479	2427.544189	1921.839844	70.004402
767.937378	734.036621	2365.798584	1870.273804	69.632530
768.252625	733.516418	2311.928955	1819.970703	68.832085
768.567810	730.321350	2264.746826	1772.714355	67.933769
768.882996	730.247070	2220.685547	1755.178833	68.767128
769.197998	729.875671	2181.379639	1733.408203	69.137436
769.513062	731.881836	2151.583984	1712.826294	69.095085
769.828064	729.875671	2125.057861	1679.835938	68.088623
770.142944	733.070618	2109.454346	1657.025024	67.129128
770.457825	736.488586	2091.324463	1642.461548	66.869568
770.772705	734.705261	2066.730225	1634.585571	67.557320
771.087402	731.361633	2040.649902	1621.582520	67.992729
771.402100	727.423645	2010.260132	1605.458862	68.444832
771.716736	729.801331	1985.442993	1584.505493	68.069115
772.031372	729.949951	1963.672241	1577.966797	68.736443
772.345947	731.361633	1965.604126	1573.137085	68.201790
772.660461	725.045898	1960.180054	1563.254883	67.863800
772.974854	727.795166	1944.427734	1543.639038	67.057541
773.289246	727.795166	1927.412598	1526.995117	66.621239
773.603638	729.652649	1910.099976	1516.295532	66.639389
773.917908	729.206848	1905.270508	1513.397827	66.679291
774.232178	736.042786	1887.363281	1508.196655	67.066803
774.546265	738.123230	1883.499634	1496.159546	66.182281
774.860474	738.123230	1865.072632	1481.373413	65.952400
775.174561	728.835449	1852.069702	1472.085571	66.170532
775.488586	735.151184	1836.317505	1481.373535	67.766548
775.802551	732.996338	1823.983276	1480.630493	68.528244
776.116516	731.436035	1807.413696	1468.221802	68.475937
776.430359	724.600098	1793.147583	1450.686401	67.950775
776.744202	726.383484	1788.243652	1441.621460	67.357079
777.057922	734.705322	1773.605957	1436.420288	67.543991
777.371704	737.454529	1773.828735	1435.677246	67.371674
777.685303	736.637207	1761.420288	1431.070435	67.763924
777.998962	732.476257	1769.965210	1429.733032	67.206184
778.312500	738.494690	1767.810181	1419.776367	66.187843
778.626038	741.541077	1765.284058	1418.884766	66.163452
778.939453	734.853821	1767.810547	1423.491577	66.666656
779.252869	728.240967	1767.438843	1421.262329	66.688103
779.566223	730.618652	1768.256226	1417.175781	66.165405
779.879578	738.643372	1756.664917	1412.048950	66.148460
780.192749	736.934387	1746.931274	1412.271973	66.865311
780.505920	734.853943	1735.265625	1411.380249	67.624794
780.819031	739.757813	1729.247070	1411.528809	67.890678
781.132141	744.513184	1722.336914	1409.894165	68.047127
781.445190	738.791992	1717.061523	1409.597046	68.570580
781.758118	734.036621	1710.374390	1395.256470	67.724495
782.071045	730.470032	1703.315552	1386.042969	67.387154
782.383911	734.408142	1694.919434	1371.702515	66.349495
782.696838	727.497986	1676.715210	1357.213501	66.340508
783.009583	727.275085	1658.882446	1360.779907	68.001266
783.322266	718.135742	1645.508179	1354.464233	68.616280
783.634888	725.789001	1642.684570	1353.795532	68.492699
783.947510	731.213074	1628.567017	1335.517090	67.342880
784.260132	735.151123	1621.062500	1328.681274	66.996559
784.572571	730.915833	1610.882935	1326.155029	67.643349
784.885010	723.114075	1610.214355	1321.696899	67.476341
785.197449	724.080078	1617.793335	1316.718628	66.311935
785.509766	721.702332	1611.923218	1313.300537	66.455215
785.822083	726.903564	1607.242188	1309.139526	66.137726
786.134277	731.956116	1586.808960	1304.235596	66.944794
786.446533	742.730042	1589.483887	1299.926147	65.803787
786.758606	742.878601	1580.864746	1295.244995	65.915932
787.070740	740.946777	1582.127930	1294.502075	65.806908
787.382690	732.847717	1583.019531	1293.164551	65.906303
787.694641	728.984070	1609.991211	1303.938354	65.261024
788.006653	725.640381	1644.244995	1325.263306	65.275406
788.318481	730.098572	1669.953735	1350.303345	65.989395
788.630310	732.104736	1692.690308	1368.581909	66.259293
788.942017	731.658875	1696.256836	1380.841797	67.300880
789.253784	729.504150	1709.185547	1386.860352	67.098976
789.565430	736.414246	1702.869751	1399.491821	68.609222
789.877014	739.534973	1696.479614	1387.528931	67.714882
790.188538	731.361755	1680.207397	1381.510376	68.519958
790.500061	730.767273	1663.266235	1357.064819	67.163353
790.811462	730.693054	1644.987915	1353.944214	68.167412
791.122925	739.683594	1622.548462	1339.603638	67.951515
791.434204	737.528809	1600.554810	1330.687378	68.730095
791.745483	736.860107	1586.957520	1308.470825	67.240616
792.056702	740.352295	1568.604614	1291.678345	66.564987
792.367920	736.785828	1561.843140	1282.687866	66.165344
792.678955	738.197510	1538.214844	1275.331909	67.140343
792.990112	733.739319	1534.202637	1278.972778	68.114731
793.301086	736.637146	1515.775513	1265.449585	67.871445
793.612122	741.392578	1513.100586	1257.053345	66.820709
793.922974	745.107605	1495.342285	1233.350952	65.078751
794.233826	745.850647	1491.404175	1230.453003	64.999001
794.544556	742.432800	1492.667358	1235.802856	65.762108
794.855286	738.048828	1499.354614	1244.719238	66.552811
795.166016	743.324402	1502.475220	1248.657227	66.565536
795.476624	739.386414	1511.020142	1248.954468	66.037560
795.787292	741.392578	1525.063354	1255.641602	65.620544
796.097778	729.504089	1545.942383	1270.725220	66.290512
796.408264	725.937561	1564.443726	1279.270020	65.990265
796.718689	725.789001	1564.220825	1276.892212	65.730232
797.029053	723.114075	1565.484009	1274.737549	65.484703
797.339355	733.888000	1550.474976	1277.263794	66.542305
797.649658	736.340027	1550.177612	1276.966675	66.429306
797.959839	741.615417	1538.437866	1271.393921	66.486389
798.270020	739.534973	1535.168579	1263.889282	65.903992
798.580078	732.327637	1531.676270	1264.929565	66.629494
798.890137	735.522644	1521.050903	1255.344604	66.174828
799.200195	729.652832	1506.487671	1241.969971	65.949303
799.510071	743.398743	1482.190552	1232.087769	66.147057
799.820007	734.928223	1475.429199	1230.824585	66.967682
800.129883	736.042786	1474.091675	1231.939087	67.190170
800.439575	727.275085	1475.651978	1227.852539	66.888420
800.749329	731.733154	1465.175415	1219.753540	66.538353
801.058960	737.974609	1444.296265	1215.220947	67.567848
801.368591	736.117004	1443.999023	1212.100220	67.240471
801.678162	734.631042	1431.962036	1205.413086	67.511993
801.987671	728.315247	1437.014648	1193.227417	65.600754
802.297119	722.445313	1425.126343	1185.128418	65.845398
802.606506	716.129578	1417.844727	1176.137817	65.554840
802.915894	720.141907	1408.185181	1181.487671	67.051849
803.225159	731.361633	1393.398926	1177.623901	67.407425
803.534424	736.785828	1392.878906	1185.425659	68.380516
803.843628	731.064453	1385.671387	1172.868530	67.491508
804.152771	724.600098	1383.293579	1172.051270	67.930107
804.461792	727.126465	1378.909790	1171.382446	68.160072
804.770874	732.476257	1385.299927	1183.122314	69.030289
805.079773	738.569092	1395.850952	1187.729004	68.335968
805.388733	739.832214	1417.621582	1191.146851	66.586266
805.697571	741.392578	1430.624634	1188.472046	64.866318
806.006470	735.596924	1436.346069	1197.239746	65.878471
806.315125	733.665039	1436.048828	1193.821777	65.513573
806.623901	723.262695	1430.773071	1202.292236	67.706360
806.932495	724.228577	1429.212891	1201.177612	67.653854
807.241150	719.770447	1427.429565	1205.190063	68.595116
807.549622	724.748718	1429.064331	1204.224121	68.076782
807.858154	721.999512	1426.092163	1206.304810	68.784317
808.166565	724.525818	1426.760864	1201.177979	67.876442
808.474915	725.268799	1417.324585	1195.679443	67.972939
808.783264	726.309082	1403.355469	1186.020020	67.899475
809.091492	732.104675	1381.733398	1169.598999	67.345284
809.399719	730.767273	1369.176270	1159.270996	67.120567
809.707825	729.801331	1367.095703	1156.893311	67.016434
810.015930	730.172852	1365.312500	1161.277222	67.875526
810.323975	730.841553	1363.157837	1158.453735	67.626312
810.632080	734.482422	1356.619141	1148.645752	66.571114
810.939880	729.504089	1344.433472	1146.268066	67.774284
811.247864	729.355469	1336.631714	1136.311401	67.013313
811.555664	727.795105	1326.823730	1123.902954	66.125031
811.863464	734.482422	1324.891724	1116.918579	64.774750
812.171143	735.448303	1315.009521	1118.924683	66.166672
812.478882	738.791992	1316.941528	1121.971069	66.276810
812.786438	734.036621	1310.848633	1120.336426	66.971527
813.094055	737.083008	1313.597900	1117.067017	65.910530
813.401489	733.145020	1309.065430	1111.642944	65.720528
813.708984	735.522644	1303.938477	1098.714233	63.895405
814.016357	740.723816	1297.028320	1091.506958	63.055958
814.323730	744.661865	1303.418335	1088.757690	61.582432
814.630981	749.714417	1303.046875	1093.215820	62.078667
814.938232	745.776367	1295.542236	1088.534790	62.346252
815.245361	739.014832	1287.814697	1082.293335	62.550762
815.552490	734.036621	1289.746582	1089.500732	63.965763
815.859619	732.550537	1294.799194	1100.869141	65.508133
816.166565	738.049011	1295.988037	1107.259155	66.173920
816.473572	730.470032	1299.182983	1105.253052	65.900208
816.780457	726.457703	1302.452271	1101.463501	65.105789
817.087341	718.061523	1309.362427	1108.225098	65.983932
817.394043	723.114075	1318.353149	1113.723389	65.622253
817.700806	726.011902	1326.229370	1123.159912	66.167351
818.007507	729.801270	1323.405762	1124.200195	66.441368
818.314209	725.268860	1324.891724	1123.902954	66.480804
818.620667	718.507324	1340.941162	1125.760498	65.429153
818.927246	724.228577	1362.191772	1137.871826	64.838104
819.233704	732.179016	1378.909790	1154.144165	65.245872
819.540161	740.129395	1402.315308	1168.113037	64.631943
819.846497	742.878601	1432.184937	1201.029175	66.465454
820.152832	743.175781	1482.487915	1236.025757	66.663315
820.458984	740.575195	1541.261353	1288.632080	68.448402
820.765259	737.008728	1617.347290	1329.721558	67.327827
821.071350	727.572266	1719.364868	1394.513306	67.246017
821.377502	727.869446	1881.790649	1495.788086	66.548622
821.683472	731.807434	2198.617432	1695.885254	65.726151
821.989441	738.643372	2746.451416	2037.083374	64.669525
822.295349	735.374023	3469.714111	2506.750977	64.782616
822.601196	725.566101	4281.025391	3030.510742	64.828323
822.907043	723.262695	4961.266602	3476.030029	64.954338
823.212769	724.525879	5378.328125	3745.897461	64.922646
823.518494	726.977844	5410.203613	3795.160156	65.514297
823.824097	725.863281	5149.326660	3651.978760	66.149872
824.129700	724.674500	4765.256348	3406.408203	66.369987
824.435242	734.556641	4363.798828	3125.915283	65.891403
824.740723	737.603088	4010.563477	2889.187256	65.738167
825.046082	743.324402	3684.894531	2683.665527	65.962769
825.351501	737.305908	3380.328125	2487.729492	66.228104
825.656799	739.832214	3066.175781	2286.963623	66.504852
825.962036	735.225342	2782.636719	2088.278076	66.086021
826.267212	730.915833	2566.044434	1942.421753	66.017487
826.572449	732.996277	2455.407715	1851.252319	64.923866
826.877502	742.135498	2460.608887	1849.692017	64.450027
827.182495	742.581299	2564.335449	1918.644897	64.556656
827.487488	743.547302	2710.860596	2020.291016	64.897835
827.792419	737.900391	2828.630127	2100.835205	65.189430
828.097290	740.129395	2858.425781	2114.358398	64.874252
828.402100	735.299744	2799.503174	2066.953125	64.511734
828.706848	737.231628	2651.715576	1966.792969	64.224167
829.011597	737.008728	2467.816162	1855.933228	64.647552
829.316223	741.392578	2291.273193	1747.674316	64.926407
829.620789	739.609314	2141.181641	1660.963013	65.737152
829.925354	743.027161	2024.303345	1581.830688	65.466255
830.229797	739.089111	1907.127930	1513.026367	66.259552
830.534302	740.872498	1794.410767	1436.866089	66.062485
830.838562	735.894104	1671.514038	1366.649902	67.415817
831.142944	737.603088	1562.883423	1282.242065	65.994423
831.447144	739.312012	1474.389038	1232.087769	67.037292
831.751404	743.101501	1425.423462	1181.116089	64.194710
832.055542	736.265625	1402.092285	1170.565063	65.227104
832.359619	730.172852	1381.139038	1147.605469	64.125084
832.663635	724.971680	1382.253540	1151.246338	64.854164
832.967651	728.166687	1405.361694	1169.153320	65.119591
833.271545	728.984070	1483.156616	1219.010498	64.975372
833.575439	726.234863	1592.455933	1286.923218	64.728088
833.879211	724.228699	1733.779663	1374.526001	64.414513
834.183044	728.909668	1872.799927	1468.519043	64.657372
834.486694	734.110901	1974.000366	1532.567993	64.397446
834.790344	735.151123	2003.498657	1551.292358	64.346817
835.093933	730.915833	1976.452515	1520.456543	63.389603
835.397522	724.228699	1912.626465	1494.673462	64.830551
835.700928	727.200867	1840.181274	1451.652344	65.091125
836.004395	723.559998	1768.182007	1415.912598	66.277809
836.307739	729.652771	1693.359009	1369.844849	66.430206
836.611023	731.658936	1624.851929	1328.012573	66.766495
836.914307	733.367859	1552.629517	1278.601196	66.551796
837.217529	733.888000	1487.317505	1231.121704	65.996048
837.520691	730.395691	1414.129272	1183.419434	66.257347
837.823730	729.652649	1347.925659	1140.992554	66.530464
838.126831	727.349365	1298.885864	1103.098145	65.743622
838.429749	731.733215	1264.409302	1068.547363	63.230576
838.732727	735.894104	1234.391113	1047.148315	62.438530
839.035522	738.197571	1208.756592	1027.606689	61.503258
839.338379	733.813660	1194.416260	1022.182556	62.606876
839.641113	736.637207	1195.679321	1024.708862	62.754951
839.943848	737.454529	1208.310791	1043.061646	64.904549
840.246460	735.596924	1236.768677	1058.368042	64.403297
840.549072	733.293518	1266.341309	1071.742432	63.493164
840.851563	729.801331	1278.824097	1072.634155	62.444191
841.154053	730.990234	1278.601196	1075.754761	62.957932
841.456482	734.779602	1271.170898	1074.343140	63.305191
841.758850	734.408020	1261.362915	1064.460815	62.633976
842.061157	732.179016	1235.208496	1051.978027	63.574608
842.363403	725.566101	1200.731934	1032.659180	64.628609
842.665588	731.881836	1178.143921	1018.170227	64.152527
842.967712	737.305908	1165.512329	1008.956726	63.439220
843.269775	742.135559	1155.481567	1003.532532	63.239265
843.571777	734.631042	1124.051636	996.993896	67.372620
843.873840	733.293518	1099.234375	978.343933	66.964485
844.175659	729.132629	1076.646484	963.483398	67.436378
844.477600	734.928223	1064.757935	950.554688	65.375092
844.779297	732.253357	1050.343262	945.725098	67.110504
845.081116	730.024231	1039.420776	932.350586	65.393860
845.382751	730.321472	1037.711792	924.474426	63.161701
845.684387	728.612488	1038.454956	916.449707	60.623459
845.985962	728.463867	1024.783081	918.158691	64.017052
846.287537	731.361755	1016.238342	915.929626	64.788712
846.588989	737.751709	1002.417969	914.072083	66.619888
846.890381	741.095398	996.548035	907.236328	65.037857
847.191711	737.305908	991.049622	894.753418	62.049816
847.493042	733.516418	987.929016	889.477844	61.302555
847.794250	740.352356	994.690613	885.985657	57.259693
848.095459	734.556702	991.049622	891.409729	61.152966
848.396606	727.795166	986.740173	892.524231	63.615463
848.697693	725.417480	983.396484	896.685242	66.388252
848.998657	729.355469	976.337708	899.434387	68.862816
849.299622	740.426575	972.622620	892.970154	65.696030
849.600464	735.968506	960.065430	889.552185	68.534485
849.901367	729.875671	957.093445	876.029114	64.323067
850.202087	723.857117	958.133606	879.001221	66.222649
850.502808	723.634216	969.130371	879.372742	63.438274
850.803467	727.052063	974.628723	888.586182	65.246101
851.104065	732.179016	976.932129	892.970032	65.695190
851.404663	726.754883	971.582336	892.301453	67.617653
851.705139	729.281250	965.266602	885.168396	66.057976
852.005615	731.287415	967.049805	882.864990	64.292519
852.306030	733.145020	967.272766	880.635925	62.995911
852.606384	731.807556	975.817688	881.973328	61.540794
852.906616	723.188416	973.588562	871.645203	59.287819
853.206909	729.132629	976.709290	865.403809	55.042015
853.506958	729.578430	966.975586	871.719482	59.874790
853.807129	738.569031	955.607361	873.874268	62.341633
854.107178	731.510254	953.229675	880.190002	67.057610
854.407166	734.185242	951.223450	883.756592	68.914757
854.707092	721.405090	954.046936	890.741028	72.788254
855.007019	724.600159	951.297668	883.236511	69.977104
855.306763	728.241028	952.115051	866.072449	61.566509
855.606567	733.888000	944.536316	855.372864	57.671890
855.906250	735.076843	938.666321	856.413147	59.598515
856.205933	728.983948	941.415466	861.242859	62.259552
856.505493	732.253357	949.885986	863.174744	60.157059
856.805054	732.179016	957.687805	868.227234	60.329453
857.104492	729.652771	957.539246	874.171570	63.417015
857.403931	720.810730	957.390625	873.725769	64.635689
857.703308	719.176025	959.248230	869.341797	62.550255
858.002563	726.383362	956.201660	865.329407	60.459087
858.301819	734.928223	953.898254	874.617371	63.793728
858.601013	742.135559	944.833313	881.601746	68.805000
858.900208	738.717590	949.663086	878.406738	66.220497
859.199219	741.987000	948.251282	879.595642	66.714722
859.498291	735.596924	953.601257	867.558594	60.531673
859.797302	735.671204	948.399902	867.409973	61.928066
860.096191	731.510315	952.189453	862.283142	59.259262
860.395020	727.869446	940.821106	860.797058	62.421497
860.693787	725.194519	933.242188	858.196472	63.928596
860.992554	724.080078	925.217468	858.345032	66.752853
861.291260	722.222473	926.480652	861.688660	68.279366
861.589844	719.696106	932.350525	871.942383	71.593285
861.888428	720.736328	937.700256	865.255188	66.609627
862.186890	728.463867	947.879822	871.348083	65.120247
862.485413	734.928223	952.560852	868.598816	61.420292
862.783813	738.197510	949.068665	881.081726	67.759018
863.082153	742.655762	948.474304	876.103455	64.837547
863.380371	736.117004	950.034668	880.264404	67.384521
863.678589	730.321472	953.081055	873.428528	64.242828
863.976746	725.640381	948.102722	877.440918	68.236511
864.274902	724.080078	946.467957	872.536865	66.755791
864.572937	729.206970	948.697083	866.815491	62.694633
864.870911	727.943665	955.161438	868.375916	61.805134
865.168884	732.996338	953.303955	864.363586	59.629009
865.466736	731.807434	952.338074	872.908386	63.982471
865.764587	730.915833	946.690979	868.375916	63.705242
866.062317	731.658875	952.635254	869.044617	62.172138
866.360107	729.058289	944.090393	860.053955	60.919121
866.657715	727.943787	942.901550	857.156250	60.110630
866.955322	722.668274	936.139954	854.035461	61.538460
867.252808	726.011902	944.610535	859.608215	61.114891
867.550293	726.829163	943.124451	863.843445	63.345940
867.847717	734.408020	943.421692	862.208801	61.144699
868.145081	739.906433	937.031555	859.831055	60.836803
868.442383	751.274841	940.523865	863.471924	59.285423
868.739624	753.429626	932.573425	872.611145	66.528412
869.036804	752.612305	938.294739	873.354248	65.026047
869.333984	745.850769	939.632263	871.199463	64.685585
869.631042	744.067444	944.833435	865.106628	60.288689
869.928101	735.002502	950.034607	860.574158	58.396702
870.224976	726.606262	953.378235	860.276917	58.944962
870.521851	730.915833	950.257507	865.998230	61.585377
870.818726	737.454529	948.771484	870.679199	63.044952
871.115479	748.302734	948.028503	869.193176	60.528214
871.412231	741.020996	955.533020	865.255188	57.914791
871.708862	739.609314	951.966492	871.942383	62.316269
872.005493	732.401917	950.108887	872.239685	64.232101
872.302063	739.460693	954.789978	874.022888	62.491360
872.598572	733.293518	951.669250	871.570984	63.320892
872.895020	731.510254	951.966492	878.555359	66.700363
873.191406	726.086182	949.960266	884.425293	70.726860
873.487671	729.578430	964.003418	881.453125	64.786049
873.783997	733.219238	969.278992	881.081726	62.637737
874.080200	735.002502	967.644348	886.357178	65.059090
874.376343	734.110840	958.950989	890.146667	69.398560
874.672424	737.157288	961.031433	886.580078	66.744102
874.968445	734.185242	972.399719	874.543030	58.920765
875.264465	733.293518	975.297546	875.657532	58.827126
875.560364	733.516418	962.368896	873.874329	61.331173
875.856201	736.711487	953.303955	873.205566	63.018848
876.152039	742.284180	960.288330	872.536926	59.747829
876.447754	737.825989	969.278992	876.846436	60.064224
876.743469	730.321472	967.124207	887.620361	66.426132
877.039063	725.491760	963.260437	882.567688	66.062500
877.334595	727.052185	966.975586	883.905212	65.376297
877.630127	730.395752	972.473938	871.719482	58.379375
877.925537	732.030457	970.542175	875.657532	60.218037
878.221008	734.705261	971.507996	871.645203	57.828701
878.516296	731.658875	975.074524	885.019775	63.003716
878.811646	725.788879	989.117859	886.208557	60.919872
879.106812	722.148132	993.798889	897.576843	64.578766
879.401978	726.903503	1008.362244	903.000916	62.565979
879.697083	730.098572	1024.783203	924.771545	66.061462
879.992126	733.590759	1060.597046	939.632141	63.008385
880.287109	729.652771	1101.240723	963.037598	62.807426
880.582031	727.349304	1166.329834	999.520203	62.000675
880.876892	724.748718	1280.087402	1080.435913	64.048698
881.171753	724.822937	1495.862427	1215.518188	63.640743
881.466492	732.550476	1816.701538	1412.717651	62.737305
881.761230	727.720886	2192.598877	1651.378052	63.053524
882.055786	735.596924	2543.084961	1884.242798	63.549294
882.350403	733.516418	2783.677002	2046.222656	64.029434
882.644958	736.191345	2888.369873	2103.287109	63.521484
882.939453	731.881836	2857.533936	2084.785400	63.646519
883.233826	728.315247	2753.287354	2007.139526	63.152679
883.528137	723.708496	2607.728271	1932.762329	64.174156
883.822449	722.816895	2480.447754	1845.531128	63.876564
884.116577	725.640381	2361.117920	1771.971191	63.977081
884.410828	730.172852	2243.644775	1691.427124	63.513187
884.704956	740.426575	2093.033447	1600.926392	63.617878
884.999023	736.340027	1910.545898	1495.267944	64.633293
885.292969	738.717712	1722.857056	1370.736694	64.220474
885.586914	730.247131	1549.657593	1256.384644	64.209274
885.880798	738.494812	1421.336792	1177.400757	64.276360
886.174622	743.770203	1329.275513	1118.998901	64.086304
886.468384	742.135559	1265.003784	1088.014526	66.150314
886.762085	735.448303	1214.329346	1052.720825	66.252892
887.055664	729.578430	1172.942871	1027.606567	67.219673
887.349304	730.024231	1139.952515	999.743164	65.796616
887.642822	734.408142	1105.698853	982.653564	66.860123
887.936340	737.231628	1086.231567	968.387390	66.233757
888.229736	733.219299	1072.708374	955.235779	65.397240
888.523071	728.538269	1063.569214	940.672363	63.317760
888.816284	731.510254	1042.318481	928.041016	63.232162
889.109619	733.219238	1027.681030	921.130859	63.815281
889.402710	729.429871	1014.380676	914.592102	64.980423
889.695862	724.823059	1008.362244	907.979187	64.596405
889.988892	725.788879	994.170410	900.994812	65.282410
890.281921	726.457642	979.458496	902.332336	69.515457
>>>>>End Processed Spectral Data<<<<<
