Jaz Data File
++++++++++++++++++++++++++++++++++++
Date: Fri Jun 04 16:18:34 2021
User: jaz
Dark Spectrum Present: Yes
Reference Spectrum Present: Yes
Processed Spectrum Present: Yes
Spectrometers: JAZA3586
Integration Time (usec): 40000 (JAZA3586)
Spectra Averaged: 10 (JAZA3586)
Boxcar Smoothing: 1 (JAZA3586)
Correct for Electrical Dark: No (JAZA3586)
Strobe/Lamp Enabled: Yes (JAZA3586)
Correct for Detector Non-linearity: No (JAZA3586)
Correct for Stray Light: No (JAZA3586)
Number of Pixels in Processed Spectrum: 2048
>>>>>Begin Processed Spectral Data<<<<<
W	D	R	S	P
191.335022	0.000000	0.000000	0.000000	0.000000
191.713211	302.709259	311.922791	302.634979	-0.806203
192.091385	614.260559	623.697021	614.632141	3.937726
192.469528	925.737549	936.511475	927.149414	13.104465
192.847641	941.043945	939.334961	938.146179	169.560715
193.225739	943.644531	952.486572	943.941711	3.360991
193.603790	944.016113	964.152100	953.675354	47.970039
193.981842	948.622864	970.021973	963.557617	69.791473
194.359863	958.876648	966.455505	961.625793	36.273880
194.737854	973.662903	971.953857	959.099426	852.140991
195.115829	975.297607	974.554504	969.055969	839.942505
195.493774	979.532715	978.195313	981.093079	-116.671234
195.871704	981.613220	970.690735	980.350098	11.564425
196.249603	985.922791	974.554504	968.907471	149.673569
196.627457	980.721680	972.399658	969.056091	140.177338
197.005310	977.675293	975.000305	970.467834	269.438934
197.383133	973.142761	974.108704	969.427551	-384.620239
197.760910	981.613220	970.913757	967.272766	134.029663
198.138687	975.669006	967.867249	967.347107	106.666977
198.516449	972.771179	966.158203	967.867188	74.157104
198.894180	962.220215	971.582336	963.111816	9.523499
199.271866	966.083984	966.381104	963.929199	-725.225952
199.649536	964.152161	962.591736	960.362610	242.853790
200.027191	959.545410	962.071594	961.625793	82.352798
200.404816	956.053040	967.272888	962.740417	59.603104
200.782410	950.777649	981.687683	975.520508	80.047981
201.159988	955.755920	997.811279	986.294373	72.614891
201.537537	953.303955	1012.523193	988.003235	58.594608
201.915070	964.523621	1007.321960	984.585388	46.875107
202.292557	958.282227	998.182678	975.891907	44.134037
202.670029	960.659912	993.501648	973.811462	40.045235
203.047485	948.771484	991.049622	971.805359	54.481762
203.424911	953.303955	989.563660	974.851746	59.426273
203.802292	955.904541	989.340637	974.926025	56.889072
204.179688	961.254333	992.015625	977.080750	51.449127
204.557037	959.768250	994.764832	977.600891	50.955379
204.934357	958.653748	996.176575	982.356262	63.168255
205.311661	961.848694	999.074402	981.836121	53.692535
205.688934	962.294617	996.993958	977.898132	44.967758
206.066177	960.362732	998.405701	984.213867	62.695251
206.443390	955.681641	1001.600647	981.093201	55.339962
206.820587	951.743591	1001.600647	983.025085	62.742363
207.197769	950.331848	991.272644	974.405945	58.802219
207.574921	950.480286	994.319031	973.885742	53.389889
207.952042	943.793152	992.387024	972.994080	60.091789
208.329147	939.112061	993.353027	977.229309	70.273911
208.706223	954.492676	992.535706	988.374817	89.062675
209.083267	968.535889	993.724609	989.192139	82.005951
209.460297	972.102356	994.021790	984.956848	58.644272
209.837280	954.715576	986.740051	970.542175	49.420322
210.214264	943.644531	987.334473	967.124207	53.741604
210.591217	945.204895	989.563660	962.963196	40.033352
210.968124	945.873596	985.402649	973.588562	70.112900
211.345016	956.870422	987.260254	972.399719	51.100307
211.721893	954.938660	991.495605	972.696838	48.576756
212.098724	953.824036	997.439758	967.792908	32.027149
212.475555	952.560852	995.210632	967.049866	33.972073
212.852356	950.480408	987.928955	972.548340	58.928673
213.229126	952.858093	983.990906	979.607117	85.919075
213.605865	942.678528	983.247864	986.814453	108.791344
213.982590	943.124451	986.219971	986.814453	101.379456
214.359283	946.319519	983.247864	976.189148	80.885368
214.735931	942.381409	982.727783	973.885742	78.084671
215.112579	937.700378	985.105469	970.393494	68.965408
215.489197	934.876770	988.895020	966.826965	59.147038
215.865799	950.108887	995.507813	967.792969	38.952644
216.242355	955.755859	994.913391	963.334778	19.354944
216.618896	955.012878	990.455261	968.684570	38.574413
216.995407	939.557922	978.715393	960.065430	52.371891
217.371902	937.105957	977.898132	968.610291	77.231316
217.748367	939.409363	982.579163	966.826965	63.511070
218.124802	948.622864	984.511047	966.901306	50.931644
218.501236	951.966492	989.637939	962.888977	28.994068
218.877609	951.297852	990.009460	962.888916	29.942089
219.253983	951.817932	995.804993	969.427551	40.033634
219.630295	947.285339	992.387146	969.055969	48.269974
220.006592	949.068604	994.839111	966.529724	38.149284
220.382889	951.743591	992.164246	969.576172	44.117496
220.759140	955.087158	987.706116	970.021973	45.785690
221.135391	945.427795	989.712219	973.142761	62.584003
221.511581	942.158447	992.015625	969.056091	53.949390
221.887772	938.889160	997.216797	967.867249	49.681576
222.263931	945.873718	998.108459	968.090149	42.531906
222.640060	939.780823	1005.538757	968.610291	43.841808
223.016159	939.037842	1010.888489	971.656677	45.398109
223.392212	940.895447	1009.328125	972.994141	46.905506
223.768265	952.858093	1001.303467	966.158264	27.453955
224.144302	959.916809	992.758728	965.861084	18.099657
224.520294	958.802246	991.569824	967.644348	26.984301
224.896286	952.635193	994.467590	971.210876	44.405018
225.272217	952.040710	993.724609	971.879578	47.593597
225.648148	951.372009	997.439758	970.616516	41.774361
226.024048	950.926208	997.291199	973.588623	48.878292
226.399902	953.824036	999.817383	972.102539	39.741623
226.775772	953.303894	991.123962	966.975586	36.149303
227.151581	948.399902	991.346863	970.319275	51.038239
227.527374	942.158447	984.213806	971.433777	69.611412
227.903137	933.019226	987.185852	980.721619	88.066025
228.278870	942.530029	990.529541	978.195313	74.303429
228.654572	943.718811	999.074402	977.006531	60.134342
229.030273	953.972595	997.737000	974.777527	47.538479
229.405930	950.406067	990.232422	976.857910	66.417938
229.781555	946.542419	990.604004	972.771240	59.527637
230.157181	940.598145	997.142578	968.907471	50.065628
230.532761	937.328857	994.541992	964.969421	48.311569
230.908325	939.483643	988.895020	966.604004	54.886875
231.283859	943.124451	983.545166	965.117981	54.411533
231.659332	947.582581	991.495422	968.090149	46.700619
232.034821	944.387512	996.102234	971.285156	52.011581
232.410263	942.307129	995.656433	972.845520	57.242340
232.785690	948.028503	986.517151	969.576355	55.984955
233.161087	957.464844	984.213806	968.238770	40.277920
233.536469	955.978821	984.065247	973.217041	61.375629
233.911804	957.019104	987.111633	977.898010	69.382355
234.287140	958.579407	999.148682	976.114746	43.223202
234.662430	965.861084	1005.687256	971.953796	15.298263
235.037704	955.384338	1002.566650	970.319153	31.653418
235.412933	951.074768	990.901123	974.182922	58.022266
235.788162	940.449524	984.956848	977.303650	82.804634
236.163345	944.090393	994.096130	982.950684	77.711662
236.538513	943.495911	1003.978333	983.396484	65.970528
236.913635	949.737488	1009.551086	976.114807	44.099201
237.288742	943.718933	1006.281738	970.987976	43.586670
237.663834	935.396973	1004.869934	970.690735	50.802155
238.038879	934.728271	1003.532532	975.000305	58.531307
238.413910	935.025452	1013.266174	974.034363	49.857555
238.788910	941.861328	1008.956543	979.235535	55.703236
239.163879	935.248352	1011.185730	985.105469	65.655571
239.538834	939.260681	999.445862	981.761902	70.617416
239.913757	935.917053	1003.978333	974.554443	56.768532
240.288651	949.663086	1002.640930	958.653625	16.970377
240.663528	954.864258	1010.442688	962.591797	13.903846
241.038361	959.991150	1009.551086	965.415283	10.944592
241.413177	955.161438	1004.795715	981.167480	52.395329
241.787979	953.452454	1000.709167	981.984680	60.377087
242.162735	954.789856	996.845398	982.504883	65.901009
242.537476	952.932373	1002.417969	975.074524	44.744640
242.912170	953.601074	1010.888489	975.297546	37.873016
243.286865	954.195557	1017.352783	979.309814	39.764664
243.661514	955.755859	1018.393066	984.288086	45.551563
244.036148	951.594910	1016.758484	983.545105	49.030758
244.410751	952.560852	1018.838928	977.675110	37.892254
244.785339	947.805481	1021.885315	973.142639	34.202503
245.159882	951.669250	1014.529297	982.281921	48.699726
245.534378	944.684875	1009.179504	973.885803	45.276527
245.908890	950.183167	1006.058838	973.291443	41.356598
246.283356	946.913879	1007.842102	961.625793	24.146305
246.657791	945.650696	1010.591309	964.969482	29.748390
247.032196	938.740540	1018.170105	969.724854	39.008541
247.406586	931.013123	1030.132935	974.034363	43.403271
247.780960	936.139954	1043.581665	977.006531	38.036045
248.155289	939.929382	1048.634277	971.953857	29.460012
248.529602	944.090332	1046.405151	969.947693	25.272352
248.903870	940.895325	1037.711792	966.232605	26.170424
249.278122	938.146179	1027.755249	972.028137	37.810860
249.652344	946.096497	1018.467468	970.021973	33.059494
250.026550	953.675476	1008.882385	967.718567	25.437199
250.400711	960.139709	1010.591309	967.198547	13.991306
250.774857	949.068665	1017.947266	972.845520	34.519947
251.148987	933.465088	1023.371399	989.712219	62.561939
251.523071	925.737610	1020.919434	983.619446	60.811859
251.897125	937.626038	1020.845032	977.155090	47.500038
252.271164	945.650696	1019.284668	966.529785	28.355240
252.645187	950.703308	1023.222839	968.684570	24.795061
253.019165	939.632263	1026.120605	970.765076	35.996544
253.393112	942.678650	1034.814087	973.439941	33.387035
253.767044	951.223450	1036.968750	973.217102	25.649981
254.140930	957.093445	1030.950317	982.504883	34.406330
254.514801	951.297791	1028.646851	985.551270	44.284286
254.888657	942.158508	1032.510620	988.449036	51.233475
255.262466	941.564148	1041.129761	985.922791	44.552170
255.636276	942.009827	1040.832520	981.241760	39.699318
256.010010	945.204895	1040.758179	979.755676	36.158653
256.383759	944.238953	1037.043091	974.182922	32.265770
256.757446	952.337891	1043.730347	977.080811	27.073263
257.131134	948.325623	1045.142090	985.477051	38.373047
257.504791	948.399902	1056.436035	983.247986	32.255951
257.878418	945.130615	1054.652832	977.749512	29.782904
258.252014	952.040710	1057.253418	975.446106	22.245789
258.625580	957.687805	1056.956177	970.319153	12.724443
258.999115	954.344177	1066.244141	975.223206	18.658655
259.372650	953.303894	1078.132446	974.628723	17.083294
259.746124	949.514465	1091.729858	980.721619	21.943583
260.119598	957.093323	1097.896973	978.492493	15.197880
260.493042	952.115051	1107.407715	975.966248	15.358869
260.866425	953.006653	1109.711182	979.012695	16.595591
261.239838	949.811707	1114.020752	980.870300	18.914059
261.613159	944.610535	1108.299438	983.322266	23.649576
261.986511	936.808777	1103.023926	980.127258	26.061693
262.359802	935.248352	1095.593628	977.675293	26.459738
262.733063	943.867493	1088.311890	975.966309	22.222265
263.106293	951.520691	1089.203613	981.464661	21.748499
263.479523	948.919983	1095.370605	981.018860	21.917883
263.852692	940.523743	1094.776245	972.919861	21.002005
264.225861	938.220398	1090.466797	970.839355	21.425110
264.598969	947.731140	1081.773438	971.879578	18.015535
264.972076	949.811707	1083.630981	969.724792	14.880581
265.345154	948.771484	1081.104614	968.758972	15.103918
265.718201	944.164734	1089.277954	969.130371	17.204247
266.091217	949.143005	1100.348999	974.628906	16.855087
266.464203	948.399963	1106.739136	974.405945	16.424225
266.837158	945.502136	1116.695557	976.486328	18.098938
267.210114	938.666260	1120.113525	975.223328	20.147490
267.583038	943.793152	1134.676758	975.297607	16.504538
267.955902	948.622803	1136.757324	978.566895	15.916320
268.328766	956.647461	1131.779053	986.888855	17.267813
268.701569	952.263611	1130.292969	987.557434	19.824720
269.074371	947.879700	1143.964722	981.538879	17.165606
269.447144	949.440186	1153.698364	977.972473	13.968737
269.819885	950.554749	1159.494019	977.080811	12.695584
270.192596	948.177063	1156.893433	981.316101	15.877546
270.565277	940.449524	1168.410278	980.275879	17.470707
270.937927	942.307129	1185.128418	978.938293	15.085648
271.310577	942.604309	1205.561646	977.749512	13.365363
271.683136	948.548523	1221.165161	982.727783	12.537481
272.055725	949.960266	1232.161987	986.368652	12.901546
272.428284	952.263672	1236.917480	987.854675	12.503259
272.800812	951.817871	1244.273315	992.684326	13.973566
273.173279	947.582703	1239.740845	989.786621	14.445573
273.545776	953.675476	1235.802856	990.529602	13.062939
273.918152	952.189453	1229.338501	985.997131	12.198375
274.290558	944.684814	1225.028931	987.037354	15.107340
274.662964	938.666321	1226.812134	984.065247	15.755539
275.035278	939.112122	1221.759644	979.755676	14.379590
275.407593	940.821045	1228.149658	977.452209	12.748875
275.779907	948.697205	1232.607910	985.179749	12.850006
276.152161	947.434021	1244.942017	984.436707	12.437543
276.524384	959.248108	1255.270142	983.916565	8.333318
276.896606	948.177063	1259.431152	982.653503	11.076622
277.268799	948.994324	1266.861450	987.557434	12.131833
277.640930	946.690918	1262.254517	989.043518	13.421256
278.013031	942.827148	1269.313354	981.687561	11.902620
278.385162	942.752869	1267.752930	979.161316	11.202597
278.757233	945.799316	1281.870483	984.288086	11.452565
279.129272	952.040771	1280.607300	985.774109	10.266821
279.501282	953.452454	1287.889038	983.247864	8.909136
279.873230	943.644531	1300.297729	973.811462	8.458338
280.245178	944.981995	1317.164429	976.857910	8.564594
280.617126	941.489746	1335.071289	980.721680	9.967930
280.988983	945.576416	1340.049683	987.037292	10.510440
281.360870	949.365906	1364.792358	984.585266	8.477881
281.732697	946.616699	1386.340210	980.424316	7.688381
282.104492	947.582703	1414.203735	982.950684	7.579594
282.476288	945.947937	1431.070435	981.241699	7.275227
282.848053	946.542297	1431.962036	991.198303	9.199462
283.219757	947.582520	1432.853638	984.288086	7.563930
283.591461	944.238953	1426.835083	988.597656	9.191683
283.963135	951.372009	1433.596680	985.328369	7.041605
284.334747	951.669189	1433.893921	984.511047	6.810488
284.706360	948.028381	1443.553223	986.814453	7.827271
285.077942	947.359680	1460.717163	984.882568	7.309309
285.449524	943.273132	1486.203125	991.495422	8.881862
285.821014	947.434021	1500.171875	987.483154	7.245593
286.192535	944.238953	1528.555664	985.625549	7.082905
286.563995	944.907715	1542.004395	979.755676	5.836235
286.935425	949.960266	1561.694702	975.520325	4.178293
287.306824	950.703308	1560.654297	979.235535	4.677790
287.678223	949.365906	1551.515015	976.857849	4.565637
288.049561	940.523865	1535.465820	979.904297	6.619206
288.420898	934.059570	1525.880737	976.635010	7.193970
288.792145	936.214294	1527.812500	982.579102	7.837212
289.163452	940.077942	1538.512207	978.641052	6.444001
289.534668	941.861267	1550.549194	973.068359	5.126945
289.905914	935.471252	1582.127808	976.560730	6.354142
290.277039	933.910889	1609.248413	987.706055	7.965671
290.648193	939.780823	1636.294434	1001.600769	8.875627
291.019318	945.873718	1641.569946	997.514099	7.422835
291.390381	950.108887	1657.990845	997.291077	6.665262
291.761475	951.743591	1652.864136	988.894836	5.298839
292.132507	954.418457	1653.458496	992.238464	5.410278
292.503510	957.390564	1632.876587	985.179749	4.113954
292.874481	956.721863	1629.161499	988.969238	4.795579
293.245422	957.687805	1626.560913	987.557434	4.465664
293.616364	952.189453	1642.907593	987.706116	5.141991
293.987213	954.567078	1657.025024	981.613342	3.850233
294.358093	941.935608	1692.690308	979.012756	4.938650
294.728943	944.684814	1731.104858	978.121094	4.251708
295.099731	941.043945	1775.017700	978.789795	4.526024
295.470490	947.433899	1808.602539	980.721619	3.865412
295.841248	939.780762	1822.497070	977.823730	4.309762
296.211975	939.855164	1834.905640	978.195251	4.283567
296.582642	943.198730	1861.654785	981.315979	4.150144
296.953308	946.839600	1899.697754	983.768005	3.875541
297.323883	950.703369	1949.629272	990.752441	4.009213
297.694519	953.601135	1959.585571	990.678223	3.685652
298.065063	954.195557	1963.598022	998.777161	4.416633
298.435608	946.988098	1941.455688	994.987732	4.826666
298.806122	939.483582	1913.815063	995.062012	5.704263
299.176575	938.369080	1872.205688	991.272644	5.665184
299.547028	936.288574	1846.274048	992.461426	6.172939
299.917450	940.821045	1821.456909	989.712341	5.551817
300.287872	943.495911	1814.100952	987.631775	5.069562
300.658234	949.440186	1806.819214	991.495544	4.905107
301.028564	955.904541	1813.432129	990.380920	4.020440
301.398865	950.703308	1820.639648	991.198303	4.654938
301.769135	945.502136	1812.466309	982.950684	4.319503
302.139374	942.901550	1813.580933	982.059082	4.497354
302.509583	942.307129	1814.249512	992.461426	5.752019
302.879791	951.743469	1815.661255	994.764832	4.979798
303.249939	952.189392	1817.147339	995.359314	4.990985
303.620087	951.817871	1814.843750	991.124023	4.554458
303.990173	943.570313	1811.500366	985.625549	4.845464
304.360260	938.517761	1808.676758	987.780334	5.661330
304.730286	946.022278	1810.608765	980.127136	3.944644
305.100281	949.960266	1819.599121	984.808289	4.007183
305.470276	947.433899	1824.503296	982.281921	3.973234
305.840179	944.981934	1834.682617	983.322083	4.309331
306.210144	935.768372	1849.171753	981.687500	5.027256
306.579987	937.774597	1861.060181	992.833008	5.963313
306.949890	943.347351	1866.855835	987.260254	4.755008
307.319702	951.149231	1870.125122	980.052917	3.145206
307.689484	954.864441	1895.759766	975.520508	2.195363
308.059265	950.851990	1914.261108	978.789795	2.899890
308.429016	948.622803	1952.898438	987.483154	3.869491
308.798737	941.712646	1978.087036	981.464661	3.835681
309.168396	942.009949	2013.306519	987.928955	4.286302
309.538055	936.808777	2036.563477	987.111633	4.574007
309.907684	941.638367	2059.820068	985.997070	3.967039
310.277313	935.619812	2080.922119	977.006409	3.613596
310.646851	946.765320	2104.996094	976.189148	2.540412
311.016388	944.610535	2121.194092	983.099304	3.271231
311.385895	946.988220	2124.834961	996.028015	4.163513
311.755371	943.495911	2118.816406	996.027893	4.469588
312.124817	941.638367	2125.503418	995.730774	4.569137
312.494232	946.839539	2122.085449	990.901062	3.749132
312.863617	943.198730	2120.896729	991.792725	4.126184
313.232971	947.359680	2105.293213	993.427429	3.978445
313.602295	947.136719	2111.757568	999.966064	4.536184
313.971619	957.167664	2120.822510	1001.080566	3.773705
314.340820	957.241943	2122.383057	1006.207458	4.202539
314.710083	951.297791	2133.454346	1002.789551	4.355748
315.079285	946.319397	2145.937012	1010.219788	5.326730
315.448486	945.576416	2182.270752	995.953796	4.073552
315.817596	948.474182	2189.180908	987.706116	3.162063
316.186707	943.941711	2180.710205	983.024963	3.160110
316.555786	950.257507	2142.741943	990.083740	3.339770
316.924866	949.960266	2113.243896	996.028015	3.960147
317.293884	952.337952	2093.702148	994.541931	3.697678
317.662872	943.198730	2086.494873	997.142578	4.718274
318.031830	938.517578	2089.095459	1000.188965	5.360036
318.400757	938.889160	2103.064453	1002.046570	5.425077
318.769684	944.016113	2119.039307	1002.715149	4.995564
319.138550	945.799316	2142.593018	1002.269348	4.718443
319.507416	944.833435	2152.921143	1004.052734	4.901904
319.876190	942.901550	2158.419922	1005.761658	5.171465
320.244995	947.136780	2165.032959	1009.996887	5.161368
320.613770	954.567078	2154.853271	1018.170227	5.298999
320.982483	956.721863	2146.754150	1022.331116	5.513233
321.351166	954.418457	2119.410889	1027.160767	6.244016
321.719818	949.068604	2111.237549	1034.591187	7.358877
322.088440	949.142883	2119.262451	1040.089478	7.772418
322.457062	948.102722	2138.729736	1042.095581	7.894401
322.825623	949.068665	2164.884033	1040.758179	7.541401
323.194183	948.474304	2192.450439	1048.039917	8.003820
323.562653	948.399963	2229.676025	1051.829346	8.072372
323.931183	944.759094	2267.793213	1057.104858	8.491524
324.299591	943.570251	2310.517334	1061.042847	8.593793
324.668060	950.108826	2355.990723	1068.398804	8.413935
325.036407	949.068665	2393.885010	1076.572021	8.824883
325.404755	949.514465	2418.033447	1079.989990	8.884837
325.773102	945.650818	2418.702148	1095.742310	10.189156
326.141388	943.793213	2432.893799	1091.061157	9.889725
326.509674	948.325684	2451.395508	1099.531738	10.059815
326.877899	954.715637	2471.085693	1098.045654	9.452179
327.246124	958.282227	2471.159912	1114.317993	10.313839
327.614288	948.325623	2467.964844	1126.503540	11.725015
327.982422	935.916992	2456.968018	1137.871948	13.277329
328.350525	941.861267	2445.079834	1141.215454	13.261824
328.718628	951.372070	2432.151123	1138.540527	12.639864
329.086700	960.734131	2433.488525	1138.912109	12.098282
329.454712	961.848694	2449.983643	1159.271118	13.266433
329.822693	954.046936	2467.741943	1167.964478	14.132142
330.190674	956.498962	2483.642822	1190.329468	15.311624
330.558563	955.681641	2485.500244	1201.772095	16.086250
330.926483	958.802307	2488.249268	1222.576782	17.246395
331.294312	952.783875	2499.840576	1232.979370	18.111521
331.662231	948.102722	2542.936279	1247.022583	18.743013
332.029999	951.000488	2581.202148	1264.557983	19.234276
332.397766	947.805481	2624.074951	1284.322388	20.075346
332.765503	943.495911	2658.328369	1301.709351	20.889120
333.133240	936.882996	2701.795654	1318.204590	21.605692
333.500916	939.186340	2737.386719	1338.860718	22.226353
333.868561	947.656921	2759.008789	1365.386719	23.061771
334.236176	951.892151	2761.535156	1387.603394	24.077192
334.603790	943.421692	2767.850830	1395.479492	24.778040
334.971344	937.923279	2775.949951	1399.788940	25.128345
335.338867	937.700378	2785.311768	1408.779663	25.496666
335.706360	949.514465	2788.878174	1426.686523	25.942234
336.073853	957.539124	2792.444580	1442.290039	26.418304
336.441284	959.025208	2797.274414	1461.014282	27.307999
336.808655	954.195496	2797.943115	1477.955444	28.407356
337.176086	950.406067	2765.250000	1477.509399	29.044003
337.543396	946.393738	2725.498291	1480.333008	30.011686
337.910706	944.907715	2670.217041	1474.463257	30.693369
338.277954	945.130615	2679.356201	1493.707520	31.632385
338.645264	942.827209	2740.804688	1516.221313	31.891060
339.012421	943.793213	2856.791016	1558.053711	32.109837
339.379669	941.266907	2965.124268	1595.576538	32.329830
339.746796	948.994385	3041.878906	1635.254272	32.790146
340.113953	955.681641	3098.572021	1656.281860	32.694168
340.481018	954.269836	3119.079346	1683.476929	33.684586
340.848114	954.344177	3121.011475	1701.383789	34.478741
341.215118	947.285400	3117.147705	1725.531860	35.866169
341.582153	950.554688	3129.705078	1755.030273	36.916939
341.949066	953.452454	3151.326904	1779.995972	37.606491
342.316010	952.783752	3168.342041	1808.825562	38.637745
342.682922	946.170837	3174.434814	1819.673828	39.201057
343.049835	938.443359	3194.348389	1838.175171	39.883408
343.416656	942.975830	3227.412842	1868.862183	40.530178
343.783478	951.149170	3273.703857	1918.273438	41.640537
344.150269	946.245178	3347.486328	1980.316040	43.064011
344.516998	947.879883	3430.259033	2047.263062	44.287479
344.883728	944.239014	3518.233643	2096.302734	44.757813
345.250427	956.201660	3579.979492	2134.197021	44.896915
345.617065	949.885986	3607.100342	2155.373291	45.366581
345.983704	951.966492	3631.619873	2180.264648	45.837948
346.350281	944.907715	3630.579346	2191.113037	46.402000
346.716827	950.108887	3612.672607	2190.444092	46.584244
347.083405	950.331848	3569.428467	2181.973633	47.025444
347.449860	961.031311	3534.357422	2190.741455	47.786800
347.816376	968.164368	3512.141357	2186.877686	47.905830
348.182770	961.923035	3484.128906	2190.667236	48.717045
348.549194	959.322449	3458.494385	2189.701172	49.231453
348.915558	950.777527	3444.525635	2214.592529	50.679337
349.281921	958.133606	3457.305908	2248.845947	51.645592
349.648193	953.526855	3492.227783	2289.341064	52.618023
350.014526	947.805603	3540.970703	2320.845459	52.948414
350.380737	946.839600	3586.518311	2342.541992	52.873951
350.746948	942.827209	3636.300781	2372.857666	53.092426
351.113159	950.628967	3664.684326	2411.049072	53.809521
351.479309	952.040771	3710.306396	2444.262451	54.099998
351.845428	950.108887	3742.553711	2471.085693	54.467567
352.211517	954.344177	3781.414063	2504.150146	54.820221
352.577576	946.839600	3805.859619	2555.790771	56.276318
352.943604	952.189392	3835.506592	2590.118408	56.807102
353.309601	944.238953	3893.759766	2629.721680	57.144291
353.675537	941.564026	3969.622803	2677.424072	57.325840
354.041473	937.477356	4057.745850	2750.760986	58.113064
354.407379	931.310303	4133.534668	2822.834717	59.069077
354.773254	932.276184	4219.130859	2879.230469	59.234573
355.139038	924.177246	4282.140137	2939.266846	60.009289
355.504913	930.641541	4361.421387	2991.947266	60.082714
355.870636	927.595032	4415.885254	3066.621826	61.320210
356.236389	929.081238	4489.593262	3133.568604	61.914898
356.602081	926.034729	4584.774902	3217.827881	62.638863
356.967804	935.768494	4699.572754	3289.381592	62.532822
357.333405	946.393738	4820.388672	3384.042969	62.923397
357.699036	945.576355	4950.641113	3483.460205	63.366859
358.064606	946.542419	5091.371094	3582.505859	63.596439
358.430176	943.793152	5201.190430	3651.384521	63.597336
358.795654	955.012878	5261.301270	3684.374756	63.380840
359.161163	958.133545	5258.329590	3709.489014	63.982090
359.526581	961.774414	5234.105957	3713.724365	64.413307
359.892029	954.864258	5239.010254	3757.414063	65.416763
360.257416	952.783875	5312.867676	3820.497314	65.771973
360.622772	943.793152	5459.615234	3941.462158	66.381462
360.988098	943.941833	5642.623535	4098.835449	67.144226
361.353394	940.003723	5837.742188	4279.168457	68.177689
361.718658	950.034668	6058.570313	4439.290527	68.302467
362.083893	952.337891	6243.212402	4545.023438	67.903435
362.449097	958.505066	6395.830078	4607.065918	67.102127
362.814209	951.074768	6419.011719	4604.539551	66.816147
363.179382	952.486572	6309.415527	4503.116699	66.281082
363.544434	952.635071	6061.912598	4325.681641	66.018074
363.909546	956.201660	5772.058594	4129.522461	65.893173
364.274536	951.372070	5514.451172	3975.567139	66.275314
364.639587	949.514465	5350.687500	3852.373047	65.956482
365.004517	953.229553	5254.688477	3776.510498	65.635429
365.369507	959.173828	5193.239746	3746.789063	65.837784
365.734344	948.771484	5130.825684	3740.027588	66.743660
366.099274	946.765320	5087.804688	3733.637451	67.298851
366.464081	938.740540	5070.492188	3713.798584	67.164207
366.828918	939.037781	5086.020996	3705.328125	66.706085
367.193665	936.957275	5094.194336	3714.690430	66.816803
367.558411	944.461914	5116.856934	3726.504639	66.677361
367.923126	939.186340	5109.946777	3737.427002	67.091866
368.287781	934.059570	5110.466797	3722.343018	66.762726
368.652435	934.802551	5068.411621	3700.052490	66.896751
369.017059	951.149109	5059.346191	3689.501221	66.655807
369.381653	963.260498	5061.798340	3688.461182	66.492020
369.746185	962.443115	5071.978027	3695.296875	66.500313
370.110687	952.486572	5070.046387	3707.631592	66.912086
370.475220	948.399902	5083.271973	3720.040039	67.030853
370.839661	946.913879	5150.144531	3763.284180	67.004898
371.204041	948.622864	5206.391113	3798.726807	66.938919
371.568451	947.508362	5248.298340	3846.057617	67.395744
371.932770	949.514465	5290.651367	3877.784912	67.454002
372.297150	955.756042	5339.096191	3901.190186	67.196106
372.661377	959.545410	5383.975098	3908.546143	66.652672
373.025696	955.235840	5397.869629	3916.571045	66.657196
373.389862	950.406067	5389.250977	3905.128174	66.565117
373.754059	949.217285	5388.062012	3916.867920	66.856377
374.118225	953.006653	5400.841309	3917.759766	66.656105
374.482361	955.161438	5432.494141	3955.505127	67.011856
374.846436	951.669250	5499.367188	4000.978760	67.051720
375.210510	946.690979	5579.094238	4069.931641	67.421608
375.574524	949.663086	5670.337891	4138.513184	67.550728
375.938538	944.981995	5769.755371	4213.038574	67.734924
376.302460	947.582520	5873.332520	4300.567383	68.070541
376.666412	943.941711	6041.628906	4402.956543	67.854599
377.030304	954.121277	6178.048340	4488.330078	67.654251
377.394196	951.669250	6318.777832	4564.044922	67.305809
377.757996	952.040771	6432.238281	4625.492676	67.031380
378.121796	944.016052	6495.767090	4657.814453	66.894180
378.485565	941.712646	6507.506348	4644.068359	66.519814
378.849304	937.997498	6431.420410	4578.904785	66.277573
379.212982	940.895325	6341.514160	4483.723145	65.600410
379.576630	945.725037	6188.896484	4371.674805	65.341171
379.940277	947.954102	6082.718262	4308.666504	65.450180
380.303864	951.892273	6000.613281	4266.239258	65.647255
380.667450	953.229675	6006.334473	4274.635254	65.729996
381.030945	953.452576	5999.053223	4282.734863	65.983864
381.394501	946.839600	6022.904297	4318.028320	66.413437
381.757935	943.570251	6040.959473	4323.972656	66.316345
382.121399	939.334961	6043.857910	4322.709473	66.281891
382.484741	943.198730	6083.238281	4351.984863	66.318283
382.848145	945.947998	6108.724121	4388.615723	66.682487
383.211487	952.560852	6170.989746	4443.302734	66.892586
383.574768	946.542297	6239.050781	4497.097656	67.086441
383.938019	943.198730	6301.762207	4574.892578	67.773643
384.301270	943.941833	6397.092285	4634.557129	67.678589
384.664459	947.062500	6466.342285	4693.628418	67.881424
385.027649	945.427917	6535.369629	4736.724121	67.823532
385.390778	943.198730	6597.709473	4789.627441	68.024078
385.753876	953.080994	6623.195313	4837.479004	68.506523
386.116943	954.715637	6684.718750	4882.431641	68.546494
386.479980	955.755859	6687.839355	4914.976074	69.071220
386.842987	946.170837	6740.371094	4955.916992	69.202751
387.205994	954.715637	6789.039551	4993.663086	69.227348
387.568909	947.434021	6841.125488	5038.690430	69.417549
387.931793	947.136780	6881.397949	5061.575684	69.333633
388.294678	946.913879	6906.883301	5101.253418	69.704041
388.657471	955.384460	6945.744141	5126.962402	69.638191
389.020294	957.167664	6928.877441	5145.834961	70.141846
389.383057	949.737366	6937.125000	5168.794434	70.465744
389.745819	948.251282	6941.880371	5195.395020	70.860970
390.108521	945.799316	6984.604004	5220.955566	70.794746
390.471191	941.266907	7024.653809	5281.734863	71.349525
390.833801	939.186462	7132.467285	5376.395996	71.645538
391.196442	945.353516	7272.898926	5517.496582	72.257767
391.558960	947.434021	7422.693359	5644.035156	72.531479
391.921509	950.628967	7554.580078	5764.479004	72.893486
392.284027	952.189270	7704.894531	5874.447754	72.893135
392.646484	959.471008	7816.720215	5929.282715	72.475296
393.008911	953.526855	7850.306152	5930.620605	72.165482
393.371307	952.783875	7819.767090	5895.252441	71.974380
393.733673	953.898376	7763.593750	5871.697754	72.217613
394.096008	964.597900	7730.975098	5847.847168	72.169334
394.458344	954.789978	7739.892090	5862.781738	72.334824
394.820587	943.273010	7779.792480	5878.385254	72.187500
395.182831	937.105957	7847.704590	5911.821777	71.986755
395.545013	937.105957	7832.844238	5888.937012	71.810020
395.907196	936.734375	7763.297363	5812.182129	71.418777
396.269287	933.762390	7642.703613	5719.898438	71.339661
396.631409	942.530029	7538.902344	5639.650879	71.207642
396.993469	946.913879	7441.565918	5585.707031	71.424812
397.355530	948.920105	7355.968750	5559.181152	71.956078
397.717499	945.947937	7345.566895	5542.388672	71.823662
398.079468	947.731201	7328.402344	5560.221191	72.288483
398.441376	947.062439	7329.740234	5575.230469	72.511383
398.803284	944.164612	7314.433594	5596.332031	73.029373
399.165131	943.198792	7358.271973	5618.623535	72.881859
399.526978	943.793213	7392.525879	5627.093750	72.623589
399.888763	944.016113	7431.757813	5631.626465	72.253342
400.250519	943.273010	7435.770996	5633.335449	72.238182
400.612244	942.901550	7463.634277	5641.509277	72.056442
400.973938	948.177063	7456.872559	5632.146484	71.964798
401.335602	944.164734	7489.787598	5649.979004	71.892540
401.697205	949.588806	7527.459473	5698.869629	72.200882
402.058807	943.867493	7578.876953	5774.139160	72.799767
402.420349	946.616699	7651.991699	5858.175293	73.248085
402.781860	949.960266	7717.675781	5920.515625	73.445099
403.143341	951.223450	7818.429688	6016.736816	73.763817
403.504822	953.749756	7945.264160	6088.364746	73.440674
403.866241	945.873718	8114.302246	6218.840332	73.558197
404.227631	939.186462	8274.796875	6320.114746	73.353516
404.588959	942.307129	8437.965820	6453.785156	73.528938
404.950287	938.220398	8552.466797	6536.781738	73.527451
405.311554	946.765320	8614.434570	6599.418457	73.720619
405.672821	942.009949	8642.819336	6616.062500	73.681252
406.034027	944.684753	8643.487305	6598.230469	73.434090
406.395203	943.272949	8616.960938	6553.723145	73.112823
406.756348	947.285339	8549.567383	6492.349121	72.939468
407.117493	945.725037	8518.659180	6452.002441	72.709961
407.478516	946.690918	8511.897461	6446.801270	72.702713
407.839600	943.941833	8520.961914	6445.612793	72.609955
408.200592	948.994385	8495.178711	6436.993652	72.725479
408.561554	951.297791	8477.569336	6440.188965	72.929749
408.922485	954.864258	8491.686523	6477.562988	73.276222
409.283417	953.006653	8536.491211	6538.193848	73.649353
409.644257	950.183289	8635.239258	6590.949219	73.399155
410.005096	947.359680	8742.085938	6665.399902	73.357803
410.365906	951.817871	8844.030273	6724.173340	73.139893
410.726715	950.628967	8932.672852	6801.596191	73.301620
411.087433	946.616699	8998.059570	6844.692871	73.254898
411.448120	940.746765	9077.712891	6913.497559	73.402672
411.808807	946.245117	9085.663086	6914.982910	73.331261
412.169434	947.805481	9037.069336	6884.740723	73.392776
412.530029	951.446350	8993.006836	6835.998535	73.176743
412.890564	942.232849	8954.370117	6820.543457	73.367569
413.251099	947.285461	8978.443359	6838.971191	73.360352
413.611572	946.616699	8986.989258	6868.320801	73.649620
413.972076	955.384460	9047.025391	6925.088379	73.776184
414.332489	949.663086	9100.002930	6978.214355	73.966873
414.692871	946.988220	9206.181641	7057.941406	73.989708
415.053223	950.851868	9312.954102	7144.727051	74.070786
415.413574	950.926208	9491.579102	7292.292480	74.249191
415.773834	949.663086	9645.087891	7404.786621	74.235863
416.134094	940.523865	9788.491211	7516.017090	74.316422
416.494263	940.746765	9908.788086	7586.232910	74.101875
416.854462	945.799316	10135.633789	7751.334473	74.055038
417.214630	948.845764	10373.032227	7966.143066	74.460510
417.574738	950.034485	10659.914063	8188.159668	74.543922
417.934784	947.136719	10893.077148	8391.674805	74.850014
418.294861	948.102722	11212.281250	8615.028320	74.695953
418.654846	948.845764	11562.915039	8905.329102	74.961670
419.014832	947.508301	11937.473633	9214.950195	75.227188
419.374756	945.056335	12356.765625	9543.665039	75.348999
419.734680	951.520691	12767.065430	9892.664063	75.672714
420.094543	954.567078	13224.622070	10264.028320	75.871391
420.454376	956.647522	13616.866211	10586.057617	76.060379
420.814148	953.452454	14035.338867	10902.290039	76.050484
421.173920	951.000488	14444.598633	11199.500977	75.950836
421.533691	947.656921	14868.418945	11511.942383	75.888702
421.893341	945.947937	15194.163086	11719.916992	75.616272
422.253021	946.022278	15399.238281	11880.558594	75.654694
422.612640	941.935608	15485.058594	11920.756836	75.491493
422.972260	944.090393	15473.690430	11926.776367	75.588356
423.331757	945.056335	15398.199219	11838.801758	75.372849
423.691315	947.656921	15374.496094	11815.323242	75.329506
424.050781	936.585754	15464.179688	11899.581055	75.463257
424.410248	933.687988	15586.481445	11988.967773	75.448273
424.769653	934.728271	15726.691406	12088.012695	75.400978
425.128998	934.059570	15811.916992	12084.890625	74.949173
425.488373	932.350586	15787.840820	12037.485352	74.754417
425.847656	925.811829	15621.403320	11892.670898	74.626862
426.206940	931.979004	15389.875977	11704.164063	74.507278
426.566193	939.483582	15095.637695	11501.393555	74.610023
426.925385	950.257507	14787.875000	11294.014648	74.750999
427.284576	954.418457	14389.390625	11034.475586	75.028488
427.643677	950.703308	14092.625000	10775.604492	74.760002
428.002777	947.656921	13811.539063	10539.321289	74.562752
428.361847	946.393738	13493.671875	10287.955078	74.450897
428.720856	953.081055	13221.796875	10096.402344	74.525497
429.079865	951.372070	13022.741211	9940.441406	74.466026
429.438812	948.325623	12915.668945	9863.834961	74.498650
429.797760	943.347351	12826.135742	9806.622070	74.589180
430.156616	946.765320	12676.786133	9713.818359	74.740303
430.515503	953.378235	12606.645508	9649.174805	74.621101
430.874268	948.622864	12566.448242	9625.397461	74.685013
431.233093	946.393738	12602.484375	9641.000977	74.592827
431.591827	945.576355	12668.984375	9698.808594	74.664574
431.950562	944.164612	12680.799805	9726.226563	74.826065
432.309204	942.009949	12741.281250	9761.743164	74.748116
432.667877	936.808655	12810.977539	9823.042969	74.836685
433.026459	942.009827	12943.608398	9927.512695	74.869217
433.385010	939.929382	13067.620117	10022.249023	74.889107
433.743561	944.387512	13212.213867	10154.953125	75.079033
434.102051	939.334961	13384.372070	10253.849609	74.845215
434.460510	944.759094	13551.702148	10374.517578	74.798134
434.818939	940.598145	13626.078125	10391.978516	74.505501
435.177338	941.564148	13665.383789	10410.703125	74.420570
435.535675	933.539368	13593.756836	10367.904297	74.519768
435.894012	937.254578	13530.674805	10339.149414	74.657196
436.252289	940.375244	13512.618164	10314.778320	74.564285
436.610535	949.960266	13513.807617	10335.136719	74.699860
436.968719	954.492737	13642.872070	10446.516602	74.808792
437.326935	957.019043	13723.936523	10573.796875	75.325752
437.685028	958.059326	13881.829102	10677.002930	75.202080
438.043152	948.251282	13963.859375	10766.315430	75.433006
438.401215	948.994324	14159.573242	10915.886719	75.446297
438.759277	944.164612	14377.726563	11069.543945	75.373749
439.117249	949.142883	14734.081055	11328.120117	75.292160
439.475250	944.907715	14993.100586	11527.770508	75.332558
439.833130	943.495911	15298.856445	11819.112305	75.759964
440.191071	935.991394	15519.385742	12015.195313	75.971367
440.548889	939.632141	15789.625000	12230.526367	76.032997
440.906708	946.096497	16079.332031	12434.487305	75.914970
441.264496	950.331848	16271.403320	12579.450195	75.902771
441.622223	944.313293	16439.550781	12686.965820	75.782333
441.979950	946.616699	16507.685547	12737.567383	75.772118
442.337616	955.384338	16551.748047	12742.545898	75.576347
442.695251	962.517395	16432.267578	12643.054688	75.505661
443.052887	957.910706	16267.168945	12492.590820	75.344475
443.410461	950.183289	16080.000977	12358.846680	75.405159
443.768005	940.300964	15958.518555	12273.917969	75.465790
444.125458	943.867432	15855.756836	12229.262695	75.680519
444.482941	942.752869	15877.303711	12275.032227	75.879616
444.840393	952.189270	15967.877930	12405.879883	76.278160
445.197754	949.514465	16204.977539	12627.895508	76.552124
445.555084	945.947937	16466.226563	12819.225586	76.501701
445.912415	939.260742	16826.373047	13083.296875	76.439545
446.269714	941.712708	17074.392578	13274.182617	76.444023
446.626953	943.793213	17416.185547	13510.464844	76.289291
446.984161	949.068665	17712.208984	13723.415039	76.204971
447.341309	944.684814	17997.232422	13892.379883	75.928223
447.698456	951.669250	18149.404297	13980.278320	75.757706
448.055542	951.966492	18241.912109	14005.468750	75.497650
448.412598	950.628967	18153.046875	13926.039063	75.427826
448.769653	951.669250	18037.582031	13826.250000	75.352028
449.126617	949.440186	17746.537109	13584.171875	75.219727
449.483582	957.985046	17557.658203	13412.458008	75.028419
449.840515	952.635193	17210.294922	13207.085938	75.376472
450.197388	955.384460	17009.898438	13088.795898	75.576324
450.554230	948.474182	16810.841797	12949.477539	75.657074
450.911041	949.663147	16721.826172	12844.117188	75.414223
451.267822	946.839600	16587.785156	12735.932617	75.373276
451.624573	938.369080	16393.259766	12634.359375	75.678246
451.981262	940.969543	16257.584961	12546.163086	75.768654
452.337921	942.084167	16155.120117	12438.721680	75.570961
452.694580	952.486572	16144.643555	12401.125000	75.358871
453.051147	948.845703	16145.164063	12413.012695	75.440422
453.407715	951.074890	16051.691406	12365.237305	75.587395
453.764221	950.034668	16058.082031	12367.687500	75.573318
454.120728	948.399963	15855.829102	12165.881836	75.247597
454.477142	940.523926	15787.397461	12125.164063	75.333305
454.833557	941.192566	15575.188477	11993.276367	75.523346
455.189911	945.576477	15425.765625	11941.116211	75.935059
455.546265	955.755859	15260.442383	11849.796875	76.157143
455.902557	953.303955	15189.036133	11776.683594	76.029663
456.258820	956.350281	15220.614258	11797.117188	75.999481
456.615051	948.548523	15312.081055	11861.835938	75.979134
456.971252	944.536194	15321.071289	11887.394531	76.116104
457.327393	936.214294	15494.198242	12037.784180	76.257607
457.683502	947.656921	15707.372070	12239.887695	76.507103
458.039612	947.805481	16110.390625	12587.698242	76.767204
458.395630	955.904480	16523.439453	12914.852539	76.819794
458.751648	948.028503	16916.873047	13243.715820	76.997978
459.107605	952.486572	17511.666016	13732.182617	77.175903
459.463562	940.523865	18073.244141	14217.528320	77.495018
459.819458	945.576416	18680.447266	14671.889648	77.397308
460.175323	941.935547	19184.369141	15046.152344	77.315437
460.531158	948.845703	19727.892578	15387.424805	76.886642
460.886932	939.409363	20034.318359	15541.752930	76.472450
461.242676	947.136780	20179.580078	15544.055664	75.897369
461.598419	940.895325	19945.525391	15287.637695	75.490768
461.954102	947.656921	19559.001953	14943.094727	75.198418
462.309723	941.266907	18958.265625	14451.061523	74.983604
462.665344	943.421631	18339.470703	13989.864258	74.996582
463.020905	944.536194	17866.384766	13646.957031	75.065216
463.376373	949.217224	17502.748047	13401.387695	75.223656
463.731873	955.310059	17252.867188	13204.856445	75.161858
464.087341	956.647522	16995.037109	13021.477539	75.224701
464.442749	954.492859	16850.150391	12917.453125	75.259300
464.798126	953.526855	16737.728516	12858.160156	75.421196
465.153503	952.635254	16815.226563	12919.609375	75.441483
465.508820	954.418457	16892.128906	12956.313477	75.305008
465.864105	949.365906	17031.818359	13054.245117	75.267616
466.219330	939.632141	17295.964844	13207.754883	75.005341
466.574524	937.551697	17458.835938	13364.161133	75.215752
466.929657	937.254456	17687.093750	13508.458008	75.052673
467.284790	940.375244	17880.429688	13657.805664	75.073135
467.639893	937.477356	18091.300781	13760.343750	74.752228
467.994934	941.192566	18293.701172	13865.926758	74.483383
468.349945	943.495911	18329.070313	13876.700195	74.390434
468.704926	951.223450	18290.208984	13845.418945	74.365334
469.059875	952.560852	18064.998047	13696.961914	74.474495
469.414764	953.155334	17806.126953	13498.352539	74.439087
469.769653	946.988220	17605.880859	13370.774414	74.577499
470.124451	950.257507	17494.279297	13330.131836	74.829895
470.479248	950.851868	17376.953125	13279.084961	75.052704
470.834015	951.000488	17306.812500	13240.967773	75.141281
471.188721	945.353516	17371.974609	13274.477539	75.055756
471.543365	934.505371	17460.693359	13331.468750	75.014053
471.898010	933.762268	17566.648438	13417.808594	75.056396
472.252625	936.585876	17694.003906	13514.105469	75.056427
472.607178	947.508301	17934.521484	13711.453125	75.139427
472.961700	953.898376	18177.863281	13862.436523	74.945221
473.316193	955.607239	18435.396484	14080.737305	75.087463
473.670654	953.898254	18619.962891	14213.960938	75.059517
474.025055	950.703308	18859.144531	14433.972656	75.290024
474.379456	954.269775	19022.017578	14566.825195	75.341736
474.733795	953.601074	19158.289063	14701.981445	75.521103
475.088104	957.687744	19194.250000	14781.709961	75.803886
475.442383	952.486511	19184.517578	14788.916992	75.890778
475.796570	959.248047	19229.617188	14853.335938	76.047112
476.150787	954.864258	19403.486328	14980.023438	76.022804
476.504944	953.303955	19657.453125	15189.333008	76.111610
476.859070	951.594971	19943.220703	15382.446289	75.985344
477.213135	954.121277	20230.103516	15586.629883	75.910576
477.567200	956.350281	20645.455078	15902.565430	75.911095
477.921173	952.486572	21045.279297	16223.479492	76.002342
478.275146	942.158508	21492.656250	16573.072266	76.060997
478.629089	933.316467	21749.224609	16785.429688	76.153839
478.983002	930.047180	22141.990234	17066.888672	76.074318
479.336823	928.263916	22489.724609	17358.750000	76.203026
479.690643	939.260742	22932.197266	17726.697266	76.331039
480.044403	939.557922	23420.515625	18148.736328	76.550026
480.398163	950.183105	24027.718750	18681.412109	76.833282
480.751862	942.529968	24813.841797	19363.066406	77.166000
481.105499	946.468018	25780.294922	20256.853516	77.758392
481.459137	946.245117	27024.123047	21385.365234	78.377235
481.812744	950.183289	28631.289063	22831.218750	79.046829
482.166290	951.074890	30475.853516	24572.281250	80.004684
482.519806	954.567078	32802.863281	26636.484375	80.638275
482.873291	955.830261	35543.300781	29028.365234	81.163887
483.226715	951.669250	38880.164063	31823.781250	81.395561
483.580139	944.016113	42332.191406	34690.753906	81.537148
483.933502	948.102722	45887.355469	37570.207031	81.492462
484.286804	950.257507	49061.792969	40030.667969	81.228775
484.640106	956.276062	51666.472656	41995.230469	80.928406
484.993347	950.777588	53177.718750	43194.175781	80.884308
485.346558	954.418396	53527.015625	43342.042969	80.626839
485.699738	954.492676	52732.488281	42475.894531	80.191208
486.052887	962.814636	51050.203125	40751.332031	79.438194
486.405975	963.854797	48983.625000	38885.886719	78.971703
486.759064	963.706299	46930.343750	37151.066406	78.725273
487.112061	952.263672	45391.312500	35998.628906	78.863907
487.464996	941.415527	44630.671875	35487.652344	79.072617
487.817963	941.415466	44683.203125	35593.156250	79.218849
488.170868	945.204895	45071.886719	35819.261719	79.031677
488.523743	950.034485	45374.886719	35971.808594	78.833740
488.876587	940.152344	45339.000000	35834.050781	78.591904
489.229401	938.889160	44931.230469	35506.519531	78.576469
489.582153	935.619934	44037.812500	34728.574219	78.401939
489.934845	937.254578	42837.972656	33756.839844	78.327026
490.287537	929.972839	41565.835938	32725.814453	78.245766
490.640198	935.248291	40603.988281	32005.226563	78.323586
490.992798	940.226563	39983.632813	31555.695313	78.413925
491.345337	954.344177	39919.953125	31534.148438	78.478958
491.697876	954.715637	40192.125000	31689.962891	78.331490
492.050354	957.242004	40799.769531	32129.537109	78.238747
492.402832	952.412292	41309.488281	32345.087891	77.787292
492.755219	953.675476	41423.621094	32291.740234	77.435402
493.107605	949.217224	40857.656250	31656.822266	76.945145
493.459930	948.548584	39687.910156	30613.312500	76.575249
493.812225	948.771423	37975.078125	29132.759766	76.118820
494.164490	953.601074	35979.683594	27476.773438	75.724060
494.516724	956.870422	33902.027344	25840.927734	75.531761
494.868896	959.396729	32045.054688	24449.458984	75.565598
495.221039	958.802429	30596.671875	23479.140625	75.985008
495.573120	956.870422	29523.587891	22772.298828	76.366592
495.925201	952.040833	28945.884766	22437.044922	76.749031
496.277222	950.777649	28695.187500	22254.632813	76.786118
496.629211	953.898254	28679.734375	22244.898438	76.791191
496.981140	960.214050	28727.585938	22288.515625	76.810661
497.333069	964.375000	28846.916016	22369.951172	76.770538
497.684967	956.424622	28975.982422	22439.794922	76.672768
498.036804	952.783752	29081.640625	22472.414063	76.503754
498.388580	945.502136	29005.109375	22406.134766	76.482300
498.740326	944.461914	28870.544922	22287.771484	76.427864
499.092072	944.164734	28612.568359	22035.587891	76.229271
499.443756	940.523865	28332.744141	21754.203125	75.983910
499.795410	945.799316	28000.240234	21465.982422	75.847748
500.147003	945.799316	27644.994141	21146.703125	75.661095
500.498566	953.452454	27297.406250	20880.921875	75.643425
500.850098	950.926208	26923.664063	20588.394531	75.608002
501.201599	949.440125	26620.062500	20365.708984	75.636147
501.553009	944.164612	26339.794922	20127.642578	75.538498
501.904449	944.833313	26141.181641	19947.011719	75.416397
502.255859	944.833435	25943.318359	19823.593750	75.519615
502.607178	948.474304	25851.255859	19807.992188	75.732574
502.958405	952.263672	25763.130859	19747.732422	75.754982
503.309692	957.167664	25737.794922	19718.679688	75.710403
503.660919	959.471008	25764.617188	19691.781250	75.517838
504.012115	955.904602	25842.337891	19775.892578	75.623482
504.363251	948.028503	25954.906250	19881.103516	75.711472
504.714294	945.353516	26047.638672	19946.416016	75.694550
505.065369	941.118347	26092.515625	19989.068359	75.733170
505.416443	944.164734	26100.833984	19986.912109	75.696617
505.767395	947.136902	26075.203125	19997.685547	75.813828
506.118317	949.440186	26057.593750	19958.529297	75.708832
506.469238	952.635193	26060.640625	19965.513672	75.724365
506.820160	957.390564	26068.515625	19973.761719	75.728867
507.170929	965.266663	26096.898438	19991.593750	75.706688
507.521729	961.551453	26122.087891	20072.433594	75.955780
507.872498	956.053040	26222.767578	20149.335938	75.962715
508.223236	942.455750	26382.146484	20361.099609	76.332077
508.573883	939.483582	26578.453125	20473.966797	76.190590
508.924500	938.369080	26749.130859	20678.150391	76.478882
509.275116	947.805481	26940.681641	20803.050781	76.387260
509.625702	946.022217	27187.958984	20993.341797	76.394211
509.976196	943.495911	27445.791016	21139.718750	76.205559
510.326660	933.539368	27674.718750	21335.580078	76.294472
510.677124	933.019226	27886.181641	21522.154297	76.388565
511.027557	936.139954	28084.943359	21715.416016	76.538460
511.377869	950.554688	28321.671875	21887.947266	76.494476
511.728180	950.926270	28489.966797	22037.072266	76.568192
512.078430	954.641357	28638.349609	22109.515625	76.416328
512.428650	944.981995	28742.000000	22202.023438	76.472382
512.778931	951.669250	28852.265625	22232.710938	76.274506
513.129028	942.530090	28886.224609	22303.298828	76.442177
513.479126	952.189392	28953.689453	22331.312500	76.349922
513.829285	945.204895	28896.998047	22321.947266	76.477180
514.179382	950.183167	28854.201172	22275.212891	76.422791
514.529297	943.793152	28750.919922	22170.669922	76.336105
514.879272	948.176941	28759.240234	22180.625000	76.345329
515.229187	951.074768	28657.593750	22140.054688	76.476517
515.579163	950.926270	28612.267578	22198.455078	76.813080
515.928955	956.721924	28603.873047	22211.833984	76.879936
516.278748	952.783875	28774.322266	22354.123047	76.923637
516.628540	954.195557	29044.859375	22564.103516	76.929146
516.978333	943.124451	29434.501953	22946.835938	77.229370
517.327942	944.461914	30004.478516	23381.505859	77.209328
517.677612	943.050110	30565.687500	23863.431641	77.374550
518.027222	946.839600	31223.265625	24382.212891	77.404686
518.376831	946.839600	31946.232422	24979.087891	77.524902
518.726379	945.353516	32654.187500	25520.234375	77.501686
519.075867	942.455750	33199.125000	25908.912109	77.399361
519.425293	939.780762	33600.957031	26195.796875	77.327332
519.774658	944.313293	33800.679688	26333.031250	77.271835
520.124084	946.839600	33851.949219	26347.968750	77.195091
520.473389	938.666321	33597.238281	26132.117188	77.141922
520.822693	929.750000	33241.105469	25821.458984	77.037033
521.171997	932.647766	32722.916016	25401.130859	76.968468
521.521240	942.678528	32236.603516	25025.083984	76.955528
521.870361	943.347351	31778.828125	24686.115234	76.998207
522.219482	945.427795	31468.318359	24463.875000	77.051834
522.568604	949.960266	31246.521484	24265.187500	76.956680
522.917664	955.458679	31108.990234	24209.462891	77.118675
523.266724	951.074890	31152.083984	24290.005859	77.278648
523.615662	944.461914	31325.876953	24549.767578	77.696533
523.964600	947.805481	31750.072266	24910.804688	77.796219
524.313538	952.189392	32254.439453	25363.085938	77.984482
524.662354	955.161560	32878.062500	25976.529297	78.380623
525.011169	951.297791	33664.183594	26689.537109	78.679207
525.359985	955.532959	34621.277344	27548.179688	78.990219
525.708740	954.567078	35818.000000	28545.468750	79.139946
526.057434	958.950867	37087.613281	29685.718750	79.512398
526.406067	950.108887	38487.324219	30982.451172	80.006844
526.754700	947.582520	39940.164063	32330.156250	80.483444
527.103333	942.827209	41657.003906	33892.816406	80.930016
527.451782	939.334961	43560.121094	35595.984375	81.313957
527.800293	946.839539	45647.359375	37459.570313	81.683014
528.148743	951.520691	47847.015625	39370.042969	81.923698
528.497131	960.511230	49981.878906	41211.707031	82.109489
528.845642	956.870361	51902.082031	42865.015625	82.261208
529.193909	955.384277	53440.371094	44223.269531	82.438591
529.542175	955.087158	54534.558594	45238.097656	82.649208
529.890503	957.762024	55058.464844	45591.781250	82.501740
530.238770	946.170837	54906.144531	45193.886719	82.000999
530.586914	948.994324	54069.644531	44037.957031	81.115280
530.934998	940.375244	52576.234375	42306.925781	80.112061
531.283142	950.777649	50671.855469	40351.878906	79.244263
531.631226	947.582581	48418.996094	38306.394531	78.697495
531.979248	952.337891	46309.765625	36632.800781	78.665085
532.327148	953.006653	44541.878906	35346.621094	78.904572
532.675110	946.245117	43502.386719	34594.457031	79.067818
533.023071	949.960266	43144.546875	34346.359375	79.148537
533.370850	944.981995	43242.769531	34409.816406	79.117226
533.718689	948.474304	43675.582031	34747.296875	79.103935
534.066467	948.177063	44087.890625	35002.605469	78.939857
534.414246	948.399963	44314.066406	35130.699219	78.823418
534.761963	955.161438	44296.683594	35001.039063	78.552567
535.109619	956.573242	43916.550781	34667.269531	78.470001
535.457153	968.461670	43193.656250	34038.519531	78.318306
535.804749	956.647522	42148.441406	33212.277344	78.305962
536.152344	950.703308	41133.984375	32317.447266	78.059189
536.499817	943.644531	40159.066406	31528.798828	77.992668
536.847229	946.839539	39373.535156	30850.341797	77.819603
537.194641	946.690979	38704.285156	30369.080078	77.924431
537.542114	948.177063	38279.351563	30000.093750	77.822128
537.889404	952.560852	37919.281250	29704.294922	77.777351
538.236694	951.966492	37522.281250	29340.359375	77.626869
538.583984	948.920105	37117.703125	28996.562500	77.546555
538.931213	947.136719	36748.937500	28754.632813	77.670662
539.278381	948.697083	36484.644531	28672.380859	78.015877
539.625488	954.046875	36365.832031	28691.255859	78.327621
539.972595	958.430847	36510.722656	28951.984375	78.739090
540.319641	954.195496	37004.535156	29457.240234	79.064568
540.666687	950.554688	37895.429688	30334.904297	79.535660
541.013611	945.725098	39217.050781	31481.171875	79.786751
541.360596	945.353516	40693.519531	32698.771484	79.886505
541.707458	942.381409	42364.214844	33949.507813	79.685333
542.054260	937.254578	43726.480469	34958.390625	79.508652
542.401062	941.935547	44901.425781	35777.800781	79.245384
542.747864	943.496033	45498.453125	36161.945313	79.044960
543.094666	948.474182	45549.792969	36046.253906	78.692245
543.441284	954.121277	44937.093750	35422.781250	78.368195
543.787903	958.282227	43882.449219	34386.261719	77.876831
544.134460	954.864319	42526.941406	33162.789063	77.474892
544.481079	946.245178	41031.968750	31864.945313	77.131447
544.827637	930.567322	39371.972656	30558.626953	77.073303
545.174072	931.756165	37749.199219	29295.406250	77.038628
545.520508	932.721985	36336.410156	28223.070313	77.083351
545.866943	940.226624	35239.328125	27352.390625	77.005409
546.213318	953.155273	34420.511719	26740.435547	77.052040
546.559631	949.663086	33790.128906	26260.291016	77.071472
546.905823	946.245117	33215.542969	25832.750000	77.121307
547.252136	941.043945	32778.718750	25503.888672	77.150238
547.598389	944.090332	32419.095703	25166.406250	76.957306
547.944458	951.892090	32148.335938	24911.474609	76.802284
548.290588	948.622803	31729.490234	24501.171875	76.516846
548.636658	950.480408	31149.185547	24019.320313	76.390160
548.982727	950.108887	30421.166016	23453.283203	76.356865
549.328735	950.926270	29727.851563	22901.437500	76.278168
549.674622	954.121277	28984.447266	22275.289063	76.064644
550.020569	956.276062	28310.599609	21688.593750	75.791740
550.366455	950.777649	27559.173828	21087.408203	75.677734
550.712280	947.731201	26934.734375	20631.115234	75.743187
551.058044	949.663086	26397.822266	20273.496094	75.934105
551.403748	954.715637	25999.634766	20018.341797	76.117737
551.749512	959.025146	25746.265625	19840.089844	76.172516
552.095154	957.836365	25609.322266	19753.453125	76.245369
552.440735	956.647522	25631.615234	19755.904297	76.187561
552.786316	955.978821	25666.240234	19798.406250	76.253456
553.131897	951.743469	25736.158203	19794.615234	76.027100
553.477417	949.885925	25774.275391	19776.708984	75.840027
553.822815	947.656921	25806.375000	19729.080078	75.552666
554.168213	949.440186	25761.275391	19716.896484	75.639130
554.513672	950.554749	25680.507813	19622.013672	75.501396
554.859009	948.697083	25507.603516	19494.509766	75.515633
555.204285	945.725037	25291.310547	19324.802734	75.492447
555.549500	945.204834	24993.654297	19137.781250	75.649689
555.894714	948.399902	24722.076172	18915.244141	75.574532
556.239990	947.210999	24428.134766	18660.757813	75.438034
556.585022	941.564026	24184.123047	18469.875000	75.414719
556.930115	937.403137	23892.708984	18306.183594	75.663467
557.275146	944.313293	23670.171875	18120.947266	75.581894
557.620178	949.811707	23514.287109	17971.451172	75.435562
557.965149	951.966492	23388.564453	17836.441406	75.254166
558.310059	948.845764	23224.281250	17719.189453	75.286270
558.654968	946.542419	23088.380859	17606.177734	75.240524
558.999756	951.000488	22981.755859	17539.306641	75.296127
559.344604	952.932434	22973.880859	17549.412109	75.366783
559.689331	949.440186	22845.115234	17515.675781	75.659851
560.033997	945.947937	22767.912109	17433.794922	75.556198
560.378723	937.774658	22696.880859	17364.695313	75.494461
560.723389	940.969727	22733.585938	17353.326172	75.311539
561.067932	935.545593	22804.396484	17410.986328	75.337479
561.412476	938.294861	22819.257813	17419.976563	75.324295
561.757019	940.375244	22821.783203	17458.390625	75.488815
562.101501	941.786926	22823.197266	17483.654297	75.597809
562.445862	943.421631	22813.091797	17507.056641	75.737930
562.790222	937.700378	22787.009766	17464.779297	75.641197
563.134644	937.031677	22736.039063	17431.863281	75.667809
563.478943	937.031677	22742.281250	17435.654297	75.663536
563.823181	936.214294	22748.298828	17448.136719	75.700798
564.167358	941.043945	22772.669922	17459.281250	75.661972
564.511536	939.483582	22787.974609	17500.220703	75.798080
564.855774	940.152344	22822.898438	17571.404297	76.001671
565.199768	936.957336	22920.904297	17697.345703	76.239212
565.543823	937.180176	23095.367188	17824.255859	76.211449
565.887817	940.152344	23317.458984	18014.544922	76.302269
566.231812	938.294739	23546.234375	18167.535156	76.208801
566.575745	938.889099	23741.726563	18310.568359	76.182098
566.919617	937.700378	23958.244141	18436.064453	76.011948
567.263428	947.136780	24106.255859	18524.187500	75.896889
567.607239	953.081055	24229.373047	18595.888672	75.797333
567.950989	962.443176	24229.593750	18586.380859	75.746010
568.294678	951.594971	24225.062500	18572.486328	75.712357
568.638367	949.143005	24105.734375	18477.376953	75.694359
568.981995	942.307129	23980.236328	18356.933594	75.591110
569.325623	950.183167	23763.943359	18197.181641	75.599106
569.669128	945.056335	23585.095703	18066.259766	75.623558
570.012573	949.440186	23441.318359	17987.275391	75.751060
570.356140	944.759094	23399.859375	18009.789063	75.996231
570.699524	947.805481	23370.507813	18030.298828	76.183922
571.042908	942.975769	23424.005859	18100.291016	76.319077
571.386230	948.325623	23544.228516	18164.341797	76.190872
571.729492	947.136780	23718.914063	18325.873047	76.316994
572.072815	949.960266	23831.187500	18454.716797	76.502701
572.416016	941.935547	23947.099609	18566.986328	76.613457
572.759094	940.672424	24061.228516	18631.927734	76.517433
573.102234	936.734436	24205.150391	18681.783203	76.262383
573.445374	939.037781	24295.802734	18710.464844	76.086853
573.788391	940.375183	24289.412109	18711.728516	76.111717
574.131409	936.660095	24264.521484	18704.224609	76.164566
574.474365	928.263916	24164.359375	18647.904297	76.259117
574.817261	933.910889	24048.593750	18519.730469	76.080734
575.160156	935.694153	23862.765625	18334.716797	75.888550
575.502930	949.811707	23641.787109	18150.595703	75.801178
575.845703	943.793152	23454.843750	17988.169922	75.715599
576.188477	954.121277	23252.515625	17833.994141	75.699951
576.531250	947.211121	23035.031250	17670.080078	75.710815
576.873901	943.793213	22822.750000	17473.175781	75.549225
577.216431	940.449524	22540.992188	17286.228516	75.673004
577.559082	943.273010	22290.296875	17057.453125	75.486778
577.901611	954.492737	21955.265625	16830.605469	75.597748
578.244080	952.189392	21652.185547	16544.912109	75.327179
578.586487	951.966492	21317.228516	16308.628906	75.406158
578.928955	954.195557	21005.156250	16034.601563	75.210388
579.271301	955.681641	20676.441406	15819.867188	75.373291
579.613647	957.762146	20351.812500	15520.278320	75.087547
579.955872	956.201721	20060.843750	15317.135742	75.169861
580.298157	954.121277	19811.408203	15084.418945	74.932823
580.640320	952.189392	19562.568359	14932.023438	75.118484
580.982483	941.192566	19365.146484	14770.192383	75.059898
581.324524	940.598145	19211.712891	14616.682617	74.850845
581.666626	937.328857	19106.128906	14483.458008	74.557091
582.008728	940.746765	19018.005859	14371.557617	74.296715
582.350647	940.746765	18926.537109	14297.776367	74.264343
582.692566	947.954102	18849.039063	14216.636719	74.122223
583.034424	947.433899	18751.482422	14153.331055	74.173561
583.376343	947.434021	18661.572266	14098.198242	74.238800
583.718201	947.062500	18603.021484	14073.528320	74.345810
584.059937	945.725037	18481.390625	14044.848633	74.699898
584.401611	944.907715	18379.744141	13970.695313	74.711266
584.743347	943.124512	18270.220703	13915.190430	74.865784
585.085022	942.084167	18195.029297	13844.973633	74.786591
585.426514	947.433899	18150.148438	13789.172852	74.649490
585.768127	947.731201	18082.013672	13741.692383	74.668785
586.109619	950.777649	18065.591797	13686.561523	74.413803
586.451172	948.028503	18004.144531	13670.363281	74.591049
586.792542	945.056335	17956.664063	13671.031250	74.807594
587.133850	946.170898	17883.103516	13674.672852	75.152344
587.475220	942.381409	17891.126953	13678.684570	75.145988
587.816589	944.164734	17869.802734	13642.127930	75.022064
588.157776	947.508301	17926.720703	13647.180664	74.795410
588.498962	955.830261	17911.267578	13673.039063	75.003723
588.840210	957.836426	17949.162109	13742.585938	75.242805
589.181335	952.932373	17969.890625	13796.454102	75.474831
589.522400	950.331848	18052.812500	13818.745117	75.242966
589.863403	949.068665	18114.185547	13851.290039	75.165359
590.204407	955.087219	18110.769531	13848.096680	75.153000
590.545410	952.858093	18122.435547	13905.234375	75.437943
590.886353	948.994324	18144.947266	13897.506836	75.299767
591.227112	941.564026	18158.320313	13888.812500	75.201439
591.567932	940.746765	18107.498047	13817.184570	75.008003
591.908752	940.821106	18018.335938	13770.448242	75.125839
592.249512	944.833435	18020.119141	13766.585938	75.089539
592.590149	949.811707	17921.371094	13713.680664	75.207405
592.930786	957.242004	17888.378906	13665.682617	75.059586
593.271423	961.180115	17790.597656	13593.237305	75.059387
593.612000	957.687805	17751.810547	13565.075195	75.070236
593.952576	951.966492	17734.126953	13595.093750	75.336708
594.292969	952.115051	17750.621094	13651.936523	75.600899
594.633484	949.960266	17833.914063	13724.307617	75.659698
594.973877	948.474182	17917.208984	13755.141602	75.472137
595.314209	937.848938	18010.162109	13853.221680	75.650986
595.654480	939.632141	18158.767578	13988.601563	75.781799
595.994812	940.523865	18318.220703	14134.903320	75.927094
596.335022	938.591980	18531.916016	14265.601563	75.750381
596.675171	935.545593	18716.855469	14416.362305	75.814529
597.015320	936.362976	18891.691406	14538.664063	75.756348
597.355408	953.303894	18983.529297	14620.026367	75.798958
597.695496	956.498840	19072.097656	14666.910156	75.682899
598.035461	951.669189	19074.994141	14663.121094	75.656387
598.375366	949.663086	19022.759766	14633.622070	75.714516
598.715271	948.622803	18924.310547	14530.268555	75.555641
599.055176	953.006653	18742.712891	14361.304688	75.371101
599.395081	947.211121	18524.486328	14127.844727	74.986786
599.734802	952.189392	18162.705078	13849.507813	74.938591
600.074524	950.406067	17821.728516	13609.879883	75.035454
600.414246	947.879822	17416.037109	13332.359375	75.202576
600.753906	945.204895	17094.900391	13078.765625	75.131821
601.093506	949.365906	16788.773438	12842.184570	75.083733
601.433044	942.752930	16608.738281	12711.041992	75.120003
601.772583	937.477356	16475.068359	12641.122070	75.324707
602.112122	935.842773	16447.501953	12664.899414	75.614456
602.451538	946.765320	16503.525391	12690.458008	75.489319
602.790894	945.650696	16638.087891	12818.407227	75.659096
603.130310	942.604309	16828.822266	12943.163086	75.540688
603.469604	942.381348	17032.859375	13131.222656	75.751892
603.808838	943.867432	17284.595703	13330.206055	75.800407
604.148010	954.864197	17546.363281	13544.940430	75.882690
604.487305	955.087158	17821.580078	13782.485352	76.052559
604.826416	957.613464	18046.943359	13959.401367	76.081322
605.165527	953.229492	18262.419922	14125.987305	76.102676
605.504456	948.622803	18460.882813	14227.113281	75.823967
605.843445	948.251282	18544.992188	14271.472656	75.714149
606.182434	940.820984	18545.513672	14242.643555	75.558388
606.521423	942.752930	18385.615234	14132.972656	75.619576
606.860229	936.734375	18197.404297	13956.799805	75.431984
607.199036	940.895325	17895.511719	13753.581055	75.570480
607.537903	937.254456	17598.302734	13542.339844	75.656013
607.876648	945.353516	17307.705078	13307.023438	75.549469
608.215271	944.981934	17017.253906	13089.093750	75.559395
608.553955	939.706543	16775.025391	12892.933594	75.484596
608.892578	935.545593	16554.421875	12763.944336	75.731430
609.231140	936.734375	16473.804688	12689.567383	75.643814
609.569641	941.192566	16426.919922	12612.589844	75.368736
609.908081	942.604309	16474.697266	12637.407227	75.294441
610.246521	945.947998	16495.576172	12640.453125	75.207619
610.584961	948.102722	16557.767578	12714.309570	75.377701
610.923340	954.715637	16542.757813	12681.096680	75.226776
611.261597	951.817810	16465.333984	12617.270508	75.195412
611.599854	946.913818	16349.867188	12497.495117	74.989395
611.938110	941.638367	16186.178711	12361.520508	74.911293
612.276245	940.895325	15975.828125	12201.026367	74.893127
612.614319	946.393799	15678.096680	11972.323242	74.844910
612.952393	948.251282	15374.497070	11746.815430	74.853600
613.290466	947.211121	15107.971680	11510.977539	74.598862
613.628479	948.845764	14852.519531	11292.824219	74.397446
613.966370	947.136719	14593.796875	11075.266602	74.216911
614.304260	947.285339	14358.480469	10921.012695	74.368668
614.642151	943.124329	14145.083008	10803.986328	74.692421
614.979980	941.861267	14020.700195	10719.727539	74.760963
615.317749	939.483582	13909.542969	10591.926758	74.420967
615.655396	946.690979	13849.878906	10502.168945	74.055168
615.993164	946.765320	13789.247070	10446.144531	73.968407
616.330811	951.817871	13757.223633	10413.155273	73.885498
616.668396	950.331848	13714.424805	10386.851563	73.930199
617.005859	940.598145	13664.938477	10352.671875	73.969055
617.343445	937.328857	13645.916992	10357.650391	74.125633
617.680908	936.882996	13673.632813	10349.403320	73.900490
618.018311	951.594971	13731.737305	10357.576172	73.598412
618.355652	948.622864	13752.840820	10375.259766	73.621338
618.692993	948.622864	13741.768555	10372.956055	73.667053
619.030273	940.375305	13736.492188	10385.811523	73.814865
619.367554	937.551758	13728.096680	10368.350586	73.732582
619.704712	935.991394	13723.266602	10371.249023	73.786301
620.041870	939.780823	13706.028320	10351.112305	73.720421
620.379028	953.378235	13683.069336	10326.295898	73.630363
620.716064	957.687805	13619.019531	10283.050781	73.652306
621.053040	961.625793	13535.875000	10239.137695	73.781837
621.389954	956.127441	13463.578125	10188.760742	73.817062
621.726929	948.697083	13411.640625	10144.476563	73.784973
622.063843	941.043945	13343.059570	10082.582031	73.710098
622.400635	933.390808	13257.539063	10031.090820	73.820114
622.737427	927.966614	13187.098633	9987.697266	73.901894
623.074219	927.372253	13156.858398	9981.233398	74.033051
623.410889	934.133728	13116.808594	9966.893555	74.144310
623.747559	936.214294	13112.573242	9953.073242	74.052177
624.084167	940.821045	13071.409180	9930.187500	74.104950
624.420715	946.022278	13074.231445	9916.589844	73.964485
624.757324	952.709473	13057.811523	9934.793945	74.200813
625.093750	955.087219	13109.450195	9972.317383	74.189247
625.430176	945.204895	13166.367188	10024.625977	74.292618
625.766602	952.115051	13220.979492	10069.875977	74.316254
626.102905	952.263672	13288.743164	10128.723633	74.384758
626.439209	958.059326	13351.528320	10209.193359	74.645233
626.775452	950.480469	13482.898438	10308.610352	74.671387
627.111694	951.000549	13563.664063	10373.998047	74.710609
627.447876	945.130615	13676.010742	10438.864258	74.572487
627.783997	944.833313	13727.799805	10479.358398	74.587738
628.120056	938.443359	13782.709961	10520.670898	74.603149
628.456055	939.409241	13767.921875	10506.182617	74.574303
628.792053	937.923157	13732.331055	10470.961914	74.509415
629.128052	941.118225	13662.041992	10404.089844	74.389030
629.463928	948.251282	13597.621094	10332.610352	74.188354
629.799744	956.276062	13477.473633	10247.756836	74.206009
630.135559	960.288391	13373.821289	10134.667969	73.906273
630.471375	959.025208	13196.980469	10016.081055	74.007919
630.807068	963.483398	13051.941406	9891.401367	73.854897
631.142700	963.854980	12927.039063	9809.222656	73.938240
631.478333	962.368896	12814.768555	9708.021484	73.788033
631.813965	954.492737	12736.972656	9620.047852	73.546104
632.149475	950.034485	12588.960938	9522.785156	73.655853
632.484924	947.656921	12496.975586	9453.386719	73.647026
632.820435	946.690918	12396.370117	9400.707031	73.836266
633.155884	946.393738	12327.118164	9351.815430	73.856651
633.491150	955.607239	12256.160156	9341.709961	74.209663
633.826477	955.532959	12204.221680	9283.605469	74.035942
634.161804	952.709534	12157.635742	9249.575195	74.046585
634.497009	946.690979	12105.696289	9183.742188	73.815277
634.832153	945.279236	12012.817383	9139.458008	74.037956
635.167297	958.430847	11948.398438	9062.925781	73.744484
635.502380	959.693909	11872.831055	9009.575195	73.763222
635.837463	958.802307	11815.321289	8953.477539	73.639404
636.172424	945.576355	11739.903320	8910.084961	73.784210
636.507324	943.050110	11657.578125	8824.487305	73.558411
636.842224	943.050110	11577.627930	8754.569336	73.453964
637.177124	949.885925	11461.268555	8663.920898	73.387444
637.511963	946.468018	11349.368164	8590.434570	73.479187
637.846741	947.508301	11214.362305	8486.187500	73.427361
638.181396	942.009949	11091.166992	8408.467773	73.567268
638.516113	950.331787	10994.351563	8338.102539	73.553925
638.850769	948.325623	10873.459961	8287.502930	73.945366
639.185303	945.502136	10778.278320	8203.762695	73.817001
639.519836	941.638428	10681.610352	8110.810059	73.605675
639.854370	942.752930	10618.006836	8045.721191	73.413765
640.188843	946.690918	10537.686523	7989.177246	73.428101
640.523254	942.604309	10471.036133	7948.384766	73.525009
640.857605	946.245117	10387.297852	7894.664063	73.597923
641.191895	950.108887	10299.843750	7828.088379	73.563370
641.526184	948.845703	10218.407227	7777.191406	73.664169
641.860413	950.406067	10164.687500	7726.369141	73.537621
642.194580	946.616699	10111.708008	7697.093750	73.654221
642.528748	947.954102	10060.959961	7639.657715	73.430260
642.862793	940.226624	10008.576172	7593.515625	73.368248
643.196838	941.192566	9970.831055	7542.023438	73.101830
643.530823	944.759094	9919.190430	7507.472656	73.126785
643.864746	943.793152	9851.278320	7459.027344	73.143364
644.198669	948.474182	9807.291016	7429.157715	73.155190
644.532532	950.851868	9773.409180	7393.937988	73.029686
644.866333	950.406067	9759.290039	7358.496094	72.745766
645.200073	953.378174	9736.331055	7339.548828	72.710976
645.533813	950.257507	9706.536133	7336.947754	72.938416
645.867554	953.749695	9677.707031	7324.167969	73.022118
646.201172	944.907715	9670.796875	7331.673340	73.193298
646.534729	942.901550	9695.391602	7347.053223	73.169479
646.868225	945.353516	9742.870117	7379.523438	73.136208
647.201782	949.514404	9749.780273	7368.600098	72.941956
647.535217	951.892090	9739.377930	7354.779785	72.863701
647.868591	953.378235	9724.740234	7342.371582	72.839233
648.201965	949.068665	9748.887695	7327.808594	72.487167
648.535278	939.409363	9760.777344	7325.728516	72.396019
648.868591	934.282410	9755.426758	7328.849121	72.491348
649.201782	938.443359	9705.198242	7336.354004	72.979233
649.534912	948.697205	9663.143555	7304.329590	72.932144
649.868103	952.263672	9604.295898	7264.577637	72.957588
650.201172	952.189270	9581.782227	7229.060547	72.736588
650.534180	952.189270	9571.454102	7197.036621	72.452202
650.867188	956.647461	9536.308594	7168.578125	72.402985
651.200134	962.220154	9506.215820	7175.859375	72.725212
651.533020	962.814636	9453.015625	7155.798340	72.942726
651.865845	967.421387	9424.409180	7128.974609	72.857536
652.198608	962.443176	9382.055664	7090.857422	72.787369
652.531433	954.269958	9328.410156	7091.897949	73.292633
652.864136	945.947998	9290.812500	7091.972168	73.650383
653.196777	1017.947266	9312.360352	7235.748047	74.963722
653.529358	1023.965759	9260.719727	7192.800781	74.894005
653.861938	1016.535461	9207.295898	7135.959473	74.711304
654.194519	936.883057	9059.209961	6912.530762	73.570633
654.526978	939.186462	9004.969727	6886.004395	73.728958
654.859375	939.632263	8926.133789	6844.395996	73.934296
655.191833	943.124451	8890.246094	6809.101563	73.812599
655.524170	940.746765	8861.045898	6735.987793	73.169472
655.856445	946.245117	8843.807617	6689.103027	72.716843
656.188660	953.303894	8822.483398	6678.254395	72.751556
656.520874	949.365906	8762.148438	6676.990723	73.310944
656.853088	951.743591	8755.684570	6714.588379	73.845314
657.185181	945.130615	8742.383789	6714.142578	73.987747
657.517212	943.050110	8774.928711	6739.925781	74.016411
657.849243	943.718750	8806.433594	6749.287598	73.836693
658.181274	944.610413	8839.793945	6787.330566	74.003601
658.513123	951.297668	8901.094727	6846.624512	74.156944
658.844971	942.529968	8974.431641	6930.437500	74.551552
659.176819	940.895325	9073.774414	6997.533203	74.471016
659.508667	944.907715	9156.993164	7078.226074	74.686485
659.840393	948.102722	9224.237305	7134.845215	74.754013
660.172058	950.777649	9304.855469	7197.185059	74.770752
660.503662	943.273010	9348.396484	7192.354980	74.348488
660.835266	949.885925	9395.727539	7196.441406	73.960129
661.166931	950.406067	9345.127930	7165.085938	74.030800
661.498413	950.851868	9319.938477	7135.587891	73.899765
661.829773	950.777649	9207.742188	7022.127441	73.530037
662.161194	953.749756	9100.002930	6905.323730	73.059044
662.492615	956.201721	8936.090820	6768.532715	72.837242
662.823975	952.263672	8771.807617	6674.613281	73.180092
663.155212	948.474304	8624.911133	6578.391113	73.340233
663.486450	944.981995	8474.597656	6469.908691	73.375946
663.817627	941.415466	8340.703125	6370.046387	73.366943
664.148743	941.192566	8202.722656	6267.509277	73.349785
664.479858	947.731262	8120.470215	6208.364746	73.342049
664.810913	946.690918	8048.470703	6135.918457	73.069397
665.141907	953.675354	8012.359375	6084.724121	72.691292
665.472778	953.229675	7932.410156	6020.823730	72.610161
665.803711	958.876648	7875.270996	5985.232910	72.673073
666.134583	955.532959	7811.371094	5958.260254	72.970329
666.465454	956.870361	7798.367676	5948.378906	72.959305
666.796143	958.059265	7743.606934	5931.437500	73.293694
667.126831	958.579407	7720.349609	5912.267578	73.260223
667.457458	958.356506	7696.275391	5886.335938	73.138008
667.788147	959.322449	7695.830078	5874.967285	72.970230
668.118774	959.842529	7683.718750	5848.069824	72.699547
668.449219	957.316223	7662.097168	5858.249512	73.096100
668.779663	951.520691	7665.737793	5841.160156	72.825165
669.110107	950.480469	7649.167969	5839.004395	72.977341
669.440552	949.440247	7620.264160	5813.890625	72.921280
669.770874	949.960266	7575.831543	5797.692871	73.163696
670.101135	947.285400	7552.871582	5787.290527	73.271393
670.431396	948.622864	7532.884277	5767.229004	73.183701
670.761597	951.669250	7509.850098	5735.501465	72.944496
671.091797	951.149109	7482.357910	5704.071777	72.772484
671.421875	957.316223	7440.377441	5688.913574	72.984001
671.751892	951.743591	7409.021484	5660.529785	72.922157
672.081909	948.994324	7368.303223	5627.985840	72.889336
672.411865	940.746765	7337.542480	5578.351563	72.498871
672.741821	943.050110	7292.367188	5546.995605	72.510880
673.071716	948.548584	7267.847168	5514.896484	72.260353
673.401550	953.378235	7224.230469	5467.416504	71.984444
673.731262	950.257507	7217.617676	5450.996094	71.812347
674.060974	952.263672	7177.494141	5431.528809	71.953400
674.390625	948.474304	7135.364746	5427.070801	72.388489
674.720276	950.703308	7074.584473	5401.808105	72.684380
675.049927	943.867432	7014.325684	5367.554199	72.872368
675.379395	946.096497	6985.050293	5340.953613	72.775139
675.708923	948.474182	6942.994629	5299.864746	72.589470
676.038330	947.285400	6909.707031	5288.272949	72.805771
676.367737	945.130615	6860.295410	5261.003906	72.962852
676.697083	951.297791	6811.330078	5248.743652	73.334846
677.026428	951.594910	6774.996094	5217.017090	73.246239
677.355652	948.845703	6762.811035	5206.762695	73.236023
677.684875	947.359619	6770.687012	5205.796875	73.127228
678.013977	943.793152	6776.853516	5197.772461	72.928772
678.343079	943.644531	6783.318359	5206.243164	72.993782
678.672180	944.016113	6787.851074	5206.614746	72.941803
679.001221	950.480469	6793.498047	5235.815430	73.341125
679.330139	953.452454	6811.627441	5267.245605	73.637154
679.659058	948.622864	6849.150391	5311.083984	73.933411
679.987976	946.096619	6897.447266	5328.099609	73.630394
680.316772	939.112122	6932.518066	5352.990723	73.645576
680.645630	939.186462	6972.418457	5361.906738	73.305984
680.974304	943.718811	7034.461426	5399.727051	73.160347
681.302979	943.050110	7084.170410	5425.436035	72.989708
681.631653	947.136902	7111.811035	5452.853516	73.089294
681.960266	944.982117	7099.699707	5454.637207	73.271523
682.288757	950.108887	7106.535156	5445.869629	73.025497
682.617249	946.542297	7099.773438	5448.395508	73.162422
682.945679	946.096497	7097.173340	5423.355957	72.788223
683.274109	943.347351	7089.593750	5383.529785	72.242180
683.602478	936.660156	7043.154785	5318.811523	71.762146
683.930725	933.613708	6979.849121	5278.539063	71.861664
684.259033	938.071838	6881.324219	5239.530273	72.375496
684.587280	948.994324	6821.361816	5192.719727	72.266006
684.915344	956.647522	6747.132813	5139.964844	72.244675
685.243469	960.214050	6683.380859	5074.578613	71.889648
685.571533	957.019043	6599.567871	5023.978516	72.076637
685.899536	949.811707	6538.861816	4968.697266	71.906410
686.227539	950.034485	6481.723145	4927.087891	71.895836
686.555420	943.421570	6466.045410	4894.617188	71.545616
686.883301	944.684753	6453.488281	4882.431641	71.480980
687.211121	944.238953	6445.314941	4873.366699	71.424713
687.538940	947.434021	6427.556641	4870.171875	71.581207
687.866638	944.684814	6436.695801	4874.109863	71.548019
688.194336	943.941833	6449.327637	4874.332520	71.391739
688.521973	943.124512	6455.717285	4872.251953	71.275490
688.849609	951.000549	6430.380371	4853.379395	71.219353
689.177063	942.604309	6409.724121	4841.937012	71.323349
689.504578	937.923279	6358.083496	4826.556152	71.743874
689.832031	930.790222	6296.338379	4798.692383	72.087730
690.159485	939.483582	6220.623535	4731.597168	71.804825
690.486816	950.406067	6162.519531	4652.390625	71.026558
690.814087	953.452576	6101.813965	4583.586426	70.510468
691.141296	953.452454	6014.805176	4550.075684	71.060516
691.468506	952.412292	5915.833496	4491.079102	71.294907
691.795715	951.594910	5825.630371	4450.658691	71.789864
692.122803	951.223450	5764.553223	4387.353027	71.387787
692.449829	952.709534	5703.699219	4361.644043	71.752090
692.776855	951.892273	5628.802734	4293.582520	71.450806
693.103821	947.285400	5573.669922	4258.734863	71.577477
693.430664	940.895447	5522.400879	4218.908203	71.548813
693.757568	941.043945	5477.225098	4203.082031	71.911545
694.084351	942.901550	5414.513672	4170.166016	72.172279
694.411133	945.650696	5364.135742	4139.627441	72.286697
694.737854	940.821106	5336.866699	4095.788330	71.768303
695.064575	941.638367	5308.706543	4061.609375	71.443146
695.391174	940.449524	5285.895020	4044.742920	71.437866
695.717773	952.115051	5267.170898	4042.885498	71.627594
696.044250	951.297791	5265.462402	4058.711670	72.028168
696.370789	950.777649	5273.264160	4068.742920	72.133606
696.697205	948.622864	5280.694336	4088.284424	72.474838
697.023621	950.331787	5312.644043	4120.680176	72.675865
697.349915	945.947937	5359.975098	4155.677246	72.716568
697.676208	941.118164	5439.255859	4214.970703	72.782402
698.002380	944.610413	5522.697754	4277.682129	72.804893
698.328674	948.325684	5634.003906	4354.882813	72.701477
698.654724	953.824036	5729.408203	4440.627930	73.013145
698.980896	950.703369	5843.017090	4517.456543	72.905243
699.306946	953.081055	5922.595215	4576.750488	72.917984
699.632935	949.588867	5982.781250	4614.124512	72.807381
699.958862	949.663086	6011.833496	4640.650391	72.913139
700.284729	948.102722	6007.300781	4650.013184	73.171875
700.610596	942.752930	5979.064941	4617.021973	72.955551
700.936340	939.483582	5903.648438	4555.351074	72.839386
701.262146	944.164612	5799.625000	4453.036621	72.266518
701.587830	952.932373	5669.595215	4362.758789	72.293198
701.913513	952.783752	5522.252441	4255.465332	72.277145
702.239075	954.864258	5372.532715	4147.280762	72.264740
702.564697	952.337952	5240.199219	4033.968750	71.868713
702.890137	954.864258	5114.181641	3932.619873	71.592415
703.215698	951.223389	5018.628418	3859.729248	71.507652
703.541016	946.616638	4912.895996	3790.181641	71.693512
703.866455	945.576355	4826.109863	3725.761475	71.644402
704.191711	938.146057	4755.448242	3682.145752	71.883217
704.517029	944.461914	4703.584473	3636.969482	71.625961
704.842163	944.164551	4664.056152	3593.056641	71.208855
705.167419	945.724915	4625.195801	3558.505859	71.009689
705.492493	941.118164	4579.796387	3546.468750	71.601563
705.817566	934.208008	4543.016602	3519.645508	71.642410
706.142578	936.214294	4512.552734	3504.264893	71.806702
706.467590	938.369141	4505.939941	3483.385986	71.337532
706.792480	943.570251	4490.336426	3481.156982	71.546494
707.117371	947.285339	4477.630859	3471.794922	71.508850
707.442200	951.297668	4467.079590	3474.766846	71.775475
707.766907	960.882751	4456.156738	3482.419922	72.141327
708.091675	959.173828	4443.228027	3483.831787	72.463226
708.416321	955.755859	4437.655762	3474.766846	72.345879
708.741028	944.090332	4458.535156	3470.159912	71.876778
709.065552	942.307129	4482.237793	3473.800781	71.512520
709.390137	944.387512	4499.327148	3490.295898	71.616081
709.714600	952.635071	4513.890137	3503.596436	71.630966
710.039063	951.223389	4549.109375	3519.125732	71.372536
710.363403	952.709473	4597.035156	3540.227539	71.001282
710.687744	953.080994	4651.499023	3572.846436	70.834755
711.012085	959.991211	4697.046387	3593.279541	70.464264
711.336304	953.824036	4768.748535	3618.914063	69.859573
711.660461	956.201843	4818.234375	3634.591797	69.351822
711.984619	957.390625	4860.512207	3666.244873	69.402252
712.308716	965.786804	4862.815918	3681.179688	69.678535
712.632751	956.350342	4861.552246	3701.910156	70.305199
712.956726	951.743469	4835.175293	3693.662842	70.605576
713.280701	948.028503	4793.788574	3669.439697	70.763939
713.604553	961.105652	4748.018066	3623.594971	70.307655
713.928467	961.923035	4684.266113	3602.269775	70.932388
714.252258	968.015808	4623.264160	3565.193115	71.053375
714.575989	956.944763	4568.279785	3540.598877	71.542908
714.899719	953.303894	4523.104004	3486.655273	70.966194
715.223267	939.037781	4477.853516	3460.352295	71.247406
715.546936	942.381348	4439.067383	3425.949951	71.026352
715.870422	948.994324	4406.076660	3397.194580	70.816948
716.193970	952.635193	4373.829590	3376.389893	70.845276
716.517395	948.177002	4326.572754	3356.253906	71.278709
716.840820	945.056335	4292.542480	3344.216797	71.670509
717.164124	954.864258	4261.261230	3314.941406	71.379120
717.487488	956.721863	4231.763184	3306.916748	71.760773
717.810730	950.108887	4191.193848	3287.821045	72.127457
718.133972	947.508301	4139.107910	3256.167969	72.335503
718.457092	949.291504	4088.507080	3201.704346	71.750816
718.780212	950.926270	4032.557373	3153.555908	71.476097
719.103210	947.879883	3981.139648	3114.918945	71.442581
719.426208	944.759216	3929.647705	3085.272217	71.711655
719.749207	951.966492	3888.707031	3047.303467	71.349068
720.072083	948.920105	3852.447266	3014.758789	71.149277
720.394958	952.635254	3808.014404	2989.496094	71.334167
720.717773	953.378235	3761.203857	2955.836670	71.317055
721.040527	952.858154	3726.058350	2926.487061	71.167923
721.363281	950.703308	3699.532471	2890.004639	70.550087
721.685913	951.446289	3678.430420	2880.047852	70.722878
722.008545	951.223389	3653.167969	2867.490967	70.921791
722.331055	952.783752	3626.938721	2850.698242	70.972496
722.653503	951.074890	3611.855225	2829.447510	70.594803
722.976013	954.195557	3585.700439	2829.447266	71.261574
723.298401	947.805481	3582.059570	2827.664063	71.362083
723.620789	943.644531	3566.604736	2824.989502	71.726021
723.943115	943.421631	3565.936279	2802.401367	70.885391
724.265381	949.960266	3545.800049	2783.231201	70.623428
724.587585	954.715637	3537.552734	2769.856689	70.277023
724.909790	953.303955	3523.806641	2768.667969	70.622917
725.231873	950.777649	3535.471924	2772.606201	70.485260
725.553894	946.096497	3538.593018	2776.023682	70.585526
725.875916	980.870178	3589.564453	2823.949219	70.651398
726.197937	986.145691	3588.524170	2827.813232	70.768631
726.519775	989.415039	3582.357178	2825.732422	70.819839
726.841675	956.944763	3556.722656	2785.460693	70.333542
727.163513	951.520691	3556.351318	2794.748291	70.761894
727.485291	957.910706	3586.072266	2813.100830	70.588890
727.806946	954.492859	3600.115479	2830.562256	70.912209
728.128662	954.567078	3623.149414	2844.010986	70.803284
728.450256	947.359680	3642.839844	2869.719727	71.317909
728.771790	949.960205	3658.591797	2871.131592	70.927750
729.093323	953.229675	3673.303467	2876.481445	70.705864
729.414795	947.582703	3670.851563	2878.784912	70.914856
729.736145	946.319519	3665.055908	2866.822021	70.639526
730.057495	949.811707	3660.375000	2863.998291	70.619514
730.378845	949.663086	3659.483154	2849.360596	70.104195
730.700134	952.709473	3651.755859	2848.915039	70.254646
731.021301	951.000549	3650.567139	2846.240234	70.205330
731.342468	958.207947	3643.805664	2849.360596	70.418312
731.663574	956.944763	3647.891846	2870.908447	71.126022
731.984680	958.207825	3657.403076	2873.137451	70.944466
732.305664	954.269836	3666.839111	2877.075439	70.885033
732.626648	951.520691	3675.904297	2872.989014	70.528549
732.947571	946.096497	3689.352783	2872.468750	70.222107
733.268433	951.520569	3695.966064	2870.239502	69.912811
733.589233	956.498840	3693.662354	2866.524658	69.781212
733.909973	960.362610	3668.473633	2865.632813	70.354218
734.230713	956.350281	3646.331299	2861.695068	70.831161
734.551331	944.461914	3612.078125	2849.434814	71.411057
734.871948	946.765320	3582.357178	2818.525391	71.018585
735.192505	937.997559	3535.769531	2787.763916	71.205879
735.513062	946.616699	3479.373291	2749.794922	71.194298
735.833435	942.530029	3427.138428	2713.832764	71.291023
736.153931	957.687744	3380.178955	2681.139404	71.143776
736.474304	954.269836	3350.161133	2654.241943	70.953644
736.794617	956.127441	3314.644531	2633.957031	71.139175
737.114807	957.093445	3294.731201	2605.944824	70.534943
737.434998	958.133606	3288.266846	2580.830566	69.639664
737.755188	954.418457	3274.892578	2577.412842	69.942360
738.075256	945.650696	3276.378174	2583.431396	70.269081
738.395325	949.068665	3284.700439	2603.790283	70.846855
738.715271	952.412292	3311.895264	2617.461914	70.568413
739.035278	950.777649	3328.836182	2630.539063	70.635834
739.355164	942.975891	3339.089844	2636.632080	70.683456
739.675049	941.861328	3352.389893	2645.548096	70.676895
739.994873	946.690979	3355.510986	2637.449219	70.190308
740.314636	957.910645	3358.185791	2634.774658	69.861328
740.634277	954.641357	3349.046875	2617.090576	69.430565
740.953979	953.601074	3326.309814	2598.291992	69.317017
741.273499	942.604309	3299.412354	2566.936279	68.920845
741.593140	942.975891	3254.458984	2544.348145	69.278999
741.912598	941.192627	3226.372803	2515.147217	68.876610
742.232117	949.217285	3196.354248	2482.676758	68.240585
742.551453	953.081055	3153.258789	2455.704834	68.295563
742.870850	958.653625	3100.875244	2437.426514	69.029877
743.190063	956.721741	3053.767578	2421.302734	69.840202
743.509338	953.006653	3029.544922	2392.399170	69.316925
743.828552	946.319397	3014.981689	2355.396240	68.115364
744.147705	942.158508	2987.415283	2338.380859	68.266357
744.466797	942.158508	2965.941650	2324.411865	68.300468
744.785828	944.981995	2942.313232	2323.817383	69.033890
745.104858	955.830261	2920.988281	2309.254150	68.870995
745.423706	953.080994	2902.338623	2301.601074	69.181213
745.742615	958.728027	2880.493408	2285.997314	69.065109
746.061401	957.464844	2863.626953	2271.508545	68.936615
746.380249	965.266663	2849.658203	2259.768555	68.696014
746.698975	956.350342	2840.295898	2249.663330	68.649170
747.017639	956.350342	2831.305420	2245.948242	68.780205
747.336304	947.805603	2824.617920	2238.369385	68.763603
747.654907	951.966492	2816.444580	2252.263916	69.740555
747.973389	943.941833	2816.890381	2255.161865	70.008331
748.291931	947.434082	2819.490967	2264.003662	70.327431
748.610352	943.124512	2822.760498	2252.561279	69.664383
748.928711	944.982117	2828.184326	2253.378662	69.477219
749.247070	946.022278	2818.079346	2244.536865	69.362984
749.565308	947.211121	2815.552734	2246.096924	69.520790
749.883545	948.845764	2811.094727	2235.694580	69.101868
750.201782	949.068665	2809.311523	2237.031982	69.236298
750.519836	950.183167	2800.543701	2231.533447	69.248680
750.837952	948.994324	2777.658447	2227.149658	69.895576
751.155884	942.529968	2766.958740	2218.233154	69.923431
751.473877	946.765198	2766.290039	2208.648438	69.352348
751.791809	947.062500	2760.643311	2206.344971	69.436249
752.109619	956.276062	2746.600342	2196.239990	69.259178
752.427490	951.892151	2720.222656	2185.911865	69.784454
752.745300	943.421631	2728.098633	2175.212158	69.020363
753.062988	939.037781	2723.046143	2168.673584	68.925453
753.380615	942.530029	2723.714844	2162.952148	68.517433
753.698303	949.663086	2701.646729	2167.261719	69.498291
754.015808	951.000488	2692.879150	2164.735352	69.679642
754.333374	950.851868	2692.879150	2152.995605	69.008316
754.650757	950.480408	2693.325195	2136.649170	68.059341
754.968262	949.811707	2695.554199	2124.537842	67.290916
755.285583	948.622864	2693.473389	2131.968018	67.819283
755.602905	951.149170	2704.916260	2124.389160	66.898277
755.920105	955.904480	2696.297119	2132.636719	67.613029
756.237305	948.548523	2694.068115	2123.794678	67.329300
756.554443	943.867371	2669.697021	2120.525391	68.179268
756.871582	936.585693	2671.108398	2108.859863	67.584824
757.188599	943.867432	2659.368652	2108.859619	67.909729
757.505615	946.690918	2666.650391	2117.478760	68.070663
757.822510	951.669250	2667.244873	2129.515869	68.656059
758.139465	948.622864	2671.851563	2133.305420	68.747841
758.456238	951.594910	2681.882568	2147.942871	69.141563
758.773010	940.077942	2702.910156	2154.778809	68.906212
759.089783	939.037781	2720.222900	2173.057373	69.280815
759.406433	935.991394	2745.857178	2172.239990	68.306091
759.723145	949.440125	2749.052002	2175.435059	68.125519
760.039673	953.824036	2767.553467	2184.648438	67.861526
760.356201	956.647522	2777.733154	2192.301758	67.852615
760.672668	952.560852	2784.197266	2200.252197	68.118942
760.989136	949.217285	2774.463623	2189.255371	67.938126
761.305481	943.347351	2767.999268	2192.673340	68.469276
761.621826	942.827148	2775.281006	2192.078857	68.173706
761.938049	947.136719	2798.537842	2202.258301	67.793068
762.254333	950.926270	2807.973877	2213.106445	67.967033
762.570496	946.096497	2843.639404	2234.505859	67.898827
762.886597	946.765320	2899.812256	2264.004150	67.445320
763.202637	954.715637	2989.346924	2327.012695	67.446968
763.518677	964.226379	3111.797852	2398.863281	66.802757
763.834656	955.978821	3263.004150	2488.100830	66.411148
764.150574	946.022217	3419.411377	2567.901855	65.573166
764.466370	942.084167	3539.707275	2659.219971	66.104118
764.782288	949.143005	3613.489990	2713.683838	66.227890
765.097961	957.687744	3626.418701	2739.689697	66.773384
765.413696	955.458679	3588.969971	2716.730225	66.879211
765.729309	953.749756	3496.834717	2672.966064	67.603577
766.044861	948.622803	3376.538330	2587.295166	67.492973
766.360474	948.697205	3231.499268	2489.586914	67.499924
766.675903	947.434021	3083.562744	2386.306396	67.358879
766.991394	943.867493	2955.464844	2295.879639	67.210876
767.306763	946.542419	2847.057373	2217.935791	66.897308
767.622131	947.805481	2755.516357	2162.952148	67.220192
767.937378	946.913879	2669.548096	2113.392334	67.714806
768.252625	943.124451	2609.214111	2084.636963	68.514473
768.567810	941.489746	2562.403564	2050.383545	68.411644
768.882996	943.421631	2511.580322	2020.216675	68.666206
769.197998	943.793152	2476.435303	1980.390503	67.634666
769.513062	941.266846	2432.894287	1956.762085	68.079681
769.828064	938.369080	2413.575195	1932.019531	67.356720
770.142944	943.347351	2379.247559	1913.740845	67.580849
770.457825	943.570313	2346.851318	1897.840210	68.002769
770.772705	953.824036	2321.217041	1894.496460	68.793129
771.087402	950.406189	2294.245361	1884.614136	69.517845
771.402100	956.721863	2274.554932	1865.890015	68.989632
771.716736	955.904480	2241.861572	1853.184204	69.775246
772.031372	952.189392	2217.936279	1851.252319	71.030235
772.345947	951.817871	2207.459717	1840.403931	70.767479
772.660461	952.263672	2199.657715	1824.503296	69.924950
772.974854	958.579407	2186.654541	1799.017578	68.435402
773.289246	954.567139	2171.794189	1788.317993	68.495918
773.603638	951.074890	2165.032471	1771.153931	67.554176
773.917908	950.108826	2153.441406	1764.838257	67.706093
774.232178	942.009827	2136.277588	1761.791870	68.643066
774.546265	935.545471	2112.798096	1757.333618	69.805588
774.860474	934.208069	2104.104492	1737.197632	68.637657
775.174561	933.093567	2096.525391	1718.696289	67.524597
775.488586	936.660095	2092.736084	1713.049316	67.157288
775.802551	936.660095	2083.448242	1718.176270	68.148262
776.116516	946.468079	2074.531982	1713.866577	68.027924
776.430359	943.198730	2058.259766	1706.882202	68.488045
776.744202	941.935547	2044.662231	1706.213379	69.307999
777.057922	942.158508	2030.619141	1700.046265	69.629318
777.371704	940.821045	2029.356079	1692.764648	69.078491
777.685303	943.347351	2013.158081	1677.903931	68.662292
777.998962	938.889160	2008.105469	1667.427368	68.137589
778.312500	936.511536	1994.507813	1659.848511	68.368568
778.626038	931.013000	1991.387207	1666.535767	69.364449
778.939453	936.214294	1989.603882	1679.241577	70.536797
779.252869	944.684753	1997.628540	1684.665649	70.277336
779.566223	953.006653	2004.315796	1680.207520	69.170990
779.879578	953.155273	2002.829712	1661.408813	67.473640
780.192749	952.486572	1994.359253	1661.111694	68.014557
780.505920	948.994324	1985.740112	1648.108765	67.433540
780.819031	951.520691	1975.486328	1650.783569	68.289680
781.132141	952.858093	1973.777344	1641.867188	67.489090
781.445190	958.505127	1974.817749	1642.090210	67.261299
781.758118	959.248230	1971.622681	1634.065430	66.656876
782.071045	957.762024	1958.322632	1631.836304	67.369659
782.383911	953.898254	1939.375366	1629.904663	68.596863
782.696838	955.161438	1917.084473	1629.681641	70.122055
783.009583	958.579407	1906.161987	1615.341187	69.309189
783.322266	960.659851	1889.518188	1605.533203	69.426445
783.634888	957.613464	1884.614258	1602.041016	69.517479
783.947510	962.145935	1873.394531	1597.582886	69.732559
784.260132	960.808411	1875.252319	1584.876953	68.245689
784.572571	957.985046	1872.428589	1565.781250	66.466232
784.885010	947.211121	1865.592773	1559.242676	66.642395
785.197449	945.650696	1856.602051	1556.864868	67.096245
785.509766	943.793152	1842.261597	1566.004272	69.252419
785.822083	944.536133	1831.041992	1567.415894	70.262337
786.134277	942.381409	1815.141235	1554.487305	70.134521
786.446533	937.180359	1817.073120	1542.970337	68.848160
786.758606	938.369141	1823.983276	1543.193359	68.294327
787.070740	946.245178	1831.933594	1551.960938	68.389259
787.382690	949.440186	1829.630249	1562.883423	69.694405
787.694641	955.012878	1838.472168	1563.106445	68.830963
788.006653	953.824036	1867.747437	1568.307617	67.235786
788.318481	954.715637	1900.960571	1578.932983	65.967842
788.630310	948.251282	1926.817993	1589.335327	65.512550
788.942017	946.691101	1942.272949	1607.910767	66.415398
789.253784	952.709534	1965.678345	1611.180176	65.004036
789.565430	952.263672	1968.799194	1617.718872	65.463051
789.877014	943.644531	1954.830078	1618.461914	66.735268
790.188538	943.347351	1936.477417	1622.919922	68.427345
790.500061	949.068665	1918.719116	1613.929321	68.567047
790.811462	953.824036	1904.155762	1598.102905	67.795158
791.122925	949.960266	1879.784546	1571.205444	66.813179
791.434204	944.313293	1849.394531	1556.344727	67.621712
791.745483	945.204895	1831.116211	1541.707031	67.332039
792.056702	949.365906	1806.076172	1523.280151	66.990471
792.367920	950.703308	1786.088867	1507.973755	66.708176
792.678955	948.474304	1774.348999	1500.394897	66.828613
792.990112	942.678650	1752.727051	1498.462891	68.611237
793.301086	940.152344	1746.485718	1497.571289	69.130081
793.612122	933.613770	1725.309204	1480.630371	69.094322
793.922974	942.232910	1728.430054	1485.088501	69.048279
794.233826	948.399963	1725.383423	1478.921387	68.279633
794.544556	962.145996	1730.584595	1484.419800	67.965584
794.855286	959.768250	1725.457642	1479.441406	67.869972
795.166016	958.728027	1722.188477	1482.859375	68.652061
795.476624	947.656921	1724.046021	1489.918091	69.843994
795.787292	946.542297	1736.528931	1497.794312	69.779915
796.097778	946.245117	1752.280884	1497.051270	68.335197
796.408264	944.238953	1758.596680	1498.462891	68.056572
796.718689	932.424805	1772.862915	1498.240112	67.323853
797.029053	934.951172	1790.249634	1507.305054	66.918617
797.339355	947.211121	1803.995728	1511.391602	65.848579
797.649658	955.235779	1797.605835	1520.382202	67.090042
797.959839	947.582520	1787.351929	1515.181152	67.589821
798.270020	936.511414	1779.624390	1510.500000	68.079674
798.580078	937.700256	1763.797852	1494.896484	67.449203
798.890137	937.254395	1746.559570	1487.689087	68.013245
799.200195	946.839539	1737.346313	1479.367188	67.365349
799.510071	943.124451	1719.736450	1471.639771	68.053970
799.820007	944.610535	1711.860474	1465.918457	67.944992
800.129883	941.861328	1691.427246	1454.401489	68.378265
800.439575	953.452454	1694.770874	1443.553223	66.112045
800.749329	957.018982	1687.191895	1438.946411	66.001823
801.058960	958.876526	1686.745972	1434.785522	65.383842
801.368591	950.628906	1679.538696	1433.150879	66.197762
801.678162	951.966492	1678.424194	1428.023926	65.531334
801.987671	953.378174	1672.628540	1421.782593	65.123970
802.297119	958.950928	1666.833008	1417.844360	64.826256
802.606506	960.288391	1659.105591	1407.665039	64.019127
802.915894	955.012878	1648.554565	1408.630859	65.406013
803.225159	950.406067	1641.867188	1405.584595	65.828506
803.534424	951.223450	1626.635132	1409.671265	67.876801
803.843628	948.325684	1622.622925	1406.476196	67.944893
804.152771	944.238953	1622.697266	1405.807495	68.031967
804.461792	945.204895	1629.607422	1410.191284	67.940483
804.770874	945.799316	1627.155273	1417.027222	69.160309
805.079773	956.424622	1621.656860	1415.838257	69.060638
805.388733	951.297791	1620.765259	1410.785767	68.634850
805.697571	955.533020	1624.926270	1405.658813	67.243851
806.006470	953.601074	1641.941406	1411.083008	66.461594
806.315125	952.486572	1651.823730	1412.123169	65.724609
806.623901	956.573242	1661.408813	1418.884766	65.591400
806.932495	953.081055	1660.071289	1419.553589	65.980057
807.241150	956.127441	1655.093140	1418.661743	66.174103
807.549622	950.777588	1657.990845	1409.151001	64.814034
807.858154	945.799316	1651.080688	1407.813599	65.507797
808.166565	932.201965	1645.805298	1402.018066	65.837151
808.474915	933.093567	1622.177124	1399.640503	67.705421
808.783264	930.790222	1602.189575	1391.244141	68.581230
809.091492	946.170898	1591.415649	1383.590942	67.791336
809.399719	945.279236	1589.929688	1385.299927	68.257256
809.707825	954.418457	1595.502319	1376.755249	65.878555
810.015930	951.000488	1587.106079	1370.736694	65.985306
810.323975	964.449280	1580.121582	1360.259888	64.289169
810.632080	969.353333	1581.087524	1354.984375	63.038986
810.939880	966.752686	1581.236206	1356.396118	63.409908
811.247864	950.554688	1570.685059	1353.721313	65.013206
811.555664	946.022156	1549.360229	1358.996704	68.448280
811.863464	947.211121	1547.057007	1344.582031	66.245499
812.171143	954.195557	1543.490234	1347.405640	66.725548
812.478882	948.028503	1539.032227	1340.421143	66.394272
812.786438	942.158508	1534.054077	1347.851318	68.541283
813.094055	932.870667	1539.255249	1339.083618	66.989326
813.401489	936.437195	1543.564575	1336.111450	65.830376
813.708984	942.381531	1535.763062	1329.201294	65.189049
814.016357	956.350342	1527.961304	1326.526367	64.760132
814.323730	957.539124	1524.394531	1330.613159	65.814674
814.630981	961.625793	1518.896118	1335.071167	67.013329
814.938232	953.824036	1520.679565	1323.554321	65.224785
815.245361	947.359680	1521.422485	1318.427490	64.638885
815.552490	949.588867	1525.954956	1315.083862	63.413689
815.859619	943.941895	1517.335815	1333.733887	67.979790
816.166565	950.108948	1522.016968	1338.117676	67.844604
816.473572	948.697205	1522.091187	1340.792603	68.381500
816.780457	956.053162	1536.877441	1334.997070	65.242439
817.087341	946.839600	1535.168457	1330.836060	65.269020
817.394043	943.867432	1540.964233	1330.464600	64.746147
817.700806	938.146179	1542.301758	1337.226074	66.055817
818.007507	941.192566	1549.211792	1340.495483	65.672745
818.314209	936.065674	1554.561523	1346.736694	66.398346
818.620667	935.025452	1556.939087	1344.284790	65.806458
818.927246	940.672546	1574.994751	1351.715088	64.800278
819.233704	950.703308	1596.691040	1366.501343	64.366241
819.540161	957.687744	1624.331665	1392.061523	65.158287
819.846497	955.458679	1645.285156	1415.244019	66.652321
820.152832	946.542297	1691.129883	1443.033203	66.679985
820.458984	939.557922	1753.024048	1471.639648	65.409203
820.765259	944.907715	1828.367065	1514.586548	64.482742
821.071350	947.359680	1928.378540	1576.926758	64.174820
821.377502	956.647461	2091.175781	1676.566772	63.455383
821.683472	955.681641	2376.423828	1853.852905	63.218456
821.989441	957.539124	2823.131836	2103.733154	61.438602
822.295349	957.316223	3414.135742	2434.082764	60.108875
822.601196	952.040833	4105.373535	2797.274414	58.516933
822.907043	950.554688	4775.510254	3179.041748	58.261776
823.212769	943.718811	5322.898438	3490.964844	58.167198
823.518494	941.489746	5620.777832	3687.569580	58.685848
823.824097	940.523743	5627.911621	3713.278076	59.153511
824.129700	941.118164	5397.869629	3613.415283	59.960648
824.435242	948.028503	5059.866699	3434.569092	60.472721
824.740723	948.325623	4707.523438	3244.502686	61.081570
825.046082	940.449524	4352.133789	3041.061768	61.571121
825.351501	942.084229	3957.437256	2815.255859	62.121140
825.656799	940.077942	3553.676025	2575.629639	62.578548
825.962036	949.737305	3184.688721	2349.600830	62.635075
826.267212	943.050110	2906.499268	2183.162354	63.159885
826.572449	939.334961	2734.563232	2077.727295	63.412121
826.877502	940.375244	2691.170166	2052.018311	63.493618
827.182495	942.975891	2752.841797	2065.912842	62.045315
827.487488	943.198792	2868.753906	2115.250000	60.868225
827.792419	941.935608	2982.065430	2162.729248	59.839020
828.097290	946.765198	3054.138672	2213.552246	60.112129
828.402100	949.217224	3059.934326	2214.518311	59.946503
828.706848	950.777588	2977.607178	2183.533936	60.821903
829.011597	948.920105	2840.444336	2106.853760	61.216961
829.316223	954.938477	2669.102295	2020.811157	62.180328
829.620789	950.629089	2527.109619	1935.362915	62.464069
829.925354	956.573242	2380.138916	1851.623657	62.873840
830.229797	958.356506	2235.248779	1768.627563	63.456490
830.534302	961.700195	2073.566162	1685.705688	65.116257
830.838562	955.830261	1922.434448	1596.616821	66.292549
831.142944	948.399902	1815.289917	1523.131470	66.298096
831.447144	950.406006	1722.188477	1454.772949	65.350922
831.751404	951.669189	1667.130249	1424.160278	66.040085
832.055542	958.282043	1620.468140	1403.281250	67.201530
832.359619	951.966492	1601.372192	1393.027466	67.917633
832.663635	949.142883	1604.938843	1382.476440	66.077499
832.967651	944.238953	1632.728027	1397.113892	65.778084
833.271545	943.941711	1695.291016	1421.188110	63.518578
833.575439	941.712708	1782.893921	1471.788208	63.015614
833.879211	945.725098	1898.211548	1527.961304	61.128029
834.183044	944.982117	2017.244507	1610.511597	62.067780
834.486694	940.375244	2121.714111	1666.907227	61.500725
834.790344	943.198730	2183.905518	1710.894531	61.875683
835.093933	947.879822	2208.722656	1717.655884	61.052502
835.397522	952.709473	2173.131592	1709.185547	61.984791
835.700928	944.313293	2118.890625	1676.938110	62.373482
836.004395	947.954102	2055.584717	1640.975586	62.567924
836.307739	951.520691	1999.486206	1599.663452	61.847713
836.611023	949.811707	1923.251587	1566.747070	63.376831
836.914307	946.096497	1838.397949	1515.998413	63.868763
837.217529	951.743591	1749.680298	1471.862671	65.182999
837.520691	954.790039	1669.433472	1414.649414	64.348083
837.823730	952.337952	1598.994507	1374.748901	65.322304
838.126831	950.554688	1540.592651	1334.625610	65.092575
838.429749	952.560852	1495.936523	1309.436890	65.677589
838.732727	955.235779	1455.367310	1286.031494	66.141747
839.035522	951.743591	1432.184937	1275.480469	67.383224
839.338379	949.960266	1415.243774	1254.601440	65.474312
839.641113	951.297668	1419.330688	1248.731567	63.549767
839.943848	947.731140	1426.983765	1247.542603	62.558125
840.246460	946.022278	1453.955688	1260.471436	61.907555
840.549072	950.777588	1488.952148	1270.427856	59.395275
840.851563	952.932373	1516.666992	1269.610718	56.175076
841.154053	955.755859	1524.766113	1282.390747	57.404041
841.456482	953.972656	1511.466187	1294.427734	61.068886
841.758850	951.892273	1500.320679	1293.164673	62.227337
842.061157	950.703369	1479.738770	1275.926392	61.474720
842.363403	949.365906	1442.884644	1254.081421	61.743454
842.665588	955.458679	1404.915894	1247.394043	64.952873
842.967712	960.214050	1386.786133	1240.706909	65.755089
843.269775	959.768250	1378.018188	1221.908203	62.675430
843.571777	950.034485	1358.105103	1210.539917	63.838322
843.873840	949.885986	1331.207520	1195.159302	64.321915
844.175659	951.743591	1305.052979	1189.140747	67.192429
844.477600	956.796143	1287.591797	1179.407104	67.295616
844.779297	950.851868	1264.186401	1163.803589	67.963058
845.081116	947.434021	1246.279541	1160.162598	71.183456
845.382751	943.495911	1243.827637	1147.159668	67.812935
845.684387	940.821045	1247.765747	1144.039063	66.206718
845.985962	935.916992	1244.942261	1132.893555	63.741249
846.287537	937.551758	1231.864746	1131.927612	66.043930
846.588989	945.056335	1218.267456	1131.184570	68.126160
846.890381	953.972656	1213.957886	1128.361206	67.076332
847.191711	961.774414	1211.951660	1122.342651	64.181793
847.493042	962.294617	1211.431519	1115.655396	61.556831
847.794250	959.545349	1213.363403	1109.785400	59.192028
848.095459	948.251282	1213.734863	1106.144653	59.473873
848.396606	942.455750	1207.344849	1108.447998	62.664810
848.697693	942.529968	1199.914551	1103.915527	62.702106
848.998657	952.114990	1186.985840	1106.293091	65.643776
849.299622	953.675354	1190.775391	1109.711182	65.810127
849.600464	947.359680	1185.351196	1120.410767	72.713135
849.901367	940.375244	1189.809570	1120.559448	72.237129
850.202087	938.666321	1182.973633	1114.169312	71.836975
850.502808	941.564148	1192.781616	1110.305542	67.169449
850.803467	947.062500	1193.970459	1110.454224	66.175156
851.104065	950.257507	1204.595825	1112.683350	63.862122
851.404663	951.074890	1197.314087	1107.779419	63.639149
851.705139	950.406067	1196.942505	1101.092041	61.121178
852.005615	951.892151	1191.815552	1097.897095	60.854816
852.306030	949.291504	1192.410034	1102.206665	62.897369
852.606384	948.251282	1191.815552	1104.658569	64.216026
852.906616	945.799316	1196.199463	1099.011597	61.186977
853.206909	942.678650	1200.434692	1092.101440	57.970627
853.506958	939.112122	1193.896118	1094.033203	60.804871
853.807129	937.403137	1192.855957	1104.509888	65.415894
854.107178	945.725098	1187.506226	1104.510010	65.672997
854.407166	937.923279	1193.524536	1099.234497	63.110497
854.707092	934.059509	1184.013794	1090.392456	62.544617
855.007019	923.879944	1183.345215	1095.370728	66.093925
855.306763	934.282410	1178.441162	1105.995972	70.328651
855.606567	940.746765	1176.434937	1101.314941	68.127380
855.906250	948.920105	1170.342163	1094.330444	65.671120
856.205933	942.752930	1165.140991	1086.380005	64.583984
856.505493	940.375244	1163.654907	1087.346069	65.823654
856.805054	939.334961	1165.809692	1088.683472	65.944893
857.104492	949.885986	1165.661133	1082.070435	61.260277
857.403931	955.087219	1165.438232	1079.915649	59.342918
857.703308	956.424622	1168.930298	1077.983887	57.202831
858.002563	950.034485	1170.787964	1083.408081	60.417439
858.301819	946.096497	1168.187378	1092.175659	65.774498
858.601013	952.412292	1162.540405	1095.296387	67.998558
858.900208	949.068665	1177.103638	1090.169556	61.876865
859.199219	947.136902	1186.540161	1089.946655	59.652386
859.498291	940.672546	1185.425659	1087.346069	59.927132
859.797302	950.554749	1170.119263	1089.946655	63.485626
860.096191	953.229675	1164.546509	1082.962158	61.392403
860.395020	950.108887	1170.713745	1081.401978	59.515049
860.693787	943.644531	1173.834473	1084.894165	61.362209
860.992554	945.204895	1173.017090	1083.853882	60.861092
861.291260	949.365784	1167.815796	1089.203613	64.013649
861.589844	946.765198	1165.661011	1085.191284	63.238342
861.888428	944.610535	1167.518677	1087.568970	64.133339
862.186890	938.517761	1166.404175	1085.191162	64.362503
862.485413	934.951172	1166.181274	1086.082764	65.359825
862.783813	940.895325	1166.032593	1081.178833	62.310211
863.082153	939.780823	1169.896362	1083.705078	62.544346
863.380371	949.588684	1171.456665	1086.825806	61.855309
863.678589	949.960205	1163.506348	1094.627686	67.745300
863.976746	952.486511	1157.784912	1094.627686	69.236374
864.274902	946.319397	1162.688843	1090.318237	66.552299
864.572937	945.204895	1162.837524	1090.243896	66.643959
864.870911	950.851868	1170.565063	1086.677368	61.819454
865.168884	955.681580	1169.004761	1090.095215	63.009392
865.466736	949.885925	1176.955078	1094.404785	63.645306
865.764587	948.771423	1173.462891	1096.782471	65.873016
866.062317	950.034485	1177.029419	1091.952759	62.520458
866.360107	949.217285	1182.750610	1087.197388	59.083687
866.657715	950.480469	1189.883789	1082.739258	55.245178
866.955322	955.755920	1184.162476	1085.562866	56.831532
867.252808	963.557800	1184.311157	1090.392578	57.455425
867.550293	956.127441	1178.886963	1092.473022	61.207520
867.847717	948.399963	1178.441040	1090.764038	61.886372
868.145081	948.920105	1171.679565	1089.797974	63.242149
868.442383	951.595032	1175.543213	1090.838379	62.176594
868.739624	952.560852	1170.936523	1088.757813	62.368195
869.036804	952.635193	1168.261597	1077.835327	58.063454
869.333984	957.613464	1168.558838	1075.977661	56.111301
869.631042	953.823975	1168.856079	1080.435913	58.880482
869.928101	952.338074	1177.326660	1085.785767	59.313095
870.224976	951.000549	1179.109863	1089.277954	60.618919
870.521851	962.814636	1186.614380	1090.838379	57.204597
870.818726	955.012878	1177.698120	1086.900269	59.225922
871.115479	947.285400	1169.673462	1082.293457	60.708321
871.412231	949.068665	1164.175049	1085.042725	63.212471
871.708862	958.802307	1169.524902	1099.457397	66.748940
872.005493	972.474060	1170.342285	1101.092041	65.001839
872.302063	950.629089	1176.955078	1098.119995	65.167465
872.598572	948.920105	1182.453491	1091.506958	61.056305
872.895020	939.334961	1191.072632	1093.958984	61.422680
873.191406	950.406067	1197.016724	1087.791870	55.709599
873.487671	941.712708	1203.778320	1085.042603	54.692371
873.783997	948.622864	1206.601929	1080.881714	51.267281
874.080200	950.851868	1207.122070	1086.603027	52.971886
874.376343	955.384460	1202.069458	1087.494629	53.554195
874.672424	951.223450	1204.075562	1099.680298	58.712917
874.968445	950.851868	1200.657593	1095.519165	57.911922
875.264465	949.811707	1194.044556	1099.531616	61.302116
875.560364	952.858093	1188.397583	1087.791748	57.287064
875.856201	949.217224	1186.614502	1087.717651	58.341202
876.152039	961.328552	1189.363770	1087.791870	55.457802
876.447754	961.031311	1186.614380	1092.473022	58.267544
876.743469	968.238770	1190.701172	1099.085815	58.817600
877.039063	957.539246	1193.747559	1103.246948	61.686104
877.334595	953.081055	1197.611328	1103.544067	61.531445
877.630127	950.331787	1207.493530	1104.509888	59.953747
877.925537	951.817871	1214.626587	1102.057983	57.167095
878.221008	947.879700	1227.332397	1107.259155	57.032715
878.516296	942.009827	1223.468506	1108.225098	59.054947
878.811646	944.238953	1232.236206	1116.175415	59.700729
879.106812	942.901550	1235.802856	1117.290039	59.538311
879.401978	946.022278	1244.867798	1130.887329	61.859737
879.697083	942.084167	1258.167969	1139.432129	62.435329
879.992126	942.158508	1285.362671	1157.190552	62.654263
880.287109	942.455627	1328.458374	1176.063354	60.519707
880.582031	938.517639	1385.597046	1204.521362	59.498093
880.876892	946.616699	1485.311401	1274.737427	60.910332
881.171753	944.907715	1678.647095	1383.888062	59.827831
881.466492	942.901550	1968.576172	1551.069336	59.294422
881.761230	939.260742	2350.120850	1739.575317	56.725296
882.055786	940.672424	2725.349609	1941.827271	56.097248
882.350403	946.690918	3058.151367	2127.881104	55.941856
882.644958	948.251282	3265.901611	2250.406250	56.184273
882.939453	953.452454	3332.848389	2307.248047	56.896610
883.233826	959.693909	3277.270264	2280.870850	57.006836
883.528137	955.161438	3162.026611	2227.224121	57.641163
883.822449	948.399902	3043.885498	2160.351563	57.836315
884.116577	939.632141	2907.391357	2097.417236	58.837742
884.410828	954.864258	2761.460938	2027.721313	59.385532
884.704956	956.127380	2578.378662	1926.669556	59.826874
884.999023	966.306885	2366.987549	1800.280640	59.540607
885.292969	957.316223	2120.079590	1666.907227	61.026257
885.586914	956.870422	1906.013306	1542.450195	61.695641
885.880798	948.399902	1732.367798	1438.872070	62.562786
886.174622	950.851868	1619.353516	1359.665527	61.153725
886.468384	955.755859	1539.329468	1303.269897	59.549305
886.762085	954.864258	1495.490845	1272.657104	58.782318
887.055664	949.663025	1458.339478	1247.542847	58.559780
887.349304	948.919983	1412.123169	1228.669800	60.394623
887.642822	950.926208	1373.560059	1209.202515	61.111126
887.936340	946.170837	1341.164063	1184.682495	60.383736
888.229736	934.133789	1323.331421	1166.849976	59.793835
888.523071	935.099670	1305.721680	1152.806641	58.740971
888.816284	942.975830	1295.616577	1144.559082	57.163914
889.109619	958.430847	1282.613647	1138.614868	55.580994
889.402710	959.842590	1268.273071	1128.138306	54.565201
889.695862	955.310059	1252.595337	1121.005127	55.736050
889.988892	950.406067	1241.152710	1113.723511	56.171738
890.281921	953.601196	1231.567627	1112.088867	57.016838
>>>>>End Processed Spectral Data<<<<<
