Jaz Data File
++++++++++++++++++++++++++++++++++++
Date: Fri Jun 04 16:01:43 2021
User: jaz
Dark Spectrum Present: Yes
Reference Spectrum Present: Yes
Processed Spectrum Present: Yes
Spectrometers: JAZA3586
Integration Time (usec): 24600 (JAZA3586)
Spectra Averaged: 10 (JAZA3586)
Boxcar Smoothing: 1 (JAZA3586)
Correct for Electrical Dark: No (JAZA3586)
Strobe/Lamp Enabled: Yes (JAZA3586)
Correct for Detector Non-linearity: No (JAZA3586)
Correct for Stray Light: No (JAZA3586)
Number of Pixels in Processed Spectrum: 2048
>>>>>Begin Processed Spectral Data<<<<<
W	D	R	S	P
191.335022	0.000000	0.000000	0.000000	0.000000
191.713211	387.488678	386.225494	386.374146	88.232025
192.091385	782.481934	776.240479	778.320984	66.666344
192.469528	1172.942749	1174.948853	1178.812622	292.600708
192.847641	1184.311157	1189.289429	1186.391602	41.790497
193.225739	1196.571167	1199.320190	1188.100464	-308.134979
193.603790	1211.877319	1200.360474	1188.620728	201.935425
193.981842	1215.518188	1204.224121	1199.468872	142.103958
194.359863	1208.905273	1203.852661	1209.425415	-10.294509
194.737854	1212.768921	1214.849487	1215.666748	139.280685
195.115829	1216.855591	1212.694702	1216.038330	19.641495
195.493774	1224.806030	1210.465576	1219.010376	40.414719
195.871704	1219.159058	1204.892944	1214.255249	34.373825
196.249603	1223.468628	1208.533691	1223.840210	-2.488005
196.627457	1216.781372	1210.985718	1227.703979	-188.462021
197.005310	1218.787598	1215.221069	1229.264282	-293.750214
197.383133	1212.026001	1212.248901	1223.765747	5266.812500
197.760910	1210.688599	1217.821655	1214.998047	60.415169
198.138687	1208.013672	1216.707031	1215.072388	81.196640
198.516449	1204.521484	1217.301392	1212.100220	59.301960
198.894180	1206.527466	1213.883545	1213.140503	89.898941
199.271866	1202.069458	1216.038330	1208.013550	42.552410
199.649536	1199.171753	1215.221069	1205.413086	38.888466
200.027191	1201.846558	1219.901978	1203.481079	9.052802
200.404816	1200.360474	1213.437622	1206.007446	43.181988
200.782410	1202.440918	1226.069214	1210.094116	32.389973
201.159988	1203.183960	1232.756470	1218.861938	53.015381
201.537537	1212.397461	1237.586060	1216.632690	16.814074
201.915070	1209.796875	1236.694458	1212.174683	8.840228
202.292557	1204.149902	1234.911255	1215.369629	36.473450
202.670029	1196.422485	1242.490112	1222.948364	57.580303
203.047485	1196.050903	1249.400269	1224.211548	52.785343
203.424911	1191.592773	1261.734497	1217.524292	36.970177
203.802292	1197.462524	1257.053345	1212.174561	24.688427
204.179688	1197.314087	1248.359985	1208.682251	22.270475
204.557037	1199.691772	1237.957642	1209.796997	26.407932
204.934357	1188.397827	1239.518066	1208.608032	39.534645
205.311661	1187.060181	1244.867798	1211.580200	42.416588
205.688934	1192.038574	1253.858398	1206.007446	22.596104
206.066177	1193.004517	1257.796387	1207.419189	22.247656
206.443390	1195.902222	1252.743774	1209.351074	23.660248
206.820587	1191.741333	1246.428101	1211.654541	36.413212
207.197769	1198.057129	1237.363281	1207.865112	24.952795
207.574921	1199.914551	1239.517944	1206.156128	15.760208
207.952042	1195.307739	1233.127930	1206.899170	30.648790
208.329147	1190.626831	1241.747070	1209.722534	37.354488
208.706223	1191.444092	1237.586060	1215.741089	52.657047
209.083267	1196.868286	1233.499390	1211.431396	39.756134
209.460297	1206.378906	1227.109497	1220.570679	68.458122
209.837280	1203.926880	1224.806030	1210.019775	29.181721
210.214264	1195.456421	1231.567627	1215.518188	55.555519
210.591217	1186.168579	1228.595581	1210.094238	56.392529
210.968124	1186.094360	1228.223999	1212.769043	63.315716
211.345016	1190.032349	1233.053589	1209.202515	44.559772
211.721893	1193.004517	1244.496216	1197.611328	8.946707
212.098724	1191.592773	1248.657227	1201.920898	18.099052
212.475555	1193.227417	1249.771851	1197.016724	6.701467
212.852356	1191.369873	1240.929810	1198.502808	14.392542
213.229126	1188.917847	1246.799683	1195.605103	11.553289
213.605865	1193.598999	1250.663330	1197.834106	7.421637
213.982590	1197.388550	1256.830444	1204.595703	12.124703
214.359283	1196.645386	1256.681885	1198.205688	2.598924
214.735931	1192.261475	1249.028687	1199.097290	12.041838
215.112579	1187.580444	1251.703613	1201.177734	21.204956
215.489197	1193.524536	1248.880249	1209.128052	28.187723
215.865799	1187.431885	1243.381714	1206.230347	33.598782
216.242355	1187.357544	1238.774902	1200.434692	25.433334
216.618896	1182.379272	1232.310547	1195.902222	27.083124
216.995407	1182.230469	1236.545898	1202.218140	36.799252
217.371902	1183.270752	1230.824585	1208.830933	53.749989
217.748367	1195.084961	1229.858521	1208.756714	39.316517
218.124802	1206.304565	1228.001099	1201.920776	-20.205021
218.501236	1204.001221	1234.168213	1197.165527	-22.659512
218.877609	1188.843384	1244.570557	1198.651489	17.600222
219.253983	1176.063354	1250.366211	1202.589600	35.700169
219.630295	1180.744507	1244.719238	1201.995239	33.217384
220.006592	1182.453613	1247.096802	1204.595703	34.252781
220.382889	1194.119019	1249.846069	1205.264404	19.999956
220.759140	1195.307861	1256.904785	1208.682251	21.712755
221.135391	1203.852661	1257.499146	1200.434692	-6.371282
221.511581	1203.258301	1251.332153	1197.611206	-11.746707
221.887772	1196.422485	1251.555054	1195.233521	-2.156556
222.263931	1193.227417	1245.833740	1199.320190	11.581827
222.640060	1189.066528	1242.713013	1201.400757	22.991680
223.016159	1190.329590	1241.821411	1210.019897	38.239681
223.392212	1188.843506	1243.381714	1213.437866	45.095654
223.768265	1186.094238	1250.514771	1214.775269	44.521568
224.144302	1185.276978	1253.486938	1216.261108	45.424641
224.520294	1188.249023	1251.183594	1213.809204	40.613895
224.896286	1190.106567	1257.573608	1215.146606	37.114475
225.272217	1193.598877	1257.127808	1208.979614	24.210604
225.648148	1188.769409	1260.397095	1207.865112	26.659668
226.024048	1191.964233	1254.452759	1213.363403	34.244961
226.399902	1191.146851	1262.106079	1213.214844	31.099539
226.775772	1198.428589	1261.140015	1206.304810	12.559466
227.151581	1191.592651	1265.152344	1202.812500	15.252713
227.527374	1192.558594	1260.322754	1201.177856	12.719501
227.903137	1188.471924	1273.474243	1210.837158	26.311323
228.278870	1188.992065	1284.248169	1204.521362	16.302679
228.654572	1186.911621	1300.000366	1203.332642	14.520473
229.030273	1183.939575	1312.111816	1206.899048	17.912983
229.405930	1187.729126	1317.461548	1212.100342	18.785755
229.781555	1192.856079	1320.730957	1216.038452	18.128950
230.157181	1197.982910	1324.891846	1211.134399	10.362934
230.532761	1198.279907	1332.024902	1209.128296	8.111248
230.908325	1194.936401	1332.396362	1203.109741	5.945979
231.283859	1189.512207	1324.297363	1202.961060	9.977992
231.659332	1186.020020	1311.442993	1202.812378	13.388582
232.034821	1189.661011	1304.978638	1200.806274	9.664840
232.410263	1187.580444	1303.567017	1200.806274	11.402898
232.785690	1192.855957	1298.588745	1203.035278	9.627402
233.161087	1187.283203	1297.028198	1207.344849	18.280237
233.536469	1194.564819	1292.272827	1209.425415	15.209189
233.911804	1192.930176	1291.009766	1206.824707	14.166588
234.287140	1193.524536	1292.421509	1211.728882	18.407385
234.662430	1192.558594	1291.604248	1211.728760	19.354879
235.037704	1197.091064	1300.223267	1210.688477	13.184448
235.412933	1202.440918	1307.430786	1214.923706	11.889517
235.788162	1197.091187	1317.164307	1216.186890	15.903396
236.163345	1193.301758	1320.507935	1216.409912	18.165905
236.538513	1195.233521	1319.244751	1206.601929	9.167241
236.913635	1197.611206	1312.260376	1199.023071	1.231466
237.288742	1196.942505	1309.585571	1196.942505	0.000000
237.663834	1191.444214	1304.012817	1187.134644	-3.828395
238.038879	1189.958130	1307.802124	1186.985962	-2.522121
238.413910	1192.558716	1315.380981	1192.855957	0.242009
238.788910	1196.868286	1316.644165	1206.676147	8.188511
239.163879	1202.069458	1317.089966	1209.202515	6.201552
239.538834	1201.846558	1314.638062	1206.378906	4.018342
239.913757	1198.800171	1325.857666	1199.766113	0.760240
240.288651	1200.954956	1341.238281	1208.533813	5.402536
240.663528	1200.657715	1351.046387	1207.567871	4.594865
241.038361	1196.793945	1366.798462	1210.391357	7.998265
241.413177	1193.524536	1384.110962	1204.595581	5.808937
241.787979	1199.394531	1414.649536	1213.363281	6.489396
242.162735	1194.490601	1437.163208	1212.768921	7.532091
242.537476	1190.849731	1452.989624	1210.614258	7.539687
242.912170	1187.729004	1465.101074	1197.834229	3.643202
243.286865	1186.837280	1482.042114	1205.858887	6.443528
243.661514	1186.391602	1493.484741	1210.094116	7.718347
244.036148	1187.134644	1488.506470	1210.911499	7.889542
244.410751	1196.422485	1474.908813	1205.487305	3.255032
244.785339	1201.995117	1457.967896	1202.515259	0.203202
245.159882	1201.252075	1450.091797	1206.973389	2.299196
245.534378	1201.549194	1447.639771	1205.041626	1.419165
245.908890	1200.806274	1471.639648	1206.379028	2.057632
246.283356	1200.360474	1503.515625	1207.345093	2.303975
246.657791	1195.976685	1551.292114	1210.317017	4.035944
247.032196	1191.741333	1598.846069	1206.379028	3.595560
247.406586	1194.787720	1662.300415	1202.069458	1.557549
247.780960	1191.667114	1722.188477	1193.450317	0.336123
248.155289	1189.363647	1747.599976	1201.252075	2.129641
248.529602	1183.047852	1741.878784	1207.716431	4.414319
248.903870	1195.159302	1695.067993	1215.963989	4.161697
249.278122	1198.725830	1649.148804	1207.716431	1.996035
249.652344	1201.995117	1596.096680	1204.521362	0.641014
250.026550	1195.456543	1558.648071	1206.899048	3.150543
250.400711	1199.989136	1534.871460	1205.561646	1.664020
250.774857	1201.400757	1520.456665	1207.642090	1.956188
251.148987	1197.759888	1518.004517	1209.648315	3.712296
251.523071	1190.255249	1513.769165	1212.917603	7.005063
251.897125	1186.837280	1524.766113	1211.208618	7.211974
252.271164	1195.159302	1534.574097	1205.784546	3.130460
252.645187	1201.177856	1558.127930	1207.196411	1.686105
253.019165	1196.645264	1576.852173	1204.075562	1.954277
253.393112	1194.787720	1585.099976	1203.109497	2.132082
253.767044	1195.307983	1572.914429	1199.840332	1.200284
254.140930	1201.475098	1541.781616	1205.041504	1.047998
254.514801	1196.942505	1523.131470	1204.670044	2.369038
254.888657	1196.125244	1503.738647	1209.722534	4.420253
255.262466	1192.855835	1508.642578	1201.029175	2.588247
255.636276	1192.038452	1503.589966	1203.035522	3.529776
256.010010	1192.781616	1508.493774	1197.834106	1.600347
256.383759	1195.159302	1519.861938	1198.651489	1.075503
256.757446	1196.050903	1540.221069	1203.629761	2.202067
257.131134	1190.775269	1566.895874	1211.877319	5.610448
257.504791	1188.546265	1589.409668	1219.753540	7.785015
257.878418	1192.187134	1620.319458	1217.970215	6.022223
258.252014	1190.849731	1657.099243	1225.400391	7.410337
258.625580	1193.821777	1694.027710	1226.960815	6.625079
258.999115	1196.496704	1755.401733	1226.366333	5.344312
259.372650	1199.840332	1837.803345	1210.688477	1.700435
259.746124	1190.478149	1936.105957	1202.812500	1.654224
260.119598	1183.122192	2027.572632	1196.645386	1.601419
260.493042	1179.852905	2101.429443	1199.617432	2.144643
260.866425	1188.620605	2141.181396	1210.316895	2.277680
261.239838	1191.295410	2115.547119	1208.682495	1.881207
261.613159	1198.948608	2026.160767	1210.688599	1.419224
261.986511	1194.639282	1921.914063	1200.657593	0.827515
262.359802	1194.862061	1844.342163	1204.595703	1.498682
262.733063	1191.146851	1812.466309	1202.812500	1.877561
263.106293	1197.685425	1800.875000	1209.871216	2.020226
263.479523	1194.564819	1787.277710	1210.985840	2.770485
263.852692	1197.314087	1784.156860	1210.317017	2.215743
264.225861	1195.010620	1772.862915	1204.595703	1.658743
264.598969	1203.852661	1773.754517	1204.521362	0.117336
264.972076	1204.447144	1764.764038	1205.487305	0.185638
265.345154	1204.372681	1772.045532	1205.933228	0.274902
265.718201	1201.474976	1786.683105	1203.927002	0.419001
266.091217	1197.091187	1816.329956	1201.400757	0.695946
266.464203	1191.146973	1851.846558	1207.344849	2.451625
266.837158	1188.843628	1894.124878	1215.889771	3.834802
267.210114	1190.255371	1932.836548	1225.846313	4.792869
267.583038	1194.342041	1960.328735	1221.313843	3.521184
267.955902	1189.958130	1966.272949	1221.313965	4.039062
268.328766	1188.174805	1969.913696	1212.026123	3.051059
268.701569	1189.586548	1969.022095	1211.357300	2.793143
269.074371	1193.598877	1982.842407	1204.224243	1.346272
269.447144	1195.679321	1986.185913	1203.704102	1.015144
269.819885	1195.307861	2008.030884	1204.298462	1.106232
270.192596	1201.549316	2029.504395	1206.304688	0.574351
270.565277	1202.218140	2077.132568	1212.768921	1.205922
270.937927	1208.310791	2138.655273	1208.162231	-0.015968
271.310577	1201.846558	2206.642334	1200.583374	-0.125715
271.683136	1200.731934	2290.901611	1201.995239	0.115882
272.055725	1192.038452	2350.640869	1201.623657	0.827308
272.428284	1194.341919	2380.659180	1208.385132	1.183765
272.800812	1191.592773	2357.179443	1210.019775	1.580921
273.173279	1188.843384	2322.554443	1219.901978	2.739551
273.545776	1186.242798	2302.789795	1222.799927	3.274124
273.918152	1189.735229	2282.059326	1214.552368	2.271957
274.290558	1196.199585	2252.784180	1211.060059	1.406463
274.662964	1199.691772	2237.403564	1205.190308	0.529871
275.035278	1199.245972	2224.474854	1204.744385	0.536311
275.407593	1191.146851	2239.260986	1202.886719	1.120094
275.779907	1190.106567	2248.400391	1208.310913	1.720160
276.152161	1190.998169	2273.885986	1213.214844	2.051614
276.524384	1191.443970	2305.910889	1211.357300	1.786803
276.896606	1188.769287	2340.981689	1212.917603	2.095822
277.268799	1193.227417	2373.451904	1199.320190	0.516239
277.640930	1202.515259	2388.015137	1203.035278	0.043865
278.013031	1202.812378	2398.863281	1194.267700	-0.714408
278.385162	1199.691772	2404.064697	1209.722656	0.832872
278.757233	1193.970337	2396.411377	1209.128296	1.260599
279.129272	1203.035522	2384.374268	1214.923706	1.006331
279.501282	1201.177856	2381.996582	1207.939331	0.572609
279.873230	1202.069458	2407.185303	1208.162109	0.505566
280.245178	1192.187134	2443.965088	1203.555542	0.908181
280.617126	1189.437988	2506.305176	1201.697876	0.930989
280.988983	1188.323364	2566.193115	1202.886841	1.056956
281.360870	1190.478149	2625.858154	1201.103516	0.740248
281.732697	1191.518433	2684.780273	1206.676147	1.015074
282.104492	1189.809448	2746.376953	1207.493530	1.136095
282.476288	1187.431763	2805.150391	1216.558472	1.800480
282.848053	1190.775391	2847.577393	1218.267456	1.659345
283.219757	1196.125244	2867.639404	1213.512085	1.040185
283.591461	1195.605103	2852.555908	1210.911499	0.923769
283.963135	1194.267700	2831.676758	1213.958008	1.202528
284.334747	1195.159302	2827.441406	1219.233398	1.474874
284.706360	1198.205688	2861.174805	1218.787598	1.237660
285.077942	1198.428589	2914.375732	1215.295288	0.982938
285.449524	1195.530762	2967.427734	1208.608032	0.738038
285.821014	1198.651489	3006.436768	1206.750488	0.448007
286.192535	1197.982788	3066.919189	1201.326294	0.178899
286.563995	1197.388428	3120.863037	1208.013672	0.552398
286.935425	1192.187256	3173.915039	1206.824829	0.738627
287.306824	1193.078735	3157.642578	1213.140625	1.021188
287.678223	1195.605103	3115.438721	1213.512085	0.932736
288.049561	1202.738159	3054.510498	1220.050659	0.934915
288.420898	1202.663818	3007.105469	1214.032227	0.630024
288.792145	1201.326294	2986.672119	1210.168335	0.495256
289.163452	1192.484253	2991.799072	1202.366577	0.549227
289.534668	1187.431641	3032.294189	1208.088013	1.119670
289.905914	1182.304810	3074.349365	1210.985840	1.515875
290.277039	1188.769165	3150.732422	1215.592407	1.367163
290.648193	1187.060181	3225.183594	1217.895874	1.512945
291.019318	1189.214966	3303.127197	1215.369751	1.237269
291.390381	1181.859131	3336.786377	1213.809326	1.482658
291.761475	1183.865356	3328.687500	1207.865112	1.118962
292.132507	1182.825073	3301.418701	1208.088013	1.192439
292.503510	1179.852905	3267.462158	1207.567749	1.327588
292.874481	1183.493652	3247.177734	1206.304565	1.105349
293.245422	1187.134644	3249.332275	1204.001221	0.817893
293.616364	1188.992188	3284.106201	1202.738159	0.656097
293.987213	1188.620605	3327.870361	1205.041504	0.767601
294.358093	1190.106689	3409.305908	1208.236572	0.816956
294.728943	1195.902344	3496.983154	1212.248901	0.710386
295.099731	1198.800049	3603.384521	1215.146729	0.679813
295.470490	1194.416138	3661.860596	1217.301392	0.927488
295.841248	1192.112793	3702.355713	1225.251831	1.320153
296.211975	1192.261475	3742.330811	1222.502686	1.185898
296.582642	1197.313965	3815.890625	1224.508911	1.038539
296.953308	1196.348145	3898.218018	1215.963989	0.726010
297.323883	1190.552612	3972.149170	1213.660645	0.830747
297.694519	1186.391602	4024.384033	1210.317017	0.843040
298.065063	1191.147095	4035.455078	1210.465698	0.679202
298.435608	1195.382202	3997.709229	1213.957886	0.662866
298.806122	1196.719604	3882.242920	1213.660522	0.630824
299.176575	1197.165405	3752.212891	1217.004272	0.776458
299.547028	1196.942505	3644.473877	1221.462402	1.001822
299.917450	1197.091187	3595.657227	1220.868042	0.991295
300.287872	1197.239746	3577.899170	1224.360229	1.139200
300.658234	1196.719604	3559.768799	1220.496460	1.006194
301.028564	1198.577271	3535.249023	1226.960815	1.214700
301.398865	1196.125244	3521.800049	1223.245728	1.166134
301.769135	1195.605103	3506.642578	1224.063110	1.231395
302.139374	1193.524536	3519.571289	1220.125000	1.143591
302.509583	1190.923950	3534.283203	1213.289063	0.954404
302.879791	1192.038452	3539.707764	1208.533691	0.702622
303.249939	1189.958008	3516.822266	1207.567749	0.756801
303.620087	1197.982788	3488.364014	1209.648315	0.509327
303.990173	1195.605103	3468.005127	1204.892944	0.408724
304.360260	1195.456421	3454.110352	1202.292358	0.302655
304.730286	1186.243042	3436.054932	1207.270630	0.934638
305.100281	1186.763062	3434.494385	1213.660645	1.196655
305.470276	1183.939575	3457.008057	1213.289185	1.291189
305.840179	1185.648560	3471.051514	1204.892822	0.842051
306.210144	1186.614502	3482.791260	1213.066162	1.151987
306.579987	1194.193359	3489.404297	1214.849487	0.899966
306.949890	1200.211914	3510.134766	1219.084839	0.817037
307.319702	1197.759766	3546.765869	1210.094238	0.525093
307.689484	1193.375977	3583.545898	1205.190308	0.494288
308.059265	1188.843628	3633.922852	1201.029297	0.498375
308.429016	1189.215088	3703.395752	1209.351074	0.800897
308.798737	1191.444092	3776.807373	1217.004272	0.988649
309.168396	1191.221191	3856.682861	1222.799927	1.184738
309.538055	1188.546265	3903.790771	1215.592651	0.996094
309.907684	1185.648560	3950.378174	1209.574097	0.865384
310.277313	1187.803345	3985.821045	1211.431641	0.844466
310.646851	1196.496704	4020.371826	1215.369629	0.668334
311.016388	1207.493530	4042.662842	1222.131226	0.516290
311.385895	1204.372681	4044.520264	1225.251953	0.735147
311.755371	1200.732056	4044.891602	1228.372559	0.971834
312.124817	1194.044800	4049.498291	1232.013428	1.329688
312.494232	1196.125244	4037.386963	1228.744141	1.148043
312.863617	1191.890015	4016.136719	1224.434570	1.152327
313.232971	1184.236694	3975.195557	1226.143433	1.501518
313.602295	1190.032349	3947.629150	1224.211548	1.239456
313.971619	1188.694946	3945.325928	1228.000977	1.425872
314.340820	1193.450317	3949.709717	1220.050659	0.965089
314.710083	1188.174927	3985.226563	1218.936157	1.099773
315.079285	1191.444214	4022.452148	1215.518188	0.850368
315.448486	1189.809570	4070.451904	1222.428345	1.132344
315.817596	1184.608276	4078.922607	1220.645142	1.245092
316.186707	1186.094360	4034.637939	1221.833984	1.254663
316.555786	1189.140747	3955.728516	1217.375610	1.020566
316.924866	1192.187134	3873.326904	1224.954590	1.222147
317.293884	1192.261353	3826.218750	1223.245728	1.176343
317.662872	1194.193359	3804.670898	1220.422119	1.004750
318.031830	1193.970459	3821.017334	1222.056763	1.069121
318.400757	1194.119019	3837.884033	1220.867920	1.011773
318.769684	1192.855957	3864.929932	1219.976196	1.014951
319.138550	1193.153076	3899.555420	1211.134399	0.664400
319.507416	1197.388306	3934.106201	1211.060181	0.499572
319.876190	1200.954834	3954.836670	1211.580200	0.385832
320.244995	1201.400757	3922.886475	1218.267456	0.619761
320.613770	1196.645264	3884.843018	1220.570801	0.890021
320.982483	1194.787720	3855.122314	1226.069214	1.175848
321.351166	1192.707275	3828.299072	1218.936157	0.995180
321.719818	1193.153198	3812.398438	1222.056763	1.103507
322.088440	1187.803345	3818.045166	1220.570801	1.245796
322.457062	1188.397705	3847.840820	1222.651245	1.287997
322.825623	1184.534058	3889.821533	1215.741089	1.153557
323.194183	1192.112793	3945.325928	1213.214722	0.766447
323.562653	1190.701050	4032.928955	1219.901978	1.027396
323.931183	1193.673218	4123.280762	1217.152832	0.801459
324.299591	1194.193359	4205.236816	1213.660645	0.646530
324.668060	1196.273804	4273.669922	1209.128174	0.417703
325.036407	1195.679321	4330.511230	1214.849487	0.611521
325.404755	1190.180908	4361.644043	1215.592407	0.801255
325.773102	1189.512329	4375.092773	1218.490356	0.909662
326.141388	1191.295532	4375.315918	1222.205444	0.970782
326.509674	1188.174805	4364.541992	1226.292114	1.200028
326.877899	1184.385376	4358.226074	1224.137329	1.252487
327.246124	1184.682617	4361.644043	1217.747314	1.040765
327.614288	1186.317261	4356.739746	1214.775269	0.897609
327.982422	1184.608276	4339.130371	1212.471802	0.883288
328.350525	1186.911743	4295.291504	1213.957886	0.870104
328.718628	1191.072632	4291.948242	1211.208618	0.649365
329.086700	1196.719604	4292.319336	1210.094116	0.432049
329.454712	1191.146973	4322.709473	1212.991943	0.697574
329.822693	1185.277100	4337.272461	1217.747192	1.030144
330.190674	1184.459717	4347.377441	1222.056763	1.188682
330.558563	1186.317261	4365.358887	1224.286011	1.194346
330.926483	1186.020142	4387.204102	1226.217896	1.255715
331.294312	1186.540283	4444.342773	1229.264160	1.311432
331.662231	1185.871460	4502.373535	1227.109497	1.243420
332.029999	1187.506226	4567.313965	1225.549072	1.125592
332.397766	1196.125122	4611.672363	1224.286011	0.824491
332.765503	1203.183960	4672.452637	1224.063110	0.601831
333.133240	1197.982910	4735.312500	1228.001099	0.848612
333.500916	1192.707275	4830.270996	1230.898926	1.049924
333.868561	1183.122192	4884.957520	1227.109497	1.188257
334.236176	1194.416138	4910.815430	1224.954712	0.821725
334.603790	1189.363647	4893.800293	1215.666870	0.710047
334.971344	1193.152954	4881.391602	1223.394287	0.819940
335.338867	1185.128418	4869.057129	1224.434570	1.066963
335.706360	1189.512207	4856.797363	1224.062988	0.942135
336.073853	1193.004517	4856.054199	1216.632813	0.645044
336.441284	1195.456543	4863.930176	1207.419189	0.326093
336.808655	1199.765991	4865.937012	1210.242676	0.285766
337.176086	1198.279907	4828.190918	1221.165161	0.630463
337.543396	1195.753784	4732.562988	1230.824585	0.991594
337.910706	1185.574219	4648.452637	1230.230103	1.289560
338.277954	1181.859131	4632.774414	1224.062988	1.222976
338.645264	1189.958130	4711.460938	1221.908203	0.907285
339.012421	1190.181030	4855.459961	1224.508789	0.936566
339.379669	1191.072632	4989.056152	1225.028931	0.894061
339.746796	1187.357422	5102.070801	1228.446899	1.049616
340.113953	1194.341919	5172.138184	1226.663696	0.812555
340.481018	1196.348022	5222.738281	1231.047485	0.861801
340.848114	1197.388428	5239.233887	1225.474731	0.694888
341.215118	1197.314087	5258.849609	1227.183716	0.735427
341.582153	1189.660889	5275.419434	1221.090942	0.769259
341.949066	1190.998291	5323.418457	1223.691528	0.791140
342.316010	1189.958130	5341.474121	1223.914429	0.817925
342.682922	1189.437866	5372.160645	1222.279663	0.785177
343.049835	1188.249023	5410.055176	1221.313843	0.783191
343.416656	1184.533936	5475.292969	1222.725464	0.890088
343.783478	1189.140747	5579.539551	1223.319946	0.778499
344.150269	1180.893066	5725.173340	1219.307617	0.845339
344.516998	1180.150024	5925.716309	1219.604736	0.831402
344.883728	1186.391479	6071.052246	1218.490234	0.657134
345.250427	1191.146973	6155.608887	1219.233276	0.565747
345.617065	1190.552490	6166.828125	1218.267456	0.556942
345.983704	1188.694946	6142.828613	1218.639038	0.604426
346.350281	1185.797241	6125.738770	1223.765869	0.768605
346.716827	1189.363647	6042.817871	1217.895874	0.587875
347.083405	1189.735229	5984.638184	1213.957886	0.505175
347.449860	1195.456421	5891.982910	1217.227295	0.463553
347.816376	1192.187134	5832.392090	1223.914551	0.683750
348.182770	1184.311035	5772.652832	1232.756470	1.055838
348.549194	1184.831177	5738.474121	1232.087769	1.037776
348.915558	1178.663940	5744.640625	1234.465332	1.222113
349.281921	1184.088135	5762.622559	1230.155884	1.006168
349.648193	1178.143921	5816.491699	1231.121704	1.142169
350.014526	1176.806519	5864.564941	1228.223999	1.096846
350.380737	1170.787964	5933.517578	1231.939087	1.283951
350.746948	1172.348267	6002.544922	1223.245605	1.053732
351.113159	1182.156372	6058.494629	1220.942261	0.795390
351.479309	1187.431763	6116.748535	1217.895874	0.618019
351.845428	1184.534058	6154.494629	1221.313843	0.740042
352.211517	1182.007690	6219.063965	1215.295288	0.660854
352.577576	1180.447388	6262.455566	1214.255005	0.665241
352.943604	1185.499878	6307.260254	1213.512085	0.546925
353.309601	1188.174683	6379.854004	1219.307617	0.599670
353.675537	1190.626831	6505.797363	1219.307617	0.539602
354.041473	1197.759888	6654.923340	1218.192993	0.374427
354.407379	1202.143677	6771.875488	1223.914429	0.390876
354.773254	1201.549194	6897.298828	1226.960815	0.446151
355.139038	1199.022949	7009.050293	1235.505737	0.627928
355.504913	1197.239746	7163.822266	1239.369507	0.706095
355.870636	1194.787720	7271.933105	1237.140259	0.696915
356.236389	1198.948730	7444.463379	1227.852539	0.462793
356.602081	1194.713501	7622.791016	1219.604858	0.387229
356.967804	1198.948730	7803.420410	1219.753418	0.315009
357.333405	1193.598877	7960.571777	1222.056763	0.420541
357.699036	1196.273804	8122.476563	1219.530396	0.335777
358.064606	1194.044678	8320.418945	1218.490356	0.343031
358.430176	1186.688721	8475.934570	1226.812256	0.550448
358.795654	1184.608276	8576.020508	1231.270386	0.631302
359.161163	1183.047974	8578.546875	1229.115601	0.622914
359.526581	1183.642334	8559.748047	1223.691528	0.542959
359.892029	1186.020020	8585.753906	1222.131226	0.488007
360.257416	1189.512207	8702.186523	1227.406738	0.504408
360.622772	1200.063354	8933.491211	1228.967041	0.373750
360.988098	1201.400757	9239.989258	1229.412842	0.348470
361.353394	1191.815674	9581.633789	1223.394287	0.376392
361.718658	1180.744507	9879.364258	1222.651245	0.481763
362.083893	1173.537231	10100.191406	1219.084839	0.510243
362.449097	1185.797119	10221.454102	1223.468628	0.416921
362.814209	1193.078857	10226.135742	1222.428345	0.324912
363.179382	1198.948730	10020.463867	1227.332397	0.321755
363.544434	1195.307861	9638.399414	1226.366455	0.367858
363.909546	1200.880493	9166.280273	1222.131226	0.266788
364.274536	1200.063110	8747.881836	1218.861816	0.249061
364.639587	1208.831055	8448.368164	1218.564575	0.134449
365.004517	1199.468872	8269.075195	1220.199219	0.293232
365.369507	1197.759888	8148.854004	1225.920532	0.405125
365.734344	1192.335815	8075.813965	1230.230103	0.550511
366.099274	1192.261475	8009.981934	1235.208496	0.629932
366.464081	1192.038452	7972.681641	1234.985474	0.633377
366.828918	1181.784668	7951.134277	1233.127930	0.758467
367.193665	1182.825073	7922.750488	1231.047485	0.715474
367.558411	1180.818848	7910.564941	1230.007324	0.730911
367.923126	1185.797241	7919.927246	1232.756470	0.697332
368.287781	1187.952026	7916.880859	1237.883301	0.742039
368.652435	1190.552612	7875.791504	1236.322998	0.684648
369.017059	1194.787720	7814.491699	1236.991821	0.637553
369.381653	1193.153076	7748.881348	1234.985596	0.638106
369.746185	1191.890015	7745.835449	1238.031982	0.704033
370.110687	1184.311035	7768.200684	1230.898926	0.707604
370.475220	1184.236816	7837.005371	1223.542969	0.590824
370.839661	1193.227539	7891.766113	1219.084839	0.386014
371.204041	1201.772339	7976.322754	1217.895874	0.238002
371.568451	1198.874390	8024.990723	1220.199219	0.312401
371.932770	1189.214966	8086.885254	1222.056763	0.476129
372.297150	1192.558594	8093.052246	1228.298218	0.517929
372.661377	1197.759766	8144.173340	1227.703735	0.431071
373.025696	1197.834106	8192.098633	1222.725586	0.355884
373.389862	1179.109863	8199.379883	1219.456177	0.574712
373.754059	1176.360718	8182.067871	1222.130981	0.653328
374.118225	1181.561890	8168.395996	1234.242554	0.753999
374.482361	1190.626831	8240.394531	1236.397217	0.649247
374.846436	1193.375977	8334.090820	1234.688354	0.578547
375.210510	1187.951904	8466.497070	1223.914429	0.494089
375.574524	1189.289429	8599.871094	1225.177612	0.484283
375.938538	1188.472046	8767.944336	1219.084839	0.403891
376.302460	1188.323364	8935.645508	1224.211792	0.463237
376.666412	1186.168579	9118.950195	1220.050659	0.427115
377.030304	1190.701050	9306.043945	1222.056763	0.386376
377.394196	1195.753662	9470.030273	1217.672974	0.264909
377.757996	1206.527588	9612.765625	1225.771973	0.228930
378.121796	1201.177734	9673.470703	1226.515015	0.299060
378.485565	1194.936401	9663.440430	1229.338501	0.406236
378.849304	1189.512329	9580.815430	1226.440674	0.440079
379.212982	1187.877563	9428.791992	1230.230103	0.513930
379.576630	1189.735229	9223.048828	1228.818359	0.486513
379.940277	1188.397705	9053.637695	1230.898804	0.540366
380.303864	1188.026123	8909.342773	1239.443726	0.665918
380.667450	1188.694824	8842.692383	1243.678955	0.718371
381.030945	1187.951782	8805.169922	1247.691284	0.784269
381.394501	1187.951782	8832.141602	1242.861572	0.718321
381.757935	1191.889893	8875.459961	1246.799683	0.714639
382.121399	1195.382202	8899.980469	1242.490112	0.611426
382.484741	1197.982910	8974.505859	1241.301270	0.557040
382.848145	1193.599121	9036.028320	1234.093872	0.516355
383.211487	1186.094360	9134.776367	1231.196045	0.567411
383.574768	1184.385376	9203.135742	1234.093750	0.619902
383.938019	1187.654663	9289.028320	1240.632446	0.653936
384.301270	1198.354370	9399.517578	1246.576660	0.587993
384.664459	1197.462769	9508.371094	1245.907959	0.582911
385.027649	1192.484375	9596.271484	1244.347656	0.617142
385.390778	1181.859009	9648.357422	1240.484009	0.692435
385.753876	1186.837280	9694.870117	1238.254883	0.604342
386.116943	1190.626831	9712.554688	1248.137207	0.674852
386.479980	1198.205688	9737.074219	1248.359985	0.587365
386.842987	1194.787720	9771.700195	1251.332153	0.659263
387.205994	1193.078735	9857.073242	1238.477661	0.523995
387.568909	1191.221313	9908.192383	1247.393921	0.644405
387.931793	1193.227417	9943.933594	1243.901855	0.579090
388.294678	1189.809448	10001.591797	1243.901733	0.613863
388.657471	1189.215088	10035.918945	1239.517944	0.568606
389.020294	1190.701172	10033.987305	1245.536499	0.620079
389.383057	1198.874390	10029.306641	1249.623169	0.574703
389.745819	1197.982788	10065.416992	1250.663330	0.594090
390.108521	1198.279907	10107.696289	1247.245483	0.549594
390.471191	1195.605103	10199.163086	1242.787231	0.524039
390.833801	1193.524536	10306.084961	1235.059692	0.455801
391.196442	1189.958008	10504.993164	1238.477661	0.520875
391.558960	1190.255371	10664.372070	1245.313599	0.581144
391.921509	1194.639160	10865.584961	1246.948242	0.540889
392.284027	1190.106812	11050.671875	1253.189819	0.639750
392.646484	1188.546265	11194.968750	1246.502441	0.579190
393.008911	1185.499878	11215.699219	1251.852295	0.661526
393.371307	1189.066406	11170.597656	1250.589111	0.616365
393.733673	1188.249146	11094.808594	1261.140137	0.735785
394.096008	1191.369873	11033.583008	1270.056519	0.799481
394.458344	1188.843628	11014.932617	1276.000610	0.886996
394.820587	1188.546265	11007.206055	1286.031372	0.992855
395.182831	1186.614380	11037.000000	1296.582397	1.116383
395.545013	1192.855957	10994.351563	1306.761841	1.162127
395.907196	1199.023071	10902.364258	1319.541992	1.242035
396.269287	1196.794067	10754.798828	1333.882446	1.434278
396.631409	1195.159302	10609.537109	1347.628418	1.619535
396.993469	1195.010742	10431.507813	1362.265991	1.810808
397.355530	1194.936401	10301.106445	1379.058594	2.021950
397.717499	1194.341919	10248.424805	1401.720825	2.290446
398.079468	1192.112793	10239.955078	1430.773315	2.637762
398.441376	1185.945679	10246.493164	1468.519043	3.118723
398.803284	1188.100464	10236.833984	1509.608398	3.553071
399.165131	1191.964233	10271.161133	1554.412964	3.992079
399.526978	1202.738159	10269.601563	1594.164917	4.317113
399.888763	1201.549194	10272.946289	1642.536011	4.861289
400.250519	1199.468750	10283.050781	1679.315918	5.282577
400.612244	1201.252075	10300.215820	1740.987183	5.931830
400.973938	1197.016724	10277.478516	1809.717163	6.747459
401.335602	1193.376099	10284.684570	1894.422241	7.711169
401.697205	1185.054199	10340.709961	1975.783569	8.636512
402.058807	1186.242798	10426.899414	2050.680664	9.354724
402.420349	1189.958130	10573.499023	2147.943115	10.209206
402.781860	1194.044800	10686.663086	2247.062744	11.093019
403.143341	1192.187256	10848.494141	2360.300049	12.096890
403.504822	1187.431763	10988.703125	2471.531250	13.101357
403.866241	1188.472046	11187.909180	2595.542725	14.071498
404.227631	1191.666992	11357.468750	2738.798096	15.218978
404.588959	1195.976563	11535.942383	2879.527588	16.281979
404.950287	1191.890015	11699.706055	3014.684326	17.347033
405.311554	1195.010742	11819.631836	3139.215820	18.299053
405.672821	1192.633057	11872.460938	3274.818359	19.496431
406.034027	1193.896118	11839.618164	3406.779541	20.786598
406.395203	1188.100464	11738.343750	3514.964844	22.055077
406.756348	1187.060303	11666.492188	3615.199219	23.170521
407.117493	1186.985962	11611.063477	3719.074219	24.290768
407.478516	1193.078857	11608.610352	3852.298828	25.531294
407.839600	1197.536987	11581.268555	3981.957031	26.815214
408.200592	1196.050903	11564.996094	4103.367676	28.038694
408.561554	1195.233521	11554.593750	4229.830566	29.293287
408.922485	1191.666870	11549.465820	4362.684082	30.614779
409.283417	1191.592651	11541.515625	4489.593262	31.864977
409.644257	1192.632935	11609.799805	4622.298340	32.923206
410.005096	1203.332520	11742.429688	4768.897461	33.831787
410.365906	1208.682373	11899.358398	4936.375488	34.868637
410.726715	1210.465698	12006.278320	5079.482422	35.838123
411.087433	1208.831055	12067.281250	5208.917480	36.838467
411.448120	1208.162231	12140.247070	5318.217285	37.596260
411.808807	1200.732056	12182.301758	5431.454590	38.525665
412.169434	1184.311035	12140.469727	5519.429199	39.567867
412.530029	1181.338989	12081.399414	5614.090332	40.667217
412.890564	1184.162476	12054.799805	5702.808594	41.567440
413.251099	1192.558716	12071.887695	5800.292969	42.353111
413.611572	1192.558716	12107.479492	5915.908691	43.274250
413.972076	1194.564819	12149.833008	6015.696777	44.007427
414.332489	1200.137573	12209.200195	6095.943848	44.470692
414.692871	1201.920776	12337.893555	6216.611328	45.031456
415.053223	1198.948608	12465.247070	6358.826660	45.799229
415.413574	1198.725708	12683.473633	6571.257813	46.779713
415.773834	1197.685547	12865.292969	6726.625000	47.387089
416.134094	1192.335815	13081.588867	6889.645996	47.919834
416.494263	1188.472046	13239.926758	7023.539063	48.417946
416.854462	1188.174927	13507.268555	7223.189941	48.989117
417.214630	1195.605103	13818.596680	7441.269043	49.478477
417.574738	1190.403809	14173.762695	7676.585938	49.957657
417.934784	1189.363525	14516.002930	7917.474609	50.486179
418.294861	1185.054077	14929.497070	8184.816406	50.927944
418.654846	1188.174805	15428.960938	8487.897461	51.259266
419.014832	1190.255371	15937.636719	8778.569336	51.455334
419.374756	1188.472046	16431.822266	9089.749023	51.834251
419.734680	1188.694946	16990.283203	9438.376953	52.207928
420.094543	1183.419434	17514.341797	9781.582031	52.649582
420.454376	1187.729004	18040.255859	10085.480469	52.797729
420.814148	1188.323486	18518.912109	10350.592773	52.867622
421.173920	1204.595703	19014.585938	10677.226563	53.187176
421.533691	1204.744263	19527.572266	10977.261719	53.335201
421.893341	1200.360474	19903.619141	11232.937500	53.640800
422.253021	1187.729004	20212.568359	11396.625977	53.660881
422.612640	1196.422485	20301.064453	11505.405273	53.960613
422.972260	1201.252075	20285.236328	11548.127930	54.217587
423.331757	1200.063232	20210.414063	11542.481445	54.404137
423.691315	1196.645386	20206.548828	11557.862305	54.504307
424.050781	1201.549316	20305.669922	11625.179688	54.562210
424.410248	1207.270630	20346.462891	11702.454102	54.836086
424.769653	1198.948730	20416.531250	11809.377930	55.212093
425.128998	1195.605103	20401.224609	11868.374023	55.571072
425.488373	1191.072632	20334.798828	11834.045898	55.595097
425.847656	1194.639160	20130.244141	11762.864258	55.811390
426.206940	1187.506104	19901.242188	11636.921875	55.838215
426.566193	1189.512207	19540.873047	11500.426758	56.186100
426.925385	1199.988892	19176.195313	11296.913086	56.168266
427.284576	1203.852661	18657.115234	11043.390625	56.376499
427.643677	1202.515259	18250.234375	10824.940430	56.444061
428.002777	1193.152954	17832.429688	10605.375000	56.566288
428.361847	1188.992188	17443.232422	10415.830078	56.765728
428.720856	1184.979858	17095.494141	10223.981445	56.811501
429.079865	1183.716675	16822.656250	10101.084961	57.020287
429.438812	1191.815552	16654.509766	10009.393555	57.024849
429.797760	1191.518433	16509.173828	9968.824219	57.301888
430.156616	1190.329590	16319.776367	9866.807617	57.348286
430.515503	1182.527832	16159.207031	9791.761719	57.484264
430.874268	1183.567993	16085.350586	9742.647461	57.436615
431.233093	1183.419434	16079.703125	9754.833008	57.540623
431.591827	1187.729004	16148.433594	9815.315430	57.668312
431.950562	1188.917847	16167.975586	9843.030273	57.774746
432.309204	1186.168579	16250.823242	9912.577148	57.926376
432.667877	1187.357422	16371.192383	9978.781250	57.899891
433.026459	1193.227417	16552.640625	10064.452148	57.757576
433.385010	1203.852661	16651.685547	10115.943359	57.691528
433.743561	1203.704102	16776.513672	10213.354492	57.855007
434.102051	1198.354370	16928.685547	10321.019531	57.994106
434.460510	1192.038574	17123.431641	10447.482422	58.095634
434.818939	1188.100586	17222.255859	10490.727539	58.017567
435.177338	1192.781616	17219.804688	10519.779297	58.195446
435.535675	1188.694824	17169.054688	10498.008789	58.254726
435.894012	1190.181030	17084.052734	10465.018555	58.354805
436.252289	1190.998169	17089.253906	10488.645508	58.482185
436.610535	1192.855835	17046.603516	10493.252930	58.663715
436.968719	1195.010742	17179.531250	10587.170898	58.757847
437.326935	1196.273926	17294.255859	10647.876953	58.712971
437.685028	1198.948730	17493.611328	10732.805664	58.509083
438.043152	1199.691772	17632.035156	10822.711914	58.561462
438.401215	1194.639160	17856.056641	10936.617188	58.470284
438.759277	1190.106689	18091.375000	11101.420898	58.642433
439.117249	1190.106689	18508.064453	11317.196289	58.477394
439.475250	1195.382202	18822.884766	11522.495117	58.585236
439.833130	1197.239746	19234.820313	11763.161133	58.577271
440.191071	1198.354248	19455.275391	11909.389648	58.668350
440.548889	1201.326294	19750.035156	12065.721680	58.572247
440.906708	1204.595703	20056.533203	12243.528320	58.555958
441.264496	1197.834106	20304.259766	12396.368164	58.611351
441.622223	1184.756836	20479.093750	12528.702148	58.794174
441.979950	1186.168579	20496.033203	12553.073242	58.865788
442.337616	1188.620605	20552.876953	12565.481445	58.751865
442.695251	1194.564941	20461.855469	12510.645508	58.732075
443.052887	1194.341919	20345.498047	12420.813477	58.620335
443.410461	1194.119019	20174.898438	12361.965820	58.837662
443.768005	1192.707153	20045.314453	12304.605469	58.940910
444.125458	1192.707275	19934.529297	12274.734375	59.129936
444.482941	1198.948608	19915.431641	12283.055664	59.221104
444.840393	1205.635986	19999.246094	12354.461914	59.322433
445.197754	1202.589478	20241.400391	12517.706055	59.431843
445.555084	1202.515259	20518.919922	12675.820313	59.396690
445.912415	1202.589478	20900.537109	12864.773438	59.205070
446.269714	1200.954956	21174.640625	13013.824219	59.142159
446.626953	1195.085083	21490.650391	13191.854492	59.110302
446.984161	1198.057007	21761.630859	13400.570313	59.340431
447.341309	1198.354370	22002.224609	13559.726563	59.418613
447.698456	1195.456421	22144.365234	13701.125000	59.696041
448.055542	1187.134521	22287.546875	13773.198242	59.648426
448.412598	1185.871460	22262.431641	13757.668945	59.648243
448.769653	1188.100464	22143.474609	13672.293945	59.575138
449.126617	1188.472046	21778.425781	13482.377930	59.708279
449.483582	1195.902222	21506.253906	13373.747070	59.958809
449.840515	1197.462646	21158.515625	13186.057617	60.059933
450.197388	1192.335693	20900.759766	13025.934570	60.043354
450.554230	1194.119019	20661.876953	12861.799805	59.933357
450.911041	1196.348145	20464.232422	12734.965820	59.885231
451.267822	1201.846436	20283.304688	12658.359375	60.040024
451.624573	1195.307739	20069.164063	12553.370117	60.178814
451.981262	1194.861938	19927.025391	12489.692383	60.296452
452.337921	1188.694946	19749.365234	12374.078125	60.263897
452.694580	1186.985962	19615.027344	12315.899414	60.391190
453.051147	1184.756958	19566.656250	12288.629883	60.406563
453.407715	1181.561890	19469.689453	12245.682617	60.498928
453.764221	1179.035522	19502.904297	12251.254883	60.425117
454.120728	1182.899292	19252.427734	12117.733398	60.515324
454.477142	1186.465942	19210.894531	12093.957031	60.515049
454.833557	1187.134521	19020.753906	11988.893555	60.569641
455.189911	1184.682495	18877.126953	11901.214844	60.571232
455.546265	1185.425659	18629.697266	11788.274414	60.781265
455.902557	1190.701050	18450.779297	11687.668945	60.816456
456.258820	1192.038452	18419.498047	11705.278320	61.026066
456.615051	1198.577271	18497.513672	11750.530273	60.997704
456.971252	1197.314087	18513.041016	11767.098633	61.041527
457.327393	1197.239746	18744.939453	11879.296875	60.874401
457.683502	1197.314087	18999.947266	12034.440430	60.873726
458.039612	1199.468750	19491.087891	12343.167969	60.922432
458.395630	1192.038452	19929.253906	12646.174805	61.130413
458.751648	1187.431763	20402.785156	12949.776367	61.213261
459.107605	1184.756836	21065.044922	13356.286133	61.224106
459.463562	1181.710449	21724.853516	13737.085938	61.117111
459.819458	1187.431763	22339.039063	14085.343750	60.978401
460.175323	1186.688843	22813.833984	14362.046875	60.920471
460.531158	1194.267578	23304.009766	14627.308594	60.756207
460.886932	1187.951904	23619.498047	14823.168945	60.785896
461.242676	1183.939575	23773.601563	14919.020508	60.802509
461.598419	1186.020020	23607.091797	14861.137695	60.992252
461.954102	1188.917847	23261.359375	14683.554688	61.137943
462.309723	1195.456543	22688.708984	14351.346680	61.209400
462.665344	1201.177734	22049.775391	13978.496094	61.286224
463.020905	1204.447144	21456.396484	13629.273438	61.351261
463.376373	1201.623657	20965.033203	13363.344727	61.536549
463.731873	1192.484253	20546.187500	13127.359375	61.667137
464.087341	1183.270752	20269.412109	12920.351563	61.495308
464.442749	1184.162476	20066.416016	12807.932617	61.559231
464.798126	1187.060181	19931.109375	12731.028320	61.587376
465.153503	1189.363647	19974.279297	12799.981445	61.808197
465.508820	1185.351196	20038.849609	12823.980469	61.731934
465.864105	1184.311157	20240.431641	12938.706055	61.683037
466.219330	1187.283203	20501.087891	13106.851563	61.715279
466.574524	1193.078857	20703.708984	13227.148438	61.679550
466.929657	1191.072632	20853.578125	13336.372070	61.768829
467.284790	1191.221191	20993.492188	13404.804688	61.677692
467.639893	1192.187134	21143.509766	13513.659180	61.757671
467.994934	1197.834229	21294.865234	13605.199219	61.737305
468.349945	1197.685547	21318.044922	13621.545898	61.747707
468.704926	1198.874390	21277.921875	13587.366211	61.698608
469.059875	1200.880493	21083.470703	13483.045898	61.773468
469.414764	1200.731812	20864.724609	13362.674805	61.848801
469.769653	1194.044556	20672.429688	13258.651367	61.938435
470.124451	1189.289185	20564.466797	13192.151367	61.949688
470.479248	1186.837280	20408.431641	13115.395508	62.058113
470.834015	1187.431763	20284.123047	13061.972656	62.181145
471.188721	1192.632935	20325.955078	13091.842773	62.191029
471.543365	1196.050903	20419.949219	13152.101563	62.193684
471.898010	1204.670044	20584.455078	13229.303711	62.047302
472.252625	1196.273804	20746.210938	13345.141602	62.142746
472.607178	1196.199585	21004.337891	13495.678711	62.093060
472.961700	1190.255249	21198.267578	13636.926758	62.208439
473.316193	1200.360474	21427.419922	13789.395508	62.238586
473.670654	1204.372681	21546.673828	13882.051758	62.321754
474.025055	1206.007446	21781.841797	14001.233398	62.185696
474.379456	1196.496704	21943.154297	14096.340820	62.177937
474.733795	1189.066528	22133.888672	14206.753906	62.152294
475.088104	1184.236694	22259.681641	14329.948242	62.374538
475.442383	1191.592773	22292.154297	14359.297852	62.404522
475.796570	1193.375977	22403.533203	14435.903320	62.434841
476.150787	1197.834106	22598.650391	14552.114258	62.400799
476.504944	1189.809448	22869.857422	14680.583008	62.226673
476.859070	1186.391602	23143.068359	14842.414063	62.195309
477.213135	1183.939575	23397.851563	14992.506836	62.161800
477.567200	1187.357544	23878.367188	15299.450195	62.192440
477.921173	1194.044800	24267.937500	15550.445313	62.219238
478.275146	1197.982788	24781.220703	15835.543945	62.067650
478.629089	1201.177856	25065.281250	16027.245117	62.127068
478.983002	1198.800171	25522.615234	16300.308594	62.085281
479.336823	1199.914673	25902.375000	16551.228516	62.144875
479.690643	1198.131348	26434.603516	16871.546875	62.106209
480.044403	1201.029175	26999.603516	17213.189453	62.066067
480.398163	1199.989014	27726.062500	17681.148438	62.131924
480.751862	1200.434814	28640.357422	18262.642578	62.180233
481.105499	1198.205688	29801.708984	19045.273438	62.394691
481.459137	1191.666992	31363.029297	20092.792969	62.645908
481.812744	1182.453369	33313.847656	21376.296875	62.847706
482.166290	1185.722778	35658.246094	22857.820313	62.867744
482.519806	1196.645386	38424.316406	24583.203125	62.820362
482.873291	1201.920898	41492.273438	26523.619141	62.848049
483.226715	1197.239746	44907.968750	28725.578125	62.978443
483.580139	1193.673218	48077.050781	30810.367188	63.170986
483.933502	1194.490601	50999.972656	32907.191406	63.673115
484.286804	1197.239746	53370.605469	34799.234375	64.404503
484.640106	1193.896118	55267.406250	36580.121094	65.440964
484.993347	1198.354370	56492.355469	37842.816406	66.272041
485.346558	1200.211792	56989.519531	38542.308594	66.934143
485.699738	1200.583374	56829.097656	38441.699219	66.946091
486.052887	1196.199463	56130.207031	37863.996094	66.748810
486.405975	1193.004517	55109.812500	36861.730469	66.155113
486.759064	1187.877563	53815.156250	35690.050781	65.559486
487.112061	1194.416138	52516.050781	34447.410156	64.793327
487.464996	1192.410034	51351.128906	33433.625000	64.278389
487.817963	1194.861938	50636.113281	32856.886719	64.039696
488.170868	1187.877563	50270.546875	32522.302734	63.840103
488.523743	1191.666992	50230.718750	32427.640625	63.696121
488.876587	1194.936401	50122.832031	32264.695313	63.501118
489.229401	1200.434692	49862.031250	32144.398438	63.590107
489.582153	1198.800171	49301.718750	31786.630859	63.588306
489.934845	1198.651489	48574.667969	31298.015625	63.532913
490.287537	1201.623657	47780.738281	30717.931641	63.368122
490.640198	1201.029175	47069.582031	30248.341797	63.327290
490.992798	1200.360474	46402.125000	29788.185547	63.244926
491.345337	1192.261353	45962.769531	29487.037109	63.199585
491.697876	1193.301758	45570.453125	29187.962891	63.083500
492.050354	1192.632935	45538.277344	29162.851563	63.073204
492.402832	1192.261353	45469.105469	29087.953125	63.002892
492.755219	1189.586548	45234.824219	28908.958984	62.933868
493.107605	1188.694946	44622.203125	28527.634766	62.944351
493.459930	1188.769165	43617.703125	27919.396484	63.000938
493.812225	1191.444214	42237.976563	27049.458984	62.996834
494.164490	1191.221313	40533.246094	25960.330078	62.958401
494.516724	1186.763062	38682.589844	24757.890625	62.863331
494.868896	1185.202637	36854.890625	23611.623047	62.872486
495.221039	1185.425537	35276.035156	22613.812500	62.857155
495.573120	1197.239746	33902.472656	21744.097656	62.824375
495.925201	1201.623657	33037.886719	21172.039063	62.728516
496.277222	1210.614258	32479.724609	20774.001953	62.564579
496.629211	1198.874390	32256.744141	20614.175781	62.513306
496.981140	1195.902344	32131.171875	20486.003906	62.356339
497.333069	1187.134521	32124.187500	20465.125000	62.313595
497.684967	1187.803223	32122.923828	20495.367188	62.413090
498.036804	1193.673218	32135.705078	20557.632813	62.581409
498.388580	1196.868286	32045.203125	20514.091797	62.619987
498.740326	1201.400757	31906.554688	20437.408203	62.647488
499.092072	1199.245972	31611.943359	20267.552734	62.698505
499.443756	1193.598877	31315.845703	20121.326172	62.836372
499.795410	1187.729004	30982.748047	19893.884766	62.782829
500.147003	1179.258423	30663.843750	19642.072266	62.618530
500.498566	1181.636108	30249.455078	19370.498047	62.573879
500.850098	1186.614380	29835.218750	19106.275391	62.549854
501.201599	1186.391602	29451.666016	18880.173828	62.599010
501.553009	1188.323364	29125.328125	18682.900391	62.621517
501.904449	1189.363647	28922.111328	18551.980469	62.606911
502.255859	1198.502808	28717.037109	18459.992188	62.726776
502.607178	1197.611206	28630.322266	18410.505859	62.745876
502.958405	1205.115845	28489.296875	18293.851563	62.632393
503.309692	1200.286133	28425.025391	18226.679688	62.540157
503.660919	1197.611206	28373.830078	18164.935547	62.434456
504.012115	1182.602173	28383.865234	18151.486328	62.382706
504.363251	1181.190308	28437.806641	18159.511719	62.290642
504.714294	1183.865234	28488.630859	18181.728516	62.252369
505.065369	1194.267700	28519.984375	18232.921875	62.353916
505.416443	1195.233521	28518.201172	18248.896484	62.415119
505.767395	1195.084961	28519.759766	18259.818359	62.451736
506.118317	1186.985962	28456.900391	18267.322266	62.634357
506.469238	1189.066406	28489.296875	18284.708984	62.620872
506.820160	1190.106689	28490.486328	18290.580078	62.638226
507.170929	1195.382202	28570.585938	18273.044922	62.383690
507.521729	1183.790894	28589.533203	18306.630859	62.479023
507.872498	1184.905396	28690.880859	18400.027344	62.586842
508.223236	1190.106567	28860.587891	18545.214844	62.720657
508.573883	1201.995117	29079.412109	18672.494141	62.669003
508.924500	1200.731934	29276.609375	18738.400391	62.465256
509.275116	1197.685547	29428.412109	18839.306641	62.490849
509.625702	1192.707153	29622.859375	18975.503906	62.549072
509.976196	1188.397705	29880.990234	19147.589844	62.591736
510.326660	1184.236816	30155.166016	19280.218750	62.462555
510.677124	1185.796997	30384.611328	19405.568359	62.399010
511.027557	1195.159302	30530.244141	19513.455078	62.445007
511.377869	1197.091064	30751.740234	19645.640625	62.421818
511.728180	1198.205688	30929.619141	19724.400391	62.311855
512.078430	1190.701050	31087.142578	19815.421875	62.297451
512.428650	1189.660889	31187.525391	19883.853516	62.318413
512.778931	1183.642456	31262.275391	19947.009766	62.381050
513.129028	1182.676392	31323.724609	19928.138672	62.192471
513.479126	1184.905518	31350.994141	19949.537109	62.204391
513.829285	1195.605103	31277.210938	19921.228516	62.249413
514.179382	1199.543091	31193.992188	19946.789063	62.502384
514.529297	1202.663818	31083.650391	19878.876953	62.501995
514.879272	1198.502930	31123.103516	19894.554688	62.477192
515.229187	1198.800171	31026.658203	19817.724609	62.421257
515.579163	1191.741333	31075.552734	19817.203125	62.326260
515.928955	1193.227417	31058.388672	19818.689453	62.365181
516.278748	1196.645386	31310.794922	19909.189453	62.138710
516.628540	1200.880493	31580.365234	20097.103516	62.200603
516.978333	1204.521362	32052.337891	20358.427734	62.091610
517.327942	1192.038574	32556.851563	20753.566406	62.367748
517.677612	1196.199585	33111.820313	21061.328125	62.242653
518.027222	1189.289429	33628.222656	21361.734375	62.185909
518.376831	1197.239746	34249.613281	21711.330078	62.065403
518.726379	1193.301636	34762.527344	22077.197266	62.211433
519.075867	1192.261475	35272.394531	22391.273438	62.203430
519.425293	1190.626831	35616.785156	22620.498047	62.248798
519.774658	1181.710449	35901.515625	22795.626953	62.252411
520.124084	1182.602051	36011.929688	22885.757813	62.312878
520.473389	1179.555542	35945.429688	22813.906250	62.228699
520.822693	1181.115967	35679.722656	22673.029297	62.297920
521.171997	1186.911621	35323.218750	22458.812500	62.314590
521.521240	1195.902344	34904.964844	22206.556641	62.329395
521.870361	1203.332642	34518.144531	21940.406250	62.245808
522.219482	1195.084839	34135.933594	21714.748047	62.292458
522.568604	1187.877563	33831.371094	21556.333984	62.396683
522.917664	1190.255249	33665.671875	21442.427734	62.361546
523.266724	1198.057129	33716.941406	21416.644531	62.174911
523.615662	1200.657593	33896.085938	21530.402344	62.179165
523.964600	1196.496704	34255.566406	21771.291016	62.236458
524.313538	1199.171631	34748.933594	22098.521484	62.293587
524.662354	1198.279907	35397.152344	22508.447266	62.312489
525.011169	1194.639160	36269.089844	23027.826172	62.248127
525.359985	1184.608276	37217.566406	23659.919922	62.374321
525.708740	1185.351196	38407.000000	24382.958984	62.322891
526.057434	1190.552490	39685.007813	25191.669922	62.349541
526.406067	1196.571045	41259.406250	26159.908203	62.310463
526.754700	1196.868164	43039.777344	27249.781250	62.263630
527.103333	1196.348145	45008.730469	28535.812500	62.401226
527.451782	1191.741333	47108.968750	29945.703125	62.621292
527.800293	1186.020020	49143.449219	31403.150391	63.008236
528.148743	1185.648438	51076.285156	32829.542969	63.426521
528.497131	1183.642456	52769.937500	34082.511719	63.774437
528.845642	1185.425659	54124.480469	35155.292969	64.167877
529.193909	1183.270874	55173.707031	36121.222656	64.711372
529.542175	1185.574219	55840.425781	36845.308594	65.245323
529.890503	1188.026245	56193.957031	37284.363281	65.622627
530.238770	1193.227417	56118.988281	37195.796875	65.547691
530.586914	1200.732056	55699.769531	36829.851563	65.375687
530.934998	1196.868286	54910.300781	36141.582031	65.057686
531.283142	1189.437988	53879.355469	35300.855469	64.739937
531.631226	1186.763184	52532.468750	34158.968750	64.216095
531.979248	1187.208984	50958.511719	32898.050781	63.713100
532.327148	1187.134644	49316.050781	31585.343750	63.159969
532.675110	1184.831177	47841.218750	30522.148438	62.879528
533.023071	1187.357544	46835.386719	29764.630859	62.603523
533.370850	1189.958130	46185.750000	29320.001953	62.517052
533.718689	1194.713501	46025.703125	29158.615234	62.376278
534.066467	1200.360474	46054.015625	29103.781250	62.209911
534.414246	1200.063354	46149.640625	29085.873047	62.037979
534.761963	1198.651489	46113.675781	29038.914063	61.984299
535.109619	1201.920776	45973.843750	28980.216797	62.044014
535.457153	1204.447144	45632.792969	28791.931641	62.094330
535.804749	1205.487183	45094.843750	28427.849609	62.024979
536.152344	1195.010620	44276.027344	27892.945313	61.971462
536.499817	1192.484375	43374.066406	27304.169922	61.903049
536.847229	1185.648560	42300.464844	26659.818359	61.958614
537.194641	1187.952026	41343.593750	26012.640625	61.821175
537.542114	1188.620605	40532.503906	25479.666016	61.740334
537.889404	1189.735229	39933.332031	25047.224609	61.577892
538.236694	1188.992065	39428.292969	24688.787109	61.454563
538.583984	1186.094360	39068.296875	24500.353516	61.544098
538.931213	1179.184204	38948.746094	24419.960938	61.533085
539.278381	1182.825073	38930.687500	24477.693359	61.711754
539.625488	1182.081909	39066.886719	24552.812500	61.688931
539.972595	1193.376099	39317.511719	24721.630859	61.714851
540.319641	1188.992065	39846.621094	25050.046875	61.724052
540.666687	1196.868286	40537.261719	25478.328125	61.721443
541.013611	1189.735229	41506.464844	26100.615234	61.787949
541.360596	1189.437988	42589.425781	26723.492188	61.676479
541.707458	1188.249146	43753.675781	27407.302734	61.597065
542.054260	1199.691772	44811.082031	28006.775391	61.468079
542.401062	1205.710327	45728.425781	28602.388672	61.534157
542.747864	1199.543091	46354.277344	28992.400391	61.550262
543.094666	1192.261353	46542.332031	29154.828125	61.659367
543.441284	1189.066406	46243.859375	28967.437500	61.654640
543.787903	1187.357544	45619.488281	28535.587891	61.550575
544.134460	1189.586548	44665.519531	27938.787109	61.526455
544.481079	1187.580444	43511.230469	27234.695313	61.542698
544.827637	1194.787720	42058.535156	26371.521484	61.611420
545.174072	1190.998413	40494.460938	25355.580078	61.482071
545.520508	1193.078735	38985.968750	24372.257813	61.332115
545.866943	1192.409912	37707.222656	23542.445313	61.208134
546.213318	1193.896118	36684.371094	22895.937500	61.148914
546.559631	1195.679443	35888.066406	22385.921875	61.080383
546.905823	1198.577271	35163.761719	21911.130859	60.981720
547.252136	1196.348145	34579.667969	21516.359375	60.868755
547.598389	1194.713501	34016.003906	21205.103516	60.967716
547.944458	1192.038574	33575.019531	20924.908203	60.935925
548.290588	1192.410156	32968.562500	20575.539063	60.998981
548.636658	1198.428589	32392.642578	20164.345703	60.799473
548.982727	1194.713501	31723.025391	19785.255859	60.896072
549.328735	1198.131348	31159.960938	19424.439453	60.831760
549.674622	1185.202637	30452.970703	19025.658203	60.955982
550.020569	1182.453491	29748.876953	18585.414063	60.921036
550.366455	1180.521606	28950.421875	18132.464844	61.044308
550.712280	1184.905396	28276.271484	17698.462891	60.955055
551.058044	1188.100586	27702.802734	17354.439453	60.971222
551.403748	1184.088257	27268.947266	17102.703125	61.026264
551.749512	1186.985962	26932.880859	16919.621094	61.107353
552.095154	1187.283203	26684.412109	16741.814453	61.005032
552.440735	1191.072632	26570.947266	16630.138672	60.831924
552.786316	1190.923950	26496.273438	16575.080078	60.794086
553.131897	1197.239868	26473.908203	16558.955078	60.774288
553.477417	1195.382202	26453.400391	16531.166016	60.716499
553.822815	1200.806274	26416.919922	16494.757813	60.651501
554.168213	1194.416382	26381.849609	16453.072266	60.580433
554.513672	1187.506104	26271.955078	16397.048828	60.633354
554.859009	1181.116089	26126.250000	16294.363281	60.585949
555.204285	1182.379272	25918.500000	16186.252930	60.655727
555.549500	1196.496704	25726.130859	16041.214844	60.517483
555.894714	1199.766113	25533.460938	15891.420898	60.375763
556.239990	1201.400757	25317.984375	15715.992188	60.185108
556.585022	1208.905396	25047.593750	15564.933594	60.221554
556.930115	1201.623657	24765.615234	15428.811523	60.376812
557.275146	1191.444092	24438.388672	15282.507813	60.614689
557.620178	1181.859009	24240.593750	15135.463867	60.513313
557.965149	1186.317139	24020.507813	14990.276367	60.453022
558.310059	1196.719604	23873.017578	14896.358398	60.413910
558.654968	1191.889771	23698.927734	14809.871094	60.505440
558.999756	1191.815552	23586.208984	14731.554688	60.460400
559.344604	1185.945679	23539.177734	14677.536133	60.356331
559.689331	1188.546265	23461.603516	14629.909180	60.348087
560.033997	1188.917847	23393.990234	14596.250000	60.379593
560.378723	1196.273804	23334.099609	14584.434570	60.476402
560.723389	1196.199585	23307.796875	14560.063477	60.438255
561.067932	1196.570923	23311.068359	14544.015625	60.356079
561.412476	1203.926880	23239.884766	14469.340820	60.198948
561.757019	1199.988892	23193.669922	14447.347656	60.232563
562.101501	1197.314087	23184.009766	14430.332031	60.186478
562.445862	1190.552490	23197.755859	14401.575195	60.030449
562.790222	1199.097290	23224.505859	14354.170898	59.726807
563.134644	1195.233521	23211.054688	14337.303711	59.693756
563.478943	1193.821777	23241.443359	14371.929688	59.771107
563.823181	1181.784668	23236.539063	14393.922852	59.906082
564.167358	1187.060181	23265.814453	14414.133789	59.908604
564.511536	1176.509277	23339.302734	14418.815430	59.750172
564.855774	1180.670288	23410.781250	14448.460938	59.683872
565.199768	1179.630005	23524.912109	14481.823242	59.530212
565.543823	1187.060181	23615.484375	14541.117188	59.540771
565.887817	1195.084961	23824.052734	14654.057617	59.476738
566.231812	1205.710205	24010.328125	14760.903320	59.440567
566.575745	1212.694702	24150.759766	14845.386719	59.432617
566.919617	1207.790771	24251.515625	14884.768555	59.352287
567.263428	1200.806274	24326.859375	14933.733398	59.382927
567.607239	1191.741333	24455.255859	14990.276367	59.314064
567.950989	1197.016846	24462.166016	15018.437500	59.408264
568.294678	1193.598999	24469.818359	15030.547852	59.446724
568.638367	1195.753662	24435.640625	15019.625000	59.483383
568.981995	1192.484375	24397.818359	14961.520508	59.335651
569.325623	1190.701050	24279.900391	14881.573242	59.295570
569.669128	1198.057007	24107.218750	14782.229492	59.295807
570.012573	1197.462646	23969.984375	14744.557617	59.488777
570.356140	1203.629761	23908.384766	14719.145508	59.527245
570.699524	1198.651489	23881.265625	14693.734375	59.495274
571.042908	1195.456543	23911.134766	14690.984375	59.410629
571.386230	1188.620605	23980.757813	14677.909180	59.183960
571.729492	1189.883789	24080.322266	14714.242188	59.083004
572.072815	1195.530762	24155.367188	14760.085938	59.079494
572.416016	1193.152954	24237.398438	14800.284180	59.047844
572.759094	1195.902344	24339.044922	14853.932617	59.015453
573.102234	1186.317261	24462.166016	14837.510742	58.649601
573.445374	1191.667114	24532.751953	14862.327148	58.569088
573.788391	1177.772461	24543.898438	14854.153320	58.530804
574.131409	1179.184204	24545.458984	14874.958008	58.613422
574.474365	1177.846680	24530.375000	14864.260742	58.607849
574.817261	1181.041748	24462.462891	14826.885742	58.612587
575.160156	1187.729004	24293.201172	14744.706055	58.674309
575.502930	1187.951782	24065.537109	14623.145508	58.726448
575.845703	1186.168579	23866.851563	14493.636719	58.673134
576.188477	1193.895996	23668.685547	14340.796875	58.496212
576.531250	1200.954956	23447.708984	14186.469727	58.370380
576.873901	1204.892944	23158.671875	14028.575195	58.412186
577.216431	1192.855835	22908.865234	13888.813477	58.463585
577.559082	1191.072632	22646.353516	13738.127930	58.480034
577.901611	1200.434692	22346.171875	13551.034180	58.407043
578.244080	1202.217896	21991.822266	13343.579102	58.401119
578.586487	1198.131348	21639.181641	13161.018555	58.523834
578.928955	1203.035400	21287.060547	12982.468750	58.650761
579.271301	1211.357300	20994.158203	12792.921875	58.543602
579.613647	1215.443848	20660.019531	12591.488281	58.504978
579.955872	1208.756714	20338.064453	12398.449219	58.495018
580.298157	1203.629761	20019.380859	12247.838867	58.696613
580.640320	1206.081787	19760.361328	12084.222656	58.628742
580.982483	1205.487305	19584.710938	11936.657227	58.387508
581.324524	1207.122070	19360.613281	11805.809570	58.383739
581.666626	1198.800171	19215.427734	11692.796875	58.246181
582.008728	1196.719727	19068.603516	11610.246094	58.267651
582.350647	1194.341919	18970.375000	11514.469727	58.056416
582.692566	1196.719727	18852.755859	11442.024414	58.027210
583.034424	1182.750732	18738.328125	11376.489258	58.065525
583.376343	1178.664185	18652.955078	11315.414063	58.009506
583.718201	1178.218262	18593.289063	11286.510742	58.043365
584.059937	1193.747681	18539.345703	11233.308594	57.879589
584.401611	1190.924194	18410.208984	11185.754883	58.044403
584.743347	1187.803345	18320.970703	11127.872070	58.016521
585.085022	1179.109863	18221.404297	11077.272461	58.079983
585.426514	1182.973633	18183.138672	11032.914063	57.940266
585.768127	1184.979858	18104.302734	10976.592773	57.872372
586.109619	1191.221191	18055.783203	10945.385742	57.838226
586.451172	1190.626831	18032.082031	10908.531250	57.702286
586.792542	1196.199585	17999.240234	10892.704102	57.706844
587.133850	1196.051025	17970.857422	10858.377930	57.600231
587.475220	1200.732056	17912.158203	10834.006836	57.644840
587.816589	1199.914673	17873.369141	10814.166992	57.662025
588.157776	1202.069458	17889.867188	10813.646484	57.596443
588.498962	1203.555542	17941.208984	10835.491211	57.546509
588.840210	1201.103394	17988.093750	10846.414063	57.457058
589.181335	1199.023071	17985.865234	10886.612305	57.709419
589.522400	1196.942505	18006.447266	10899.243164	57.719139
589.863403	1191.221191	18014.398438	10916.036133	57.806049
590.204407	1189.437866	18026.361328	10874.723633	57.524082
590.545410	1183.196533	18042.337891	10889.138672	57.570801
590.886353	1192.410156	18050.509766	10881.633789	57.475182
591.227112	1194.936401	18054.669922	10883.862305	57.467842
591.567932	1198.948730	18029.853516	10816.172852	57.140274
591.908752	1196.942505	17982.150391	10765.125977	57.003666
592.249512	1196.050903	17967.958984	10737.932617	56.892048
592.590149	1188.694946	17911.041016	10727.826172	57.044216
592.930786	1190.329590	17859.103516	10694.316406	57.016712
593.271423	1193.301636	17779.970703	10641.487305	56.962521
593.612000	1195.753662	17704.408203	10595.196289	56.936455
593.952576	1195.382202	17671.119141	10585.909180	56.996101
594.292969	1192.335815	17669.708984	10573.721680	56.934959
594.633484	1191.667114	17713.173828	10595.269531	56.917347
594.973877	1189.512329	17790.966797	10632.793945	56.882252
595.314209	1185.202637	17897.369141	10700.334961	56.935364
595.654480	1190.106689	18043.748047	10737.932617	56.651417
595.994812	1185.871460	18174.816406	10805.101563	56.620529
596.335022	1190.106567	18336.871094	10891.739258	56.579964
596.675171	1194.416138	18503.830078	10996.950195	56.631229
597.015320	1196.719604	18679.183594	11080.914063	56.537762
597.355408	1201.549316	18765.078125	11104.987305	56.386375
597.695496	1195.679321	18803.937500	11114.051758	56.327957
598.035461	1197.388306	18764.482422	11048.963867	56.079708
598.375366	1199.914673	18733.796875	11024.370117	56.031258
598.715271	1198.502930	18659.121094	10997.769531	56.122108
599.055176	1199.320190	18535.408203	10932.902344	56.146358
599.395081	1195.233521	18350.990234	10838.984375	56.212917
599.734802	1200.657715	18136.253906	10693.053711	56.049973
600.074524	1195.828003	17917.134766	10552.621094	55.957306
600.414246	1197.165527	17611.601563	10361.143555	55.828777
600.753906	1191.592773	17274.416016	10174.197266	55.852161
601.093506	1190.106689	16968.291016	9988.068359	55.760292
601.433044	1191.072632	16729.185547	9847.413086	55.710373
601.772583	1197.239746	16577.679688	9753.866211	55.633175
602.112122	1208.756714	16494.908203	9702.895508	55.567543
602.451538	1205.115845	16505.681641	9707.130859	55.566669
602.790894	1199.765991	16597.445313	9724.815430	55.365807
603.130310	1193.524536	16725.023438	9816.578125	55.519779
603.469604	1190.775391	16915.830078	9906.187500	55.423733
603.808838	1193.821777	17115.259766	10014.594727	55.401867
604.148010	1192.112793	17354.291016	10126.048828	55.276806
604.487305	1194.713379	17581.880859	10243.447266	55.218414
604.826416	1193.524536	17785.025391	10366.938477	55.289841
605.165527	1196.942505	17921.890625	10441.984375	55.276958
605.504456	1200.211914	18023.314453	10497.934570	55.267590
605.843445	1199.023071	18096.130859	10512.944336	55.121391
606.182434	1196.645264	18122.804688	10529.663086	55.139603
606.521423	1197.908447	18059.351563	10485.526367	55.081989
606.860229	1194.267578	17919.216797	10425.786133	55.196095
607.199036	1198.502930	17744.529297	10328.301758	55.178192
607.537903	1195.085083	17583.218750	10227.918945	55.118141
607.876648	1203.183960	17370.787109	10111.114258	55.097408
608.215271	1198.725952	17159.841797	9977.889648	55.003448
608.553955	1194.713501	16917.021484	9845.110352	55.019890
608.892578	1190.403809	16675.462891	9722.808594	55.100883
609.231140	1195.902222	16497.507813	9618.116211	55.041374
609.569641	1198.131470	16384.343750	9530.141602	54.865623
609.908081	1204.818726	16353.879883	9483.034180	54.645073
610.246521	1204.669922	16309.745117	9442.316406	54.535622
610.584961	1212.991821	16299.043945	9433.696289	54.492085
610.923340	1207.865112	16269.546875	9397.213867	54.372074
611.261597	1205.561768	16194.426758	9349.881836	54.335804
611.599854	1196.125244	16055.629883	9286.279297	54.444305
611.938110	1196.422485	15928.942383	9211.307617	54.402679
612.276245	1195.753662	15754.925781	9127.866211	54.481892
612.614319	1198.725830	15549.032227	9001.477539	54.373417
612.952393	1198.651489	15299.747070	8856.586914	54.307381
613.290466	1193.673218	15057.965820	8708.129883	54.200069
613.628479	1186.465942	14767.368164	8545.258789	54.184860
613.966370	1184.682739	14472.684570	8403.935547	54.329109
614.304260	1181.116089	14218.715820	8272.717773	54.393459
614.642151	1187.803345	14041.801758	8175.825684	54.364582
614.979980	1193.598877	13915.635742	8093.498047	54.235806
615.317749	1201.474976	13780.627930	8024.173828	54.238140
615.655396	1199.543091	13672.145508	7983.381348	54.389919
615.993164	1195.456543	13586.624023	7951.432129	54.522507
616.330811	1193.450317	13544.270508	7901.054688	54.308979
616.668396	1192.261353	13516.704102	7857.513184	54.081570
617.005859	1196.125122	13456.890625	7816.274902	53.994587
617.343445	1196.570923	13440.543945	7789.674316	53.847748
617.680908	1190.626831	13416.174805	7785.811035	53.945919
618.018311	1182.973633	13451.022461	7784.919434	53.814148
618.355652	1182.453491	13461.499023	7812.560059	53.995289
618.692993	1181.487671	13457.188477	7811.519531	54.009392
619.030273	1187.431885	13447.604492	7798.888184	53.926289
619.367554	1187.654785	13410.453125	7781.724121	53.948933
619.704712	1201.921021	13414.464844	7761.736816	53.713757
620.041870	1199.394653	13394.402344	7762.479004	53.817795
620.379028	1195.530762	13372.781250	7711.507813	53.509430
620.716064	1189.140747	13295.282227	7697.316406	53.759289
621.053040	1189.437988	13253.971680	7649.837402	53.548691
621.389954	1192.112915	13185.835938	7641.439941	53.772522
621.726929	1190.106567	13155.296875	7570.035156	53.320744
622.063843	1190.181030	13065.984375	7534.667480	53.423637
622.400635	1193.078735	13023.855469	7487.856934	53.206806
622.737427	1195.084961	12977.713867	7460.364746	53.173870
623.074219	1198.948730	12942.938477	7416.080078	52.938831
623.410889	1203.406860	12876.437500	7401.517090	53.097698
623.747559	1207.344849	12855.262695	7401.441895	53.177719
624.084167	1209.276733	12812.910156	7380.414551	53.182804
624.420715	1204.372803	12844.859375	7361.912598	52.897617
624.757324	1200.806274	12831.411133	7341.628418	52.798824
625.093750	1190.924072	12877.331055	7372.687012	52.897034
625.430176	1193.524658	12932.686523	7409.318848	52.949211
625.766602	1187.729004	12987.223633	7423.808105	52.850395
626.102905	1187.134521	13049.713867	7451.671387	52.809235
626.439209	1189.734985	13100.757813	7456.575684	52.613792
626.775452	1195.604980	13208.125000	7502.940918	52.506351
627.111694	1199.171509	13281.684570	7523.373535	52.341778
627.447876	1190.180908	13340.532227	7552.500000	52.363255
627.783997	1186.985962	13355.020508	7549.007813	52.284714
628.120056	1187.283203	13384.000000	7559.708496	52.247055
628.456055	1187.357544	13405.473633	7548.710938	52.064930
628.792053	1179.778687	13396.557617	7550.865723	52.150299
629.128052	1182.230591	13329.090820	7506.135254	52.062054
629.463928	1189.437988	13240.448242	7489.862793	52.281303
629.799744	1200.360474	13180.187500	7437.181641	52.061028
630.135559	1191.815552	13096.002930	7400.030762	52.151524
630.471375	1193.821777	12982.765625	7329.294922	52.044300
630.807068	1192.558594	12805.480469	7261.902344	52.263710
631.142700	1201.474976	12674.781250	7176.156250	52.074623
631.478333	1192.261353	12530.411133	7087.587891	51.995491
631.813965	1187.951782	12392.579102	7011.799316	51.977165
632.149475	1186.465820	12242.635742	6952.134277	52.148876
632.484924	1192.112793	12138.539063	6888.232910	52.036346
632.820435	1197.313965	12063.714844	6836.295410	51.893738
633.155884	1200.063354	12009.325195	6776.408203	51.588581
633.491150	1200.434692	11957.686523	6746.612793	51.557575
633.826477	1197.388306	11871.122070	6708.570313	51.633125
634.161804	1196.348022	11807.965820	6681.300781	51.688183
634.497009	1197.165405	11731.285156	6638.131348	51.650879
634.832153	1197.016724	11687.817383	6597.562012	51.478867
635.167297	1201.474976	11617.082031	6550.899902	51.359699
635.502380	1193.153076	11567.002930	6504.980469	51.204010
635.837463	1193.896118	11490.098633	6462.033203	51.165829
636.172424	1178.886963	11435.187500	6410.318848	51.007004
636.507324	1186.168579	11361.554688	6364.102051	50.886852
636.842224	1188.620728	11301.221680	6315.359375	50.696541
637.177124	1199.245972	11181.148438	6272.636230	50.825886
637.511963	1195.085083	11060.109375	6223.372559	50.970860
637.846741	1190.701172	10935.502930	6172.029785	51.117802
638.181396	1184.088257	10805.102539	6094.531738	51.038727
638.516113	1188.992188	10682.280273	6034.941406	51.046055
638.850769	1189.289429	10595.270508	5991.845703	51.058533
639.185303	1193.301758	10533.079102	5958.558594	51.021095
639.519836	1187.283203	10459.668945	5902.459473	50.851814
639.854370	1186.688843	10376.301758	5837.519043	50.609638
640.188843	1187.728882	10286.766602	5784.467285	50.518948
640.523254	1188.026245	10199.237305	5751.179688	50.638626
640.857605	1198.948730	10102.791992	5709.495605	50.658424
641.191895	1202.589478	10032.353516	5682.226563	50.733376
641.526184	1200.137573	9998.025391	5649.087402	50.568386
641.860413	1187.580444	9957.233398	5628.134277	50.635452
642.194580	1184.756836	9901.877930	5583.105957	50.456440
642.528748	1189.363647	9821.111328	5548.480957	50.500977
642.862793	1202.143677	9722.139648	5505.236816	50.505814
643.196838	1200.880615	9656.605469	5463.850098	50.415192
643.530823	1198.651489	9591.589844	5422.909668	50.331100
643.864746	1192.335815	9570.487305	5388.804688	50.088242
644.198669	1194.564819	9555.627930	5372.829590	49.972885
644.532532	1199.097290	9532.073242	5357.523438	49.903259
644.866333	1198.205688	9488.606445	5337.461426	49.928299
645.200073	1194.490601	9442.686523	5333.375000	50.179264
645.533813	1195.010620	9444.543945	5311.158203	49.895519
645.867554	1200.434814	9438.451172	5301.944824	49.787586
646.201172	1202.292358	9443.653320	5288.124512	49.577148
646.534729	1198.280029	9417.053711	5283.146484	49.701656
646.868225	1197.908569	9422.477539	5269.623047	49.506718
647.201782	1200.732056	9420.693359	5250.304199	49.265102
647.535217	1202.292358	9446.846680	5255.060059	49.156902
647.868591	1198.577271	9442.686523	5247.481445	49.112694
648.201965	1195.679443	9434.959961	5234.775879	49.022442
648.535278	1196.868286	9390.081055	5214.787598	49.039608
648.868591	1196.422485	9396.025391	5220.212402	49.072990
649.201782	1197.759888	9361.994141	5208.323730	49.123577
649.534912	1198.131348	9346.836914	5203.716797	49.156094
649.868103	1192.410034	9294.527344	5173.995605	49.142532
650.201172	1188.100464	9269.264648	5164.781738	49.209263
650.534180	1178.589722	9218.589844	5139.073242	49.259743
650.867188	1183.716675	9172.448242	5114.850098	49.208481
651.200134	1187.729004	9160.484375	5093.897461	48.993958
651.533020	1201.623657	9119.395508	5073.984375	48.907204
651.865845	1200.954956	9092.720703	5054.962402	48.835804
652.198608	1199.914673	9027.557617	5036.609863	49.014694
652.531433	1191.146973	9004.300781	5035.495605	49.203545
652.864136	1189.809448	8974.059570	5021.006348	49.217289
653.196777	1234.168213	8993.526367	5035.421387	48.989273
653.529358	1238.923584	8953.477539	4983.854980	48.543720
653.861938	1239.220825	8894.704102	4946.406250	48.425232
654.194519	1196.348145	8775.374023	4870.543457	48.478462
654.526978	1189.214966	8719.795898	4852.264648	48.642326
654.859375	1189.437988	8671.276367	4815.559082	48.465645
655.191833	1193.227417	8631.524414	4799.138184	48.477638
655.524170	1198.948730	8592.960938	4739.696289	47.886688
655.856445	1199.765991	8540.131836	4723.646973	48.006886
656.188660	1194.044556	8502.237305	4712.204590	48.139946
656.520874	1194.341919	8472.368164	4695.560059	48.106701
656.853088	1194.119019	8476.305664	4690.358887	48.010853
657.185181	1193.747559	8462.113281	4663.684082	47.740257
657.517212	1188.546387	8463.749023	4672.601074	47.889454
657.849243	1193.078735	8479.203125	4672.526367	47.754436
658.181274	1191.369751	8546.967773	4699.499023	47.693325
658.513123	1201.474976	8615.771484	4730.186035	47.593334
658.844971	1196.422485	8700.476563	4761.169922	47.504288
659.176819	1191.890015	8788.525391	4782.643555	47.267681
659.508667	1192.855835	8864.833984	4804.785645	47.079510
659.840393	1201.177734	8910.307617	4831.905762	47.096470
660.172058	1213.660645	8963.508789	4836.586914	46.748352
660.503662	1204.967285	8970.715820	4847.955566	46.910973
660.835266	1195.976563	8981.416016	4842.679688	46.840042
661.166931	1189.437988	8940.176758	4835.323730	47.039204
661.498413	1190.552368	8944.487305	4819.943359	46.807087
661.829773	1196.125244	8897.750000	4782.568848	46.567364
662.161194	1199.394531	8808.512695	4738.804199	46.515373
662.492615	1204.372925	8705.677734	4676.093262	46.281551
662.823975	1200.063232	8564.725586	4609.963379	46.300835
663.155212	1199.245850	8425.408203	4540.713379	46.241249
663.486450	1190.923950	8266.400391	4478.225098	46.460491
663.817627	1194.044556	8130.872559	4417.519531	46.469006
664.148743	1190.106689	8024.024902	4354.437012	46.303310
664.479858	1190.626831	7899.121582	4306.140137	46.441315
664.810913	1189.437988	7831.061035	4259.923828	46.230957
665.141907	1189.363647	7762.479004	4221.731934	46.132893
665.472778	1191.146973	7705.786621	4177.596191	45.842125
665.803711	1198.428589	7647.310059	4152.259277	45.803768
666.134583	1201.623657	7571.744141	4138.661621	46.106476
666.465454	1205.412964	7529.688965	4107.528809	45.888508
666.796143	1199.543091	7475.894043	4083.900391	45.955959
667.126831	1203.555298	7473.664063	4049.647217	45.391426
667.457458	1204.967163	7453.974609	4051.653076	45.554211
667.788147	1203.926880	7437.033203	4025.647217	45.269886
668.118774	1192.484253	7406.644043	4020.594482	45.510746
668.449219	1183.642334	7390.594238	4004.173828	45.441490
668.779663	1187.431763	7380.563965	3990.279053	45.257343
669.110107	1194.861938	7356.860840	3978.613281	45.176109
669.440552	1206.156128	7334.792969	3967.468018	45.055893
669.770874	1201.995117	7310.124512	3967.022217	45.267986
670.101135	1199.988892	7273.195313	3959.889404	45.443874
670.431396	1188.769165	7234.781250	3937.746826	45.467613
670.761597	1186.911621	7195.327637	3907.505859	45.279724
671.091797	1188.546265	7174.150879	3882.317139	45.004158
671.421875	1193.153076	7136.702637	3854.379639	44.775036
671.751892	1195.010620	7117.754395	3835.878174	44.588585
672.081909	1198.205688	7104.230957	3805.265381	44.142368
672.411865	1194.193237	7076.813965	3789.736084	44.122223
672.741821	1190.626831	7037.210938	3758.974609	43.929031
673.071716	1182.899414	6976.579590	3747.160156	44.259617
673.401550	1189.066406	6928.580078	3734.231689	44.344616
673.731262	1184.533936	6897.744629	3726.429688	44.491543
674.060974	1189.809448	6848.705078	3699.829346	44.355297
674.390625	1191.146851	6823.441895	3669.885742	44.009392
674.720276	1198.725830	6768.457520	3651.458740	44.036827
675.049927	1198.205688	6755.528809	3632.139893	43.796879
675.379395	1195.679565	6725.585449	3608.660156	43.635109
675.708923	1190.329590	6707.083984	3594.840088	43.585602
676.038330	1188.026245	6681.152344	3569.502930	43.353760
676.367737	1184.459717	6640.880371	3570.246094	43.724384
676.697083	1193.227417	6596.149902	3558.060547	43.769516
677.026428	1193.153076	6553.128906	3546.989258	43.915054
677.355652	1196.273926	6537.302246	3530.494141	43.703571
677.684875	1192.335815	6519.544434	3527.373047	43.832283
678.013977	1193.747559	6537.970703	3522.766357	43.580120
678.343079	1189.437988	6548.967285	3519.422852	43.473686
678.672180	1186.985962	6577.945313	3500.326904	42.911488
679.001221	1184.608276	6594.365723	3507.088623	42.931324
679.330139	1188.249023	6608.186035	3504.636475	42.738274
679.659058	1193.004395	6621.709473	3517.788086	42.823910
679.987976	1202.886841	6643.332031	3533.762939	42.843479
680.316772	1206.304688	6680.482910	3548.400635	42.784431
680.645630	1203.704102	6719.417969	3559.620361	42.712807
680.974304	1195.753784	6741.337402	3570.245850	42.817715
681.302979	1188.992188	6780.197266	3585.626221	42.864357
681.631653	1183.122192	6789.113281	3602.567383	43.158207
681.960266	1183.047852	6806.128906	3601.229736	43.004570
682.288757	1186.242798	6801.894531	3587.186768	42.754501
682.617249	1197.239868	6812.147949	3578.418945	42.408157
682.945679	1199.023071	6793.349121	3568.611084	42.356983
683.274109	1207.419312	6772.767090	3571.954346	42.486748
683.602478	1201.326416	6708.718262	3546.617920	42.584435
683.930725	1197.314087	6645.857910	3528.859131	42.792072
684.259033	1188.323364	6565.091309	3483.460205	42.686176
684.587280	1191.146973	6510.627441	3453.070313	42.521507
684.915344	1194.639160	6446.801270	3416.290283	42.299744
685.243469	1199.691772	6385.427246	3399.646484	42.423195
685.571533	1199.171509	6335.495605	3372.154541	42.306187
685.899536	1196.868286	6284.375488	3341.467529	42.154221
686.227539	1196.496704	6218.988770	3306.545654	42.011990
686.555420	1190.923950	6164.079590	3284.626221	42.100071
686.883301	1191.890015	6159.992188	3276.527344	41.960434
687.211121	1188.397583	6161.181641	3274.372314	41.947823
687.538940	1189.586548	6164.228027	3273.332275	41.887352
687.866638	1187.877563	6135.621094	3271.177002	42.106049
688.194336	1185.945801	6136.958984	3271.771729	42.129272
688.521973	1187.283203	6125.664551	3259.214600	41.955677
688.849609	1190.478149	6112.810547	3242.942139	41.696976
689.177063	1190.998291	6071.498535	3222.880127	41.632656
689.504578	1192.484497	6021.195313	3213.518311	41.854519
689.832031	1196.496826	5973.046875	3200.812500	41.961578
690.159485	1201.252075	5909.146484	3165.890381	41.730721
690.486816	1201.549316	5858.323730	3120.862549	41.215508
690.814087	1198.800171	5792.343262	3079.847656	40.949818
691.141296	1191.592773	5738.027832	3053.470459	40.952477
691.468506	1189.363770	5675.613281	3025.680908	40.932121
691.795715	1181.636108	5593.434082	2989.792969	40.984581
692.122803	1184.459595	5526.042480	2957.099609	40.829346
692.449829	1196.125244	5466.674316	2928.196045	40.558506
692.776855	1199.765991	5404.111328	2899.069336	40.417789
693.103821	1196.199341	5352.842285	2868.605225	40.234531
693.430664	1186.985840	5297.338379	2849.583984	40.449039
693.757568	1185.351318	5272.372559	2833.459961	40.325424
694.084351	1191.369751	5222.292480	2812.878174	40.226730
694.411133	1195.530884	5191.679199	2795.491211	40.037560
694.737854	1193.376099	5148.435059	2770.079346	39.865479
695.064575	1190.403809	5141.673828	2767.478760	39.913116
695.391174	1191.815674	5114.181641	2753.510498	39.815125
695.717773	1198.725830	5106.603027	2753.510498	39.785915
696.044250	1200.211792	5089.067871	2737.312256	39.525776
696.370789	1189.214966	5099.470215	2733.374268	39.489986
696.697205	1185.202637	5115.593750	2739.615479	39.548553
697.023621	1180.967529	5169.314453	2760.494873	39.603558
697.349915	1188.323364	5212.410156	2775.949951	39.453091
697.676208	1192.187256	5277.201660	2793.633789	39.202961
698.002380	1200.211914	5347.492188	2814.289795	38.918949
698.328674	1198.577271	5428.928223	2842.747803	38.866055
698.654724	1197.685547	5519.726074	2867.787842	38.641521
698.980896	1198.502808	5588.158691	2891.193359	38.560894
699.306946	1197.982788	5652.207520	2905.979248	38.345539
699.632935	1197.833984	5676.728027	2915.267334	38.345032
699.958862	1199.840210	5686.684082	2913.038086	38.182693
700.284729	1200.880615	5678.511230	2913.558350	38.249641
700.610596	1201.400757	5653.545410	2900.183594	38.156506
700.936340	1191.889893	5608.295410	2879.230469	38.206200
701.262146	1194.193237	5517.051270	2837.397705	38.011993
701.587830	1191.964233	5429.300293	2803.070313	38.021675
701.913513	1195.530762	5318.068848	2768.222412	38.148628
702.239075	1190.255371	5215.679688	2737.609619	38.439533
702.564697	1187.134521	5095.160156	2681.882568	38.248165
702.890137	1186.317139	4972.783691	2624.446533	37.980778
703.215698	1191.295532	4867.273926	2575.481201	37.654892
703.541016	1195.902344	4792.599609	2545.239990	37.516018
703.866455	1196.719604	4716.662109	2523.989258	37.707142
704.191711	1188.546265	4653.355957	2507.865479	38.077682
704.517029	1188.992188	4583.957520	2492.633545	38.399254
704.842163	1180.001587	4534.992188	2459.122803	38.125923
705.167419	1183.568115	4497.617676	2433.636963	37.720284
705.492493	1183.791016	4454.225098	2416.398926	37.689430
705.817566	1192.855957	4418.262207	2401.240967	37.464584
706.142578	1193.673218	4377.470215	2388.163818	37.517803
706.467590	1198.131348	4355.253906	2369.810791	37.112259
706.792480	1191.518433	4350.499023	2369.142334	37.278606
707.117371	1191.295532	4345.817871	2359.780029	37.041565
707.442200	1186.540039	4357.111816	2350.046631	36.697060
707.766907	1197.536987	4354.659668	2336.300537	36.069664
708.091675	1200.434692	4357.780273	2336.151855	35.970631
708.416321	1205.635986	4338.684570	2343.508057	36.318367
708.741028	1193.450317	4348.715332	2342.021729	36.401741
709.065552	1188.992188	4359.415039	2330.653564	36.009750
709.390137	1185.425659	4383.117676	2327.384033	35.711956
709.714600	1194.862183	4390.547852	2340.461670	35.848316
710.039063	1200.509155	4416.256348	2352.349854	35.818760
710.363403	1196.942505	4443.822754	2372.337402	36.200745
710.687744	1190.849731	4480.082520	2393.736572	36.570438
711.012085	1190.106689	4524.961426	2414.095459	36.702911
711.336304	1195.010742	4558.917480	2413.872559	36.233521
711.660461	1197.165527	4586.483887	2406.070801	35.668095
711.984619	1198.800171	4588.193359	2407.333984	35.656349
712.308716	1190.626831	4593.542480	2407.482666	35.759212
712.632751	1183.791016	4590.124512	2412.386475	36.067974
712.956726	1179.332886	4582.843262	2404.287354	35.990913
713.280701	1180.373047	4557.729004	2396.039795	35.994629
713.604553	1187.431763	4516.268066	2370.479736	35.539383
713.928467	1194.713501	4463.661621	2354.876221	35.490398
714.252258	1199.691772	4426.733887	2326.120850	34.905933
714.575989	1203.555542	4383.415039	2302.864258	34.570984
714.899719	1202.440918	4343.588867	2282.728027	34.391476
715.223267	1203.183960	4294.399902	2264.746826	34.341274
715.546936	1198.577148	4258.734863	2253.378662	34.468861
715.870422	1200.731934	4230.202637	2240.747070	34.329929
716.193970	1205.784546	4207.392090	2238.592529	34.408497
716.517395	1211.654419	4192.976563	2229.379150	34.136688
716.840820	1208.013550	4160.506348	2217.564697	34.193180
717.164124	1193.450195	4122.091797	2207.236572	34.616268
717.487488	1192.484375	4081.671143	2197.131592	34.772663
717.810730	1186.837402	4061.535156	2182.568115	34.637753
718.133972	1191.444214	4028.098877	2156.190918	34.010014
718.457092	1188.917969	3989.461670	2134.197266	33.753422
718.780212	1194.119019	3933.808838	2118.444824	33.738335
719.103210	1196.570923	3890.565186	2097.863037	33.455608
719.426208	1199.988892	3846.875000	2086.048828	33.475559
719.749207	1196.645386	3808.163330	2061.529053	33.118042
720.072083	1199.023071	3758.974609	2052.835449	33.352676
720.394958	1195.828003	3722.417725	2036.860474	33.287258
720.717773	1190.849731	3686.677734	2020.588257	33.245018
721.040527	1192.781616	3669.737061	2010.037231	32.994358
721.363281	1192.633057	3652.721436	1999.337524	32.791687
721.685913	1195.902344	3628.424561	1986.631836	32.506569
722.008545	1199.989014	3603.161865	1980.761841	32.489250
722.331055	1199.394531	3555.607666	1969.542358	32.685829
722.653503	1205.115845	3531.087891	1962.854980	32.577309
722.976013	1194.936401	3499.137939	1947.102905	32.643257
723.298401	1192.112915	3494.382568	1948.440063	32.851372
723.620789	1187.060181	3481.008057	1934.248413	32.572155
723.943115	1184.459595	3480.636719	1929.938843	32.466103
724.265381	1190.626831	3466.073242	1913.517944	31.769201
724.587585	1194.341919	3460.054688	1925.480835	32.269707
724.909790	1197.759888	3462.878174	1925.629272	32.133839
725.231873	1198.057007	3469.416992	1920.576782	31.810009
725.553894	1196.793945	3475.881592	1912.106079	31.385899
725.875916	1217.672974	3490.072998	1942.570313	31.900078
726.197937	1208.905273	3494.977295	1947.102661	32.291080
726.519775	1212.026001	3493.936768	1946.434082	32.183910
726.841675	1188.843628	3491.930664	1913.072144	31.445992
727.163513	1195.382202	3504.264893	1915.301147	31.180403
727.485291	1180.595825	3535.100342	1919.833618	31.396748
727.806946	1188.472046	3538.518311	1922.359985	31.228657
728.128662	1189.363770	3550.852539	1929.270142	31.332199
728.450256	1202.663940	3545.576904	1931.722168	31.117596
728.771790	1199.914673	3544.833984	1932.465210	31.239902
729.093323	1196.273804	3547.211914	1925.555054	31.020863
729.414795	1192.112915	3542.976563	1924.663452	31.160910
729.736145	1190.775391	3550.852783	1928.452759	31.256491
730.057495	1205.115845	3541.936523	1926.744019	30.880766
730.378845	1209.053833	3545.577393	1921.839844	30.506264
730.700134	1205.784546	3543.942627	1908.985474	30.074993
731.021301	1189.140747	3559.546143	1904.155640	30.164248
731.342468	1184.682617	3562.815674	1906.161743	30.338047
731.663574	1189.066528	3555.310791	1909.356934	30.440241
731.984680	1194.193359	3551.744141	1907.350708	30.249926
732.305664	1193.673218	3557.390869	1899.623413	29.866095
732.626648	1196.348145	3572.029053	1894.050659	29.368528
732.947571	1194.862061	3582.134033	1899.772095	29.527847
733.268433	1202.589478	3565.639404	1901.629517	29.582111
733.589233	1196.942505	3559.249023	1903.487183	29.909101
733.909973	1193.227417	3533.688721	1897.840210	30.105721
734.230713	1185.276978	3508.128906	1887.363281	30.225183
734.551331	1182.899292	3469.491455	1879.190063	30.451025
734.871948	1186.465820	3435.832031	1864.255249	30.132462
735.192505	1185.871460	3407.448242	1849.989136	29.893980
735.513062	1188.397827	3388.872314	1833.196655	29.302715
735.833435	1185.574219	3346.148438	1816.478638	29.200775
736.153931	1190.255249	3313.604248	1803.921509	28.900866
736.474304	1191.741333	3258.917236	1795.748169	29.218939
736.794617	1194.490479	3247.028564	1785.197144	28.779327
737.114807	1190.701050	3227.115479	1782.299316	29.050976
737.434998	1186.317261	3218.793701	1773.902954	28.909840
737.755188	1185.128418	3189.889893	1778.286987	29.587488
738.075256	1187.134521	3191.599365	1779.995972	29.577044
738.395325	1195.902344	3202.893311	1781.407837	29.173300
738.715271	1202.961060	3233.505859	1781.853516	28.509218
739.035278	1202.961060	3250.075439	1777.544067	28.067949
739.355164	1190.626831	3269.765625	1780.813354	28.386106
739.675049	1182.453491	3275.041016	1780.887695	28.597811
739.994873	1185.054077	3275.115234	1783.711060	28.643038
740.314636	1197.834106	3271.028564	1775.240601	27.851055
740.634277	1201.326294	3247.772217	1766.101440	27.597853
740.953979	1204.372681	3227.710205	1755.996216	27.263050
741.273499	1199.691772	3200.069580	1748.268677	27.423664
741.593140	1196.868286	3176.441406	1747.897095	27.835739
741.912598	1195.010742	3145.234375	1738.237793	27.854603
742.232117	1191.072632	3098.274658	1730.584595	28.288139
742.551453	1196.422363	3067.290283	1713.569336	27.642088
742.870850	1192.335815	3034.077148	1703.612671	27.760513
743.190063	1202.292358	3023.452148	1691.798462	26.878811
743.509338	1196.719727	2986.746338	1691.352905	27.632729
743.828552	1193.227417	2963.638428	1688.826538	27.993450
744.147705	1183.790894	2930.425049	1674.411743	28.089502
744.466797	1183.939575	2915.787354	1661.408813	27.569931
744.785828	1189.735229	2896.988525	1650.486328	26.987858
745.104858	1194.861938	2878.264404	1649.074585	26.981821
745.423706	1195.976685	2866.598877	1654.350098	27.437288
745.742615	1193.673218	2855.304932	1647.439819	27.308495
746.061401	1196.422363	2841.484619	1648.405762	27.475155
746.380249	1197.759888	2828.407227	1631.167603	26.578875
746.698975	1199.320190	2815.404297	1634.511230	26.928738
747.017639	1197.314087	2805.670654	1638.672241	27.441561
747.336304	1199.543091	2794.896729	1630.127441	26.989901
747.654907	1199.766113	2794.599609	1622.919922	26.532789
747.973389	1196.793823	2794.451172	1608.282227	25.755735
748.291931	1196.199585	2798.760742	1615.192383	26.145199
748.610352	1194.490601	2799.503662	1616.232788	26.276558
748.928711	1197.685547	2798.314697	1615.341187	26.093218
749.247070	1202.218018	2788.581299	1608.579590	25.615921
749.565308	1199.988892	2783.825439	1603.972778	25.506666
749.883545	1197.091064	2781.968018	1603.526978	25.644636
750.201782	1191.072632	2776.915771	1602.189453	25.924179
750.519836	1190.923950	2762.649414	1597.582886	25.873407
750.837952	1192.632935	2757.522705	1596.839722	25.829729
751.155884	1190.329468	2752.247070	1592.678711	25.759953
751.473877	1191.295532	2748.531982	1591.861694	25.722887
751.791809	1193.896118	2733.077148	1590.003906	25.734970
752.109619	1191.890015	2716.135986	1583.242554	25.675156
752.427490	1199.320190	2706.104736	1578.115601	25.139322
752.745300	1195.828003	2697.783203	1572.542603	25.081614
753.062988	1199.765991	2701.349854	1582.350708	25.478745
753.380615	1187.505981	2696.742920	1575.812134	25.728642
753.698303	1186.837402	2694.959717	1577.298218	25.890528
754.015808	1185.871460	2682.922607	1561.471680	25.089338
754.333374	1189.066406	2679.356201	1557.236450	24.704594
754.650757	1184.385376	2693.324951	1554.115723	24.502661
754.968262	1184.162476	2705.213623	1553.075562	24.253824
755.285583	1184.682617	2710.191650	1552.481079	24.109884
755.602905	1186.985962	2683.368408	1541.484253	23.690353
755.920105	1180.893188	2667.541748	1549.360352	24.785089
756.237305	1184.534058	2643.988037	1546.759766	24.819262
756.554443	1193.598877	2645.399658	1554.115723	24.832392
756.871582	1197.388306	2650.378174	1541.855835	23.707497
757.188599	1195.084961	2661.895020	1551.812378	24.319946
757.505615	1190.181030	2669.548096	1542.821655	23.837263
757.822510	1197.016846	2672.297363	1543.936157	23.515482
758.139465	1201.103516	2683.888428	1539.998169	22.855280
758.456238	1196.719604	2698.229004	1552.258179	23.678745
758.773010	1194.193359	2706.030762	1563.477905	24.426208
759.089783	1189.512207	2716.878906	1571.205444	24.990282
759.406433	1192.261597	2725.944092	1560.431519	24.005615
759.723145	1186.688843	2741.918945	1557.162109	23.821123
760.039673	1192.484375	2747.566162	1551.663696	23.097134
760.356201	1192.558594	2750.389648	1558.350952	23.480875
760.672668	1193.598877	2746.005859	1553.372681	23.175224
760.989136	1189.215088	2736.792236	1547.057007	23.122719
761.305481	1186.094360	2738.872803	1535.465820	22.499762
761.621826	1189.140747	2735.454834	1537.472046	22.526556
761.938049	1191.072632	2738.055420	1533.682495	22.146973
762.254333	1187.803223	2746.897461	1537.843384	22.451508
762.570496	1185.425537	2781.447998	1548.988892	22.779339
762.886597	1177.921021	2858.574219	1573.285767	23.524469
763.202637	1183.419434	2950.560791	1601.520874	23.659761
763.518677	1181.561890	3089.655518	1626.560913	23.321655
763.834656	1192.187134	3205.865234	1643.501831	22.412455
764.150574	1189.883667	3314.495850	1659.922729	22.123522
764.466370	1195.976563	3361.975342	1672.108398	21.982092
764.782288	1188.620605	3390.359131	1678.498413	22.249590
765.097961	1195.902222	3366.582031	1686.820313	22.615870
765.413696	1194.564819	3316.501953	1672.405640	22.519087
765.729309	1199.394531	3231.127930	1657.247925	22.535112
766.044861	1193.450317	3127.772705	1625.297729	22.325514
766.360474	1200.509155	3022.560547	1603.898438	22.139292
766.675903	1203.258301	2910.214844	1578.858398	22.004082
766.991394	1199.840454	2824.023682	1557.533691	22.022961
767.306763	1185.351318	2746.228516	1535.763062	22.449667
767.622131	1175.097534	2686.637695	1518.524780	22.720352
767.937378	1181.710571	2638.563721	1510.351440	22.558270
768.252625	1187.431885	2594.948242	1500.320435	22.229834
768.567810	1194.416260	2557.277100	1492.072876	21.840572
768.882996	1190.255249	2510.986328	1475.131836	21.569613
769.197998	1195.679321	2461.500732	1463.243530	21.137596
769.513062	1198.279907	2437.574951	1454.847290	20.702688
769.828064	1200.880737	2410.974609	1455.367310	21.030317
770.142944	1198.057129	2397.080078	1452.618164	21.230705
770.457825	1190.923950	2360.448730	1450.314819	22.179169
770.772705	1188.174805	2335.780273	1441.621460	22.084826
771.087402	1192.261597	2310.888916	1428.023926	21.076038
771.402100	1192.112915	2293.353516	1421.485352	20.828548
771.716736	1191.890015	2288.598145	1420.222290	20.819784
772.031372	1192.112915	2271.359863	1425.274780	21.604126
772.345947	1194.342041	2262.889404	1427.875366	21.855215
772.660461	1194.490601	2237.180420	1422.005493	21.819998
772.974854	1189.883789	2235.248779	1409.225586	20.982317
773.289246	1195.233521	2220.313721	1396.296753	19.614391
773.603638	1200.657715	2211.174561	1400.606323	19.786766
773.917908	1197.834229	2192.524658	1404.990112	20.826166
774.232178	1195.902344	2182.642334	1409.374023	21.634035
774.546265	1190.255249	2174.320557	1394.959351	20.801882
774.860474	1195.605103	2165.329834	1392.432983	20.297295
775.174561	1192.707153	2156.339111	1388.271973	20.294556
775.488586	1195.679321	2147.571533	1389.832397	20.396540
775.802551	1186.094360	2136.426270	1388.346313	21.282244
776.116516	1185.871460	2129.962158	1388.271973	21.438673
776.430359	1187.357544	2133.379883	1382.253540	20.601627
776.744202	1197.759888	2132.190918	1384.408325	19.974554
777.057922	1199.023071	2112.946533	1377.721069	19.552841
777.371704	1196.793945	2096.079834	1379.950073	20.366840
777.685303	1194.341919	2092.736084	1370.588013	19.617903
777.998962	1197.388306	2091.770264	1372.371216	19.564674
778.312500	1201.177856	2082.408203	1368.284668	18.962898
778.626038	1202.663818	2074.234619	1369.919312	19.190121
778.939453	1195.902222	2080.401855	1367.690063	19.422037
779.252869	1195.084839	2085.528809	1367.838867	19.400887
779.566223	1192.781494	2076.389648	1366.426880	19.651854
779.879578	1195.530762	2073.937744	1363.009155	19.066151
780.192749	1196.570923	2064.426758	1360.928589	18.938360
780.505920	1195.530884	2067.621826	1354.018433	18.173283
780.819031	1195.902344	2060.042969	1350.452026	17.884785
781.132141	1195.456543	2062.940674	1354.018433	18.278362
781.445190	1195.976563	2062.420654	1353.572632	18.188833
781.758118	1201.920776	2055.659180	1352.458130	17.632727
782.071045	1193.524658	2040.798462	1344.062012	17.767262
782.383911	1190.701050	2019.027832	1347.925659	18.980988
782.696838	1184.831177	2009.814331	1345.919434	19.526249
783.009583	1188.174805	1996.959961	1342.947388	19.136427
783.322266	1189.809570	1989.901245	1339.380859	18.694269
783.634888	1189.363647	1973.554565	1337.671875	18.912260
783.947510	1193.747559	1967.907593	1339.306519	18.802179
784.260132	1194.936401	1955.647461	1335.739990	18.509470
784.572571	1202.812622	1949.554688	1337.077393	17.980074
784.885010	1200.211914	1948.886108	1328.012573	17.070263
785.197449	1204.447144	1948.068726	1329.424194	16.806540
785.509766	1203.704102	1943.833618	1328.606934	16.875807
785.822083	1206.081787	1936.477539	1328.086914	16.703976
786.134277	1200.509155	1932.167969	1329.275757	17.599268
786.446533	1193.078735	1927.189575	1327.195190	18.269238
786.758606	1190.552368	1929.195923	1331.950562	19.142954
787.070740	1186.763062	1935.883179	1325.486206	18.518145
787.382690	1184.459839	1952.229858	1324.000122	18.174749
787.694641	1183.642334	1961.889038	1333.585205	19.266752
788.006653	1192.112793	1983.511230	1344.136230	19.209469
788.318481	1200.657715	2004.984497	1356.693237	19.399519
788.630310	1204.298462	2023.634399	1349.411621	17.711069
788.942017	1204.818726	2038.049194	1346.959839	17.059040
789.253784	1199.543091	2049.194580	1334.254028	15.854846
789.565430	1203.555420	2046.445679	1343.021851	16.546215
789.877014	1191.592773	2034.854126	1337.523438	17.305508
790.188538	1191.444214	2020.365234	1338.786499	17.775190
790.500061	1190.329468	1997.925781	1326.229370	16.827702
790.811462	1198.577148	1981.430664	1323.331421	15.935839
791.122925	1198.057007	1959.213989	1320.507813	16.087458
791.434204	1198.279907	1950.892212	1318.278931	15.944335
791.745483	1198.577148	1936.551758	1316.941406	16.039068
792.056702	1200.434692	1916.935913	1314.266602	15.887190
792.367920	1196.868286	1906.087769	1323.182739	17.810347
792.678955	1191.295532	1893.084595	1326.006348	19.195343
792.990112	1189.363647	1883.796875	1319.541992	18.745985
793.301086	1184.013794	1881.270630	1308.842407	17.902817
793.612122	1183.865234	1868.861938	1295.913696	16.357519
793.922974	1183.642456	1856.304810	1300.223389	17.331270
794.233826	1182.156372	1838.249390	1299.554565	17.893528
794.544556	1182.973633	1834.831421	1310.551392	19.571409
794.855286	1186.317261	1853.332642	1311.517334	18.770193
795.166016	1186.985962	1858.905396	1311.517212	18.533657
795.476624	1187.729004	1872.131348	1309.436890	17.783091
795.787292	1186.540161	1871.239868	1312.483276	18.393919
796.097778	1188.992065	1885.431641	1315.529663	18.169214
796.408264	1195.828003	1895.313843	1315.752563	17.144672
796.718689	1191.221069	1915.970093	1313.449219	16.864893
797.029053	1193.153076	1917.307251	1307.727905	15.821883
797.339355	1187.580444	1919.016235	1310.551392	16.812267
797.649658	1187.580444	1907.202148	1311.665894	17.243151
797.959839	1186.911621	1912.031860	1315.306763	17.706738
798.270020	1192.781616	1908.167969	1309.213989	16.275454
798.580078	1199.320190	1893.827637	1309.659790	15.887461
798.890137	1195.976685	1868.936401	1308.545288	16.727390
799.200195	1193.004517	1846.793945	1305.053101	17.138329
799.510071	1193.301758	1834.385620	1298.514282	16.411663
799.820007	1198.057129	1831.636353	1290.712524	14.624122
800.129883	1202.440918	1831.562134	1289.746582	13.877399
800.439575	1192.112915	1829.109985	1289.746704	15.327196
800.749329	1189.586548	1825.543457	1285.511353	15.083538
801.058960	1189.289307	1811.946167	1290.563965	16.264923
801.368591	1201.103394	1810.088501	1287.443237	14.177661
801.678162	1205.858887	1797.605835	1298.291382	15.620275
801.987671	1201.846558	1800.949341	1288.186157	14.411484
802.297119	1193.673218	1790.918579	1291.455566	16.372225
802.606506	1183.122192	1785.271484	1289.523682	17.670284
802.915894	1181.338989	1776.801147	1292.495728	18.667305
803.225159	1179.109863	1773.160156	1289.003540	18.499052
803.534424	1187.208862	1768.478882	1284.471069	16.732706
803.843628	1183.493652	1762.757446	1283.059448	17.188334
804.152771	1186.614380	1758.893921	1287.814819	17.683743
804.461792	1189.512207	1765.061157	1289.300781	17.337982
804.770874	1192.632935	1777.841187	1282.613525	15.375824
805.079773	1190.998291	1782.893921	1272.211304	13.720833
805.388733	1186.763062	1787.203491	1269.090454	13.711167
805.697571	1187.803345	1792.999023	1280.235962	15.273179
806.006470	1198.948730	1801.543579	1284.693970	14.229335
806.315125	1199.988892	1809.717163	1286.328735	14.160380
806.623901	1195.530762	1811.500366	1290.192505	15.367925
806.932495	1191.815552	1810.683105	1291.901367	16.172413
807.241150	1197.908569	1805.481934	1289.077881	15.005482
807.549622	1202.143677	1792.033203	1275.480469	12.432293
807.858154	1200.657593	1785.197144	1268.124634	11.541912
808.166565	1192.261475	1769.370728	1274.737549	14.291241
808.474915	1190.181030	1767.513184	1270.427856	13.899594
808.783264	1186.688843	1753.172729	1276.817993	15.910276
809.091492	1188.100464	1754.881836	1277.040894	15.692194
809.399719	1189.809448	1748.268677	1286.031494	17.229914
809.707825	1196.496704	1753.544312	1281.796265	15.312796
810.015930	1198.131348	1741.729980	1272.508423	13.682351
810.323975	1197.759766	1728.058228	1273.325684	14.249696
810.632080	1186.317261	1717.581665	1274.960327	16.685301
810.939880	1186.317261	1720.405273	1276.372070	16.861418
811.247864	1184.682495	1718.770508	1268.867554	15.762394
811.555664	1189.289307	1716.095581	1265.895508	14.541627
811.863464	1191.221191	1710.151367	1261.288696	13.502299
812.171143	1194.936401	1705.098633	1261.660278	13.078953
812.478882	1199.766113	1702.423828	1263.740723	12.727271
812.786438	1202.143677	1692.244507	1269.833618	13.811432
813.094055	1203.926880	1682.807983	1269.907837	13.778150
813.401489	1196.050903	1672.405640	1267.827393	15.067865
813.708984	1190.106689	1664.009399	1266.266968	16.070868
814.016357	1186.763062	1665.421265	1270.502197	17.494558
814.323730	1183.865356	1667.873169	1266.935547	17.162985
814.630981	1181.636230	1675.823608	1259.208130	15.696859
814.938232	1184.756958	1675.154785	1263.889160	16.136328
815.245361	1186.911743	1670.250977	1269.610474	17.109873
815.552490	1194.044800	1667.576172	1273.994507	16.883718
815.859619	1197.091187	1670.770996	1272.359863	15.890202
816.166565	1203.035400	1680.281860	1265.746826	13.140260
816.473572	1200.063354	1682.659546	1264.780884	13.410286
816.780457	1195.605103	1681.470581	1255.567383	12.341333
817.087341	1193.450317	1681.396118	1264.186523	14.496735
817.394043	1191.815674	1683.699585	1259.579712	13.776429
817.700806	1195.530762	1688.380737	1264.632324	14.020811
818.007507	1195.753784	1691.055664	1252.223755	11.401122
818.314209	1197.908569	1699.080444	1258.687988	12.127460
818.620667	1196.645386	1713.495117	1259.802612	12.219649
818.927246	1202.589478	1726.126465	1271.691040	13.198984
819.233704	1202.886597	1755.030273	1274.068726	12.891957
819.540161	1203.183960	1780.813354	1270.353638	11.628508
819.846497	1193.301636	1818.187622	1272.880005	12.734862
820.152832	1187.060181	1853.927246	1283.951050	14.529263
820.458984	1183.419434	1904.378784	1298.142944	15.912619
820.765259	1193.747437	1962.409180	1303.715576	14.306441
821.071350	1196.199585	2045.999634	1302.972534	12.564479
821.377502	1195.679443	2183.905518	1325.932007	13.180442
821.683472	1182.453613	2452.138428	1361.077271	14.068346
821.989441	1182.899292	2901.744141	1425.126099	14.092419
822.295349	1182.750732	3540.895752	1498.388550	13.385004
822.601196	1186.540161	4261.112793	1592.455933	13.202347
822.907043	1189.512329	4872.178223	1670.473633	13.060139
823.212769	1188.472046	5240.347656	1718.844727	13.089561
823.518494	1198.428711	5263.456543	1721.594116	12.869909
823.824097	1195.828003	5055.333984	1697.965820	13.010417
824.129700	1193.227417	4704.179199	1653.681274	13.114788
824.435242	1190.329590	4351.093262	1604.938843	13.117376
824.740723	1191.146973	4012.495117	1559.911255	13.070499
825.046082	1196.570923	3684.894775	1515.998413	12.837055
825.351501	1193.004517	3356.476563	1473.794556	12.978676
825.656799	1197.462646	3051.092529	1432.853638	12.698921
825.962036	1196.125122	2803.961670	1395.256470	12.385049
826.267212	1198.205688	2645.399658	1376.532227	12.322227
826.572449	1190.701050	2581.648193	1368.210327	12.761756
826.877502	1197.536987	2610.774658	1374.228882	12.502631
827.182495	1198.280029	2735.305908	1388.123413	12.351346
827.487488	1200.360474	2882.648438	1414.277954	12.715866
827.792419	1197.982788	3015.427490	1434.042480	12.988549
828.097290	1199.691772	3036.677734	1441.918579	13.186100
828.402100	1194.564819	2971.885986	1437.237427	13.653841
828.706848	1193.153076	2828.481689	1418.216187	13.762562
829.011597	1189.140747	2675.269775	1393.398926	13.744309
829.316223	1198.502808	2529.041748	1364.123657	12.447652
829.620789	1194.193237	2403.841553	1339.752441	12.033184
829.925354	1197.462646	2276.709717	1317.015747	11.077455
830.229797	1201.697876	2160.425781	1301.263550	10.385186
830.534302	1207.121948	2033.293945	1304.458496	11.781632
830.838562	1207.716431	1945.245117	1299.108765	12.391699
831.142944	1200.063354	1860.540039	1283.133667	12.577327
831.447144	1195.159302	1818.038940	1267.307129	11.582949
831.751404	1192.410034	1770.262329	1266.712769	12.858430
832.055542	1193.227417	1756.739258	1271.616699	13.910850
832.359619	1186.168579	1743.587524	1270.725098	15.169294
832.663635	1178.441040	1756.070313	1267.381470	15.397493
832.967651	1174.280151	1775.611938	1270.873779	16.063284
833.271545	1182.602051	1829.778931	1278.081055	14.753155
833.575439	1192.855957	1920.130981	1288.780640	13.189602
833.879211	1193.970337	2041.541626	1301.412109	12.676429
834.183044	1190.626831	2166.370117	1315.083862	12.755100
834.486694	1188.694946	2270.542725	1319.839233	12.122250
834.790344	1193.673096	2300.189209	1320.359375	11.449113
835.093933	1194.861938	2276.040771	1311.591675	10.796524
835.397522	1187.580444	2210.431641	1312.780518	12.240302
835.700928	1186.168579	2148.686279	1303.715454	12.212438
836.004395	1190.478149	2090.061279	1299.851685	12.158247
836.307739	1189.215088	2022.891602	1291.381226	12.254889
836.611023	1186.614502	1952.155396	1288.186401	13.267991
836.914307	1188.397827	1882.385132	1278.452637	12.976435
837.217529	1191.444214	1815.884155	1270.502197	12.660623
837.520691	1195.753784	1760.454468	1262.031738	11.736829
837.823730	1190.106567	1706.510620	1257.647827	13.079150
838.126831	1194.936401	1664.232422	1251.109253	11.969599
838.429749	1189.883667	1630.796021	1241.449829	11.695332
838.732727	1193.821777	1600.406250	1238.180542	10.910098
839.035522	1196.125122	1587.106079	1239.517944	11.098449
839.338379	1200.137573	1579.675781	1241.524048	10.904429
839.641113	1196.645386	1590.003906	1242.564331	11.673560
839.943848	1194.936401	1607.836548	1238.180542	10.473269
840.246460	1189.289429	1633.842651	1240.632446	11.549353
840.549072	1193.375977	1650.709351	1238.626221	9.894367
840.851563	1190.998291	1655.836060	1238.849243	10.294119
841.154053	1197.239746	1658.511108	1234.168213	8.005801
841.456482	1195.902222	1653.681274	1241.449829	9.949693
841.758850	1200.880493	1635.922974	1245.090820	10.162301
842.061157	1201.995117	1610.957397	1249.548828	11.627896
842.363403	1203.183960	1580.121704	1242.713013	10.486892
842.665588	1201.177734	1567.341675	1237.957642	10.044656
842.967712	1193.375977	1549.509155	1237.214600	12.309615
843.269775	1191.518433	1539.626831	1239.963867	13.916767
843.571777	1189.512329	1518.598999	1241.226929	15.714583
843.873840	1192.261475	1503.441406	1227.555176	11.341895
844.175659	1189.958130	1490.884155	1217.301392	9.086373
844.477600	1194.639160	1477.955444	1214.032104	6.844980
844.779297	1196.868164	1466.215698	1225.103394	10.482824
845.081116	1201.252075	1456.853516	1227.629639	10.319802
845.382751	1197.536987	1456.184692	1222.577148	9.681185
845.684387	1194.416260	1453.807007	1219.381958	9.624745
845.985962	1195.084961	1442.884644	1213.734985	7.526250
846.287537	1196.496704	1431.516235	1214.329468	7.587780
846.588989	1202.589478	1427.949707	1211.134399	3.791672
846.890381	1198.428589	1425.423340	1217.895996	8.576149
847.191711	1195.382202	1422.897095	1221.908325	11.659071
847.493042	1190.998169	1417.175781	1228.446899	16.557222
847.794250	1190.180908	1410.414429	1228.595459	17.442644
848.095459	1181.041626	1416.061157	1224.137329	18.337072
848.396606	1184.459839	1410.339844	1219.530640	15.526298
848.697693	1186.911621	1417.101563	1217.450073	13.266632
848.998657	1195.828003	1403.949829	1219.604858	11.424489
849.299622	1192.112793	1403.652710	1219.604858	12.996160
849.600464	1191.666992	1396.222290	1220.570801	14.130071
849.901367	1193.450317	1401.349243	1219.307617	12.437438
850.202087	1195.605103	1396.371094	1218.341675	11.324912
850.502808	1192.558716	1388.643555	1220.793579	14.399310
850.803467	1192.261475	1385.299805	1222.651367	15.742931
851.104065	1189.437988	1387.157349	1222.205444	16.572710
851.404663	1187.134644	1395.702271	1212.471802	12.148174
851.705139	1184.013794	1390.278198	1209.796875	12.500015
852.005615	1181.116089	1394.439087	1206.750488	12.016706
852.306030	1188.769165	1396.222534	1210.614136	10.530063
852.606384	1187.580444	1398.748657	1209.722534	10.485522
852.906616	1196.719604	1396.965454	1211.357300	7.309862
853.206909	1197.165405	1395.999512	1209.499634	6.203276
853.506958	1201.029175	1398.451538	1210.391235	4.742148
853.807129	1194.341919	1394.216187	1214.923706	10.297367
854.107178	1191.518433	1387.231812	1209.796875	9.339394
854.407166	1190.701172	1380.990234	1210.614258	10.464651
854.707092	1191.518433	1382.104858	1205.115845	7.134512
855.007019	1193.004517	1388.792114	1214.477905	10.967696
855.306763	1193.227417	1392.730103	1215.369629	11.098703
855.606567	1193.896118	1386.711792	1220.199219	13.641578
855.906250	1190.255371	1378.612671	1223.245605	17.514709
856.205933	1189.660767	1376.978027	1219.901978	16.144381
856.505493	1179.630005	1382.773560	1213.214844	16.532564
856.805054	1173.611450	1386.860229	1207.567871	15.923384
857.104492	1167.741577	1384.631226	1212.248901	20.520723
857.403931	1174.503174	1385.151367	1213.437622	18.483162
857.703308	1182.825073	1385.819946	1220.347778	18.484558
858.002563	1191.221313	1386.191528	1217.450073	13.452701
858.301819	1197.982788	1389.460938	1220.347778	11.680179
858.601013	1194.193237	1395.702271	1215.295288	10.472013
858.900208	1196.348145	1394.885132	1214.403687	9.094296
859.199219	1194.639160	1389.015137	1212.248901	9.059628
859.498291	1194.416260	1377.646851	1208.459473	7.664229
859.797302	1192.038574	1374.748901	1210.837158	10.288736
860.096191	1196.496704	1372.073853	1211.282959	8.421515
860.395020	1196.050903	1375.566284	1216.781372	11.548018
860.693787	1196.422485	1390.723999	1212.620361	8.336464
860.992554	1195.085083	1394.959351	1215.592407	10.260112
861.291260	1198.205688	1391.169922	1208.013672	5.082798
861.589844	1195.976563	1367.467285	1209.499634	7.885599
861.888428	1187.060303	1357.436523	1211.208618	14.173525
862.186890	1185.276978	1360.408569	1214.477905	16.673706
862.485413	1180.298706	1366.501343	1214.106445	18.156424
862.783813	1192.335815	1369.176270	1207.493530	8.571407
863.082153	1198.428589	1369.101929	1214.552246	9.447086
863.380371	1204.521362	1372.891479	1212.397461	4.677848
863.678589	1195.828003	1373.040039	1211.728638	8.972661
863.976746	1196.050781	1371.182495	1198.800171	1.569898
864.274902	1198.131348	1370.290649	1203.852661	3.323267
864.572937	1201.995117	1369.770874	1204.670044	1.594346
864.870911	1200.657593	1371.405273	1212.992065	7.223801
865.168884	1192.930054	1370.810913	1209.276855	9.189748
865.466736	1194.639038	1367.764526	1214.478027	11.459311
865.764587	1189.437988	1368.359009	1210.094116	11.544830
866.062317	1195.010620	1371.851196	1211.431641	9.285776
866.360107	1191.295532	1367.318726	1208.905396	10.004286
866.657715	1196.942505	1363.157593	1212.620483	9.432343
866.955322	1196.050903	1356.693237	1214.255005	11.332070
867.252808	1190.478149	1365.535278	1219.381958	16.511072
867.550293	1192.558716	1368.136108	1222.948608	17.308546
867.847717	1193.598877	1372.891235	1222.354004	16.038122
868.145081	1197.685547	1371.776733	1216.707031	10.926162
868.442383	1198.279907	1361.374390	1213.734863	9.476075
868.739624	1194.490601	1365.015137	1217.450073	13.464028
869.036804	1194.193237	1370.142090	1220.199341	14.780491
869.333984	1189.586548	1373.411499	1218.564575	15.763925
869.631042	1197.908447	1360.185547	1210.391357	7.692342
869.928101	1204.372681	1361.968872	1214.849487	6.647881
870.224976	1202.589478	1372.668579	1214.477905	6.989940
870.521851	1197.536987	1380.916016	1215.889771	10.008115
870.818726	1186.911743	1380.767578	1210.019897	11.920278
871.115479	1188.917847	1382.402222	1216.409790	14.208870
871.412231	1190.181152	1389.238159	1217.895874	13.923007
871.708862	1193.004517	1388.717773	1207.493530	7.403184
872.005493	1194.564941	1391.392578	1200.731934	3.133194
872.302063	1191.815552	1394.439087	1196.348145	2.236953
872.598572	1195.605103	1398.005737	1206.750610	5.506657
872.895020	1192.930176	1397.931274	1207.865112	7.285296
873.191406	1195.753784	1400.606079	1213.512085	8.668832
873.487671	1186.094360	1403.132446	1208.979614	10.544350
873.783997	1183.345215	1402.612671	1201.029175	8.065018
874.080200	1177.921021	1397.114136	1203.778442	11.796639
874.376343	1186.465820	1398.005737	1209.574097	10.923838
874.672424	1195.084961	1400.531860	1213.437866	8.933163
874.968445	1193.673218	1398.748657	1206.007446	6.014483
875.264465	1193.524658	1399.937500	1203.258301	4.715619
875.560364	1186.688721	1400.680542	1205.561523	8.819404
875.856201	1184.831177	1398.971680	1206.973389	10.340039
876.152039	1190.181030	1394.290649	1206.973267	8.227068
876.447754	1188.026245	1385.522827	1213.214722	12.753880
876.743469	1194.639160	1390.278198	1210.985718	8.355468
877.039063	1192.781616	1393.324585	1214.700806	10.929922
877.334595	1199.914673	1397.262695	1208.088013	4.141587
877.630127	1199.617554	1392.581543	1214.403687	7.662639
877.925537	1191.890015	1385.448608	1219.084839	14.049918
878.221008	1188.992188	1383.293579	1221.165161	16.558283
878.516296	1182.750610	1391.541382	1221.165161	18.398586
878.811646	1185.574219	1395.256470	1215.146729	14.103487
879.106812	1182.973633	1409.745483	1209.722656	11.795566
879.401978	1191.295532	1419.330688	1208.310913	7.461736
879.697083	1193.078735	1441.324219	1213.660767	8.290999
879.992126	1196.125122	1462.203247	1221.685425	9.606315
880.287109	1197.091064	1500.469116	1230.304565	10.947892
880.582031	1196.199585	1559.316895	1233.722290	10.333494
880.876892	1191.741333	1671.588257	1253.115356	12.790334
881.171753	1186.242920	1862.694946	1273.028442	12.829516
881.466492	1187.728882	2151.509521	1297.697021	11.410080
881.761230	1195.010620	2502.441650	1323.628784	9.837472
882.055786	1189.660889	2820.010986	1350.154785	9.844137
882.350403	1189.215088	3014.164307	1364.792358	9.620940
882.644958	1181.636230	3064.615479	1372.222656	10.121536
882.939453	1187.431763	3004.281982	1367.021484	9.884674
883.233826	1185.202637	2906.648193	1361.820313	10.259847
883.528137	1189.214966	2784.940186	1346.439575	9.852862
883.822449	1195.159302	2669.473877	1331.950684	9.278303
884.116577	1197.016846	2550.886719	1327.120850	9.609786
884.410828	1198.205688	2418.033447	1315.603882	9.624162
884.704956	1195.084961	2264.152588	1305.573120	10.335002
884.999023	1200.880615	2093.702148	1277.858276	8.621842
885.292969	1199.765991	1944.948120	1258.316528	7.857212
885.586914	1202.589478	1822.274414	1242.341431	6.414865
885.880798	1193.450317	1735.563110	1237.214722	8.072933
886.174622	1193.970337	1668.616211	1237.586182	9.189134
886.468384	1196.645386	1627.601196	1236.917358	9.344803
886.762085	1196.719604	1588.666504	1235.059937	9.782022
887.055664	1192.707397	1545.868164	1232.533569	11.277066
887.349304	1185.648560	1517.112915	1224.211548	11.634129
887.642822	1185.128540	1498.760132	1220.645020	11.324267
887.936340	1189.289429	1488.357788	1220.496460	10.434749
888.229736	1191.444214	1466.066895	1219.901978	10.362495
888.523071	1192.930176	1450.240601	1228.595459	13.860800
888.816284	1195.902222	1438.872192	1227.035156	12.813491
889.109619	1197.834106	1433.968262	1223.765991	10.981844
889.402710	1201.400757	1420.519531	1213.437866	5.493418
889.695862	1196.570923	1415.318359	1210.614380	6.419941
889.988892	1186.911743	1405.064453	1213.734985	12.295627
890.281921	1172.051025	1397.188477	1211.728760	17.623783
>>>>>End Processed Spectral Data<<<<<
