Jaz Data File
++++++++++++++++++++++++++++++++++++
Date: Fri Jun 04 16:39:27 2021
User: jaz
Dark Spectrum Present: Yes
Reference Spectrum Present: Yes
Processed Spectrum Present: Yes
Spectrometers: JAZA3586
Integration Time (usec): 24500 (JAZA3586)
Spectra Averaged: 10 (JAZA3586)
Boxcar Smoothing: 1 (JAZA3586)
Correct for Electrical Dark: No (JAZA3586)
Strobe/Lamp Enabled: Yes (JAZA3586)
Correct for Detector Non-linearity: No (JAZA3586)
Correct for Stray Light: No (JAZA3586)
Number of Pixels in Processed Spectrum: 2048
>>>>>Begin Processed Spectral Data<<<<<
W	D	R	S	P
191.335022	0.000000	0.000000	0.000000	0.000000
191.713211	234.722305	237.694412	235.465332	25.000000
192.091385	468.330078	472.342407	477.246368	222.222305
192.469528	711.002747	710.185364	713.083191	-254.525085
192.847641	720.513489	715.535156	718.061523	49.252743
193.225739	732.476257	730.321472	717.392761	700.000000
193.603790	736.860046	741.615417	728.463867	-176.562012
193.981842	742.209778	745.999268	741.615417	-15.684443
194.359863	749.714417	747.931152	749.417236	16.664955
194.737854	753.281006	751.571960	748.971375	252.166000
195.115829	747.039551	756.253113	745.033386	-21.774038
195.493774	744.364685	757.144714	743.398743	-7.558217
195.871704	749.268555	759.448059	745.404968	-37.954563
196.249603	759.002258	755.435791	751.349121	214.585938
196.627457	760.636963	752.909485	745.702148	193.268936
197.005310	755.881531	750.606140	748.674255	136.620697
197.383133	752.166443	758.853760	740.055115	-181.108932
197.760910	752.389343	761.008484	745.925049	-74.999290
198.138687	755.287109	762.420227	747.633972	-107.290215
198.516449	752.240723	760.859863	751.126160	-12.931254
198.894180	751.274841	756.847473	752.463684	21.333595
199.271866	746.296570	753.726746	753.578186	98.000595
199.649536	747.931152	745.553467	748.302673	-15.625320
200.027191	745.330566	743.918762	752.315002	-494.717041
200.404816	742.061218	748.822815	744.884766	41.758591
200.782410	740.872375	757.516296	761.157043	121.874336
201.159988	741.615479	771.856628	765.540955	79.115631
201.537537	743.101563	774.977356	775.497559	101.631966
201.915070	746.668030	783.076355	770.147705	64.489853
202.292557	738.271790	776.314758	763.014648	65.039246
202.670029	741.838379	782.556213	761.974426	49.452648
203.047485	737.751770	773.491272	758.630859	58.420204
203.424911	742.655762	778.766846	759.076660	45.473289
203.802292	737.677429	770.742126	755.212891	53.033787
204.179688	736.042786	779.286926	752.240723	37.456951
204.557037	742.358459	782.481934	754.469910	30.185448
204.934357	742.358459	784.562439	758.185059	37.500252
205.311661	743.324463	778.692566	764.500732	59.873920
205.688934	732.030457	775.125977	765.318054	77.241432
206.066177	735.225403	778.692566	758.333679	53.162605
206.443390	736.340027	784.785339	758.927979	46.625671
206.820587	742.284180	788.723389	759.448181	36.960152
207.197769	739.312195	785.676941	762.940369	50.961510
207.574921	737.305908	784.488098	756.401672	40.472401
207.952042	735.225403	780.773010	755.807312	45.187683
208.329147	738.271790	777.726563	755.881592	44.632881
208.706223	746.816589	772.748291	764.129211	66.762383
209.083267	751.720642	772.971191	762.791748	52.097977
209.460297	741.764099	775.125977	764.203552	67.260765
209.837280	732.476257	776.983459	760.265442	62.437500
210.214264	727.052063	778.915344	759.819641	63.180687
210.591217	727.275085	770.890686	766.432617	89.778732
210.968124	726.309082	769.999023	770.742188	101.700996
211.345016	731.064453	772.525391	772.079590	98.924767
211.721893	742.878601	779.509827	761.825867	51.724358
212.098724	746.965271	777.800842	749.268738	7.470161
212.475555	745.181946	776.983582	749.565918	13.785367
212.852356	737.528809	783.670715	751.943542	31.240005
213.229126	732.476257	784.933899	751.943604	37.110600
213.605865	729.504089	784.413818	749.937439	37.212620
213.982590	729.355469	781.144531	748.451355	36.872429
214.359283	726.531921	778.320984	749.194336	43.759075
214.735931	722.593933	775.794678	752.389343	56.005627
215.112579	726.383484	769.924805	755.287170	66.382202
215.489197	734.482422	771.708069	759.745300	67.864174
215.865799	739.163513	761.231262	761.305664	100.337151
216.242355	740.872375	756.921692	758.110596	107.407814
216.618896	738.197571	758.927979	758.927979	100.000000
216.995407	736.860046	766.655457	753.875427	57.107388
217.371902	734.036560	771.410828	756.104492	59.045792
217.748367	731.138855	767.472839	752.389343	58.486534
218.124802	726.754883	769.404602	751.572021	58.188282
218.501236	720.810730	764.203430	746.073669	58.219330
218.877609	726.680603	767.175598	754.841309	69.541199
219.253983	730.990234	767.621399	761.528625	83.367241
219.630295	736.414307	768.513000	763.386169	84.027916
220.006592	731.361633	767.398499	757.218994	71.752525
220.382889	731.956055	768.884521	754.023987	59.758595
220.759140	731.733154	773.416992	752.166504	49.019836
221.135391	734.853943	773.714172	753.132385	47.036373
221.511581	736.414307	767.844299	747.856934	36.406712
221.887772	730.247131	762.197266	755.138611	77.907280
222.263931	726.680664	763.014648	757.516296	84.867195
222.640060	721.627991	770.073425	760.265442	79.754578
223.016159	727.572266	773.194153	758.407898	67.589561
223.392212	730.692932	771.336609	753.652527	56.489956
223.768265	734.631042	769.701843	754.172607	55.720325
224.144302	739.014832	768.736023	752.463684	45.250046
224.520294	741.615417	766.358215	755.435730	55.855900
224.896286	742.284180	761.380066	761.008484	98.054123
225.272217	745.553528	764.500671	755.881592	54.509872
225.648148	747.782715	772.302490	756.327393	34.848106
226.024048	749.045715	777.726563	750.903320	6.476813
226.399902	737.008728	783.819397	754.915710	38.254063
226.775772	730.618652	778.395325	752.017883	44.790123
227.151581	730.395752	777.206482	756.327393	55.396786
227.527374	737.974609	774.160095	759.076599	58.316170
227.903137	734.556702	774.308594	758.630676	60.560574
228.278870	734.631042	769.850403	755.807312	60.126785
228.654572	725.120300	775.348877	758.036438	65.532692
229.030273	726.754883	784.562500	755.733093	50.128704
229.405930	725.343201	791.175354	761.602966	55.079113
229.781555	723.708496	789.169189	760.414063	56.072681
230.157181	725.194580	786.494324	765.615234	65.939354
230.532761	719.250305	783.968018	755.584412	56.142445
230.908325	726.606262	784.413818	758.853699	55.784119
231.283859	726.903503	780.104248	761.974426	65.921867
231.659332	735.745544	779.807068	767.175598	71.332199
232.034821	736.340027	779.509949	760.265442	55.421494
232.410263	733.739319	776.686340	761.380066	64.360100
232.785690	726.829163	774.828796	760.116882	69.349945
233.161087	726.086182	766.729797	750.011658	58.866505
233.536469	732.996338	774.977356	747.856873	35.398224
233.911804	735.745544	775.200256	743.695862	20.150490
234.287140	735.671204	777.726563	752.315002	39.575928
234.662430	741.764099	776.166260	748.079773	18.358364
235.037704	744.884766	777.355164	755.064270	31.350107
235.412933	741.689758	781.218811	759.968262	46.240681
235.788162	731.658936	779.212646	755.881531	50.937340
236.163345	727.275085	773.937195	751.720642	52.388451
236.538513	732.253357	771.708069	748.376953	40.866085
236.913635	726.234802	775.348938	749.863037	48.108826
237.288742	724.748718	783.447937	753.429504	48.860592
237.663834	727.052185	782.333313	760.191162	59.946274
238.038879	726.754883	773.639893	769.181824	90.491486
238.413910	728.538147	772.822571	766.432617	85.570656
238.788910	724.228516	773.937195	764.426453	80.867043
239.163879	733.962219	775.720398	767.918640	81.316818
239.538834	739.757996	768.290222	770.444885	107.551682
239.913757	741.689758	763.906311	768.587402	121.070290
240.288651	742.209900	771.485168	762.420227	69.035500
240.663528	741.615417	779.881348	759.076599	45.631145
241.038361	743.324402	791.918396	759.225281	32.721901
241.413177	738.569031	783.670715	756.550293	39.868271
241.787979	733.962219	784.785339	756.178772	43.713478
242.162735	732.401917	779.435547	766.135315	71.721870
242.537476	730.395813	794.370422	772.079590	65.156754
242.912170	735.522644	798.382751	776.240540	64.775414
243.286865	725.863281	805.664368	772.599670	58.566105
243.661514	721.256531	802.097839	769.404724	59.558899
244.036148	714.346375	802.543701	762.048645	54.085846
244.410751	722.148193	802.915222	755.435791	41.214340
244.785339	732.922058	803.286804	754.469910	30.623079
245.159882	738.940613	799.051453	759.596680	34.363297
245.534378	739.014893	794.816162	757.887695	33.821457
245.908890	738.271790	791.175293	755.807312	33.146240
246.283356	728.909668	791.621155	748.376953	31.042614
246.657791	726.086182	802.915222	745.107666	24.758196
247.032196	719.696106	809.379456	744.736145	27.920500
247.406586	720.141907	821.565186	751.126221	30.549509
247.780960	720.290588	824.165833	756.253113	34.620880
248.155289	720.662109	822.977051	763.460449	41.829998
248.529602	725.863281	819.856262	766.358215	43.082935
248.903870	730.024231	817.998718	766.358215	41.300591
249.278122	731.733215	818.593079	758.927979	31.308779
249.652344	732.996399	816.141113	754.618469	26.005346
250.026550	735.671204	813.391846	759.968262	31.262039
250.400711	734.631042	809.453857	767.770020	44.289936
250.774857	731.956116	810.642639	768.364441	46.270088
251.148987	725.640381	808.785156	765.095154	47.453098
251.523071	727.572266	813.317627	762.866028	41.161133
251.897125	734.556702	819.336121	764.129211	34.881710
252.271164	731.956055	817.255676	758.705078	31.358900
252.645187	731.138733	816.438293	760.488342	34.407692
253.019165	726.160461	814.283508	761.677185	40.303558
253.393112	731.287415	820.376282	772.228210	45.955009
253.767044	731.881836	827.509460	765.020813	34.654190
254.140930	734.779602	828.178162	764.797913	32.140015
254.514801	736.488586	824.314392	764.872253	32.318142
254.888657	736.934387	819.410400	766.506836	35.855816
255.262466	728.686829	816.141113	763.831970	40.186871
255.636276	725.640381	817.998596	758.630859	35.720135
256.010010	728.538269	823.274170	762.791748	36.156811
256.383759	731.658936	823.571350	761.528625	32.497993
256.757446	734.259521	830.704407	761.231445	27.966152
257.131134	727.720886	831.596008	757.590576	28.755384
257.504791	730.395752	839.472168	763.980652	30.790249
257.878418	726.680664	837.391602	763.534729	33.288548
258.252014	729.875671	847.793945	767.101318	31.569023
258.625580	730.024231	853.441101	768.438782	31.125851
258.999115	732.476257	867.112732	767.249817	25.827742
259.372650	729.206848	873.874329	769.256104	27.683661
259.746124	730.618652	899.434387	760.636902	17.781666
260.119598	733.293518	920.313477	766.135315	17.560583
260.493042	744.141785	938.963562	751.423340	3.737547
260.866425	742.209900	934.208191	755.658691	7.004641
261.239838	745.033386	931.236023	750.011719	2.673610
261.613159	737.751709	921.056580	762.643127	13.579246
261.986511	734.482422	913.031799	767.992981	18.768230
262.359802	727.200745	894.530457	775.720398	28.996437
262.733063	726.234863	885.316895	775.868958	31.200315
263.106293	726.309082	884.202332	772.896912	29.505903
263.479523	727.349365	886.877258	761.528625	21.425257
263.852692	730.618652	888.214661	755.955872	16.077324
264.225861	737.751709	881.378906	752.537903	10.294843
264.598969	737.677429	885.688477	763.906250	17.720854
264.972076	739.460693	890.963928	766.655457	17.949955
265.345154	734.259521	902.109375	765.838135	18.813608
265.718201	740.649475	903.966980	765.838074	15.423085
266.091217	739.460693	907.310547	770.890686	18.725063
266.464203	740.500977	910.356934	775.423157	20.559879
266.837158	735.894104	922.393982	770.593445	18.605556
267.210114	729.281250	927.818054	765.912415	18.450565
267.583038	724.377258	939.706543	765.689453	19.185591
267.955902	720.736328	941.118164	765.912415	20.499006
268.328766	718.507324	947.285339	768.290100	21.760298
268.701569	718.358704	949.737366	772.228210	23.281969
269.074371	719.696106	959.396790	769.553284	20.799765
269.447144	723.782776	972.102539	768.067200	17.833628
269.819885	730.915833	981.984863	762.568848	12.607296
270.192596	730.544373	980.572998	767.324219	14.710254
270.565277	736.414246	988.671936	769.627625	13.166449
270.937927	731.213074	1000.114563	773.416992	15.694937
271.310577	733.813660	1036.225708	769.553284	11.818188
271.683136	730.618652	1056.881836	766.209656	10.908679
272.055725	733.813660	1076.869263	760.562683	7.797285
272.428284	732.253235	1078.652588	756.476013	6.992732
272.800812	730.841553	1081.476074	757.441895	7.586344
273.173279	730.841553	1078.801147	760.414063	8.498835
273.545776	729.727051	1080.435913	770.667786	11.673710
273.918152	729.281189	1073.674316	772.599670	12.578207
274.290558	734.185120	1064.609375	772.302490	11.535888
274.662964	736.934387	1053.835449	768.290100	9.894480
275.035278	744.587585	1049.451660	763.088928	6.068718
275.407593	741.912659	1057.996460	765.318054	7.404807
275.779907	741.912659	1066.689819	766.804016	7.664134
276.152161	737.231628	1078.206665	772.451111	10.329050
276.524384	731.064453	1083.556519	768.513000	10.623940
276.896606	723.857117	1100.126099	765.243713	10.999205
277.268799	726.754883	1112.534546	765.540955	10.053945
277.640930	732.401855	1129.401245	767.992981	8.965033
278.013031	739.089172	1128.658325	772.153870	8.487504
278.385162	734.779602	1133.413696	771.262268	9.151918
278.757233	733.590820	1134.082397	766.581238	8.237481
279.129272	725.789001	1130.292969	769.627625	10.837625
279.501282	725.120300	1138.614868	769.999084	10.853537
279.873230	722.965515	1154.515747	774.680176	11.983462
280.245178	731.287354	1174.948975	763.757629	7.318703
280.617126	725.417480	1190.701172	763.757629	8.240166
280.988983	727.052063	1203.555542	764.649353	7.890244
281.360870	727.126465	1232.459351	767.175598	7.925297
281.732697	730.470032	1257.424927	767.472839	7.022007
282.104492	727.349426	1283.579590	765.763855	6.906211
282.476288	723.931458	1308.099487	766.581238	7.300944
282.848053	735.522644	1320.805054	763.014648	4.697220
283.219757	740.575195	1323.554321	764.946533	4.180482
283.591461	739.460632	1315.158203	765.243713	4.478581
283.963135	732.179016	1321.771118	766.581238	5.834919
284.334747	728.389587	1330.910278	768.067200	6.585269
284.706360	730.172852	1347.628418	765.095154	5.655840
285.077942	727.275085	1367.095703	774.085693	7.316208
285.449524	728.315247	1379.430054	775.200256	7.200728
285.821014	727.943787	1393.770508	779.955627	7.811618
286.192535	731.807434	1411.157227	765.020813	4.888995
286.563995	736.785828	1446.228149	753.206726	2.314621
286.935425	734.185242	1468.518921	746.370850	1.659410
287.306824	731.064453	1487.763306	753.206726	2.926167
287.678223	727.423645	1474.166016	759.002258	4.228850
288.049561	732.476257	1462.351929	767.249817	4.764313
288.420898	727.869446	1436.048828	766.581238	5.466382
288.792145	728.761047	1424.977661	767.249939	5.528293
289.163452	727.200867	1432.333618	769.999084	6.069526
289.534668	726.160461	1451.280884	775.497498	6.803978
289.905914	724.525879	1481.150391	776.834961	6.913480
290.277039	730.692932	1508.493774	774.531555	5.636227
290.648193	736.860046	1546.759766	768.736023	3.935793
291.019318	737.900330	1590.747070	772.971191	4.112212
291.390381	725.566101	1606.796387	777.206543	5.860039
291.761475	721.776672	1592.010132	777.280762	6.378069
292.132507	717.244141	1570.908203	775.051697	6.771698
292.503510	720.885010	1553.892944	768.215881	5.681923
292.874481	723.634216	1554.858765	773.268494	5.971224
293.245422	722.668274	1553.149902	778.543945	6.728105
293.616364	719.176025	1580.493164	775.868958	6.582120
293.987213	721.107910	1610.511353	776.240540	6.198833
294.358093	726.383362	1655.093140	764.054871	4.056327
294.728943	737.900391	1706.064819	767.844299	3.092854
295.099731	736.785828	1745.519653	768.364441	3.130520
295.470490	737.305969	1773.977539	779.881348	4.106930
295.841248	737.900391	1790.175415	780.921570	4.088397
296.211975	741.318298	1813.952148	783.150696	3.899970
296.582642	743.695984	1860.911621	788.574768	4.017021
296.953308	733.813721	1909.134155	790.803894	4.848905
297.323883	729.058289	1959.362793	789.689270	4.928128
297.694519	724.748718	1980.687500	788.054688	5.040530
298.065063	736.340027	1975.040527	781.293152	3.629056
298.435608	737.974609	1957.133667	779.361145	3.394679
298.806122	743.250183	1912.180542	765.466614	1.900578
299.176575	743.621643	1859.128418	768.513000	2.231395
299.547028	744.290344	1809.345703	767.027039	2.134790
299.917450	743.027161	1784.825562	770.221985	2.610373
300.287872	731.361755	1781.184937	768.884521	3.574198
300.658234	728.166687	1773.457397	765.986755	3.618139
301.028564	727.795166	1778.212524	769.924805	4.010752
301.398865	728.983948	1789.581055	777.577942	4.581758
301.769135	733.293518	1800.280640	778.246765	4.213101
302.139374	730.098450	1802.658325	773.862854	4.080369
302.509583	732.550476	1801.395142	769.924805	3.496703
302.879791	733.888000	1799.463257	771.708008	3.549258
303.249939	735.596985	1789.952515	773.194092	3.565885
303.620087	744.364685	1769.593750	777.949463	3.275832
303.990173	746.073547	1766.547241	770.890808	2.431935
304.360260	743.027161	1755.179077	769.701904	2.635449
304.730286	734.036621	1775.537720	765.020813	2.974955
305.100281	730.395752	1785.271484	772.822571	4.021973
305.470276	733.442139	1799.983398	772.599670	3.671450
305.840179	732.476257	1797.977173	773.937195	3.891215
306.210144	735.819824	1801.098022	773.194153	3.508410
306.579987	736.191406	1817.221680	781.664551	4.206463
306.949890	738.049011	1827.995605	774.159973	3.313095
307.319702	735.448303	1842.410156	775.720398	3.638074
307.689484	729.578430	1860.391479	773.045471	3.843875
308.059265	734.853943	1888.254883	786.345703	4.464342
308.429016	730.321472	1928.526978	781.144531	4.241598
308.798737	739.609314	1979.721802	777.206482	3.031754
309.168396	730.693054	2026.681030	775.646179	3.468637
309.538055	731.287415	2058.854248	782.110413	3.828281
309.907684	720.439209	2069.330811	786.568604	4.902499
310.277313	724.525879	2089.912598	785.825500	4.489543
310.646851	725.417480	2111.906250	781.144531	4.019293
311.016388	733.367859	2136.203125	781.516052	3.432206
311.385895	734.779541	2137.466064	778.915466	3.146528
311.755371	737.677429	2142.444580	778.766846	2.924999
312.124817	729.801270	2142.816162	775.348938	3.223439
312.494232	724.748779	2144.450928	769.999023	3.187305
312.863617	729.875671	2126.246826	771.633789	2.990474
313.232971	739.014893	2119.187744	772.302429	2.411838
313.602295	740.946777	2107.002197	775.497498	2.529233
313.971619	735.225403	2114.209717	770.742004	2.575562
314.340820	729.429871	2124.909180	768.958801	2.832642
314.710083	725.937561	2148.463135	770.445007	3.128762
315.079285	727.943665	2180.487549	776.537781	3.345449
315.448486	732.179016	2205.379150	779.212708	3.192621
315.817596	727.275085	2204.561523	783.150696	3.782314
316.186707	723.931396	2166.221436	779.509949	3.853493
316.555786	722.148132	2112.797607	780.252930	4.178249
316.924866	739.386414	2075.200439	782.333313	3.215036
317.293884	740.278015	2064.352295	787.980408	3.602698
317.662872	742.284180	2065.912842	789.392273	3.559011
318.031830	732.179016	2081.070801	787.757507	4.120307
318.400757	737.603088	2088.426758	784.636719	3.481848
318.769684	736.117004	2105.293213	784.636719	3.543716
319.138550	740.649475	2125.354736	788.574707	3.461042
319.507416	739.609192	2139.695313	795.559265	3.996188
319.876190	738.940613	2156.636475	801.429138	4.407753
320.244995	739.757874	2152.401367	797.491028	4.086888
320.613770	739.460693	2139.398193	808.190735	4.909508
320.982483	739.460693	2119.262451	803.212402	4.620353
321.351166	739.014832	2095.485352	808.190735	5.099699
321.719818	733.144958	2091.993164	801.354797	5.019681
322.088440	731.361633	2093.850586	809.082275	5.704313
322.457062	727.423645	2121.491455	813.168945	6.150726
322.825623	733.144958	2147.720215	815.918152	5.851452
323.194183	732.179016	2188.958008	815.398132	5.712542
323.562653	735.819885	2233.614258	822.233887	5.769417
323.931183	721.479492	2286.517578	842.444275	7.729191
324.299591	722.519714	2340.238525	855.818787	8.239941
324.668060	713.231750	2393.662109	862.134460	8.860987
325.036407	722.445313	2434.528564	861.317139	8.111278
325.404755	724.525879	2452.955811	872.239685	8.546126
325.773102	730.618652	2464.101074	882.939270	8.786972
326.141388	733.293518	2477.252441	894.753418	9.258240
326.509674	730.544250	2485.722900	907.384949	10.075367
326.877899	731.510254	2495.531006	919.570557	10.660890
327.246124	727.052063	2502.069580	932.573425	11.578553
327.614288	728.166687	2508.831299	939.112061	11.846441
327.982422	724.377258	2498.280273	942.604248	12.302081
328.350525	727.795166	2480.447754	948.771484	12.608108
328.718628	730.841553	2475.618164	960.214050	13.146238
329.086700	738.791931	2477.104248	966.604065	13.105363
329.454712	732.773438	2490.552979	978.418213	13.974720
329.822693	729.132629	2488.175537	985.254089	14.560273
330.190674	726.903564	2503.927490	1005.167236	15.658972
330.558563	732.476257	2524.137695	1019.136169	15.999670
330.926483	726.977844	2556.162109	1036.820190	16.938826
331.294312	726.829163	2578.229980	1052.275269	17.578371
331.662231	737.083008	2604.458984	1075.457642	18.120327
332.029999	743.398743	2636.854980	1098.194214	18.737980
332.397766	736.785828	2676.309814	1129.252808	20.235222
332.765503	730.470032	2718.216553	1142.478638	20.727421
333.133240	730.841553	2771.937500	1170.490845	21.539864
333.500916	741.466858	2816.964844	1192.632935	21.737726
333.868561	743.027161	2857.385498	1222.577026	22.680634
334.236176	746.519470	2873.434814	1248.285767	23.591269
334.603790	738.940613	2889.558594	1256.161743	24.049885
334.971344	740.723816	2890.227295	1271.765259	24.705309
335.338867	737.825989	2879.378906	1282.984985	25.456245
335.706360	735.522644	2871.948975	1310.105591	26.894583
336.073853	729.727051	2871.057373	1328.012573	27.939899
336.441284	729.058289	2885.917725	1346.142456	28.610312
336.808655	735.596985	2869.125000	1364.346558	29.469946
337.176086	736.117004	2835.243164	1370.067871	30.200703
337.543396	732.922058	2761.311768	1360.482788	30.938866
337.910706	731.658875	2715.615967	1357.139160	31.526907
338.277954	726.234863	2720.668213	1375.714844	32.564636
338.645264	728.761047	2801.287109	1429.733032	33.822105
339.012421	725.640320	2928.938721	1488.134888	34.606960
339.379669	720.587708	3041.804688	1548.840210	35.681820
339.746796	721.553711	3142.039063	1595.948242	36.124760
340.113953	728.686768	3204.527588	1638.151978	36.733589
340.481018	739.757874	3231.945313	1669.507813	37.306580
340.848114	737.974609	3236.329346	1692.318726	38.198902
341.215118	738.494812	3222.731689	1715.575562	39.331223
341.582153	737.008728	3233.951416	1732.665161	39.875023
341.949066	734.110840	3242.570557	1762.014648	40.977489
342.316010	727.200684	3254.830811	1777.841309	41.566235
342.682922	723.559875	3274.074951	1812.912109	42.711071
343.049835	729.355530	3300.006836	1843.673462	43.347687
343.416656	731.807556	3341.913330	1890.930054	44.409027
343.783478	735.374023	3393.479736	1942.793335	45.424053
344.150269	733.739441	3490.296143	2001.938110	46.006626
344.516998	726.829285	3600.412842	2070.668213	46.765263
344.883728	723.782776	3714.541748	2134.420166	47.166538
345.250427	725.120300	3771.457764	2180.859375	47.786533
345.617065	731.138855	3817.525146	2225.812256	48.427940
345.983704	733.145020	3830.528320	2240.969971	48.680607
346.350281	738.866272	3835.060547	2258.951416	49.095276
346.716827	739.534973	3793.302734	2240.969971	49.166641
347.083405	745.702148	3741.736328	2245.799805	50.069443
347.449860	741.392578	3681.179688	2258.654053	51.611271
347.816376	741.987000	3639.570313	2283.768311	53.209213
348.182770	737.305969	3602.864502	2277.452881	53.746834
348.549194	739.609375	3588.152588	2271.359863	53.773117
348.915558	739.683594	3599.446533	2278.864502	53.821976
349.281921	735.596985	3623.669678	2304.499023	54.323498
349.648193	723.039795	3660.003662	2340.015625	55.056034
350.014526	715.683838	3693.291260	2380.510498	55.911556
350.380737	715.089355	3740.696289	2435.643311	56.866405
350.746948	719.176025	3793.154053	2487.655029	57.530632
351.113159	722.148132	3841.525146	2516.930420	57.536560
351.479309	723.188416	3882.540039	2557.722656	58.066795
351.845428	728.315247	3920.285889	2583.579834	58.122860
352.211517	723.708496	3929.871094	2617.387695	59.063728
352.577576	725.046082	3966.353516	2639.752930	59.072052
352.943604	723.039795	3998.898193	2674.749268	59.578568
353.309601	733.665100	4078.402344	2715.987305	59.266903
353.675537	739.832214	4157.386230	2789.844482	59.984779
354.041473	742.209900	4284.071777	2870.016846	60.075943
354.407379	743.027161	4396.640625	2953.607422	60.503944
354.773254	741.466980	4482.312012	3024.492188	61.029663
355.139038	742.284180	4540.861816	3084.083008	61.649361
355.504913	741.615479	4626.087402	3148.949219	61.973255
355.870636	732.253235	4728.477051	3217.084961	62.179493
356.236389	729.504089	4845.577637	3303.053467	62.524372
356.602081	728.835388	4943.806152	3408.488525	63.574654
356.967804	735.448303	5051.247559	3503.744873	64.143311
357.333405	734.779602	5159.135254	3598.852295	64.734238
357.699036	733.144958	5311.084473	3697.749023	64.758476
358.064606	730.841553	5491.119629	3804.224854	64.563103
358.430176	734.185242	5608.518066	3887.369873	64.689560
358.795654	733.219238	5662.981934	3929.796875	64.842422
359.161163	738.346130	5632.443848	3939.827881	65.415161
359.526581	734.928223	5611.416016	3930.391357	65.527962
359.892029	737.008728	5634.746582	3964.421631	65.895988
360.257416	730.693054	5726.808105	4037.386719	66.185295
360.622772	732.327637	5919.623535	4174.772461	66.362991
360.988098	728.315369	6162.964844	4333.631348	66.339439
361.353394	735.076843	6449.179199	4517.828125	66.200272
361.718658	724.971680	6712.136230	4691.474121	66.250099
362.083893	722.593933	6919.143066	4850.630371	66.618317
362.449097	715.386536	7072.505371	4951.755859	66.639771
362.814209	732.773438	7076.070801	4989.575684	67.107086
363.179382	731.956055	6912.753906	4895.286133	67.359108
363.544434	730.395752	6573.709473	4705.145508	68.022186
363.909546	728.018066	6196.771973	4457.643066	68.198807
364.274536	727.943787	5903.201660	4267.279785	68.389557
364.639587	734.185242	5701.470215	4145.571777	68.677078
365.004517	729.132629	5594.028809	4078.847900	68.854820
365.369507	734.110840	5514.524902	4016.210938	68.657234
365.734344	732.327637	5468.457031	3991.022217	68.805016
366.099274	727.795166	5431.454590	3988.198486	69.316315
366.464081	727.349365	5398.835938	3987.975830	69.798477
366.828918	726.234863	5378.551270	3984.037842	70.025398
367.193665	730.693054	5381.746094	3981.660156	69.897438
367.558411	729.206848	5401.807617	3996.520508	69.924950
367.923126	729.578369	5413.398926	3986.935547	69.544876
368.287781	732.550537	5401.659180	3982.997314	69.616005
368.652435	735.076843	5365.919434	3963.307373	69.711510
369.017059	733.962219	5340.285156	3970.737549	70.268097
369.381653	739.386414	5309.003906	3965.461914	70.598366
369.746185	738.049011	5287.158691	3976.681641	71.192665
370.110687	734.928223	5296.074707	3977.870361	71.099274
370.475220	732.401917	5327.728027	3990.427734	70.898689
370.839661	735.819824	5384.346191	4025.126953	70.760216
371.204041	746.445129	5449.584473	4075.207031	70.777451
371.568451	737.603088	5539.267578	4129.299316	70.635841
371.932770	728.166687	5621.297363	4170.537598	70.351089
372.297150	732.327637	5661.718750	4193.051270	70.205902
372.661377	734.853943	5667.291504	4202.190430	70.296608
373.025696	743.621582	5686.907715	4223.069824	70.387352
373.389862	735.225403	5688.914063	4218.908691	70.325043
373.754059	731.733154	5698.053223	4228.270020	70.404984
374.118225	726.457703	5699.687500	4198.772949	69.820122
374.482361	717.764343	5735.798828	4226.264160	69.917809
374.846436	721.405090	5790.856934	4253.162109	69.667435
375.210510	724.823059	5879.054199	4326.572754	69.879478
375.574524	731.213074	5988.873535	4391.142090	69.611359
375.938538	728.761047	6134.655762	4485.061035	69.485260
376.302460	726.829285	6289.873535	4576.378906	69.198616
376.666412	726.309082	6452.373535	4677.505371	69.003700
377.030304	728.389587	6607.145996	4781.826172	68.950577
377.394196	725.268860	6757.015137	4883.694824	68.942322
377.757996	727.795166	6889.421875	4978.579590	68.988014
378.121796	733.665039	6934.895996	5017.885254	69.086609
378.485565	736.562805	6936.753418	5026.133301	69.184494
378.849304	733.070618	6836.444824	4967.508301	69.378632
379.212982	728.463867	6727.813965	4883.472168	69.257637
379.576630	731.510254	6549.486816	4752.996094	69.121727
379.940277	729.801331	6433.203125	4663.089844	68.963905
380.303864	724.525818	6312.238770	4592.056641	69.214912
380.667450	722.742615	6298.567871	4584.329590	69.255882
381.030945	730.544434	6288.982422	4577.345215	69.206505
381.394501	741.615540	6365.365234	4604.465332	68.688156
381.757935	742.878601	6368.560547	4627.499512	69.051552
382.121399	737.751709	6376.808594	4642.285645	69.240906
382.484741	733.962219	6389.811035	4677.355957	69.722404
382.848145	732.996338	6440.560059	4699.350098	69.492943
383.211487	734.556641	6509.513184	4752.625000	69.577461
383.574768	728.463867	6596.447266	4817.862793	69.690025
383.938019	733.590820	6688.285156	4913.490234	70.195030
384.301270	727.423645	6805.757813	5001.538574	70.317207
384.664459	731.287415	6885.187500	5049.315430	70.167343
385.027649	732.922058	6949.162109	5088.101563	70.061317
385.390778	736.488586	7000.282715	5134.837891	70.218613
385.753876	736.042786	7025.321777	5188.707520	70.797699
386.116943	723.188293	7071.092285	5237.375488	71.113037
386.479980	727.572266	7084.838379	5277.499512	71.570503
386.842987	728.092346	7139.896973	5315.914063	71.552734
387.205994	733.665039	7189.011230	5373.498535	71.875824
387.568909	728.463867	7263.017090	5407.603516	71.606117
387.931793	722.593933	7311.164551	5440.667969	71.609978
388.294678	732.030457	7347.053223	5465.261719	71.552757
388.657471	736.191406	7350.322266	5495.131348	71.951103
389.020294	741.912659	7326.694824	5500.927734	72.272934
389.383057	731.956116	7336.947754	5522.549316	72.529892
389.745819	737.157288	7339.027832	5548.035156	72.871437
390.108521	739.980774	7380.712402	5582.363281	72.919411
390.471191	739.163391	7442.308594	5626.647949	72.913300
390.833801	735.671204	7591.583496	5704.814453	72.479675
391.196442	733.739319	7776.522949	5849.853027	72.643349
391.558960	734.928223	7959.976563	5969.183594	72.445953
391.921509	733.516418	8136.593750	6119.869141	72.758293
392.284027	734.333801	8269.967773	6251.236328	73.210861
392.646484	739.237793	8379.563477	6373.390625	73.742310
393.008911	744.290344	8373.767578	6380.969238	73.880280
393.371307	745.330627	8352.888672	6355.706543	73.747398
393.733673	744.884766	8266.548828	6274.567871	73.516754
394.096008	734.556702	8242.251953	6249.750488	73.460541
394.458344	733.070618	8239.428711	6267.880859	73.734962
394.820587	726.234802	8270.785156	6317.439941	74.109192
395.182831	729.132629	8315.885742	6374.652832	74.412865
395.545013	730.024231	8295.304688	6339.359375	74.145767
395.907196	730.618652	8214.909180	6275.979004	74.093330
396.269287	723.782776	8054.563965	6170.171875	74.294800
396.631409	716.203918	7934.787598	6085.912598	74.387291
396.993469	716.203918	7832.175293	6001.133301	74.268555
397.355530	724.377258	7760.101563	5936.415527	74.079628
397.717499	730.172852	7739.966309	5918.954590	74.021889
398.079468	731.436035	7705.267090	5913.976563	74.314110
398.441376	728.984070	7713.439941	5933.592285	74.517021
398.803284	724.228699	7696.201172	5950.310547	74.958443
399.165131	723.559875	7743.234375	5986.496094	74.974075
399.526978	723.857117	7753.637207	6010.644531	75.205589
399.888763	727.646545	7758.169922	6000.687988	75.002121
400.250519	727.052185	7760.473145	6016.885254	75.209961
400.612244	735.596924	7800.670410	6034.718262	75.004478
400.973938	733.293518	7827.568359	6070.234863	75.228851
401.335602	735.374023	7845.252441	6087.175781	75.272758
401.697205	732.699036	7872.967285	6100.699219	75.179253
402.058807	735.671204	7940.285645	6145.132324	75.083282
402.420349	738.940613	8060.285156	6218.543457	74.844215
402.781860	732.327637	8162.376953	6304.289063	74.992256
403.143341	725.937561	8279.180664	6387.359375	74.953522
403.504822	724.823059	8394.795898	6471.247559	74.921051
403.866241	726.383484	8574.163086	6591.394531	74.734657
404.227631	732.699158	8723.659180	6717.709473	74.897263
404.588959	735.002502	8902.803711	6872.853516	75.146919
404.950287	736.711487	9025.550781	6978.808594	75.307259
405.311554	736.785828	9134.924805	7059.427246	75.286224
405.672821	734.333801	9179.060547	7095.314941	75.324890
406.034027	739.460693	9167.098633	7080.603027	75.242233
406.395203	741.912598	9097.700195	7003.699707	74.939522
406.756348	738.791931	9006.975586	6928.654297	74.863632
407.117493	734.853821	8949.093750	6884.443848	74.864990
407.478516	733.367859	8943.669922	6878.648438	74.848412
407.839600	734.482422	8933.565430	6883.552246	74.997040
408.200592	732.996338	8921.230469	6906.437500	75.394051
408.561554	734.259460	8890.469727	6905.471191	75.662735
408.922485	732.773438	8909.936523	6898.933594	75.407082
409.283417	731.881836	8926.952148	6893.955078	75.192436
409.644257	731.287415	9036.473633	6959.489746	74.991722
410.005096	737.380188	9146.367188	7057.718262	75.161697
410.365906	736.117004	9286.055664	7137.742188	74.873344
410.726715	727.423584	9396.098633	7215.388184	74.843788
411.087433	719.473206	9493.436523	7271.710449	74.678200
411.448120	718.433044	9568.629883	7352.849121	74.963478
411.808807	724.674500	9579.774414	7369.714844	75.041962
412.169434	724.005676	9522.934570	7322.681641	74.994080
412.530029	726.160461	9458.811523	7284.415527	75.100388
412.890564	730.024231	9433.696289	7251.351563	74.926163
413.251099	734.036621	9420.693359	7265.394531	75.188400
413.611572	733.739319	9461.262695	7284.564453	75.059380
413.972076	727.126465	9483.924805	7331.375000	75.418526
414.332489	730.024231	9560.977539	7380.637207	75.310249
414.692871	736.191406	9687.885742	7452.339844	75.026558
415.053223	735.671204	9819.773438	7540.610840	74.910423
415.413574	736.562927	10034.062500	7662.244629	74.489716
415.773834	729.504089	10168.252930	7787.891113	74.780960
416.134094	733.442078	10338.257813	7913.759766	74.757477
416.494263	728.835388	10454.244141	8031.975098	75.093391
416.854462	732.699036	10709.623047	8200.865234	74.854393
417.214630	730.024231	10957.570313	8378.894531	74.786957
417.574738	731.510254	11260.206055	8611.908203	74.846863
417.934784	729.504089	11535.051758	8823.745117	74.908195
418.294861	731.213074	11897.054688	9109.587891	75.035767
418.654846	735.671204	12291.231445	9400.260742	74.981995
419.014832	734.036560	12734.372070	9723.625977	74.911148
419.374756	736.117004	13176.918945	10047.512695	74.845619
419.734680	731.733215	13698.300781	10433.588867	74.822083
420.094543	732.178955	14186.395508	10791.058594	74.763771
420.454376	730.395691	14630.799805	11137.903320	74.871979
420.814148	728.018005	15044.666992	11445.145508	74.857796
421.173920	719.027405	15502.519531	11819.333008	75.085815
421.533691	714.123474	15985.932617	12151.690430	74.893333
421.893341	719.324707	16308.555664	12402.609375	74.944595
422.253021	729.727051	16513.556641	12537.172852	74.807228
422.612640	734.631042	16533.248047	12580.045898	74.977547
422.972260	731.138855	16521.507813	12551.883789	74.860474
423.331757	730.544373	16427.736328	12505.371094	75.012314
423.691315	728.835449	16457.087891	12502.176758	74.854736
424.050781	727.720886	16589.123047	12588.590820	74.778191
424.410248	722.222412	16720.712891	12663.264648	74.638557
424.769653	723.039795	16876.748047	12787.945313	74.688148
425.128998	728.835388	16896.216797	12815.139648	74.757339
425.488373	736.414246	16812.179688	12777.245117	74.900513
425.847656	744.364563	16581.916016	12625.073242	75.016068
426.206940	738.494812	16335.602539	12500.465820	75.411232
426.566193	740.500916	16032.372070	12261.508789	75.340736
426.925385	738.569031	15719.038086	12027.901367	75.360336
427.284576	737.305908	15281.097656	11654.679688	75.065529
427.643677	734.408020	14951.937500	11404.278320	75.047287
428.002777	728.761047	14609.698242	11159.229492	75.142395
428.361847	734.556702	14295.546875	10924.506836	75.141640
428.720856	739.906494	13951.227539	10712.817383	75.487610
429.079865	741.243958	13744.592773	10535.828125	75.323555
429.438812	740.352295	13607.206055	10418.875977	75.220589
429.797760	735.745605	13554.004883	10326.294922	74.819427
430.156616	730.692932	13375.752930	10192.846680	74.828857
430.515503	727.795166	13286.367188	10149.750977	75.024101
430.874268	720.885010	13236.137695	10108.514648	75.009506
431.233093	719.547546	13281.016602	10140.389648	74.997932
431.591827	718.581543	13311.778320	10165.801758	75.018448
431.950562	724.600098	13361.932617	10196.562500	74.952232
432.309204	730.990173	13402.278320	10236.463867	75.015846
432.667877	736.488525	13498.277344	10316.264648	75.066093
433.026459	735.076843	13618.425781	10427.346680	75.230980
433.385010	734.853821	13769.706055	10532.261719	75.163170
433.743561	729.949951	13953.828125	10654.489258	75.050140
434.102051	728.166687	14108.600586	10768.469727	75.037201
434.460510	725.491699	14255.870117	10898.648438	75.187523
434.818939	727.795166	14282.989258	10912.394531	75.134293
435.177338	732.104675	14299.113281	10933.497070	75.192642
435.535675	734.853943	14267.756836	10884.829102	75.002205
435.894012	735.671204	14238.852539	10887.726563	75.182693
436.252289	736.488586	14254.976563	10877.620117	75.016762
436.610535	731.733215	14225.703125	10864.394531	75.090294
436.968719	736.711426	14326.010742	10943.973633	75.112495
437.326935	737.603088	14397.637695	11024.295898	75.305023
437.685028	745.702148	14568.981445	11129.805664	75.120407
438.043152	742.284180	14700.051758	11178.546875	74.770287
438.401215	739.237793	14914.414063	11321.877930	74.656151
438.759277	737.157410	15086.500000	11515.956055	75.117020
439.117249	732.253357	15465.963867	11807.445313	75.169060
439.475250	737.677429	15744.152344	12029.981445	75.249542
439.833130	739.460693	16142.636719	12298.437500	75.042816
440.191071	741.689758	16375.948242	12503.512695	75.231087
440.548889	740.278015	16688.166016	12737.269531	75.226212
440.906708	735.596924	17007.000000	12970.432617	75.192261
441.264496	735.225403	17249.080078	13132.932617	75.074577
441.622223	736.488586	17406.230469	13246.317383	75.045128
441.979950	737.528809	17422.279297	13290.379883	75.235481
442.337616	736.042786	17422.650391	13310.812500	75.358452
442.695251	736.711426	17278.056641	13235.468750	75.560707
443.052887	736.488586	17108.126953	13100.387695	75.520233
443.410461	735.968445	16918.210938	12981.577148	75.673126
443.768005	731.287415	16818.943359	12876.588867	75.494537
444.125458	730.098572	16754.076172	12772.711914	75.153709
444.482941	731.213135	16791.300781	12777.319336	75.006477
444.840393	730.395752	16891.240234	12854.742188	75.022980
445.197754	731.287354	17137.402344	13105.737305	75.425842
445.555084	734.259460	17418.787109	13313.710938	75.395912
445.912415	734.705383	17770.609375	13596.209961	75.496460
446.269714	738.643372	18044.861328	13794.375000	75.439537
446.626953	737.528809	18350.767578	14039.647461	75.523415
446.984161	730.321472	18676.509766	14255.347656	75.364342
447.341309	729.727051	18923.492188	14437.687500	75.344276
447.698456	726.829285	19070.908203	14569.500000	75.461250
448.055542	727.646545	19133.917969	14655.988281	75.671715
448.412598	723.931458	19063.923828	14608.063477	75.704132
448.769653	723.634277	18944.890625	14494.454102	75.575584
449.126617	727.275085	18663.060547	14276.227539	75.541451
449.483582	732.401917	18453.898438	14125.838867	75.577347
449.840515	735.671204	18120.054688	13919.796875	75.838905
450.197388	737.528809	17871.587891	13785.012695	76.149406
450.554230	731.584656	17661.533203	13608.765625	76.061546
450.911041	728.166687	17491.009766	13478.512695	76.063141
451.267822	725.640320	17342.107422	13349.969727	75.974808
451.624573	725.789001	17128.857422	13233.686523	76.253403
451.981262	724.154297	17034.863281	13161.835938	76.254700
452.337921	730.767273	16923.556641	13063.606445	76.162537
452.694580	731.584534	16862.705078	13023.557617	76.200363
453.051147	735.596924	16855.125000	13013.898438	76.170357
453.407715	731.138733	16747.388672	12981.354492	76.486168
453.764221	729.058289	16788.625000	12975.557617	76.256721
454.120728	730.692932	16549.074219	12813.652344	76.385559
454.477142	726.754883	16497.431641	12768.476563	76.355133
454.833557	732.327637	16313.831055	12661.331055	76.558746
455.189911	732.922058	16171.020508	12542.745117	76.497910
455.546265	741.169617	15981.104492	12379.651367	76.368317
455.902557	732.401917	15854.640625	12271.317383	76.304283
456.258820	727.423645	15866.528320	12258.983398	76.170685
456.615051	727.200745	15928.421875	12303.936523	76.156616
456.971252	740.129395	15916.385742	12307.872070	76.222633
457.327393	746.296570	16121.536133	12469.778320	76.249100
457.683502	739.014893	16354.028320	12663.485352	76.365417
458.039612	731.881836	16780.451172	13004.758789	76.473343
458.395630	728.835449	17191.494141	13310.143555	76.423309
458.751648	726.754883	17683.750000	13662.338867	76.284645
459.107605	725.640381	18303.806641	14127.027344	76.238823
459.463562	725.417480	18956.927734	14647.145508	76.360809
459.819458	727.497986	19533.738281	15126.176758	76.563301
460.175323	734.110901	20068.494141	15523.101563	76.490623
460.531158	736.117126	20545.148438	15894.690430	76.523544
460.886932	733.442200	20857.589844	16092.557617	76.321815
461.242676	725.640381	20965.107422	16193.534180	76.424416
461.598419	718.061523	20737.591797	16039.504883	76.532478
461.954102	721.851013	20328.630859	15742.887695	76.611443
462.309723	726.829285	19702.853516	15278.200195	76.682930
462.665344	726.903503	19064.888672	14784.903320	76.660553
463.020905	728.909729	18530.951172	14403.953125	76.817276
463.376373	726.977844	18105.046875	14125.245117	77.098717
463.731873	733.070618	17779.304688	13911.624023	77.310646
464.087341	737.380188	17472.878906	13719.551758	77.572662
464.442749	739.832214	17360.310547	13578.821289	77.248009
464.798126	741.020996	17226.640625	13477.473633	77.257957
465.153503	742.061279	17365.064453	13525.175781	76.900146
465.508820	739.163391	17378.291016	13533.645508	76.893951
465.864105	740.278015	17549.484375	13665.608398	76.894348
466.219330	733.962219	17795.576172	13845.867188	76.850327
466.574524	734.036621	18008.156250	14028.206055	76.960045
466.929657	729.281250	18198.816406	14147.757813	76.810722
467.284790	731.584534	18316.140625	14299.484375	77.158043
467.639893	720.290527	18483.990234	14421.414063	77.129898
467.994934	726.160461	18639.507813	14570.762695	77.286514
468.349945	724.897400	18651.171875	14574.700195	77.259789
468.704926	734.556702	18595.148438	14561.327148	77.414963
469.059875	725.937561	18366.220703	14402.170898	77.528419
469.414764	724.748718	18173.703125	14218.270508	77.331398
469.769653	727.646545	17958.744141	14044.700195	77.284996
470.124451	739.609192	17895.216797	13993.504883	77.256927
470.479248	742.878601	17787.103516	13929.160156	77.365097
470.834015	744.438965	17752.183594	13890.151367	77.292511
471.188721	731.881836	17828.494141	13937.554688	77.241455
471.543365	725.566101	17879.167969	13984.588867	77.295853
471.898010	718.953125	17982.968750	14102.730469	77.524124
472.252625	722.371033	18120.873047	14178.148438	77.338715
472.607178	729.058289	18408.349609	14384.338867	77.238846
472.961700	731.807434	18638.541016	14537.476563	77.097633
473.316193	728.018066	18915.541016	14755.777344	77.128479
473.670654	722.668274	19036.654297	14893.163086	77.375259
474.025055	727.200745	19274.646484	15082.708008	77.398834
474.379456	729.578430	19402.298828	15179.377930	77.384544
474.733795	733.665039	19576.537109	15279.538086	77.195633
475.088104	727.126465	19636.648438	15341.432617	77.285439
475.442383	728.909668	19631.966797	15363.424805	77.418777
475.796570	730.098450	19709.242188	15437.504883	77.492462
476.150787	735.299744	19914.244141	15585.665039	77.430565
476.504944	736.637207	20175.564453	15807.682617	77.530228
476.859070	735.076843	20437.408203	16015.208008	77.554932
477.213135	736.339905	20716.787109	16210.549805	77.446762
477.567200	735.745544	21162.974609	16504.640625	77.195473
477.921173	744.661865	21562.873047	16829.195313	77.261841
478.275146	741.169678	22025.927734	17210.814453	77.377647
478.629089	738.494812	22312.437500	17458.240234	77.499725
478.983002	725.268860	22719.765625	17774.994141	77.518143
479.336823	711.745789	23072.181641	18048.353516	77.532509
479.690643	717.244141	23455.806641	18391.482422	77.728035
480.044403	721.182190	23912.326172	18728.742188	77.648438
480.398163	733.293640	24545.162109	19203.242188	77.566147
480.751862	723.708496	25414.130859	19845.587891	77.446548
481.105499	719.993347	26489.513672	20663.734375	77.392754
481.459137	720.290588	27865.005859	21756.132813	77.495163
481.812744	728.166687	29599.156250	23120.037109	77.558372
482.166290	728.909668	31767.978516	24814.287109	77.596970
482.519806	730.470032	34455.289063	26843.343750	77.429245
482.873291	735.151062	37544.871094	29241.763672	77.443169
483.226715	738.569031	41051.210938	32007.382813	77.565781
483.580139	738.420410	44443.500000	34841.886719	78.030899
483.933502	732.104675	47737.863281	37740.656250	78.731949
484.286804	732.104736	50474.949219	40367.406250	79.680405
484.640106	727.646484	52568.730469	42577.242188	80.726692
484.993347	726.754883	53736.988281	43951.468750	81.540321
485.346558	717.838562	53940.878906	44322.093750	81.927406
485.699738	723.485596	53275.644531	43684.945313	81.750130
486.052887	722.148132	52015.699219	42287.609375	81.034477
486.405975	734.110840	50471.832031	40615.425781	80.183235
486.759064	732.476257	48882.277344	39005.808594	79.488037
487.112061	733.888000	47490.437500	37746.820313	79.160957
487.464996	732.179016	46687.968750	36974.296875	78.863007
487.817963	736.340027	46510.531250	36746.183594	78.668442
488.170868	734.705322	46599.917969	36765.429688	78.557846
488.523743	726.754883	46685.812500	36827.699219	78.550224
488.876587	725.045959	46498.050781	36741.875000	78.685745
489.229401	724.600159	46092.355469	36394.808594	78.624580
489.582153	726.754883	45307.644531	35771.632813	78.609642
489.934845	719.770447	44265.843750	34887.281250	78.462898
490.287537	714.123352	43194.402344	34043.058594	78.457428
490.640198	721.627991	42324.464844	33341.562500	78.407959
490.992798	719.398926	41751.812500	32844.476563	78.291954
491.345337	724.080017	41634.859375	32682.275391	78.116806
491.697876	719.547546	41709.015625	32756.505859	78.158997
492.050354	726.754944	42139.156250	33147.636719	78.287857
492.402832	731.881836	42349.949219	33419.062500	78.540840
492.755219	732.104736	42224.007813	33389.488281	78.707848
493.107605	732.699158	41521.699219	32832.218750	78.696510
493.459930	737.380188	40283.222656	31820.437500	78.600060
493.812225	745.776367	38559.324219	30429.265625	78.499611
494.164490	744.884766	36603.601563	28846.916016	78.368752
494.516724	740.055115	34629.972656	27270.509766	78.284210
494.868896	727.423645	32918.777344	25831.337891	77.983406
495.221039	723.485596	31504.205078	24739.833984	78.024002
495.573120	725.640381	30437.517578	23861.279297	77.866638
495.925201	731.510254	29779.937500	23395.474609	78.021317
496.277222	730.395752	29422.169922	23101.906250	77.971863
496.629211	736.042786	29331.373047	23056.429688	78.056053
496.981140	733.070618	29320.744141	23034.810547	78.011734
497.333069	737.751709	29407.755859	23080.505859	77.930763
497.684967	732.773438	29471.951172	23124.343750	77.913048
498.036804	739.163391	29554.650391	23157.630859	77.800064
498.388580	744.661865	29445.796875	23120.406250	77.961182
498.740326	741.318176	29278.468750	23052.119141	78.181602
499.092072	735.819824	28940.462891	22895.712891	78.568245
499.443756	728.389648	28645.408203	22661.064453	78.563812
499.795410	730.470032	28328.208984	22364.226563	78.389595
500.147003	737.825989	28012.796875	22045.765625	78.122688
500.498566	736.191406	27610.000000	21741.421875	78.162460
500.850098	734.779602	27247.849609	21449.783203	78.131287
501.201599	728.092285	26916.755859	21206.814453	78.196899
501.553009	727.423645	26673.931641	20956.265625	77.963638
501.904449	721.702332	26449.687500	20777.716797	77.954079
502.255859	727.052185	26275.373047	20626.804688	77.890648
502.607178	729.652649	26182.791016	20602.210938	78.075081
502.958405	734.779602	26059.375000	20546.857422	78.232552
503.309692	729.801270	26003.576172	20528.802734	78.338127
503.660919	727.869446	26016.056641	20502.869141	78.198563
504.012115	727.052063	26085.306641	20532.292969	78.101753
504.363251	720.885010	26164.958984	20596.195313	78.113708
504.714294	717.689941	26183.166016	20635.873047	78.216415
505.065369	716.129639	26217.197266	20697.544922	78.355209
505.416443	724.005676	26240.601563	20693.382813	78.260353
505.767395	732.401917	26258.507813	20717.751953	78.293770
506.118317	737.825989	26217.046875	20644.638672	78.129601
506.469238	737.974609	26224.625000	20653.185547	78.139771
506.820160	739.089172	26244.835938	20640.107422	78.025627
507.170929	741.020996	26282.210938	20690.335938	78.106445
507.521729	735.002502	26317.578125	20778.607422	78.348656
507.872498	729.949951	26413.056641	20850.533203	78.341705
508.223236	726.680664	26596.210938	20994.011719	78.344414
508.573883	733.144958	26757.078125	21080.052734	78.185371
508.924500	737.083008	26943.947266	21254.515625	78.290306
509.275116	738.569031	27163.513672	21359.728516	78.036720
509.625702	739.609192	27428.255859	21539.837891	77.936615
509.976196	744.141785	27677.615234	21703.080078	77.817436
510.326660	743.472961	27917.166016	21946.349609	78.027222
510.677124	745.033386	28120.087891	22126.384766	78.105240
511.027557	737.900330	28321.892578	22303.001953	78.179771
511.377869	735.671204	28543.462891	22454.431641	78.103149
511.728180	729.875671	28724.689453	22610.912109	78.161034
512.078430	731.138855	28840.306641	22734.998047	78.280006
512.428650	731.956116	28953.544922	22857.595703	78.399696
512.778931	727.720886	29057.865234	22909.240234	78.296532
513.129028	723.188293	29134.023438	22934.650391	78.179550
513.479126	717.318420	29155.791016	22918.302734	78.066727
513.829285	717.541443	29096.349609	22893.931641	78.144196
514.179382	717.392761	29047.087891	22855.962891	78.146164
514.529297	722.296692	28904.650391	22811.455078	78.379395
514.879272	726.309082	28891.720703	22813.537109	78.419685
515.229187	729.875671	28760.353516	22714.416016	78.430847
515.579163	730.544373	28791.041016	22730.912109	78.403343
515.928955	736.191406	28828.341797	22747.185547	78.352829
516.278748	733.739441	29056.375000	22942.228516	78.412506
516.628540	730.247131	29323.195313	23122.859375	78.315155
516.978333	725.566101	29779.041016	23470.224609	78.285500
517.327942	730.024231	30329.179688	23880.968750	78.214882
517.677612	730.692932	30971.304688	24396.853516	78.259529
518.027222	730.098450	31562.458984	24878.111328	78.320351
518.376831	731.584656	32263.578125	25409.078125	78.261765
518.726379	738.271790	32891.285156	25906.759766	78.277229
519.075867	739.163391	33421.285156	26319.212891	78.269241
519.425293	736.637207	33805.660156	26627.718750	78.294060
519.774658	729.132568	34004.121094	26754.476563	78.212929
520.124084	722.445374	34035.550781	26790.515625	78.251694
520.473389	716.055359	33784.109375	26649.041016	78.423080
520.822693	718.730225	33445.878906	26379.099609	78.406982
521.171997	721.107910	32992.042969	26017.986328	78.389046
521.521240	725.343079	32582.634766	25667.203125	78.292465
521.870361	734.333801	32192.546875	25376.681641	78.333588
522.219482	734.259521	31882.851563	25131.705078	78.325996
522.568604	735.002502	31585.937500	24931.978516	78.431908
522.917664	722.668274	31407.982422	24786.570313	78.421562
523.266724	725.714661	31446.171875	24828.478516	78.458351
523.615662	729.429871	31728.447266	25023.447266	78.370285
523.964600	731.435974	32172.111328	25401.054688	78.464020
524.313538	726.606262	32714.896484	25782.820313	78.329330
524.662354	724.080017	33432.808594	26275.226563	78.117210
525.011169	730.395752	34276.515625	26864.521484	77.905060
525.359985	733.888000	35308.878906	27662.009766	77.883232
525.708740	730.024231	36468.890625	28591.984375	77.959831
526.057434	725.937561	37830.714844	29703.330078	78.096123
526.406067	731.584656	39328.726563	30939.056641	78.263496
526.754700	732.476257	40954.097656	32278.882813	78.431465
527.103333	734.556641	42805.500000	33799.714844	78.593803
527.451782	736.042725	44880.777344	35521.902344	78.799568
527.800293	741.541199	47032.582031	37405.109375	79.202301
528.148743	743.027161	49121.531250	39309.628906	79.718468
528.497131	737.751709	50966.542969	41135.324219	80.427124
528.845642	739.683594	52533.285156	42827.496094	81.260643
529.193909	741.020996	53700.582031	44287.917969	82.226692
529.542175	737.825989	54525.417969	45329.417969	82.903122
529.890503	735.299744	54858.144531	45742.312500	83.157143
530.238770	732.327637	54649.500000	45483.816406	83.000435
530.586914	732.847717	53827.265625	44583.187500	82.589363
530.934998	736.042786	52508.468750	43193.730469	82.008301
531.283142	735.894226	50954.800781	41536.855469	81.246216
531.631226	739.534973	49159.425781	39696.003906	80.455505
531.979248	738.420410	47390.050781	37981.324219	79.831947
532.327148	734.705322	45789.941406	36529.074219	79.445526
532.675110	733.219238	44670.949219	35559.722656	79.263321
533.023071	730.915833	44099.406250	35067.242188	79.173439
533.370850	728.835449	43993.750000	34900.804688	78.983093
533.718689	727.126465	44245.488281	35051.714844	78.873810
534.066467	730.321472	44500.792969	35267.562500	78.905342
534.414246	730.618652	44597.160156	35383.472656	78.996094
534.761963	731.213074	44428.566406	35257.382813	79.012039
535.109619	729.206848	44122.738281	34959.132813	78.882553
535.457153	730.321472	43475.488281	34435.968750	78.852531
535.804749	729.875671	42666.777344	33832.480469	78.934311
536.152344	725.640381	41706.562500	33088.488281	78.970520
536.499817	730.990173	40799.027344	32328.742188	78.860237
536.847229	726.309082	39902.343750	31575.982422	78.746292
537.194641	729.058289	39125.656250	30938.312500	78.676903
537.542114	729.801331	38517.046875	30473.400391	78.713333
537.889404	734.259460	38062.535156	30093.271484	78.650864
538.236694	736.414307	37618.425781	29745.681641	78.654243
538.583984	733.219238	37218.605469	29450.255859	78.708328
538.931213	734.036621	36920.722656	29234.703125	78.760086
539.278381	735.225403	36747.601563	29113.439453	78.801285
539.625488	736.637207	36838.250000	29147.544922	78.697060
539.972595	740.352295	37159.906250	29345.412109	78.543137
540.319641	734.036621	37871.355469	29878.384766	78.477249
540.666687	728.835388	38818.269531	30616.287109	78.466515
541.013611	728.166687	40065.144531	31625.912109	78.546318
541.360596	724.748718	41400.957031	32663.474609	78.519432
541.707458	727.646667	42812.039063	33813.011719	78.616707
542.054260	723.411316	43990.332031	34791.949219	78.740379
542.401062	727.572266	44976.703125	35634.472656	78.887192
542.747864	725.046082	45421.031250	36078.949219	79.098610
543.094666	727.349365	45414.042969	36153.921875	79.277679
543.441284	724.600159	44779.871094	35681.800781	79.348511
543.787903	728.463867	43805.832031	34893.003906	79.309723
544.134460	729.429871	42482.730469	33812.863281	79.235489
544.481079	739.163513	41053.812500	32661.173828	79.182159
544.827637	738.717590	39477.925781	31354.781250	79.031212
545.174072	743.175781	37955.242188	30092.826172	78.871330
545.520508	734.779602	36584.355469	28975.164063	78.774673
545.866943	731.733215	35508.156250	28098.835938	78.694420
546.213318	724.897400	34689.191406	27465.257813	78.730804
546.559631	724.674377	34014.894531	26967.501953	78.830444
546.905823	723.485596	33440.609375	26543.234375	78.918152
547.252136	727.572266	32986.917969	26135.984375	78.762947
547.598389	733.516418	32536.937500	25764.765625	78.706154
547.944458	727.720886	32159.181641	25423.271484	78.569527
548.290588	724.525818	31614.546875	25058.224609	78.775276
548.636658	723.114075	31043.455078	24601.187500	78.752655
548.982727	738.197510	30292.697266	24050.228516	78.878113
549.328735	741.243958	29592.244141	23484.416016	78.829750
549.674622	737.900330	28838.369141	22881.001953	78.799759
550.020569	734.631042	28162.142578	22329.156250	78.733086
550.366455	733.293518	27458.125000	21715.341797	78.511436
550.712280	733.665039	26853.078125	21234.304688	78.488136
551.058044	739.832214	26360.822266	20849.492188	78.489006
551.403748	743.175781	25974.078125	20571.080078	78.585793
551.749512	741.392578	25736.234375	20360.283203	78.491760
552.095154	731.807556	25525.437500	20189.240234	78.477547
552.440735	726.383484	25467.851563	20150.822266	78.509644
552.786316	729.727051	25387.828125	20105.126953	78.576202
553.131897	733.813721	25478.923828	20108.470703	78.296913
553.477417	737.380188	25503.296875	20090.416016	78.143829
553.822815	733.219238	25551.517578	20096.582031	78.020508
554.168213	729.429749	25495.642578	20102.527344	78.223900
554.513672	726.234802	25349.634766	20055.123047	78.498047
554.859009	728.389587	25149.759766	19964.326172	78.766823
555.204285	730.247131	24914.818359	19815.718750	78.915901
555.549500	738.940491	24691.091797	19610.123047	78.787003
555.894714	742.581360	24449.384766	19405.269531	78.722923
556.239990	739.460632	24130.255859	19147.068359	78.695946
556.585022	732.179016	23850.056641	18905.660156	78.612236
556.930115	728.166687	23597.205078	18663.208984	78.424995
557.275146	728.092346	23388.564453	18457.019531	78.237236
557.620178	726.309082	23222.052734	18325.798828	78.234756
557.965149	730.767273	23018.462891	18208.400391	78.418304
558.310059	726.531982	22841.400391	18070.494141	78.426704
558.654968	727.646484	22659.876953	17919.511719	78.386307
558.999756	724.080017	22546.046875	17836.515625	78.418396
559.344604	728.240906	22512.087891	17835.400391	78.531395
559.689331	730.395691	22486.679688	17841.716797	78.650017
560.033997	723.931396	22458.294922	17763.998047	78.401497
560.378723	731.510315	22394.544922	17727.218750	78.454880
560.723389	726.606384	22378.048828	17682.935547	78.315010
561.067932	732.253357	22398.630859	17716.517578	78.389961
561.412476	724.600098	22433.478516	17693.707031	78.166672
561.757019	728.018066	22427.162109	17708.791016	78.255501
562.101501	731.213074	22432.958984	17722.388672	78.294052
562.445862	735.225403	22382.728516	17723.501953	78.476845
562.790222	731.807434	22349.587891	17710.794922	78.541771
563.134644	731.213135	22315.263672	17683.896484	78.542641
563.478943	731.064514	22351.671875	17700.689453	78.488197
563.823181	739.534973	22393.501953	17687.912109	78.269157
564.167358	737.305908	22424.337891	17679.740234	78.122421
564.511536	735.002502	22480.287109	17705.373047	78.041611
564.855774	731.361633	22498.416016	17764.593750	78.252350
565.199768	734.779602	22582.751953	17872.775391	78.442039
565.543823	730.098633	22723.705078	17971.376953	78.392227
565.887817	730.247131	22995.726563	18154.830078	78.258286
566.231812	728.761047	23234.460938	18299.943359	78.074364
566.575745	734.853943	23419.697266	18448.771484	78.087021
566.919617	725.937683	23540.068359	18539.865234	78.082870
567.263428	727.126465	23654.046875	18640.992188	78.134636
567.607239	725.045959	23717.353516	18722.501953	78.275986
567.950989	733.962219	23736.525391	18729.783203	78.233978
568.294678	728.092468	23709.330078	18744.271484	78.395164
568.638367	728.463867	23638.593750	18637.054688	78.168877
568.981995	724.377258	23499.201172	18549.228516	78.265594
569.325623	732.253357	23325.330078	18411.992188	78.252907
569.669128	733.739441	23156.591797	18341.330078	78.525200
570.012573	728.984070	23044.990234	18231.212891	78.429039
570.356140	726.234802	23037.111328	18187.224609	78.262230
570.699524	729.504089	23018.833984	18136.699219	78.096542
571.042908	736.191406	23109.556641	18183.732422	77.983536
571.386230	739.609314	23203.328125	18227.052734	77.847496
571.729492	736.117004	23395.250000	18324.685547	77.622421
572.072815	738.494812	23540.216797	18451.669922	77.683495
572.416016	731.807434	23679.087891	18571.148438	77.740547
572.759094	732.327637	23795.968750	18704.373047	77.923714
573.102234	727.869446	23866.703125	18765.300781	77.953072
573.445374	731.881836	23930.900391	18820.359375	77.970863
573.788391	731.584534	23913.812500	18809.066406	77.979919
574.131409	732.476257	23888.771484	18826.898438	78.140404
574.474365	731.807434	23841.513672	18767.826172	78.045212
574.817261	731.956055	23725.601563	18671.976563	78.021645
575.160156	734.556702	23565.630859	18499.000000	77.808182
575.502930	734.036621	23317.013672	18302.765625	77.796333
575.845703	728.984070	23056.728516	18116.414063	77.873650
576.188477	729.875671	22828.546875	17936.972656	77.864853
576.531250	728.018066	22593.673828	17759.613281	77.891991
576.873901	732.030457	22368.984375	17608.482422	77.998276
577.216431	732.476257	22092.205078	17425.398438	78.151375
577.559082	738.569031	21801.087891	17222.105469	78.260048
577.901611	735.671204	21505.810547	16954.021484	78.084938
578.244080	727.720886	21172.339844	16680.291016	78.028214
578.586487	725.268860	20862.570313	16426.845703	77.972603
578.928955	758.556458	20549.904297	16160.395508	77.821075
579.271301	762.643127	20247.564453	15929.090820	77.836838
579.613647	764.649231	19905.103516	15673.268555	77.890617
579.955872	732.179016	19588.054688	15448.057617	78.043999
580.298157	730.915833	19331.414063	15253.531250	78.076485
580.640320	727.126465	19086.511719	15043.551758	77.978790
580.982483	729.875671	18895.181641	14857.348633	77.771729
581.324524	732.699158	18692.111328	14684.520508	77.685287
581.666626	737.974609	18571.744141	14584.879883	77.644302
582.008728	741.169617	18472.472656	14509.463867	77.649651
582.350647	741.763977	18403.818359	14414.059570	77.410561
582.692566	736.414246	18308.412109	14336.116211	77.394173
583.034424	730.841492	18187.224609	14255.793945	77.478546
583.376343	727.274963	18061.060547	14186.542969	77.647598
583.718201	728.686829	17971.748047	14130.668945	77.723923
584.059937	726.309143	17884.740234	14082.148438	77.838341
584.401611	727.795166	17796.914063	13997.741211	77.742416
584.743347	725.491760	17749.062500	13922.026367	77.519196
585.085022	725.937561	17668.072266	13863.549805	77.544022
585.426514	724.748718	17624.085938	13837.394531	77.592659
585.768127	726.383362	17518.277344	13795.786133	77.831612
586.109619	730.618652	17495.392578	13734.411133	77.566170
586.451172	733.293518	17426.216797	13672.145508	77.510994
586.792542	730.544373	17386.318359	13645.917969	77.542923
587.133850	733.962219	17325.314453	13609.436523	77.603531
587.475220	737.380188	17315.580078	13626.674805	77.748459
587.816589	741.021179	17338.986328	13619.245117	77.589172
588.157776	736.711487	17392.705078	13671.551758	77.658768
588.498962	731.584656	17451.183594	13708.554688	77.615311
588.840210	730.990173	17493.312500	13738.424805	77.599236
589.181335	730.098572	17577.794922	13770.152344	77.399620
589.522400	733.590820	17606.476563	13785.309570	77.353203
589.863403	732.179016	17644.593750	13799.874023	77.266884
590.204407	732.401917	17598.599609	13798.758789	77.470673
590.545410	730.544373	17653.359375	13818.894531	77.341454
590.886353	732.550537	17626.388672	13804.034180	77.374268
591.227112	731.807434	17604.691406	13772.827148	77.289803
591.567932	728.835449	17529.423828	13698.226563	77.196053
591.908752	725.045959	17457.498047	13636.704102	77.165375
592.249512	727.349304	17415.146484	13590.116211	77.078880
592.590149	723.188293	17300.794922	13519.454102	77.190063
592.930786	725.343079	17274.787109	13516.629883	77.291344
593.271423	731.510254	17198.626953	13456.965820	77.277977
593.612000	732.699158	17173.216797	13454.811523	77.382675
593.952576	731.807434	17145.277344	13428.804688	77.357170
594.292969	728.018066	17189.634766	13472.643555	77.420250
594.633484	730.395752	17233.550781	13527.702148	77.544609
594.973877	726.309082	17309.041016	13583.502930	77.533623
595.314209	719.919128	17442.490234	13657.583008	77.366478
595.654480	719.696106	17633.521484	13760.937500	77.104027
595.994812	721.107910	17831.091797	13885.620117	76.940521
596.335022	720.216309	18037.283203	14072.563477	77.105133
596.675171	723.782898	18225.566406	14199.770508	76.997795
597.015320	724.971680	18386.505859	14351.347656	77.152840
597.355408	733.070618	18469.576172	14385.675781	76.974609
597.695496	731.733215	18490.751953	14464.437500	77.328056
598.035461	732.104675	18469.650391	14435.385742	77.255791
598.375366	728.983948	18416.597656	14433.377930	77.480171
598.715271	725.863281	18331.148438	14338.715820	77.322533
599.055176	727.126404	18144.425781	14230.531250	77.528702
599.395081	723.782776	17911.414063	14014.534180	77.327415
599.734802	726.903503	17602.388672	13798.832031	77.461060
600.074524	726.457703	17283.630859	13521.385742	77.277245
600.414246	734.036621	16949.714844	13265.708008	77.281212
600.753906	734.110840	16623.599609	12987.593750	77.116913
601.093506	729.801270	16342.809570	12777.690430	77.165710
601.433044	726.383362	16122.054688	12626.039063	77.292213
601.772583	728.166687	16025.090820	12538.213867	77.205368
602.112122	735.968445	15994.700195	12496.678711	77.075279
602.451538	730.618652	16026.502930	12519.710938	77.073616
602.790894	730.544250	16127.703125	12593.418945	77.045868
603.130310	729.206848	16335.973633	12748.934570	77.016129
603.469604	734.482422	16575.822266	12920.054688	76.922615
603.808838	730.024231	16855.646484	13133.749023	76.919357
604.148010	729.578430	17122.466797	13382.664063	77.186432
604.487305	731.436035	17379.853516	13557.870117	77.042961
604.826416	729.281189	17598.302734	13732.109375	77.081108
605.165527	728.240906	17769.050781	13830.559570	76.887886
605.504456	722.296692	17921.818359	13964.230469	76.990128
605.843445	726.532043	17981.705078	14008.664063	76.974777
606.182434	726.383484	17943.214844	13987.858398	77.026215
606.521423	728.389648	17842.386719	13895.575195	76.938110
606.860229	728.984070	17653.656250	13751.651367	76.944870
607.199036	735.151123	17413.214844	13585.583008	77.049896
607.537903	736.860046	17115.929688	13373.078125	77.148567
607.876648	745.999268	16862.111328	13162.132813	77.041740
608.215271	745.256287	16614.685547	12922.729492	76.735420
608.553955	745.999329	16397.646484	12759.190430	76.753525
608.892578	738.643372	16211.293945	12600.254883	76.661797
609.231140	735.671204	16113.808594	12543.859375	76.785553
609.569641	731.435974	16043.145508	12489.618164	76.792091
609.908081	737.380127	16014.093750	12487.835938	76.917435
610.246521	738.048889	16009.487305	12462.573242	76.774200
610.584961	741.838379	16026.502930	12466.585938	76.709229
610.923340	736.637207	16032.967773	12442.213867	76.525391
611.261597	731.584656	15911.334961	12379.354492	76.732285
611.599854	731.213135	15769.266602	12266.934570	76.710205
611.938110	730.172852	15557.058594	12168.260742	77.144234
612.276245	733.739319	15352.875000	11997.585938	77.048653
612.614319	738.123230	15093.410156	11812.870117	77.147514
612.952393	744.364685	14817.895508	11563.510742	76.875847
613.290466	746.296570	14565.562500	11337.926758	76.643944
613.628479	740.352295	14247.546875	11114.125977	76.801834
613.966370	740.278015	13977.233398	10913.434570	76.854202
614.304260	740.649597	13750.832031	10779.466797	77.161232
614.642151	739.980774	13586.549805	10616.520508	76.880760
614.979980	738.271790	13443.070313	10494.515625	76.791801
615.317749	732.253357	13303.010742	10382.690430	76.768936
615.655396	729.206848	13230.788086	10350.962891	76.964310
615.993164	724.674500	13210.652344	10333.279297	76.955162
616.330811	727.423645	13229.153320	10309.651367	76.647217
616.668396	733.590820	13204.632813	10255.409180	76.351425
617.005859	739.460693	13158.342773	10219.372070	76.334656
617.343445	737.751709	13113.835938	10210.829102	76.543411
617.680908	735.671204	13127.879883	10228.661133	76.604507
618.018311	734.408020	13146.975586	10243.001953	76.604568
618.355652	734.408142	13168.449219	10246.345703	76.499161
618.692993	734.705261	13136.870117	10233.788086	76.592133
619.030273	729.429749	13119.484375	10216.772461	76.572243
619.367554	728.389648	13079.507813	10195.224609	76.647598
619.704712	727.052185	13081.290039	10185.267578	76.558472
620.041870	728.092468	13059.817383	10190.468750	76.731979
620.379028	736.340027	13006.246094	10174.940430	76.924797
620.716064	742.952942	12951.929688	10126.495117	76.857727
621.053040	753.132324	12892.339844	10052.787109	76.608414
621.389954	749.788757	12837.801758	9985.319336	76.402390
621.726929	751.646301	12772.265625	9949.580078	76.517967
622.063843	741.243958	12712.304688	9924.688477	76.713707
622.400635	745.479187	12655.164063	9898.013672	76.849510
622.737427	742.284180	12609.023438	9866.731445	76.890938
623.074219	740.872498	12564.590820	9821.259766	76.798073
623.410889	730.395752	12555.452148	9790.573242	76.618469
623.747559	724.080017	12563.178711	9776.975586	76.466087
624.084167	718.210144	12519.859375	9765.829102	76.664024
624.420715	720.439209	12513.543945	9765.903320	76.701294
624.757324	724.897278	12505.445313	9757.953125	76.677719
625.093750	729.355469	12607.090820	9782.324219	76.217972
625.430176	730.395752	12674.854492	9820.589844	76.103859
625.766602	725.863281	12737.640625	9862.200195	76.061493
626.102905	724.600159	12810.160156	9946.088867	76.301704
626.439209	723.634277	12895.385742	10003.375000	76.239975
626.775452	724.451599	13026.976563	10088.229492	76.112656
627.111694	731.510315	13085.006836	10118.766602	75.988655
627.447876	726.754883	13163.171875	10179.250000	76.006577
627.783997	726.309082	13171.049805	10202.284180	76.144417
628.120056	717.690002	13214.070313	10225.020508	76.080673
628.456055	721.479492	13188.288086	10203.621094	76.059090
628.792053	722.742615	13176.547852	10193.961914	76.050804
629.128052	730.841553	13088.276367	10145.515625	76.186310
629.463928	734.631042	13011.520508	10087.633789	76.183815
629.799744	737.083008	12900.067383	10010.805664	76.245453
630.135559	731.435974	12799.164063	9924.762695	76.181091
630.471375	724.302917	12674.557617	9826.684570	76.168938
630.807068	722.891113	12508.789063	9698.585938	76.156227
631.142700	728.686768	12384.628906	9587.057617	75.998756
631.478333	738.717590	12217.670898	9486.822266	76.209953
631.813965	739.534973	12108.000000	9391.269531	76.102928
632.149475	736.785828	11985.102539	9307.604492	76.196457
632.484924	736.414246	11913.920898	9233.672852	76.021057
632.820435	737.157288	11830.627930	9165.612305	75.976723
633.155884	733.367859	11754.319336	9120.882813	76.105179
633.491150	736.860046	11674.815430	9089.823242	76.366768
633.826477	732.922058	11611.879883	9057.204102	76.517273
634.161804	738.866272	11571.905273	8988.919922	76.156410
634.497009	736.340027	11537.131836	8902.357422	75.605728
634.832153	738.420410	11480.140625	8865.280273	75.656967
635.167297	730.767273	11385.331055	8815.125977	75.876961
635.502380	721.702393	11328.713867	8786.668945	76.034294
635.837463	718.953125	11281.828125	8723.362305	75.778702
636.172424	726.457703	11193.481445	8687.696289	76.060196
636.507324	730.024231	11090.350586	8612.354492	76.081871
636.842224	734.185242	10988.777344	8543.847656	76.157715
637.177124	726.606384	10902.809570	8434.250977	75.741852
637.511963	728.389587	10782.364258	8374.065430	76.046303
637.846741	728.909668	10653.895508	8280.370117	76.085350
638.181396	728.018066	10547.938477	8213.868164	76.231277
638.516113	729.058350	10443.766602	8104.346191	75.918785
638.850769	728.166687	10363.817383	8029.300781	75.772095
639.185303	734.036560	10274.803711	7967.035156	75.811493
639.519836	730.544373	10202.581055	7910.639160	75.803070
639.854370	735.522644	10092.613281	7828.683105	75.805191
640.188843	738.717712	10008.502930	7750.070313	75.636627
640.523254	745.924988	9904.701172	7681.415527	75.725082
640.857605	739.832214	9824.231445	7624.201660	75.782333
641.191895	737.677429	9744.356445	7557.255371	75.716904
641.526184	725.566101	9701.186523	7509.404297	75.580719
641.860413	725.268860	9646.424805	7472.698730	75.634026
642.194580	725.863281	9615.960938	7441.343262	75.538879
642.528748	727.497864	9555.181641	7415.708984	75.764053
642.862793	727.869446	9523.751953	7392.154785	75.765961
643.196838	728.389587	9460.000000	7362.582031	75.979027
643.530823	732.179016	9404.942383	7315.251465	75.905128
643.864746	738.197510	9338.291992	7269.257813	75.941727
644.198669	735.225403	9307.307617	7241.245605	75.897781
644.532532	739.014832	9274.540039	7196.812988	75.657890
644.866333	735.151123	9222.899414	7159.587402	75.690704
645.200073	735.671204	9151.047852	7113.519531	75.788025
645.533813	737.231628	9132.397461	7112.925781	75.944824
645.867554	735.522644	9139.382813	7122.509766	76.000633
646.201172	738.940613	9148.076172	7111.513184	75.781540
646.534729	736.637207	9151.495117	7099.104980	75.609932
646.868225	736.340027	9169.252930	7071.390625	75.122925
647.201782	735.448303	9174.157227	7087.588379	75.273842
647.535217	738.494812	9178.615234	7096.207031	75.327271
647.868591	744.513245	9172.596680	7114.857422	75.584732
648.201965	746.222229	9190.131836	7104.751953	75.303154
648.535278	739.163513	9149.860352	7107.353027	75.715355
648.868591	736.414246	9142.800781	7087.365234	75.549118
649.201782	737.157410	9108.176758	7073.693359	75.696106
649.534912	738.643372	9098.517578	7046.572754	75.454834
649.868103	731.213074	9046.653320	7019.080566	75.616776
650.201172	724.005676	9019.830078	6984.826660	75.469543
650.534180	729.875671	8994.269531	6935.267090	75.085869
650.867188	729.206848	8986.989258	6913.719238	74.893135
651.200134	733.442139	8975.471680	6899.974121	74.818130
651.533020	735.002502	8931.335938	6882.735840	75.005898
651.865845	739.089172	8883.632813	6870.772949	75.285789
652.198608	736.488586	8830.581055	6837.856934	75.380508
652.531433	729.504150	8814.235352	6805.757813	75.157150
652.864136	730.024231	8781.913086	6776.631348	75.095512
653.196777	854.332703	8868.252930	6869.732422	75.061890
653.529358	854.555603	8827.237305	6853.385254	75.242310
653.861938	850.617615	8781.318359	6787.479004	74.859230
654.194519	719.621887	8584.713867	6621.486816	75.038727
654.526978	718.135803	8550.385742	6579.357422	74.834457
654.859375	721.999512	8504.838867	6565.165527	75.077560
655.191833	723.708496	8483.810547	6545.995605	75.028488
655.524170	723.188416	8419.092773	6511.816406	75.216995
655.856445	719.696228	8363.366211	6474.292969	75.285782
656.188660	728.761047	8331.637695	6449.253906	75.241165
656.520874	731.064453	8295.006836	6410.021484	75.079330
656.853088	733.739319	8300.356445	6417.229004	75.112694
657.185181	730.470032	8278.882813	6433.055176	75.546814
657.517212	731.435974	8298.127930	6468.794922	75.823875
657.849243	735.002502	8322.870117	6496.286621	75.927582
658.181274	740.872375	8404.529297	6536.335938	75.622688
658.513123	747.411072	8482.993164	6580.248535	75.402695
658.844971	749.342957	8570.448242	6637.016113	75.279297
659.176819	747.931213	8661.467773	6697.350098	75.180283
659.508667	735.596985	8750.557617	6757.980957	75.139282
659.840393	737.380188	8832.067383	6782.278809	74.677361
660.172058	736.265625	8877.093750	6797.584473	74.455803
660.503662	740.798157	8907.409180	6817.720215	74.411797
660.835266	737.677429	8922.047852	6820.395020	74.321144
661.166931	740.500916	8849.973633	6788.593750	74.580589
661.498413	738.197510	8802.198242	6747.058594	74.514641
661.829773	734.482422	8665.703125	6697.350098	75.182220
662.161194	729.504089	8570.818359	6600.013672	74.866402
662.492615	732.104736	8431.649414	6497.029785	74.873581
662.823975	733.813660	8286.387695	6369.006348	74.612877
663.155212	734.333801	8154.278809	6286.381348	74.825989
663.486450	733.739441	7991.703613	6187.781738	75.145622
663.817627	733.219238	7889.685547	6105.306152	75.066193
664.148743	729.875671	7751.705566	6008.712402	75.177505
664.479858	732.476257	7653.328613	5926.162109	75.044022
664.810913	732.996399	7560.450684	5861.295410	75.112900
665.141907	737.454590	7504.203125	5807.351563	74.923676
665.472778	732.401917	7440.525879	5749.767090	74.795357
665.803711	732.550537	7402.260254	5704.294434	74.542137
666.134583	726.086182	7365.332031	5680.666504	74.625641
666.465454	733.739441	7346.978516	5673.607422	74.696648
666.796143	729.727051	7313.171387	5664.393066	74.955688
667.126831	736.785828	7305.443359	5647.154785	74.754532
667.457458	735.002502	7284.935547	5631.477051	74.756104
667.788147	735.968445	7268.736816	5613.273438	74.659081
668.118774	734.556702	7211.673340	5601.682129	75.143394
668.449219	735.002502	7189.902344	5582.734375	75.101585
668.779663	738.940613	7179.871582	5567.650879	74.969139
669.110107	743.993164	7187.153809	5561.930176	74.775986
669.440552	742.655762	7166.126465	5560.072754	74.997101
669.770874	746.445129	7144.355469	5530.351563	74.772949
670.101135	742.432800	7132.838379	5506.871582	74.556129
670.431396	742.804260	7115.228516	5472.247559	74.217331
670.761597	742.432800	7063.290527	5450.773438	74.488953
671.091797	740.798157	7012.244629	5417.114258	74.565193
671.421875	740.278015	6972.642090	5395.937988	74.701347
671.751892	739.832214	6937.570801	5381.671875	74.895699
672.081909	748.154114	6906.884277	5351.653809	74.747543
672.411865	747.113831	6858.066406	5315.690918	74.760475
672.741821	746.519531	6832.654785	5273.412598	74.380424
673.071716	736.265686	6803.082520	5271.109375	74.748322
673.401550	745.925049	6770.166504	5255.654297	74.859711
673.731262	741.838379	6749.139160	5242.800293	74.924866
674.060974	739.014893	6707.231934	5194.800293	74.658569
674.390625	725.343079	6680.482910	5166.193848	74.571732
674.720276	723.336975	6612.570313	5129.562500	74.818321
675.049927	730.470032	6574.453125	5106.231934	74.876358
675.379395	732.773438	6542.205566	5073.612793	74.720543
675.708923	740.278015	6509.438965	5049.612793	74.696037
676.038330	739.163391	6470.429688	5003.173828	74.399094
676.367737	741.912598	6418.046387	4976.796387	74.608597
676.697083	739.460693	6386.689941	4960.152344	74.739151
677.026428	742.952942	6350.876465	4967.656738	75.334549
677.355652	741.912659	6350.505371	4958.368652	75.178505
677.684875	736.340027	6335.124512	4956.808594	75.381874
678.013977	727.052185	6340.696777	4951.310059	75.249825
678.343079	725.120178	6347.904297	4945.960449	75.066734
678.672180	728.612488	6384.164063	4961.787109	74.849899
679.001221	732.847717	6423.618652	4947.595215	74.062859
679.330139	729.727051	6460.472656	4973.823730	74.058365
679.659058	727.720764	6493.760254	4976.275879	73.682381
679.987976	728.984070	6536.113281	5024.944336	73.977348
680.316772	733.962341	6593.475098	5035.272461	73.407303
680.645630	733.516418	6639.170410	5061.798340	73.290474
680.974304	732.327637	6672.458496	5092.708496	73.405472
681.302979	731.287354	6673.350098	5136.473145	74.135628
681.631653	734.631042	6688.285156	5169.909180	74.496742
681.960266	734.779602	6690.068359	5182.911621	74.692131
682.288757	740.129395	6704.260254	5204.979980	74.861717
682.617249	738.271912	6675.431152	5200.372559	75.155479
682.945679	737.157410	6652.025879	5170.354492	74.950058
683.274109	736.562927	6604.620605	5104.671387	74.438744
683.602478	738.717712	6553.797363	5041.364746	73.991196
683.930725	741.987000	6481.128906	4983.631836	73.907303
684.259033	734.408142	6405.935059	4921.515137	73.826805
684.587280	728.538147	6349.539063	4875.893066	73.783211
684.915344	719.176025	6283.632813	4825.590332	73.797211
685.243469	724.154297	6217.502441	4797.429688	74.149231
685.571533	737.528809	6163.187500	4752.699219	74.003372
685.899536	742.061279	6096.390137	4724.612793	74.380028
686.227539	744.438965	6041.703125	4698.012207	74.634247
686.555420	740.352295	5996.526855	4679.585449	74.944862
686.883301	737.083008	6007.078125	4675.126953	74.725761
687.211121	736.562927	6013.021973	4663.015625	74.414536
687.538940	728.761169	5996.898438	4662.124512	74.663269
687.866638	734.333801	5989.021973	4655.437012	74.621048
688.194336	729.504089	5991.697266	4663.312988	74.756065
688.521973	729.727051	5989.468750	4664.353516	74.806458
688.849609	731.881836	5968.440918	4650.533203	74.832565
689.177063	734.853821	5928.613770	4625.864746	74.917038
689.504578	737.454529	5886.632813	4581.431641	74.652245
689.832031	737.305908	5827.041504	4535.661133	74.627754
690.159485	739.534973	5760.615723	4478.299316	74.461349
690.486816	738.123230	5695.674316	4414.176270	74.150581
690.814087	742.729980	5630.511719	4361.347168	74.033936
691.141296	736.785828	5550.115723	4316.170410	74.363998
691.468506	736.117126	5465.113770	4262.301270	74.565163
691.795715	728.315247	5383.158203	4193.942871	74.452087
692.122803	726.903503	5316.136719	4124.023926	74.023697
692.449829	727.200684	5257.140137	4081.894531	74.056038
692.776855	727.720886	5209.289063	4036.346680	73.827408
693.103821	735.225403	5171.692383	3992.582275	73.422325
693.430664	737.083008	5141.451172	3948.372314	72.911461
693.757568	743.770203	5098.058594	3931.282471	73.203972
694.084351	735.374023	5047.606934	3907.059814	73.550896
694.411133	734.259460	5012.015625	3887.741455	73.718132
694.737854	726.457703	4967.285156	3850.515625	73.666229
695.064575	727.275085	4933.329590	3839.444580	73.992607
695.391174	727.349365	4892.982910	3818.714111	74.211151
695.717773	730.024231	4883.546387	3806.974365	74.080505
696.044250	729.652649	4877.082031	3792.261963	73.843559
696.370789	730.321472	4879.979492	3802.367432	74.031303
696.697205	729.429749	4890.753418	3824.063721	74.366577
697.023621	735.225403	4930.728516	3860.323486	74.486855
697.349915	735.522644	5008.003418	3908.545898	74.266525
697.676208	738.791992	5100.064453	3960.186279	73.863632
698.002380	732.624817	5196.583496	4021.857422	73.684212
698.328674	733.962219	5288.496094	4094.525635	73.785019
698.654724	733.144958	5376.693848	4162.884277	73.860306
698.980896	738.346130	5460.804199	4228.791016	73.911613
699.306946	736.637207	5527.082031	4289.347656	74.162430
699.632935	734.779602	5580.431641	4333.037109	74.257454
699.958862	737.157288	5622.115234	4352.950684	74.018929
700.284729	729.727051	5620.406250	4326.350098	73.540359
700.610596	731.733215	5577.607910	4306.734375	73.774117
700.936340	728.835388	5499.070313	4254.128418	73.901871
701.262146	733.813660	5380.705566	4183.837891	74.243690
701.587830	729.206848	5260.707031	4084.346436	74.040375
701.913513	729.355469	5123.543945	3973.189453	73.820999
702.239075	735.894226	5010.232422	3867.976807	73.276428
702.564697	736.785828	4877.602051	3768.114014	73.206047
702.890137	733.739319	4754.185059	3691.359375	73.564484
703.215698	730.024231	4644.068359	3629.465576	74.077888
703.541016	724.674377	4549.109863	3569.725830	74.391411
703.866455	730.247070	4460.169434	3512.958252	74.605072
704.191711	729.206848	4384.751953	3450.395508	74.440025
704.517029	734.259521	4342.176270	3396.451904	73.787521
704.842163	726.977844	4303.167480	3347.931641	73.289009
705.167419	732.476257	4272.480957	3322.743408	73.171288
705.492493	736.785828	4236.889648	3304.390625	73.357964
705.817566	737.900391	4213.632813	3284.403320	73.265221
706.142578	731.436035	4188.444336	3258.471680	73.098915
706.467590	729.652771	4147.726563	3243.982422	73.559837
706.792480	734.556641	4132.345703	3234.768799	73.583504
707.117371	735.299744	4130.042480	3232.762695	73.568550
707.442200	735.819824	4136.952637	3233.728760	73.443443
707.766907	733.070618	4118.896973	3231.573975	73.793015
708.091675	737.305908	4111.541016	3233.282959	73.971642
708.416321	732.922058	4134.648926	3235.586182	73.570404
708.741028	734.853943	4163.404297	3257.505127	73.577782
709.065552	728.241028	4191.193848	3262.186279	73.172966
709.390137	732.179016	4178.562012	3276.229736	73.817993
709.714600	727.795166	4193.199707	3287.375000	73.860924
710.039063	738.494690	4201.596191	3309.219971	74.231880
710.363403	733.813660	4244.765625	3314.124268	73.493187
710.687744	739.980774	4290.907715	3334.334717	73.061317
711.012085	731.064453	4342.622559	3364.129883	72.906631
711.336304	735.522644	4400.727051	3403.138916	72.782196
711.660461	729.875671	4425.395996	3442.296143	73.397522
711.984619	734.854004	4455.562500	3457.156982	73.166252
712.308716	735.076843	4452.441895	3452.624756	73.104141
712.632751	740.872375	4440.479004	3423.200928	72.503075
712.956726	737.900330	4404.442383	3407.745361	72.816429
713.280701	742.061279	4373.829590	3394.519531	73.034897
713.604553	740.500916	4321.743652	3365.690186	73.303864
713.928467	734.631042	4264.307129	3334.928955	73.669586
714.252258	726.903564	4209.100586	3281.505127	73.361778
714.575989	723.708496	4167.341797	3240.193115	73.076439
714.899719	726.606262	4112.952637	3197.617920	72.969841
715.223267	725.789001	4070.748779	3167.153564	72.986366
715.546936	727.126465	4042.365234	3143.079346	72.874176
715.870422	727.943787	4015.839111	3111.054932	72.481354
716.193970	731.064514	3978.762451	3108.826172	73.213760
716.517395	726.383484	3945.771729	3097.160400	73.640602
716.840820	725.491699	3934.849365	3092.405029	73.750374
717.164124	723.485596	3903.047607	3063.575439	73.597870
717.487488	733.516418	3871.691650	3034.523193	73.323082
717.810730	735.225403	3828.968018	3011.489258	73.576378
718.133972	735.225403	3789.216064	2979.910400	73.500061
718.457092	732.699158	3731.036865	2947.365967	73.863152
718.780212	737.751709	3671.965820	2893.942383	73.484436
719.103210	736.265625	3627.161377	2863.106689	73.570313
719.426208	729.652649	3585.775146	2826.401123	73.412415
719.749207	723.857117	3551.893311	2796.605713	73.292862
720.072083	728.686768	3494.382813	2763.912354	73.588188
720.394958	732.996338	3471.943359	2733.820068	73.050835
720.717773	731.956055	3433.380127	2700.978271	72.888306
721.040527	729.058289	3427.287354	2661.003174	71.600479
721.363281	728.761047	3390.953125	2636.334961	71.654259
721.685913	726.977783	3363.460938	2621.845947	71.871048
722.008545	726.606262	3313.306641	2601.709717	72.490166
722.331055	727.052063	3279.201904	2594.428223	73.168755
722.653503	731.733215	3244.799805	2564.335693	72.922958
722.976013	731.510254	3234.991943	2549.029053	72.599648
723.298401	740.649475	3238.855469	2534.837158	71.819046
723.620789	739.757996	3238.409912	2533.276855	71.779457
723.943115	742.804382	3230.905273	2536.991943	72.110725
724.265381	736.934387	3212.180664	2523.023193	72.158028
724.587585	740.352295	3196.354492	2520.273926	72.472313
724.909790	740.723816	3183.797607	2513.364014	72.557785
725.231873	733.516418	3184.243164	2524.286133	73.070969
725.553894	734.556702	3202.521484	2523.320313	72.479301
725.875916	763.311829	3255.425049	2562.403564	72.191414
726.197937	774.903076	3252.378906	2561.066162	72.096085
726.519775	768.958801	3248.886719	2570.948486	72.662987
726.841675	743.993164	3236.923828	2552.075684	72.528389
727.163513	730.024170	3247.994873	2569.239258	73.043549
727.485291	734.259460	3267.313477	2577.412842	72.764076
727.806946	732.104675	3273.109131	2583.654297	72.866837
728.128662	736.637146	3292.204834	2575.926758	71.971863
728.450256	736.860107	3321.479736	2594.205322	71.861450
728.771790	729.058289	3325.343750	2604.830566	72.248306
729.093323	729.949890	3342.359375	2616.941895	72.231857
729.414795	724.451477	3340.947510	2610.997559	72.102005
729.736145	729.504150	3340.798828	2612.557861	72.111877
730.057495	727.572266	3334.408936	2620.879883	72.628548
730.378845	733.293518	3324.377930	2630.613525	73.224937
730.700134	733.739319	3334.408936	2629.499023	72.895065
731.021301	725.268860	3324.972412	2613.449463	72.630615
731.342468	722.816895	3313.901611	2606.465088	72.697281
731.663574	721.702332	3307.585938	2612.855225	73.133720
731.984680	733.665039	3327.572998	2631.653809	73.171013
732.305664	728.315247	3348.452148	2643.690918	73.102119
732.626648	727.200684	3369.331299	2649.189209	72.743889
732.947571	729.652649	3368.811279	2648.148926	72.693481
733.268433	734.853821	3362.941406	2628.161377	72.041267
733.589233	740.129395	3338.124023	2609.065674	71.937653
733.909973	737.008728	3322.520508	2605.870361	72.282074
734.230713	741.689758	3293.765625	2603.716064	72.961243
734.551331	737.454590	3262.038086	2579.047607	72.946411
734.871948	739.460632	3223.846436	2533.128418	72.197632
735.192505	743.472961	3175.921143	2492.930664	71.921684
735.513062	742.061279	3138.472656	2463.358154	71.828102
735.833435	740.575195	3085.346436	2429.401611	72.025208
736.153931	729.727051	3042.250732	2402.058594	72.316299
736.474304	729.504150	3002.275635	2378.653320	72.561150
736.794617	728.761047	2975.080811	2358.888428	72.568802
737.114807	733.962219	2971.588867	2346.777100	72.077034
737.434998	732.996399	2953.458984	2331.247803	71.978310
737.755188	735.745605	2949.594971	2327.161133	71.884544
738.075256	736.785828	2948.926514	2323.891846	71.745255
738.395325	744.587585	2966.759033	2334.145752	71.531754
738.715271	741.392578	2997.000244	2343.804932	71.041267
739.035278	735.151123	3008.294189	2359.854248	71.473862
739.355164	726.754883	3022.783203	2371.445557	71.631989
739.675049	722.222473	3017.135986	2384.820068	72.447067
739.994873	724.600098	3016.467529	2378.727295	72.173775
740.314636	731.510254	3005.693604	2365.427002	71.846306
740.634277	735.299744	2986.895264	2343.359131	71.418663
740.953979	734.408020	2973.669189	2323.594482	70.969231
741.273499	731.064453	2954.573486	2306.653564	70.860474
741.593140	730.618652	2931.985352	2283.396729	70.537003
741.912598	730.470032	2890.821533	2268.759033	71.205498
742.232117	738.197510	2842.896484	2250.109131	71.835052
742.551453	745.330566	2797.794189	2224.251953	72.055916
742.870850	740.352295	2761.088867	2199.657715	72.216507
743.190063	732.476257	2732.036377	2173.428955	72.063484
743.509338	732.550537	2712.049316	2154.333252	71.825386
743.828552	741.318298	2676.606934	2120.302490	71.254700
744.147705	749.119934	2647.331787	2085.751709	70.415314
744.466797	747.633972	2610.774658	2065.169678	70.715843
744.785828	744.513184	2600.743896	2055.733154	70.638847
745.104858	739.163513	2587.592285	2056.996582	71.294769
745.423706	736.637207	2577.412842	2061.751953	71.986763
745.742615	735.299744	2554.527588	2054.693115	72.524910
746.061401	732.847839	2535.431885	2044.736694	72.778244
746.380249	734.333801	2535.357422	2021.034058	71.442711
746.698975	739.089172	2535.506348	2020.291016	71.319839
747.017639	737.825989	2526.812744	2015.832642	71.437454
747.336304	738.123230	2508.385742	2014.941040	72.125908
747.654907	735.968506	2517.747803	2007.436523	71.359459
747.973389	739.386414	2528.595947	2004.687500	70.718437
748.291931	741.987000	2534.466064	2003.870117	70.398766
748.610352	738.048889	2527.258545	2002.904175	70.693512
748.928711	736.265625	2529.339111	1997.257202	70.325706
749.247070	730.990173	2526.218262	1998.371704	70.597252
749.565308	735.968506	2529.636230	1987.746582	69.788742
749.883545	738.791992	2515.741455	1981.059204	69.910103
750.201782	744.290344	2502.218506	1982.322266	70.425629
750.519836	741.987000	2493.079346	1969.839478	70.119240
750.837952	741.838379	2490.924561	1959.585571	69.621910
751.155884	737.528809	2475.766602	1943.684937	69.389595
751.473877	735.374023	2453.104492	1952.378296	70.849548
751.791809	731.584534	2432.448242	1943.387695	71.246346
752.109619	726.086121	2431.779541	1942.941772	71.340828
752.427490	728.686768	2426.503662	1932.167969	70.884041
752.745300	732.030457	2429.698975	1941.901489	71.266632
753.062988	735.151123	2425.612061	1931.647827	70.779320
753.380615	738.346130	2431.036377	1921.914185	69.922310
753.698303	733.665039	2428.584473	1912.031860	69.523468
754.015808	734.185120	2432.076660	1910.397339	69.274864
754.333374	730.172852	2420.188232	1921.839844	70.512199
754.650757	731.733215	2407.928467	1919.462280	70.858627
754.968262	730.024231	2402.206787	1918.793457	71.090874
755.285583	731.213074	2395.073730	1915.449707	71.174026
755.602905	735.225403	2390.244141	1908.168091	70.871864
755.920105	732.699158	2372.188721	1894.273438	70.849747
756.237305	732.699036	2374.120361	1884.168457	70.150757
756.554443	728.463867	2372.782959	1873.097290	69.611389
756.871582	733.887939	2378.727295	1877.778320	69.544197
757.188599	733.962219	2371.817139	1884.762695	70.262665
757.505615	729.727051	2372.857422	1908.688110	71.750916
757.822510	730.470032	2384.894287	1911.363281	71.377899
758.139465	732.476257	2397.005615	1915.598267	71.078476
758.456238	734.408142	2413.798096	1917.010132	70.418549
758.773010	732.550537	2424.423584	1927.932617	70.654358
759.089783	726.309082	2435.791992	1936.625977	70.800179
759.406433	731.956055	2446.788574	1944.576538	70.713638
759.723145	733.590820	2451.841064	1956.316284	71.161079
760.039673	737.380188	2467.593262	1960.105835	70.669075
760.356201	735.745544	2462.912109	1961.740356	70.983017
760.672668	730.247131	2462.020752	1952.006714	70.549606
760.989136	725.789001	2450.726563	1941.678711	70.488907
761.305481	723.708496	2456.225098	1939.969604	70.201988
761.621826	730.544373	2465.512939	1935.882935	69.473228
761.938049	732.847839	2473.388916	1948.217285	69.827103
762.254333	738.940613	2492.781738	1962.483398	69.763603
762.570496	732.922058	2540.781494	2008.253906	70.543747
762.886597	734.556641	2624.594971	2058.705566	70.059372
763.202637	729.281250	2748.309326	2130.853516	69.418167
763.518677	730.024231	2892.084717	2223.954834	69.097542
763.834656	724.080078	3052.281494	2321.068359	68.593216
764.150574	727.423645	3179.785156	2410.825928	68.644135
764.466370	729.875671	3250.001221	2460.608887	68.676468
764.782288	739.534973	3262.260986	2481.562256	69.053368
765.097961	744.587585	3231.796875	2476.509766	69.633148
765.413696	747.113831	3186.843750	2437.426514	69.282776
765.729309	737.528809	3077.916016	2375.086426	69.969513
766.044861	730.767273	2943.874023	2283.545654	70.162834
766.360474	726.754944	2796.754639	2202.852783	71.309082
766.675903	734.482422	2682.625244	2120.525391	71.146889
766.991394	742.507141	2588.335205	2051.200928	70.900093
767.306763	742.804382	2504.150146	1984.551392	70.499908
767.622131	741.615479	2427.544189	1929.864624	70.480392
767.937378	734.036621	2365.798584	1884.985718	70.534126
768.252625	733.516418	2311.928955	1838.323730	69.994843
768.567810	730.321350	2264.746826	1806.447876	70.132202
768.882996	730.247070	2220.685547	1775.017700	70.098206
769.197998	729.875671	2181.379639	1755.773315	70.678261
769.513062	731.881836	2151.583984	1733.333862	70.539589
769.828064	729.875671	2125.057861	1708.962524	70.176277
770.142944	733.070618	2109.454346	1690.164063	69.536812
770.457825	736.488586	2091.324463	1671.885376	69.041336
770.772705	734.705261	2066.730225	1661.185913	69.554306
771.087402	731.361633	2040.649902	1634.659790	68.991539
771.402100	727.423645	2010.260132	1605.013062	68.410080
771.716736	729.801331	1985.442993	1593.050293	68.749634
772.031372	729.949951	1963.672241	1583.539551	69.188148
772.345947	731.361633	1965.604126	1576.480835	68.472710
772.660461	725.045898	1960.180054	1559.911255	67.593094
772.974854	727.795166	1944.427734	1552.778320	67.808739
773.289246	727.795166	1927.412598	1545.125122	68.132553
773.603638	729.652649	1910.099976	1533.979858	68.137497
773.917908	729.206848	1905.270508	1529.373047	68.037659
774.232178	736.042786	1887.363281	1520.084961	68.099380
774.546265	738.123230	1883.499634	1515.032593	67.830048
774.860474	738.123230	1865.072632	1500.989258	67.693008
775.174561	728.835449	1852.069702	1501.212036	68.763626
775.488586	735.151184	1836.317505	1497.422729	69.224022
775.802551	732.996338	1823.983276	1496.382446	69.972069
776.116516	731.436035	1807.413696	1488.060547	70.319725
776.430359	724.600098	1793.147583	1486.203125	71.274605
776.744202	726.383484	1788.243652	1477.955444	70.778809
777.057922	734.705322	1773.605957	1471.713989	70.941208
777.371704	737.454529	1773.828735	1464.655273	70.167770
777.685303	736.637207	1761.420288	1461.163086	70.700417
777.998962	732.476257	1769.965210	1454.178345	69.562386
778.312500	738.494690	1767.810181	1442.215820	68.367882
778.626038	741.541077	1765.284058	1434.637085	67.702148
778.939453	734.853821	1767.810547	1436.643188	67.939857
779.252869	728.240967	1767.438843	1436.866089	68.189621
779.566223	730.618652	1768.256226	1434.042480	67.790901
779.879578	738.643372	1756.664917	1433.671021	68.272392
780.192749	736.934387	1746.931274	1432.853638	68.903107
780.505920	734.853943	1735.265625	1437.237671	70.209465
780.819031	739.757813	1729.247070	1428.023926	69.557716
781.132141	744.513184	1722.336914	1426.315063	69.726463
781.445190	738.791992	1717.061523	1420.147949	69.649101
781.758118	734.036621	1710.374390	1422.748535	70.540337
782.071045	730.470032	1703.315552	1407.442261	69.586815
782.383911	734.408142	1694.919434	1395.776733	68.855888
782.696838	727.497986	1676.715210	1387.157593	69.495117
783.009583	727.275085	1658.882446	1380.692993	70.138763
783.322266	718.135742	1645.508179	1366.278320	69.890213
783.634888	725.789001	1642.684570	1345.622192	67.601288
783.947510	731.213074	1628.567017	1345.993774	68.510391
784.260132	735.151123	1621.062500	1344.730591	68.808174
784.572571	730.915833	1610.882935	1347.776978	70.100479
784.885010	723.114075	1610.214355	1336.111450	69.101250
785.197449	724.080078	1617.793335	1331.058838	67.916496
785.509766	721.702332	1611.923218	1336.557251	69.067680
785.822083	726.903564	1607.242188	1333.733887	68.931465
786.134277	731.956116	1586.808960	1331.504761	70.134720
786.446533	742.730042	1589.483887	1326.377808	68.927681
786.758606	742.878601	1580.864746	1323.925903	69.338531
787.070740	740.946777	1582.127930	1324.445923	69.366646
787.382690	732.847717	1583.019531	1319.319092	68.982689
787.694641	728.984070	1609.991211	1329.275757	68.136986
788.006653	725.640381	1644.244995	1351.343628	68.114532
788.318481	730.098572	1669.953735	1373.485718	68.455986
788.630310	732.104736	1692.690308	1385.448608	68.015167
788.942017	731.658875	1696.256836	1395.702515	68.841492
789.253784	729.504150	1709.185547	1395.330933	67.963600
789.565430	736.414246	1702.869751	1396.965454	68.347816
789.877014	739.534973	1696.479614	1385.522949	67.505264
790.188538	731.361755	1680.207397	1378.835571	68.238052
790.500061	730.767273	1663.266235	1372.445435	68.812752
790.811462	730.693054	1644.987915	1356.990601	68.500610
791.122925	739.683594	1622.548462	1344.433472	68.498581
791.434204	737.528809	1600.554810	1320.136475	67.507545
791.745483	736.860107	1586.957520	1309.585571	67.371742
792.056702	740.352295	1568.604614	1300.223389	67.596680
792.367920	736.785828	1561.843140	1291.307007	67.210022
792.678955	738.197510	1538.214844	1285.437134	68.403473
792.990112	733.739319	1534.202637	1267.604370	66.694504
793.301086	736.637146	1515.775513	1265.523926	67.880981
793.612122	741.392578	1513.100586	1256.830444	66.791824
793.922974	745.107605	1495.342285	1256.607544	68.178658
794.233826	745.850647	1491.404175	1254.006958	68.158257
794.544556	742.432800	1492.667358	1253.412598	68.109337
794.855286	738.048828	1499.354614	1254.675781	67.860634
795.166016	743.324402	1502.475220	1252.892456	67.123428
795.476624	739.386414	1511.020142	1253.263916	66.596039
795.787292	741.392578	1525.063354	1265.895386	66.928970
796.097778	729.504089	1545.942383	1278.452515	67.236977
796.408264	725.937561	1564.443726	1290.712524	67.354897
796.718689	725.789001	1564.220825	1290.266724	67.325417
797.029053	723.114075	1565.484009	1289.300903	67.213562
797.339355	733.888000	1550.474976	1287.814819	67.834396
797.649658	736.340027	1550.177612	1277.189453	66.456680
797.959839	741.615417	1538.437866	1277.189453	67.213722
798.270020	739.534973	1535.168579	1278.229614	67.706367
798.580078	732.327637	1531.676270	1282.910767	68.878975
798.890137	735.522644	1521.050903	1266.415649	67.584206
799.200195	729.652832	1506.487671	1256.087402	67.766602
799.510071	743.398743	1482.190552	1245.610718	67.977470
799.820007	734.928223	1475.429199	1242.267212	68.512939
800.129883	736.042786	1474.091675	1235.654297	67.693550
800.439575	727.275085	1475.651978	1225.994995	66.640205
800.749329	731.733154	1465.175415	1229.561401	67.875587
801.058960	737.974609	1444.296265	1219.307617	68.146431
801.368591	736.117004	1443.999023	1218.861816	68.195656
801.678162	734.631042	1431.962036	1212.546143	68.534897
801.987671	728.315247	1437.014648	1211.505859	68.179909
802.297119	722.445313	1425.126343	1210.837158	69.504059
802.606506	716.129578	1417.844727	1204.224243	69.557381
802.915894	720.141907	1408.185181	1196.571045	69.244064
803.225159	731.361633	1393.398926	1188.992188	69.124588
803.534424	736.785828	1392.878906	1184.459717	68.233292
803.843628	731.064453	1385.671387	1185.276978	69.387062
804.152771	724.600098	1383.293579	1186.465820	70.118462
804.461792	727.126465	1378.909790	1188.472046	70.782043
804.770874	732.476257	1385.299927	1182.676392	68.961983
805.079773	738.569092	1395.850952	1176.435059	66.617683
805.388733	739.832214	1417.621582	1187.505981	66.049095
805.697571	741.392578	1430.624634	1200.360474	66.591202
806.006470	735.596924	1436.346069	1210.762817	67.808273
806.315125	733.665039	1436.048828	1207.196289	67.417740
806.623901	723.262695	1430.773071	1209.945435	68.788071
806.932495	724.228577	1429.212891	1216.707031	69.856651
807.241150	719.770447	1427.429565	1217.524414	70.338097
807.549622	724.748718	1429.064331	1207.642212	68.562088
807.858154	721.999512	1426.092163	1190.255249	66.504845
808.166565	724.525818	1426.760864	1175.840454	64.268318
808.474915	725.268799	1417.324585	1181.264648	65.890045
808.783264	726.309082	1403.355469	1181.710449	67.262947
809.091492	732.104675	1381.733398	1182.527832	69.335472
809.399719	730.767273	1369.176270	1169.301880	68.691795
809.707825	729.801331	1367.095703	1160.608521	67.599403
810.015930	730.172852	1365.312500	1151.023315	66.261093
810.323975	730.841553	1363.157837	1143.444458	65.252617
810.632080	734.482422	1356.619141	1136.162842	64.564651
810.939880	729.504089	1344.433472	1135.494141	66.022224
811.247864	729.355469	1336.631714	1123.977173	64.982239
811.555664	727.795105	1326.823730	1120.410645	65.542030
811.863464	734.482422	1324.891724	1111.865845	63.918949
812.171143	735.448303	1315.009521	1117.290039	65.884628
812.478882	738.791992	1316.941528	1118.924683	65.749893
812.786438	734.036621	1310.848633	1122.416992	67.332230
813.094055	737.083008	1313.597900	1123.605835	67.044724
813.401489	733.145020	1309.065430	1127.692383	68.507271
813.708984	735.522644	1303.938477	1127.840942	69.019592
814.016357	740.723816	1297.028320	1127.246582	69.480431
814.323730	744.661865	1303.418335	1116.546997	66.555855
814.630981	749.714417	1303.046875	1115.655396	66.134018
814.938232	745.776367	1295.542236	1107.556396	65.806198
815.245361	739.014832	1287.814697	1106.813354	67.018700
815.552490	734.036621	1289.746582	1100.646362	65.971420
815.859619	732.550537	1294.799194	1101.166382	65.560997
816.166565	738.049011	1295.988037	1113.351929	67.265938
816.473572	730.470032	1299.182983	1127.395020	69.793556
816.780457	726.457703	1302.452271	1131.556152	70.330254
817.087341	718.061523	1309.362427	1126.280640	69.037460
817.394043	723.114075	1318.353149	1115.135254	65.859451
817.700806	726.011902	1326.229370	1117.364380	65.201782
818.007507	729.801270	1323.405762	1122.937134	66.228584
818.314209	725.268860	1324.891724	1127.766724	67.125168
818.620667	718.507324	1340.941162	1135.939941	67.064575
818.927246	724.228577	1362.191772	1151.320679	66.946198
819.233704	732.179016	1378.909790	1163.432007	66.681999
819.540161	740.129395	1402.315308	1178.961304	66.270195
819.846497	742.878601	1432.184937	1199.394531	66.228310
820.152832	743.175781	1482.487915	1236.174316	66.683411
820.458984	740.575195	1541.261353	1285.882813	68.105042
820.765259	737.008728	1617.347290	1325.114624	66.804512
821.071350	727.572266	1719.364868	1387.008911	66.489372
821.377502	727.869446	1881.790649	1495.416382	66.516411
821.683472	731.807434	2198.617432	1707.104858	66.491051
821.989441	738.643372	2746.451416	2058.854248	65.753838
822.295349	735.374023	3469.714111	2534.242920	65.788048
822.601196	725.566101	4281.025391	3069.148438	65.915039
822.907043	723.262695	4961.266602	3516.822266	65.916870
823.212769	724.525879	5378.328125	3784.534912	65.752884
823.518494	726.977844	5410.203613	3815.593506	65.950607
823.824097	725.863281	5149.326660	3655.842529	66.237221
824.129700	724.674500	4765.256348	3411.238037	66.489517
824.435242	734.556641	4363.798828	3146.794678	66.466713
824.740723	737.603088	4010.563477	2931.911133	67.043526
825.046082	743.324402	3684.894531	2720.817139	67.225754
825.351501	737.305908	3380.328125	2515.221436	67.268280
825.656799	739.832214	3066.175781	2306.505127	67.344864
825.962036	735.225342	2782.636719	2097.045654	66.514252
826.267212	730.915833	2566.044434	1945.245117	66.171349
826.572449	732.996277	2455.407715	1855.115845	65.148178
826.877502	742.135498	2460.608887	1863.958008	65.280182
827.182495	742.581299	2564.335449	1940.638550	65.763939
827.487488	743.547302	2710.860596	2035.151489	65.653206
827.792419	737.900391	2828.630127	2127.138428	66.447517
828.097290	740.129395	2858.425781	2141.255859	66.144020
828.402100	735.299744	2799.503174	2100.389404	66.131546
828.706848	737.231628	2651.715576	2006.916504	66.319954
829.011597	737.008728	2467.816162	1893.604858	66.824081
829.316223	741.392578	2291.273193	1775.314941	66.709808
829.620789	739.609314	2141.181641	1662.300415	65.832573
829.925354	743.027161	2024.303345	1578.486938	65.205284
830.229797	739.089111	1907.127930	1511.986206	66.170494
830.534302	740.872498	1794.410767	1440.655396	66.422157
830.838562	735.894104	1671.514038	1359.516968	66.653442
831.142944	737.603088	1562.883423	1283.282227	66.120461
831.447144	739.312012	1474.389038	1222.948364	65.793968
831.751404	743.101501	1425.423462	1195.605103	66.318192
832.055542	736.265625	1402.092285	1170.193481	65.171295
832.359619	730.172852	1381.139038	1164.992310	66.796013
832.663635	724.971680	1382.253540	1165.140869	66.968102
832.967651	728.166687	1405.361694	1186.540161	67.687073
833.271545	728.984070	1483.156616	1224.062988	65.645309
833.575439	726.234863	1592.455933	1289.969482	65.079765
833.879211	724.228699	1733.779663	1383.516602	65.305061
834.183044	728.909668	1872.799927	1475.354858	65.254967
834.486694	734.110901	1974.000366	1540.369629	65.026665
834.790344	735.151123	2003.498657	1563.031860	65.272392
835.093933	730.915833	1976.452515	1552.406738	65.954781
835.397522	724.228699	1912.626465	1519.193481	66.893837
835.700928	727.200867	1840.181274	1469.782104	66.720062
836.004395	723.559998	1768.182007	1416.953003	66.377403
836.307739	729.652771	1693.359009	1376.234985	67.093292
836.611023	731.658936	1624.851929	1336.483032	67.714828
836.914307	733.367859	1552.629517	1292.718750	68.275002
837.217529	733.888000	1487.317505	1240.632446	67.258377
837.520691	730.395691	1414.129272	1184.088135	66.355148
837.823730	729.652649	1347.925659	1138.169067	66.073792
838.126831	727.349365	1298.885864	1092.621582	63.910568
838.429749	731.733215	1264.409302	1077.463745	64.904457
838.732727	735.894104	1234.391113	1057.550659	64.525276
839.035522	738.197571	1208.756592	1043.730347	64.929749
839.338379	733.813660	1194.416260	1030.875977	64.494278
839.641113	736.637207	1195.679321	1032.436279	64.438332
839.943848	737.454529	1208.310791	1048.931519	66.151184
840.246460	735.596924	1236.768677	1065.946777	65.915497
840.549072	733.293518	1266.341309	1085.414185	66.057991
840.851563	729.801331	1278.824097	1089.649414	65.543381
841.154053	730.990234	1278.601196	1093.810425	66.255096
841.456482	734.779602	1271.170898	1086.305786	65.535400
841.758850	734.408020	1261.362915	1073.822876	64.410606
842.061157	732.179016	1235.208496	1059.482544	65.066467
842.363403	725.566101	1200.731934	1037.414673	65.629417
842.665588	731.881836	1178.143921	1035.111328	67.948746
842.967712	737.305908	1165.512329	1019.879211	65.989975
843.269775	742.135559	1155.481567	1015.941162	66.241257
843.571777	734.631042	1124.051636	994.393372	66.704826
843.873840	733.293518	1099.234375	982.876465	68.203087
844.175659	729.132629	1076.646484	960.734192	66.645271
844.477600	734.928223	1064.757935	949.663086	65.104767
844.779297	732.253357	1050.343262	946.245117	67.273987
845.081116	730.024231	1039.420776	948.399963	70.581177
845.382751	730.321472	1037.711792	943.421692	69.325615
845.684387	728.612488	1038.454956	927.595215	64.220612
845.985962	728.463867	1024.783081	914.369324	62.738239
846.287537	731.361755	1016.238342	915.335266	64.580070
846.588989	737.751709	1002.417969	913.626282	66.451454
846.890381	741.095398	996.548035	919.867676	69.982552
847.191711	737.305908	991.049622	912.511719	69.048332
847.493042	733.516418	987.929016	911.768738	70.064262
847.794250	740.352356	994.690613	903.669678	64.212646
848.095459	734.556702	991.049622	900.326111	64.629234
848.396606	727.795166	986.740173	898.319885	65.853645
848.697693	725.417480	983.396484	897.428284	66.676277
848.998657	729.355469	976.337708	893.193054	66.335777
849.299622	740.426575	972.622620	889.626526	64.256027
849.600464	735.968506	960.065430	885.911377	66.909828
849.901367	729.875671	957.093445	894.307556	72.367531
850.202087	723.857117	958.133606	894.753357	72.946388
850.502808	723.634216	969.130371	898.171204	71.095612
850.803467	727.052063	974.628723	887.174500	64.675903
851.104065	732.179016	976.932129	884.796875	62.355839
851.404663	726.754883	971.582336	876.326355	61.092606
851.705139	729.281250	965.266602	882.790588	65.050369
852.005615	731.287415	967.049805	882.642090	64.197975
852.306030	733.145020	967.272766	885.465515	65.058708
852.606384	731.807556	975.817688	882.716309	61.845280
852.906616	723.188416	973.588562	878.852539	62.166145
853.206909	729.132629	976.709290	876.772156	59.633862
853.506958	729.578430	966.975586	872.834045	60.344284
853.807129	738.569031	955.607361	875.731934	63.197548
854.107178	731.510254	953.229675	884.871094	69.168877
854.407166	734.185242	951.223450	894.233215	73.741844
854.707092	721.405090	954.046936	895.570618	74.864227
855.007019	724.600159	951.297668	890.592468	73.221939
855.306763	728.241028	952.115051	875.286072	65.682045
855.606567	733.888000	944.536316	868.821777	64.056427
855.906250	735.076843	938.666321	868.004395	65.291954
856.205933	728.983948	941.415466	871.199402	66.946495
856.505493	732.253357	949.885986	881.230286	68.453400
856.805054	732.179016	957.687805	880.264343	65.667206
857.104492	729.652771	957.539246	886.951599	69.025085
857.403931	720.810730	957.390625	882.567688	68.373077
857.703308	719.176025	959.248230	882.419128	67.997505
858.002563	726.383362	956.201660	874.543030	64.468178
858.301819	734.928223	953.898254	874.468750	63.725857
858.601013	742.135559	944.833313	868.895996	62.536674
858.900208	738.717590	949.663086	871.719543	63.050388
859.199219	741.987000	948.251282	867.707214	60.951035
859.498291	735.596924	953.601257	875.583313	64.212662
859.797302	735.671204	948.399902	871.942444	64.058701
860.096191	731.510315	952.189453	870.902283	63.164997
860.395020	727.869446	940.821106	860.574158	62.316826
860.693787	725.194519	933.242188	866.666931	68.000000
860.992554	724.080078	925.217468	866.295410	70.705566
861.291260	722.222473	926.480652	868.153015	71.444160
861.589844	719.696106	932.350525	869.118896	70.265549
861.888428	720.736328	937.700256	862.803223	65.479500
862.186890	728.463867	947.879822	872.982666	65.865219
862.485413	734.928223	952.560852	868.450195	61.352001
862.783813	738.197510	949.068665	875.508972	65.116287
863.082153	742.655762	948.474304	866.518372	60.180492
863.380371	736.117004	950.034668	867.484192	61.410164
863.678589	730.321472	953.081055	869.341858	62.408264
863.976746	725.640381	948.102722	876.252014	67.702080
864.274902	724.080078	946.467957	876.772156	68.660255
864.572937	729.206970	948.697083	877.886658	67.738670
864.870911	727.943665	955.161438	877.217957	65.696571
865.168884	732.996338	953.303955	876.697815	65.227646
865.466736	731.807434	952.338074	872.239685	63.679249
865.764587	730.915833	946.690979	873.205566	65.943520
866.062317	731.658875	952.635254	874.394348	64.593094
866.360107	729.058289	944.090393	873.948547	67.380760
866.657715	727.943787	942.901550	871.868164	66.954727
866.955322	722.668274	936.139954	867.335693	67.768906
867.252808	726.011902	944.610535	870.382019	66.043465
867.550293	726.829163	943.124451	862.208740	62.590164
867.847717	734.408020	943.421692	868.673096	64.237457
868.145081	739.906433	937.031555	863.100403	62.495316
868.442383	751.274841	940.523865	877.069336	66.470352
868.739624	753.429626	932.573425	869.787598	64.952271
869.036804	752.612305	938.294739	873.651428	65.186096
869.333984	745.850769	939.632263	862.431641	60.160992
869.631042	744.067444	944.833435	866.295410	60.880814
869.928101	735.002502	950.034607	864.957947	60.435368
870.224976	726.606262	953.378235	871.719543	63.990837
870.521851	730.915833	950.257507	883.310730	69.478317
870.818726	737.454529	948.771484	883.607910	69.163109
871.115479	748.302734	948.028503	885.316895	68.601143
871.412231	741.020996	955.533020	873.056946	61.551769
871.708862	739.609314	951.966492	879.001221	65.640312
872.005493	732.401917	950.108887	880.190125	67.884003
872.302063	739.460693	954.789978	873.279968	62.146343
872.598572	733.293518	951.669250	873.502869	64.205551
872.895020	731.510254	951.966492	874.171570	64.711853
873.191406	726.086182	949.960266	883.607910	70.361755
873.487671	729.578430	964.003418	879.521301	63.961983
873.783997	733.219238	969.278992	871.496643	58.577290
874.080200	735.002502	967.644348	871.347961	58.607452
874.376343	734.110840	958.950989	879.224121	64.540642
874.672424	737.157288	961.031433	886.728699	66.810486
874.968445	734.185242	972.399719	887.991760	64.566406
875.264465	733.293518	975.297546	880.115723	60.669323
875.560364	733.516418	962.368896	880.338623	64.155830
875.856201	736.711487	953.303955	878.332458	65.385918
876.152039	742.284180	960.288330	882.642029	64.383110
876.447754	737.825989	969.278992	876.549133	59.935772
876.743469	730.321472	967.124207	889.552185	67.241920
877.039063	725.491760	963.260437	899.211487	73.062492
877.334595	727.052185	966.975586	896.388000	70.579117
877.630127	730.395752	972.473938	882.864929	62.983444
877.925537	732.030457	970.542175	875.211731	60.031128
878.221008	734.705261	971.507996	883.385071	62.786358
878.516296	731.658875	975.074524	894.158936	66.758263
878.811646	725.788879	989.117859	895.942200	64.616257
879.106812	722.148132	993.798889	899.731689	65.372009
879.401978	726.903503	1008.362244	902.555176	62.407608
879.697083	730.098572	1024.783203	914.294983	62.506283
879.992126	733.590759	1060.597046	933.613708	61.167923
880.287109	729.652771	1101.240723	963.037537	62.807407
880.582031	727.349304	1166.329834	1003.904053	62.999321
880.876892	724.748718	1280.087402	1074.863159	63.045212
881.171753	724.822937	1495.862427	1203.629761	62.098873
881.466492	732.550476	1816.701538	1405.436035	62.065662
881.761230	727.720886	2192.598877	1650.783569	63.012943
882.055786	735.596924	2543.084961	1891.152954	63.931599
882.350403	733.516418	2783.677002	2057.591064	64.583946
882.644958	736.191345	2888.369873	2130.333496	64.778183
882.939453	731.881836	2857.533936	2107.596924	64.719673
883.233826	728.315247	2753.287354	2040.055664	64.778198
883.528137	723.708496	2607.728271	1952.601196	65.227165
883.822449	722.816895	2480.447754	1873.988892	65.495667
884.116577	725.640381	2361.117920	1794.187866	65.335503
884.410828	730.172852	2243.644775	1711.488892	64.838737
884.704956	740.426575	2093.033447	1615.712769	64.711052
884.999023	736.340027	1910.545898	1510.425659	65.924187
885.292969	738.717712	1722.857056	1400.457642	67.240471
885.586914	730.247131	1549.657593	1288.037598	68.072166
885.880798	738.494812	1421.336792	1188.472046	65.897713
886.174622	743.770203	1329.275513	1122.862671	64.746208
886.468384	742.135559	1265.003784	1082.070435	65.013489
886.762085	735.448303	1214.329346	1061.042847	67.990692
887.055664	729.578430	1172.942871	1026.492065	66.968300
887.349304	730.024231	1139.952515	1002.417969	66.449120
887.642822	734.408142	1105.698853	975.446045	64.918915
887.936340	737.231628	1086.231567	964.820801	65.211807
888.229736	733.219299	1072.708374	957.687744	66.119492
888.523071	728.538269	1063.569214	948.548523	65.668640
888.816284	731.510254	1042.318481	937.328796	66.220428
889.109619	733.219238	1027.681030	922.839844	64.395660
889.402710	729.429871	1014.380676	909.539612	63.207310
889.695862	724.823059	1008.362244	901.069092	62.159321
889.988892	725.788879	994.170410	893.713135	62.569229
890.281921	726.457642	979.458496	899.434387	68.370026
>>>>>End Processed Spectral Data<<<<<
