Jaz Data File
++++++++++++++++++++++++++++++++++++
Date: Fri Jun 04 16:02:15 2021
User: jaz
Dark Spectrum Present: Yes
Reference Spectrum Present: Yes
Processed Spectrum Present: Yes
Spectrometers: JAZA3586
Integration Time (usec): 24600 (JAZA3586)
Spectra Averaged: 10 (JAZA3586)
Boxcar Smoothing: 1 (JAZA3586)
Correct for Electrical Dark: No (JAZA3586)
Strobe/Lamp Enabled: Yes (JAZA3586)
Correct for Detector Non-linearity: No (JAZA3586)
Correct for Stray Light: No (JAZA3586)
Number of Pixels in Processed Spectrum: 2048
>>>>>Begin Processed Spectral Data<<<<<
W	D	R	S	P
191.335022	0.000000	0.000000	0.000000	0.000000
191.713211	387.488678	386.225494	385.482513	158.818130
192.091385	782.481934	776.240479	778.320984	66.666344
192.469528	1172.942749	1174.948853	1169.078979	-192.600708
192.847641	1184.311157	1189.289429	1176.880859	-149.254578
193.225739	1196.571167	1199.320190	1179.035522	-637.886353
193.603790	1211.877319	1200.360474	1192.187134	170.968567
193.981842	1215.518188	1204.224121	1200.731934	130.920547
194.359863	1208.905273	1203.852661	1207.865112	20.586601
194.737854	1212.768921	1214.849487	1199.988892	-614.257202
195.115829	1216.855591	1212.694702	1202.440918	346.432556
195.493774	1224.806030	1210.465576	1209.871216	104.144638
195.871704	1219.159058	1204.892944	1216.484253	18.749359
196.249603	1223.468628	1208.533691	1216.112671	49.253353
196.627457	1216.781372	1210.985718	1205.710205	191.025314
197.005310	1218.787598	1215.221069	1202.961060	443.751923
197.383133	1212.026001	1212.248901	1200.806274	-5033.516113
197.760910	1210.688599	1217.821655	1200.954834	-136.459930
198.138687	1208.013672	1216.707031	1203.183960	-55.556335
198.516449	1204.521484	1217.301392	1198.428589	-47.675587
198.894180	1206.527466	1213.883545	1196.719727	-133.328354
199.271866	1202.069458	1216.038330	1197.016968	-36.169636
199.649536	1199.171753	1215.221069	1199.617554	2.777693
200.027191	1201.846558	1219.901978	1200.211914	-9.053478
200.404816	1200.360474	1213.437622	1201.772339	10.796431
200.782410	1202.440918	1226.069214	1205.561646	13.207586
201.159988	1203.183960	1232.756470	1213.512085	34.924751
201.537537	1212.397461	1237.586060	1214.477905	8.259468
201.915070	1209.796875	1236.694458	1214.255005	16.574463
202.292557	1204.149902	1234.911255	1210.614136	21.014139
202.670029	1196.422485	1242.490112	1208.088013	25.322615
203.047485	1196.050903	1249.400269	1208.608032	23.537540
203.424911	1191.592773	1261.734497	1204.447144	18.326283
203.802292	1197.462524	1257.053345	1203.704102	10.474058
204.179688	1197.314087	1248.359985	1203.109741	11.353810
204.557037	1199.691772	1237.957642	1205.413086	14.951479
204.934357	1188.397827	1239.518066	1205.784546	34.011417
205.311661	1187.060181	1244.867798	1204.892944	30.848467
205.688934	1192.038574	1253.858398	1199.394409	11.898829
206.066177	1193.004517	1257.796387	1199.468750	9.976920
206.443390	1195.902222	1252.743774	1198.577271	4.706150
206.820587	1191.741333	1246.428101	1206.230347	26.494551
207.197769	1198.057129	1237.363281	1208.459473	26.464926
207.574921	1199.914551	1239.517944	1210.688477	27.204552
207.952042	1195.307739	1233.127930	1206.973511	30.845354
208.329147	1190.626831	1241.747070	1198.800171	15.988461
208.706223	1191.444092	1237.586060	1198.651489	15.620048
209.083267	1196.868286	1233.499390	1195.902344	-2.636946
209.460297	1206.378906	1227.109497	1198.428589	-38.350655
209.837280	1203.926880	1224.806030	1194.267700	-46.262321
210.214264	1195.456421	1231.567627	1192.335815	-8.641654
210.591217	1186.168579	1228.595581	1192.632935	15.236419
210.968124	1186.094360	1228.223999	1191.741333	13.403800
211.345016	1190.032349	1233.053589	1197.685669	17.789633
211.721893	1193.004517	1244.496216	1194.119019	2.164430
212.098724	1191.592773	1248.657227	1194.862183	5.729327
212.475555	1193.227417	1249.771851	1193.450317	0.394204
212.852356	1191.369873	1240.929810	1197.536987	12.443749
213.229126	1188.917847	1246.799683	1200.880493	20.667358
213.605865	1193.598999	1250.663330	1202.292358	15.234314
213.982590	1197.388550	1256.830444	1199.765991	3.999606
214.359283	1196.645386	1256.681885	1199.765991	5.197847
214.735931	1192.261475	1249.028687	1196.571167	7.591869
215.112579	1187.580444	1251.703613	1196.645386	14.136765
215.489197	1193.524536	1248.880249	1196.868164	6.040258
215.865799	1187.431885	1243.381714	1194.416138	12.483064
216.242355	1187.357544	1238.774902	1196.348022	17.485298
216.618896	1182.379272	1232.310547	1199.394531	34.077358
216.995407	1182.230469	1236.545898	1206.899048	45.417259
217.371902	1183.270752	1230.824585	1205.858765	47.499878
217.748367	1195.084961	1229.858521	1192.707153	-6.837976
218.124802	1206.304565	1228.001099	1189.437866	-77.739143
218.501236	1204.001221	1234.168213	1188.100464	-52.709122
218.877609	1188.843384	1244.570557	1192.632935	6.800185
219.253983	1176.063354	1250.366211	1190.552490	19.500107
219.630295	1180.744507	1244.719238	1190.106812	14.634379
220.006592	1182.453613	1247.096802	1195.605103	20.344742
220.382889	1194.119019	1249.846069	1198.502808	7.866537
220.759140	1195.307861	1256.904785	1200.583374	8.564571
221.135391	1203.852661	1257.499146	1198.577148	-9.833846
221.511581	1203.258301	1251.332153	1200.211914	-6.336889
221.887772	1196.422485	1251.555054	1197.834106	2.560412
222.263931	1193.227417	1245.833740	1207.344849	26.835999
222.640060	1189.066528	1242.713013	1205.784546	31.163305
223.016159	1190.329590	1241.821411	1212.620483	43.290165
223.392212	1188.843506	1243.381714	1203.183960	26.294325
223.768265	1186.094238	1250.514771	1202.069458	24.798336
224.144302	1185.276978	1253.486938	1195.605103	15.141666
224.520294	1188.249023	1251.183594	1194.564819	10.035496
224.896286	1190.106567	1257.573608	1194.862061	7.048617
225.272217	1193.598877	1257.127808	1196.719604	4.912293
225.648148	1188.769409	1260.397095	1192.112915	4.667896
226.024048	1191.964233	1254.452759	1191.741333	-0.356706
226.399902	1191.146851	1262.106079	1190.478149	-0.942374
226.775772	1198.428589	1261.140015	1192.930176	-8.767801
227.151581	1191.592651	1265.152344	1193.524536	2.626282
227.527374	1192.558594	1260.322754	1198.874390	9.320260
227.903137	1188.471924	1273.474243	1203.927002	18.181950
228.278870	1188.992065	1284.248169	1208.013550	19.968782
228.654572	1186.911621	1300.000366	1205.041504	16.031553
229.030273	1183.939575	1312.111816	1202.366699	14.376844
229.405930	1187.729126	1317.461548	1200.509033	9.850974
229.781555	1192.856079	1320.730957	1199.988892	5.577962
230.157181	1197.982910	1324.891846	1203.109619	4.039675
230.532761	1198.279907	1332.024902	1200.211792	1.444454
230.908325	1194.936401	1332.396362	1198.057129	2.270281
231.283859	1189.512207	1324.297363	1196.125244	4.906354
231.659332	1186.020020	1311.442993	1197.016968	8.767890
232.034821	1189.661011	1304.978638	1198.651489	7.796274
232.410263	1187.580444	1303.567017	1199.766113	10.506104
232.785690	1192.855957	1298.588745	1193.747559	0.843259
233.161087	1187.283203	1297.028198	1188.694946	1.286385
233.536469	1194.564819	1292.272827	1188.174683	-6.540034
233.911804	1192.930176	1291.009766	1192.261353	-0.681919
234.287140	1193.524536	1292.421509	1193.896118	0.375726
234.662430	1192.558594	1291.604248	1197.536987	5.026362
235.037704	1197.091064	1300.223267	1193.450317	-3.530175
235.412933	1202.440918	1307.430786	1200.583374	-1.769260
235.788162	1197.091187	1317.164307	1197.685547	0.494999
236.163345	1193.301758	1320.507935	1201.549316	6.483615
236.538513	1195.233521	1319.244751	1205.784546	8.508121
236.913635	1197.611206	1312.260376	1205.115845	6.545742
237.288742	1196.942505	1309.585571	1208.459473	10.224302
237.663834	1191.444214	1304.012817	1200.657715	8.184788
238.038879	1189.958130	1307.802124	1194.862061	4.161375
238.413910	1192.558716	1315.380981	1197.091187	3.690268
238.788910	1196.868286	1316.644165	1203.109619	5.210843
239.163879	1202.069458	1317.089966	1207.419189	4.651111
239.538834	1201.846558	1314.638062	1205.933105	3.623099
239.913757	1198.800171	1325.857666	1205.784546	5.497019
240.288651	1200.954956	1341.238281	1203.778442	2.012703
240.663528	1200.657715	1351.046387	1199.320190	-0.889378
241.038361	1196.793945	1366.798462	1196.273804	-0.305958
241.413177	1193.524536	1384.110962	1196.793823	1.715383
241.787979	1199.394531	1414.649536	1201.846558	1.139126
242.162735	1194.490601	1437.163208	1201.994995	3.092395
242.537476	1190.849731	1452.989624	1200.434692	3.656430
242.912170	1187.729004	1465.101074	1201.623657	5.009392
243.286865	1186.837280	1482.042114	1198.502930	3.951714
243.661514	1186.391602	1493.484741	1201.326294	4.863245
244.036148	1187.134644	1488.506470	1195.753662	2.859928
244.410751	1196.422485	1474.908813	1197.908569	0.533629
244.785339	1201.995117	1457.967896	1191.741333	-4.005810
245.159882	1201.252075	1450.091797	1196.273804	-2.000594
245.534378	1201.549194	1447.639771	1197.165405	-1.781372
245.908890	1200.806274	1471.639648	1204.447144	1.344321
246.283356	1200.360474	1503.515625	1209.128174	2.892149
246.657791	1195.976685	1551.292114	1210.094116	3.973211
247.032196	1191.741333	1598.846069	1211.059937	4.745365
247.406586	1194.787720	1662.300415	1199.171509	0.937683
247.780960	1191.667114	1722.188477	1190.552490	-0.210100
248.155289	1189.363647	1747.599976	1186.688843	-0.479153
248.529602	1183.047852	1741.878784	1193.227417	1.821582
248.903870	1195.159302	1695.067993	1202.961060	1.560637
249.278122	1198.725830	1649.148804	1200.583374	0.412400
249.652344	1201.995117	1596.096680	1196.050903	-1.508295
250.026550	1195.456543	1558.648071	1193.301636	-0.593325
250.400711	1199.989136	1534.871460	1199.245972	-0.221918
250.774857	1201.400757	1520.456665	1207.864990	2.026050
251.148987	1197.759888	1518.004517	1205.710205	2.482576
251.523071	1190.255249	1513.769165	1211.803101	6.660564
251.897125	1186.837280	1524.766113	1206.601929	5.848761
252.271164	1195.159302	1534.574097	1215.295410	5.932596
252.645187	1201.177856	1558.127930	1206.379028	1.457115
253.019165	1196.645264	1576.852173	1204.075562	1.954277
253.393112	1194.787720	1585.099976	1195.382202	0.152309
253.767044	1195.307983	1572.914429	1200.731934	1.436403
254.140930	1201.475098	1541.781616	1202.292358	0.240154
254.514801	1196.942505	1523.131470	1204.521362	2.323456
254.888657	1196.125244	1503.738647	1198.799927	0.869495
255.262466	1192.855835	1508.642578	1200.509033	2.423534
255.636276	1192.038452	1503.589966	1205.784546	4.412141
256.010010	1192.781616	1508.493774	1211.208618	5.836646
256.383759	1195.159302	1519.861938	1208.013550	3.958775
256.757446	1196.050903	1540.221069	1207.270508	3.259900
257.131134	1190.775269	1566.895874	1210.242676	5.175842
257.504791	1188.546265	1589.409668	1222.576904	8.489336
257.878418	1192.187134	1620.319458	1228.521118	8.486625
258.252014	1190.849731	1657.099243	1223.319946	6.964128
258.625580	1193.821777	1694.027710	1213.140503	3.862154
258.999115	1196.496704	1755.401733	1208.310913	2.113813
259.372650	1199.840332	1837.803345	1204.521484	0.733765
259.746124	1190.478149	1936.105957	1205.784546	2.052820
260.119598	1183.122192	2027.572632	1204.224243	2.498909
260.493042	1179.852905	2101.429443	1207.939331	3.047650
260.866425	1188.620605	2141.181396	1206.527588	1.879878
261.239838	1191.295410	2115.547119	1200.211792	0.964714
261.613159	1198.948608	2026.160767	1198.057007	-0.107784
261.986511	1194.639282	1921.914063	1201.549316	0.950127
262.359802	1194.862061	1844.342163	1203.927002	1.395723
262.733063	1191.146851	1812.466309	1200.211914	1.459002
263.106293	1197.685425	1800.875000	1197.685547	0.000020
263.479523	1194.564819	1787.277710	1195.307861	0.125363
263.852692	1197.314087	1784.156860	1194.044678	-0.557118
264.225861	1195.010620	1772.862915	1194.341919	-0.115722
264.598969	1203.852661	1773.754517	1197.016724	-1.199494
264.972076	1204.447144	1764.764038	1201.103516	-0.596739
265.345154	1204.372681	1772.045532	1195.976563	-1.479042
265.718201	1201.474976	1786.683105	1199.394531	-0.355505
266.091217	1197.091187	1816.329956	1200.137573	0.491957
266.464203	1191.146973	1851.846558	1205.041626	2.103021
266.837158	1188.843628	1894.124878	1202.961060	2.001674
267.210114	1190.255371	1932.836548	1207.196411	2.281372
267.583038	1194.342041	1960.328735	1212.769165	2.405672
267.955902	1189.958130	1966.272949	1212.471802	2.900070
268.328766	1188.174805	1969.913696	1204.075684	2.034040
268.701569	1189.586548	1969.022095	1195.828003	0.800766
269.074371	1193.598877	1982.842407	1199.171631	0.706088
269.447144	1195.679321	1986.185913	1203.926880	1.043326
269.819885	1195.307861	2008.030884	1207.939453	1.554231
270.192596	1201.549316	2029.504395	1203.183960	0.197431
270.565277	1202.218140	2077.132568	1207.642090	0.619941
270.937927	1208.310791	2138.655273	1206.379028	-0.207640
271.310577	1201.846558	2206.642334	1209.276733	0.739471
271.683136	1200.731934	2290.901611	1203.703979	0.272622
272.055725	1192.038452	2350.640869	1207.270630	1.314703
272.428284	1194.341919	2380.659180	1204.075562	0.820492
272.800812	1191.592773	2357.179443	1208.088013	1.415188
273.173279	1188.843384	2322.554443	1203.704102	1.310803
273.545776	1186.242798	2302.789795	1204.744385	1.657036
273.918152	1189.735229	2282.059326	1197.239746	0.687023
274.290558	1196.199585	2252.784180	1193.896118	-0.218011
274.662964	1199.691772	2237.403564	1194.936401	-0.458255
275.035278	1199.245972	2224.474854	1198.874390	-0.036244
275.407593	1191.146851	2239.260986	1211.431519	1.935349
275.779907	1190.106567	2248.400391	1219.902100	2.815431
276.152161	1190.998169	2273.885986	1226.366455	3.266108
276.524384	1191.443970	2305.910889	1225.400513	3.046887
276.896606	1188.769287	2340.981689	1207.939331	1.663760
277.268799	1193.227417	2373.451904	1200.806274	0.642154
277.640930	1202.515259	2388.015137	1192.261353	-0.864944
278.013031	1202.812378	2398.863281	1198.725830	-0.341670
278.385162	1199.691772	2404.064697	1208.979614	0.771177
278.757233	1193.970337	2396.411377	1214.552368	1.711687
279.129272	1203.035522	2384.374268	1212.546143	0.805071
279.501282	1201.177856	2381.996582	1197.536987	-0.308334
279.873230	1202.069458	2407.185303	1195.456421	-0.548747
280.245178	1192.187134	2443.965088	1199.988892	0.623254
280.617126	1189.437988	2506.305176	1205.933105	1.252603
280.988983	1188.323364	2566.193115	1199.840332	0.835853
281.360870	1190.478149	2625.858154	1199.543091	0.631536
281.732697	1191.518433	2684.780273	1202.218018	0.716524
282.104492	1189.809448	2746.376953	1207.939331	1.164735
282.476288	1187.431763	2805.150391	1206.230347	1.162043
282.848053	1190.775391	2847.577393	1205.338867	0.879011
283.219757	1196.125244	2867.639404	1207.344849	0.671224
283.591461	1195.605103	2852.555908	1212.471802	1.017936
283.963135	1194.267700	2831.676758	1211.059937	1.025537
284.334747	1195.159302	2827.441406	1209.053833	0.851233
284.706360	1198.205688	2861.174805	1201.103394	0.174249
285.077942	1198.428589	2914.375732	1201.920776	0.203514
285.449524	1195.530762	2967.427734	1205.784668	0.578697
285.821014	1198.651489	3006.436768	1209.499634	0.600079
286.192535	1197.982788	3066.919189	1211.877441	0.743452
286.563995	1197.388428	3120.863037	1207.567749	0.529215
286.935425	1192.187256	3173.915039	1209.425293	0.869849
287.306824	1193.078735	3157.642578	1212.843140	1.006045
287.678223	1195.605103	3115.438721	1210.911377	0.797271
288.049561	1202.738159	3054.510498	1202.961060	0.012037
288.420898	1202.663818	3007.105469	1191.146851	-0.638257
288.792145	1201.326294	2986.672119	1197.908447	-0.191439
289.163452	1192.484253	2991.799072	1199.394531	0.384051
289.534668	1187.431641	3032.294189	1204.447021	0.922312
289.905914	1182.304810	3074.349365	1199.394409	0.903235
290.277039	1188.769165	3150.732422	1207.567871	0.958158
290.648193	1187.060181	3225.183594	1210.465698	1.148386
291.019318	1189.214966	3303.127197	1209.351196	0.952558
291.390381	1181.859131	3336.786377	1203.332520	0.996479
291.761475	1183.865356	3328.687500	1206.824829	1.070460
292.132507	1182.825073	3301.418701	1207.939331	1.185421
292.503510	1179.852905	3267.462158	1211.282837	1.505547
292.874481	1183.493652	3247.177734	1209.648315	1.267377
293.245422	1187.134644	3249.332275	1209.128296	1.066515
293.616364	1188.992188	3284.106201	1207.642212	0.890168
293.987213	1188.620605	3327.870361	1208.831055	0.944745
294.358093	1190.106689	3409.305908	1208.087891	0.810256
294.728943	1195.902344	3496.983154	1212.174683	0.707161
295.099731	1198.800049	3603.384521	1208.905273	0.420248
295.470490	1194.416138	3661.860596	1209.796997	0.623352
295.841248	1192.112793	3702.355713	1202.143677	0.399598
296.211975	1192.261475	3742.330811	1198.800171	0.256412
296.582642	1197.313965	3815.890625	1197.611206	0.011351
296.953308	1196.348145	3898.218018	1203.927124	0.280509
297.323883	1190.552612	3972.149170	1213.140625	0.812052
297.694519	1186.391602	4024.384033	1210.911499	0.863987
298.065063	1191.147095	4035.455078	1209.053833	0.629564
298.435608	1195.382202	3997.709229	1207.270630	0.424234
298.806122	1196.719604	3882.242920	1210.688599	0.520159
299.176575	1197.165405	3752.212891	1208.979492	0.462382
299.547028	1196.942505	3644.473877	1204.744263	0.318760
299.917450	1197.091187	3595.657227	1206.601929	0.396518
300.287872	1197.239746	3577.899170	1201.029175	0.159176
300.658234	1196.719604	3559.768799	1198.428589	0.072321
301.028564	1198.577271	3535.249023	1197.536987	-0.044520
301.398865	1196.125244	3521.800049	1211.877319	0.677312
301.769135	1195.605103	3506.642578	1213.512085	0.774846
302.139374	1193.524536	3519.571289	1212.249023	0.804992
302.509583	1190.923950	3534.283203	1200.806274	0.421716
302.879791	1192.038452	3539.707764	1204.670044	0.538048
303.249939	1189.958008	3516.822266	1207.270630	0.744032
303.620087	1197.982788	3488.364014	1212.694702	0.642335
303.990173	1195.605103	3468.005127	1205.413086	0.431613
304.360260	1195.456421	3454.110352	1206.453247	0.486875
304.730286	1186.243042	3436.054932	1206.899170	0.918127
305.100281	1186.763062	3434.494385	1214.403687	1.229712
305.470276	1183.939575	3457.008057	1212.917603	1.274842
305.840179	1185.648560	3471.051514	1210.168457	1.072892
306.210144	1186.614502	3482.791260	1208.013672	0.931948
306.579987	1194.193359	3489.404297	1206.824707	0.550335
306.949890	1200.211914	3510.134766	1205.858765	0.244461
307.319702	1197.759766	3546.765869	1201.549316	0.161326
307.689484	1193.375977	3583.545898	1203.555542	0.425893
308.059265	1188.843628	3633.922852	1204.744385	0.650317
308.429016	1189.215088	3703.395752	1210.985840	0.865918
308.798737	1191.444092	3776.807373	1210.911499	0.752985
309.168396	1191.221191	3856.682861	1218.044556	1.006331
309.538055	1188.546265	3903.790771	1219.530518	1.141122
309.907684	1185.648560	3950.378174	1222.725586	1.341072
310.277313	1187.803345	3985.821045	1218.044434	1.080804
310.646851	1196.496704	4020.371826	1211.208618	0.520983
311.016388	1207.493530	4042.662842	1204.744263	-0.096970
311.385895	1204.372681	4044.520264	1204.892944	0.018318
311.755371	1200.732056	4044.891602	1204.892944	0.146296
312.124817	1194.044800	4049.498291	1207.865112	0.483997
312.494232	1196.125244	4037.386963	1208.088013	0.421037
312.863617	1191.890015	4016.136719	1217.078491	0.891865
313.232971	1184.236694	3975.195557	1210.539917	0.942444
313.602295	1190.032349	3947.629150	1208.236572	0.660148
313.971619	1188.694946	3945.325928	1197.388306	0.315362
314.340820	1193.450317	3949.709717	1208.459473	0.544548
314.710083	1188.174927	3985.226563	1210.837158	0.810219
315.079285	1191.444214	4022.452148	1211.431519	0.706014
315.448486	1189.809570	4070.451904	1210.465698	0.717067
315.817596	1184.608276	4078.922607	1215.146729	1.055119
316.186707	1186.094360	4034.637939	1227.035156	1.437254
316.555786	1189.140747	3955.728516	1219.010376	1.079656
316.924866	1192.187134	3873.326904	1210.094116	0.667887
317.293884	1192.261353	3826.218750	1203.555420	0.428787
317.662872	1194.193359	3804.670898	1209.425415	0.583497
318.031830	1193.970459	3821.017334	1206.230347	0.466679
318.400757	1194.119019	3837.884033	1208.459473	0.542425
318.769684	1192.855957	3864.929932	1211.877319	0.711858
319.138550	1193.153076	3899.555420	1214.032104	0.771468
319.507416	1197.388306	3934.106201	1213.586304	0.591877
319.876190	1200.954834	3954.836670	1210.465576	0.345358
320.244995	1201.400757	3922.886475	1218.713257	0.636141
320.613770	1196.645264	3884.843018	1216.930054	0.754587
320.982483	1194.787720	3855.122314	1218.193115	0.879791
321.351166	1192.707275	3828.299072	1210.242798	0.665335
321.719818	1193.153198	3812.398438	1212.174683	0.726220
322.088440	1187.803345	3818.045166	1206.156128	0.697760
322.457062	1188.397705	3847.840820	1204.298462	0.597898
322.825623	1184.534058	3889.821533	1202.292358	0.656429
323.194183	1192.112793	3945.325928	1211.208618	0.693583
323.562653	1190.701050	4032.928955	1217.598633	0.946356
323.931183	1193.673218	4123.280762	1223.319946	1.011969
324.299591	1194.193359	4205.236816	1207.790649	0.451581
324.668060	1196.273804	4273.669922	1206.378906	0.328365
325.036407	1195.679321	4330.511230	1203.258179	0.241763
325.404755	1190.180908	4361.644043	1211.208618	0.663029
325.773102	1189.512329	4375.092773	1213.140503	0.741723
326.141388	1191.295532	4375.315918	1215.666870	0.765427
326.509674	1188.174805	4364.541992	1218.118774	0.942711
326.877899	1184.385376	4358.226074	1221.908203	1.182253
327.246124	1184.682617	4361.644043	1217.821655	1.043105
327.614288	1186.317261	4356.739746	1224.137329	1.192903
327.982422	1184.608276	4339.130371	1222.131226	1.189497
328.350525	1186.911743	4295.291504	1224.806030	1.219101
328.718628	1191.072632	4291.948242	1220.347778	0.944093
329.086700	1196.719604	4292.319336	1220.199097	0.758480
329.454712	1191.146973	4322.709473	1213.883423	0.726042
329.822693	1185.277100	4337.272461	1208.087891	0.723694
330.190674	1184.459717	4347.377441	1207.567749	0.730592
330.558563	1186.317261	4365.358887	1214.923706	0.899845
330.926483	1186.020142	4387.204102	1218.564575	1.016637
331.294312	1186.540283	4444.342773	1220.422241	1.040025
331.662231	1185.871460	4502.373535	1218.861938	0.994737
332.029999	1187.506226	4567.313965	1216.707031	0.863978
332.397766	1196.125122	4611.672363	1214.998047	0.552559
332.765503	1203.183960	4672.452637	1214.329346	0.321260
333.133240	1197.982910	4735.312500	1219.010376	0.594445
333.500916	1192.707275	4830.270996	1218.787598	0.716972
333.868561	1183.122192	4884.957520	1219.604858	0.985529
334.236176	1194.416138	4910.815430	1224.062988	0.797730
334.603790	1189.363647	4893.800293	1224.954590	0.960765
334.971344	1193.152954	4881.391602	1222.205444	0.787706
335.338867	1185.128418	4869.057129	1222.354004	1.010486
335.706360	1189.512207	4856.797363	1222.131104	0.889456
336.073853	1193.004517	4856.054199	1218.416016	0.693725
336.441284	1195.456543	4863.930176	1209.722656	0.388884
336.808655	1199.765991	4865.937012	1209.128174	0.255367
337.176086	1198.279907	4828.190918	1211.431519	0.362312
337.543396	1195.753784	4732.562988	1202.663940	0.195378
337.910706	1185.574219	4648.452637	1202.886841	0.499949
338.277954	1181.859131	4632.774414	1207.493530	0.742829
338.645264	1189.958130	4711.460938	1213.883545	0.679409
339.012421	1190.181030	4855.459961	1207.939331	0.484501
339.379669	1191.072632	4989.056152	1205.561646	0.381492
339.746796	1187.357422	5102.070801	1206.081787	0.478307
340.113953	1194.341919	5172.138184	1208.682373	0.360513
340.481018	1196.348022	5222.738281	1210.614258	0.354318
340.848114	1197.388428	5239.233887	1215.295410	0.443040
341.215118	1197.314087	5258.849609	1222.948608	0.631153
341.582153	1189.660889	5275.419434	1220.719360	0.760164
341.949066	1190.998291	5323.418457	1223.542847	0.787542
342.316010	1189.958130	5341.474121	1225.400513	0.853721
342.682922	1189.437866	5372.160645	1223.468628	0.813603
343.049835	1188.249023	5410.055176	1217.970215	0.703992
343.416656	1184.533936	5475.292969	1212.991943	0.663240
343.783478	1189.140747	5579.539551	1213.734985	0.560182
344.150269	1180.893066	5725.173340	1220.868042	0.879677
344.516998	1180.150024	5925.716309	1224.508911	0.934744
344.883728	1186.391479	6071.052246	1224.063110	0.771223
345.250427	1191.146973	6155.608887	1214.552368	0.471459
345.617065	1190.552490	6166.828125	1206.081787	0.312067
345.983704	1188.694946	6142.828613	1210.539917	0.440944
346.350281	1185.797241	6125.738770	1220.050659	0.693397
346.716827	1189.363647	6042.817871	1221.165283	0.655237
347.083405	1189.735229	5984.638184	1211.208740	0.447840
347.449860	1195.456421	5891.982910	1205.561768	0.215166
347.816376	1192.187134	5832.392090	1210.688599	0.398721
348.182770	1184.311035	5772.652832	1214.626587	0.660708
348.549194	1184.831177	5738.474121	1215.146606	0.665740
348.915558	1178.663940	5744.640625	1204.670044	0.569563
349.281921	1184.088135	5762.622559	1203.778442	0.430057
349.648193	1178.143921	5816.491699	1200.434692	0.480576
350.014526	1176.806519	5864.564941	1212.768921	0.767156
350.380737	1170.787964	5933.517578	1220.050659	1.034338
350.746948	1172.348267	6002.544922	1227.257935	1.136800
351.113159	1182.156372	6058.494629	1219.233398	0.760346
351.479309	1187.431763	6116.748535	1208.608032	0.429598
351.845428	1184.534058	6154.494629	1205.412964	0.420102
352.211517	1182.007690	6219.063965	1205.933228	0.474990
352.577576	1180.447388	6262.455566	1208.905273	0.559973
352.943604	1185.499878	6307.260254	1213.214722	0.541120
353.309601	1188.174683	6379.854004	1220.496460	0.622569
353.675537	1190.626831	6505.797363	1229.487183	0.731121
354.041473	1197.759888	6654.923340	1227.109375	0.537816
354.407379	1202.143677	6771.875488	1223.097046	0.376201
354.773254	1201.549194	6897.298828	1217.524292	0.280474
355.139038	1199.022949	7009.050293	1213.734985	0.253218
355.504913	1197.239746	7163.822266	1212.843262	0.261515
355.870636	1194.787720	7271.933105	1217.227173	0.369243
356.236389	1198.948730	7444.463379	1214.478027	0.248647
356.602081	1194.713501	7622.791016	1214.775269	0.312096
356.967804	1198.948730	7803.420410	1210.391235	0.173254
357.333405	1193.598877	7960.571777	1217.598633	0.354660
357.699036	1196.273804	8122.476563	1223.840088	0.398000
358.064606	1194.044678	8320.418945	1226.663574	0.457721
358.430176	1186.688721	8475.934570	1221.685425	0.480114
358.795654	1184.608276	8576.020508	1221.685303	0.501623
359.161163	1183.047974	8578.546875	1220.793579	0.510386
359.526581	1183.642334	8559.748047	1221.239624	0.509717
359.892029	1186.020020	8585.753906	1217.524292	0.425749
360.257416	1189.512207	8702.186523	1215.741089	0.349128
360.622772	1200.063354	8933.491211	1212.620361	0.162373
360.988098	1201.400757	9239.989258	1214.180786	0.158983
361.353394	1191.815674	9581.633789	1212.100220	0.241776
361.718658	1180.744507	9879.364258	1220.942383	0.462118
362.083893	1173.537231	10100.191406	1217.821655	0.496092
362.449097	1185.797119	10221.454102	1221.016602	0.389783
362.814209	1193.078857	10226.135742	1221.982544	0.319977
363.179382	1198.948730	10020.463867	1222.725586	0.269533
363.544434	1195.307861	9638.399414	1226.217896	0.366099
363.909546	1200.880493	9166.280273	1218.936157	0.226676
364.274536	1200.063110	8747.881836	1213.066162	0.172276
364.639587	1208.831055	8448.368164	1202.515259	-0.087240
365.004517	1199.468872	8269.075195	1209.648315	0.143989
365.369507	1197.759888	8148.854004	1221.908325	0.347405
365.734344	1192.335815	8075.813965	1225.549072	0.482507
366.099274	1192.261475	8009.981934	1227.852417	0.522036
366.464081	1192.038452	7972.681641	1225.474731	0.493114
366.828918	1181.784668	7951.134277	1235.134033	0.788102
367.193665	1182.825073	7922.750488	1233.573730	0.752956
367.558411	1180.818848	7910.564941	1233.276489	0.779489
367.923126	1185.797241	7919.927246	1227.555298	0.620096
368.287781	1187.952026	7916.880859	1223.691528	0.531132
368.652435	1190.552612	7875.791504	1219.753540	0.436797
369.017059	1194.787720	7814.491699	1223.914429	0.440000
369.381653	1193.153076	7748.881348	1228.521118	0.539498
369.746185	1191.890015	7745.835449	1222.651245	0.469354
370.110687	1184.311035	7768.200684	1227.258057	0.652305
370.475220	1184.236816	7837.005371	1220.793823	0.549501
370.839661	1193.227539	7891.766113	1223.840210	0.457005
371.204041	1201.772339	7976.322754	1216.484253	0.217164
371.568451	1198.874390	8024.990723	1216.484253	0.257978
371.932770	1189.214966	8086.885254	1223.617310	0.498753
372.297150	1192.558594	8093.052246	1224.211670	0.458707
372.661377	1197.759766	8144.173340	1223.245728	0.366894
373.025696	1197.834106	8192.098633	1222.131226	0.347386
373.389862	1179.109863	8199.379883	1219.010376	0.568362
373.754059	1176.360718	8182.067871	1219.010376	0.608784
374.118225	1181.561890	8168.395996	1215.221069	0.481752
374.482361	1190.626831	8240.394531	1222.651245	0.454262
374.846436	1193.375977	8334.090820	1230.824585	0.524438
375.210510	1187.951904	8466.497070	1236.397339	0.665592
375.574524	1189.289429	8599.871094	1231.419067	0.568507
375.938538	1188.472046	8767.944336	1223.097290	0.456829
376.302460	1188.323364	8935.645508	1218.118896	0.384591
376.666412	1186.168579	9118.950195	1220.496582	0.432736
377.030304	1190.701050	9306.043945	1223.245605	0.401025
377.394196	1195.753662	9470.030273	1225.326172	0.357403
377.757996	1206.527588	9612.765625	1227.555176	0.250143
378.121796	1201.177734	9673.470703	1231.493286	0.357820
378.485565	1194.936401	9663.440430	1228.149780	0.392199
378.849304	1189.512329	9580.815430	1223.988770	0.410859
379.212982	1187.877563	9428.791992	1222.354004	0.418357
379.576630	1189.735229	9223.048828	1229.932983	0.500388
379.940277	1188.397705	9053.637695	1239.220825	0.646174
380.303864	1188.026123	8909.342773	1234.614014	0.603367
380.667450	1188.694824	8842.692383	1228.075317	0.514509
381.030945	1187.951782	8805.169922	1227.035156	0.513092
381.394501	1187.951782	8832.141602	1230.824585	0.560855
381.757935	1191.889893	8875.459961	1230.304443	0.499957
382.121399	1195.382202	8899.980469	1227.183716	0.412760
382.484741	1197.982910	8974.505859	1222.577026	0.316261
382.848145	1193.599121	9036.028320	1228.967041	0.450982
383.211487	1186.094360	9134.776367	1222.651245	0.459911
383.574768	1184.385376	9203.135742	1228.966919	0.555966
383.938019	1187.654663	9289.028320	1229.561401	0.517279
384.301270	1198.354370	9399.517578	1243.010254	0.544507
384.664459	1197.462769	9508.371094	1240.632690	0.519437
385.027649	1192.484375	9596.271484	1230.898926	0.457110
385.390778	1181.859009	9648.357422	1221.313843	0.466011
385.753876	1186.837280	9694.870117	1221.536743	0.407844
386.116943	1190.626831	9712.554688	1226.960815	0.426359
386.479980	1198.205688	9737.074219	1228.892578	0.359379
386.842987	1194.787720	9771.700195	1238.774902	0.512856
387.205994	1193.078735	9857.073242	1244.198975	0.590031
387.568909	1191.221313	9908.192383	1244.719116	0.613720
387.931793	1193.227417	9943.933594	1232.310669	0.446630
388.294678	1189.809448	10001.591797	1230.898926	0.466302
388.657471	1189.215088	10035.918945	1234.985596	0.517374
389.020294	1190.701172	10033.987305	1241.747070	0.577228
389.383057	1198.874390	10029.306641	1234.762573	0.406415
389.745819	1197.982788	10065.416992	1227.926758	0.337685
390.108521	1198.279907	10107.696289	1233.722290	0.397808
390.471191	1195.605103	10199.163086	1242.415894	0.519914
390.833801	1193.524536	10306.084961	1244.867798	0.563434
391.196442	1189.958008	10504.993164	1243.158813	0.571128
391.558960	1190.255371	10664.372070	1249.325928	0.623494
391.921509	1194.639160	10865.584961	1248.954468	0.561634
392.284027	1190.106812	11050.671875	1247.394165	0.580974
392.646484	1188.546265	11194.968750	1250.217651	0.616318
393.008911	1185.499878	11215.699219	1257.870850	0.721531
393.371307	1189.066406	11170.597656	1262.700562	0.737704
393.733673	1188.249146	11094.808594	1262.774780	0.752286
394.096008	1191.369873	11033.583008	1261.734497	0.714927
394.458344	1188.843628	11014.932617	1271.765503	0.843895
394.820587	1188.546265	11007.206055	1281.201782	0.943668
395.182831	1186.614380	11037.000000	1290.489624	1.054530
395.545013	1192.855957	10994.351563	1288.631958	0.977157
395.907196	1199.023071	10902.364258	1302.452515	1.065916
396.269287	1196.794067	10754.798828	1319.319214	1.281911
396.631409	1195.159302	10609.537109	1338.489136	1.522457
396.993469	1195.010742	10431.507813	1357.956421	1.764150
397.355530	1194.936401	10301.106445	1371.405273	1.937904
397.717499	1194.341919	10248.424805	1405.881836	2.336404
398.079468	1192.112793	10239.955078	1423.714478	2.559745
398.441376	1185.945679	10246.493164	1460.865723	3.034254
398.803284	1188.100464	10236.833984	1488.283569	3.317405
399.165131	1191.964233	10271.161133	1526.177856	3.681092
399.526978	1202.738159	10269.601563	1570.239380	4.053235
399.888763	1201.549194	10272.946289	1622.399902	4.639315
400.250519	1199.468750	10283.050781	1680.207520	5.292392
400.612244	1201.252075	10300.215820	1741.358521	5.935912
400.973938	1197.016724	10277.478516	1804.218750	6.686907
401.335602	1193.376099	10284.684570	1869.159180	7.433287
401.697205	1185.054199	10340.709961	1937.963501	8.223433
402.058807	1186.242798	10426.899414	2024.451782	9.070882
402.420349	1189.958130	10573.499023	2116.810303	9.877424
402.781860	1194.044800	10686.663086	2217.267334	10.779140
403.143341	1192.187256	10848.494141	2326.046631	11.742164
403.504822	1187.431763	10988.703125	2450.726563	12.889091
403.866241	1188.472046	11187.909180	2580.905029	13.925113
404.227631	1191.666992	11357.468750	2702.835938	14.865221
404.588959	1195.976563	11535.942383	2839.998291	15.899682
404.950287	1191.890015	11699.706055	2980.356201	17.020342
405.311554	1195.010742	11819.631836	3117.742188	18.096941
405.672821	1192.633057	11872.460938	3238.632568	19.157608
406.034027	1193.896118	11839.618164	3361.083740	20.357357
406.395203	1188.100464	11738.343750	3461.020752	21.543774
406.756348	1187.060303	11666.492188	3573.143799	22.769207
407.117493	1186.985962	11611.063477	3681.774170	23.932940
407.478516	1193.078857	11608.610352	3813.958984	25.163193
407.839600	1197.536987	11581.268555	3941.313721	26.423803
408.200592	1196.050903	11564.996094	4062.129639	27.640985
408.561554	1195.233521	11554.593750	4178.859375	28.801256
408.922485	1191.666870	11549.465820	4302.573730	30.034439
409.283417	1191.592651	11541.515625	4434.386230	31.331572
409.644257	1192.632935	11609.799805	4563.821777	32.361858
410.005096	1203.332520	11742.429688	4717.702637	33.346024
410.365906	1208.682373	11899.358398	4868.239746	34.231300
410.726715	1210.465698	12006.278320	5037.724609	35.451328
411.087433	1208.831055	12067.281250	5154.603027	36.338261
411.448120	1208.162231	12140.247070	5285.226563	37.294483
411.808807	1200.732056	12182.301758	5385.238281	38.104813
412.169434	1184.311035	12140.469727	5473.138184	39.145355
412.530029	1181.338989	12081.399414	5562.970703	40.198235
412.890564	1184.162476	12054.799805	5656.740234	41.143654
413.251099	1192.558716	12071.887695	5755.562988	41.941963
413.611572	1192.558716	12107.479492	5834.472656	42.528152
413.972076	1194.564819	12149.833008	5948.601563	43.394981
414.332489	1200.137573	12209.200195	6061.318848	44.156178
414.692871	1201.920776	12337.893555	6206.729004	44.942711
415.053223	1198.948608	12465.247070	6330.889160	45.551254
415.413574	1198.725708	12683.473633	6501.488281	46.172215
415.773834	1197.685547	12865.292969	6639.170410	46.637539
416.134094	1192.335815	13081.588867	6784.432129	47.034882
416.494263	1188.472046	13239.926758	6917.062988	47.534431
416.854462	1188.174927	13507.268555	7136.107910	48.282230
417.214630	1195.605103	13818.596680	7357.826660	48.817444
417.574738	1190.403809	14173.762695	7611.719238	49.458042
417.934784	1189.363525	14516.002930	7822.441406	49.773075
418.294861	1185.054077	14929.497070	8086.142090	50.210022
418.654846	1188.174805	15428.960938	8350.808594	50.296619
419.014832	1190.255371	15937.636719	8639.846680	50.514675
419.374756	1188.472046	16431.822266	8959.942383	50.982689
419.734680	1188.694946	16990.283203	9276.545898	51.183788
420.094543	1183.419434	17514.341797	9635.353516	51.754173
420.454376	1187.729004	18040.255859	9937.468750	51.919453
420.814148	1188.323486	18518.912109	10275.100586	52.432022
421.173920	1204.595703	19014.585938	10583.679688	52.661926
421.533691	1204.744263	19527.572266	10902.883789	52.929272
421.893341	1200.360474	19903.619141	11132.777344	53.105278
422.253021	1187.729004	20212.568359	11320.911133	53.262901
422.612640	1196.422485	20301.064453	11393.950195	53.377220
422.972260	1201.252075	20285.236328	11433.777344	53.618393
423.331757	1200.063232	20210.414063	11420.921875	53.764698
423.691315	1196.645386	20206.548828	11454.582031	53.961010
424.050781	1201.549316	20305.669922	11532.524414	54.077206
424.410248	1207.270630	20346.462891	11594.047852	54.269676
424.769653	1198.948730	20416.531250	11655.867188	54.413288
425.128998	1195.605103	20401.224609	11680.981445	54.595356
425.488373	1191.072632	20334.798828	11664.559570	54.709763
425.847656	1194.639160	20130.244141	11584.758789	54.870804
426.206940	1187.506104	19901.242188	11500.203125	55.107635
426.566193	1189.512207	19540.873047	11302.856445	55.109501
426.925385	1199.988892	19176.195313	11127.129883	55.223778
427.284576	1203.852661	18657.115234	10841.436523	55.219387
427.643677	1202.515259	18250.234375	10652.855469	55.434631
428.002777	1193.152954	17832.429688	10459.593750	55.690163
428.361847	1188.992188	17443.232422	10266.332031	55.845982
428.720856	1184.979858	17095.494141	10083.399414	55.927921
429.079865	1183.716675	16822.656250	9945.418945	56.024914
429.438812	1191.815552	16654.509766	9851.649414	56.004688
429.797760	1191.518433	16509.173828	9795.179688	56.168266
430.156616	1190.329590	16319.776367	9698.510742	56.235905
430.515503	1182.527832	16159.207031	9660.393555	56.607109
430.874268	1183.567993	16085.350586	9633.050781	56.701153
431.233093	1183.419434	16079.703125	9637.806641	56.755009
431.591827	1187.729004	16148.433594	9667.825195	56.682461
431.950562	1188.917847	16167.975586	9692.344727	56.768768
432.309204	1186.168579	16250.823242	9740.641602	56.785057
432.667877	1187.357422	16371.192383	9792.801758	56.675037
433.026459	1193.227417	16552.640625	9888.875000	56.614452
433.385010	1203.852661	16651.685547	9946.980469	56.597763
433.743561	1203.704102	16776.513672	10053.901367	56.831089
434.102051	1198.354370	16928.685547	10151.014648	56.913361
434.460510	1192.038574	17123.431641	10286.616211	57.085896
434.818939	1188.100586	17222.255859	10320.276367	56.954517
435.177338	1192.781616	17219.804688	10341.972656	57.086029
435.535675	1188.694824	17169.054688	10310.394531	57.080688
435.894012	1190.181030	17084.052734	10307.942383	57.366524
436.252289	1190.998169	17089.253906	10332.313477	57.498856
436.610535	1192.855835	17046.603516	10333.206055	57.654194
436.968719	1195.010742	17179.531250	10402.530273	57.602726
437.326935	1196.273926	17294.255859	10479.284180	57.665672
437.685028	1198.948730	17493.611328	10592.818359	57.649979
438.043152	1199.691772	17632.035156	10685.697266	57.727650
438.401215	1194.639160	17856.056641	10812.680664	57.726425
438.759277	1190.106689	18091.375000	10944.493164	57.713936
439.117249	1190.106689	18508.064453	11178.175781	57.674641
439.475250	1195.382202	18822.884766	11365.269531	57.693302
439.833130	1197.239746	19234.820313	11595.683594	57.648773
440.191071	1198.354248	19455.275391	11731.359375	57.693214
440.548889	1201.326294	19750.035156	11895.866211	57.656521
440.906708	1204.595703	20056.533203	12075.975586	57.667175
441.264496	1197.834106	20304.259766	12219.453125	57.685406
441.622223	1184.756836	20479.093750	12341.309570	57.822941
441.979950	1186.168579	20496.033203	12379.872070	57.968830
442.337616	1188.620605	20552.876953	12406.844727	57.932640
442.695251	1194.564941	20461.855469	12342.871094	57.861309
443.052887	1194.341919	20345.498047	12266.041992	57.812176
443.410461	1194.119019	20174.898438	12192.481445	57.944736
443.768005	1192.707153	20045.314453	12138.389648	58.059250
444.125458	1192.707275	19934.529297	12068.692383	58.030563
444.482941	1198.948608	19915.431641	12054.500977	57.999962
444.840393	1205.635986	19999.246094	12110.526367	58.024460
445.197754	1202.589478	20241.400391	12274.958008	58.156826
445.555084	1202.515259	20518.919922	12464.652344	58.303486
445.912415	1202.589478	20900.537109	12691.276367	58.324284
446.269714	1200.954956	21174.640625	12873.911133	58.441673
446.626953	1195.085083	21490.650391	13065.166992	58.486088
446.984161	1198.057007	21761.630859	13212.286133	58.424812
447.341309	1198.354370	22002.224609	13354.428711	58.431789
447.698456	1195.456421	22144.365234	13467.739258	58.581970
448.055542	1187.134521	22287.546875	13549.026367	58.586021
448.412598	1185.871460	22262.431641	13556.531250	58.693924
448.769653	1188.100464	22143.474609	13482.971680	58.671684
449.126617	1188.472046	21778.425781	13312.223633	58.881882
449.483582	1195.902222	21506.253906	13145.562500	58.835320
449.840515	1197.462646	21158.515625	12958.914063	58.921997
450.197388	1192.335693	20900.759766	12799.906250	58.896492
450.554230	1194.119019	20661.876953	12689.195313	59.046738
450.911041	1196.348145	20464.232422	12570.385742	59.031063
451.267822	1201.846436	20283.304688	12481.964844	59.115597
451.624573	1195.307739	20069.164063	12343.167969	59.065094
451.981262	1194.861938	19927.025391	12230.375977	58.912113
452.337921	1188.694946	19749.365234	12131.034180	58.954441
452.694580	1186.985962	19615.027344	12078.057617	59.100536
453.051147	1184.756958	19566.656250	12069.957031	59.216953
453.407715	1181.561890	19469.689453	12006.354492	59.190277
453.764221	1179.035522	19502.904297	12018.687500	59.155914
454.120728	1182.899292	19252.427734	11907.531250	59.352028
454.477142	1186.465942	19210.894531	11901.364258	59.446537
454.833557	1187.134521	19020.753906	11809.750000	59.565113
455.189911	1184.682495	18877.126953	11750.901367	59.721642
455.546265	1185.425659	18629.697266	11646.729492	59.969852
455.902557	1190.701050	18450.779297	11529.254883	59.898651
456.258820	1192.038452	18419.498047	11485.862305	59.752422
456.615051	1198.577271	18497.513672	11495.893555	59.525723
456.971252	1197.314087	18513.041016	11524.203125	59.638783
457.327393	1197.239746	18744.939453	11681.278320	59.745949
457.683502	1197.314087	18999.947266	11861.241211	59.900841
458.039612	1199.468750	19491.087891	12150.129883	59.867096
458.395630	1192.038452	19929.253906	12416.801758	59.906254
458.751648	1187.431763	20402.785156	12711.708008	59.974312
459.107605	1184.756836	21065.044922	13095.557617	59.912613
459.463562	1181.710449	21724.853516	13480.668945	59.868927
459.819458	1187.431763	22339.039063	13841.780273	59.826889
460.175323	1186.688843	22813.833984	14140.030273	59.893906
460.531158	1194.267578	23304.009766	14435.382813	59.888149
460.886932	1187.951904	23619.498047	14620.768555	59.883595
461.242676	1183.939575	23773.601563	14719.815430	59.920666
461.598419	1186.020020	23607.091797	14642.317383	60.016296
461.954102	1188.917847	23261.359375	14457.972656	60.115936
462.309723	1195.456543	22688.708984	14107.338867	60.074123
462.665344	1201.177734	22049.775391	13734.708008	60.116898
463.020905	1204.447144	21456.396484	13400.421875	60.221237
463.376373	1201.623657	20965.033203	13151.656250	60.465435
463.731873	1192.484253	20546.187500	12922.432617	60.608288
464.087341	1183.270752	20269.412109	12726.644531	60.480400
464.442749	1184.162476	20066.416016	12620.093750	60.564442
464.798126	1187.060181	19931.109375	12579.823242	60.780693
465.153503	1189.363647	19974.279297	12620.762695	60.854141
465.508820	1185.351196	20038.849609	12654.867188	60.834946
465.864105	1184.311157	20240.431641	12720.551758	60.538239
466.219330	1187.283203	20501.087891	12877.403320	60.527279
466.574524	1193.078857	20703.708984	12987.075195	60.449078
466.929657	1191.072632	20853.578125	13092.288086	60.527462
467.284790	1191.221191	20993.492188	13201.438477	60.650703
467.639893	1192.187134	21143.509766	13314.676758	60.760330
467.994934	1197.834229	21294.865234	13415.356445	60.792671
468.349945	1197.685547	21318.044922	13460.309570	60.946346
468.704926	1198.874390	21277.921875	13448.049805	61.004768
469.059875	1200.880493	21083.470703	13339.122070	61.049599
469.414764	1200.731812	20864.724609	13189.698242	60.969139
469.769653	1194.044556	20672.429688	13085.004883	61.046951
470.124451	1189.289185	20564.466797	13026.084961	61.092579
470.479248	1186.837280	20408.431641	12919.385742	61.038376
470.834015	1187.431763	20284.123047	12847.535156	61.058239
471.188721	1192.632935	20325.955078	12857.194336	60.964642
471.543365	1196.050903	20419.949219	12918.940430	60.980812
471.898010	1204.670044	20584.455078	12981.799805	60.770176
472.252625	1196.273804	20746.210938	13087.606445	60.825428
472.607178	1196.199585	21004.337891	13258.131836	60.893822
472.961700	1190.255249	21198.267578	13419.815430	61.123318
473.316193	1200.360474	21427.419922	13582.018555	61.213341
473.670654	1204.372681	21546.673828	13653.051758	61.196022
474.025055	1206.007446	21781.841797	13776.690430	61.094402
474.379456	1196.496704	21943.154297	13883.538086	61.152214
474.733795	1189.066528	22133.888672	14001.381836	61.171757
475.088104	1184.236694	22259.681641	14095.747070	61.263287
475.442383	1191.592773	22292.154297	14135.200195	61.342476
475.796570	1193.375977	22403.533203	14196.128906	61.304371
476.150787	1197.834106	22598.650391	14313.156250	61.284214
476.504944	1189.809448	22869.857422	14468.374023	61.247852
476.859070	1186.391602	23143.068359	14659.257813	61.361137
477.213135	1183.939575	23397.851563	14812.247070	61.350327
477.567200	1187.357544	23878.367188	15071.266602	61.186829
477.921173	1194.044800	24267.937500	15298.632813	61.127907
478.275146	1197.982788	24781.220703	15611.223633	61.116463
478.629089	1201.177856	25065.281250	15831.382813	61.306328
478.983002	1198.800171	25522.615234	16139.739258	61.425148
479.336823	1199.914673	25902.375000	16397.345703	61.521931
479.690643	1198.131348	26434.603516	16675.091797	61.327751
480.044403	1201.029175	26999.603516	16993.179688	61.213268
480.398163	1199.989014	27726.062500	17431.492188	61.190746
480.751862	1200.434814	28640.357422	18042.185547	61.376816
481.105499	1198.205688	29801.708984	18780.087891	61.467583
481.459137	1191.666992	31363.029297	19746.914063	61.499527
481.812744	1182.453369	33313.847656	20953.070313	61.530529
482.166290	1185.722778	35658.246094	22431.322266	61.630531
482.519806	1196.645386	38424.316406	24203.515625	61.800457
482.873291	1201.920898	41492.273438	26139.474609	61.894608
483.226715	1197.239746	44907.968750	28295.960938	61.995579
483.580139	1193.673218	48077.050781	30403.187500	62.302494
483.933502	1194.490601	50999.972656	32475.193359	62.805744
484.286804	1197.239746	53370.605469	34406.394531	63.651550
484.640106	1193.896118	55267.406250	36109.562500	64.570740
484.993347	1198.354370	56492.355469	37426.503906	65.519135
485.346558	1200.211792	56989.519531	38025.906250	66.008514
485.699738	1200.583374	56829.097656	37914.894531	65.999084
486.052887	1196.199463	56130.207031	37223.953125	65.583694
486.405975	1193.004517	55109.812500	36243.750000	65.008942
486.759064	1187.877563	53815.156250	35068.953125	64.379303
487.112061	1194.416138	52516.050781	33853.363281	63.635830
487.464996	1192.410034	51351.128906	32874.871094	63.164413
487.817963	1194.861938	50636.113281	32265.212891	62.842972
488.170868	1187.877563	50270.546875	31942.515625	62.658855
488.523743	1191.666992	50230.718750	31800.896484	62.418072
488.876587	1194.936401	50122.832031	31670.419922	62.286522
489.229401	1200.434692	49862.031250	31503.240234	62.272522
489.582153	1198.800171	49301.718750	31201.349609	62.371578
489.934845	1198.651489	48574.667969	30743.421875	62.362293
490.287537	1201.623657	47780.738281	30231.697266	62.324230
490.640198	1201.029175	47069.582031	29688.248047	62.106205
490.992798	1200.360474	46402.125000	29210.927734	61.967857
491.345337	1192.261353	45962.769531	28898.781250	61.885651
491.697876	1193.301758	45570.453125	28620.591797	61.804977
492.050354	1192.632935	45538.277344	28594.583984	61.791752
492.402832	1192.261353	45469.105469	28503.638672	61.683205
492.755219	1189.586548	45234.824219	28411.650391	61.804783
493.107605	1188.694946	44622.203125	28028.546875	61.795265
493.459930	1188.769165	43617.703125	27447.427734	61.888565
493.812225	1191.444214	42237.976563	26577.859375	61.847897
494.164490	1191.221313	40533.246094	25528.037109	61.859596
494.516724	1186.763062	38682.589844	24355.021484	61.788895
494.868896	1185.202637	36854.890625	23174.052734	61.645760
495.221039	1185.425537	35276.035156	22175.275391	61.570766
495.573120	1197.239746	33902.472656	21330.230469	61.558926
495.925201	1201.623657	33037.886719	20771.177734	61.469383
496.277222	1210.614258	32479.724609	20372.691406	61.281178
496.629211	1198.874390	32256.744141	20196.222656	61.167583
496.981140	1195.902344	32131.171875	20115.009766	61.157078
497.333069	1187.134521	32124.187500	20128.607422	61.225849
497.684967	1187.803223	32122.923828	20146.513672	61.285393
498.036804	1193.673218	32135.705078	20144.210938	61.245293
498.388580	1196.868286	32045.203125	20071.171875	61.184189
498.740326	1201.400757	31906.554688	19967.146484	61.115948
499.092072	1199.245972	31611.943359	19810.740234	61.196461
499.443756	1193.598877	31315.845703	19648.314453	61.266064
499.795410	1187.729004	30982.748047	19471.994141	61.366852
500.147003	1179.258423	30663.843750	19295.896484	61.444439
500.498566	1181.636108	30249.455078	19030.041016	61.402626
500.850098	1186.614380	29835.218750	18777.041016	61.400639
501.201599	1186.391602	29451.666016	18524.187500	61.339569
501.553009	1188.323364	29125.328125	18342.666016	61.403656
501.904449	1189.363647	28922.111328	18206.841797	61.362396
502.255859	1198.502808	28717.037109	18106.013672	61.440449
502.607178	1197.611206	28630.322266	18074.062500	61.519444
502.958405	1205.115845	28489.296875	17971.523438	61.451019
503.309692	1200.286133	28425.025391	17875.003906	61.248409
503.660919	1197.611206	28373.830078	17833.841797	61.216133
504.012115	1182.602173	28383.865234	17839.339844	61.235165
504.363251	1181.190308	28437.806641	17897.742188	61.330254
504.714294	1183.865234	28488.630859	17901.976563	61.227814
505.065369	1194.267700	28519.984375	17902.869141	61.146069
505.416443	1195.233521	28518.201172	17901.978516	61.145424
505.767395	1195.084961	28519.759766	17927.611328	61.235958
506.118317	1186.985962	28456.900391	17928.056641	61.390259
506.469238	1189.066406	28489.296875	17942.025391	61.365631
506.820160	1190.106689	28490.486328	17896.626953	61.195194
507.170929	1195.382202	28570.585938	17917.431641	61.084656
507.521729	1183.790894	28589.533203	17966.623047	61.238377
507.872498	1184.905396	28690.880859	18049.619141	61.312908
508.223236	1190.106567	28860.587891	18186.111328	61.422871
508.573883	1201.995117	29079.412109	18300.462891	61.334476
508.924500	1200.731934	29276.609375	18406.195313	61.282013
509.275116	1197.685547	29428.412109	18504.052734	61.303299
509.625702	1192.707153	29622.859375	18592.769531	61.202847
509.976196	1188.397705	29880.990234	18740.482422	61.172878
510.326660	1184.236816	30155.166016	18922.599609	61.228146
510.677124	1185.796997	30384.611328	19102.337891	61.360508
511.027557	1195.159302	30530.244141	19260.232422	61.581799
511.377869	1197.091064	30751.740234	19343.376953	61.399090
511.728180	1198.205688	30929.619141	19430.011719	61.321693
512.078430	1190.701050	31087.142578	19445.244141	61.059250
512.428650	1189.660889	31187.525391	19482.693359	60.981117
512.778931	1183.642456	31262.275391	19534.705078	61.010296
513.129028	1182.676392	31323.724609	19577.355469	61.028664
513.479126	1184.905518	31350.994141	19599.720703	61.044754
513.829285	1195.605103	31277.210938	19544.810547	60.998093
514.179382	1199.543091	31193.992188	19509.664063	61.045033
514.529297	1202.663818	31083.650391	19464.041016	61.113701
514.879272	1198.502930	31123.103516	19509.962891	61.191998
515.229187	1198.800171	31026.658203	19500.898438	61.359077
515.579163	1191.741333	31075.552734	19531.958984	61.371746
515.928955	1193.227417	31058.388672	19481.283203	61.235416
516.278748	1196.645386	31310.794922	19608.488281	61.140175
516.628540	1200.880493	31580.365234	19757.689453	61.083355
516.978333	1204.521362	32052.337891	20019.382813	60.992523
517.327942	1192.038574	32556.851563	20297.794922	60.914619
517.677612	1196.199585	33111.820313	20616.033203	60.847427
518.027222	1189.289429	33628.222656	20980.337891	61.010170
518.376831	1197.239746	34249.613281	21357.203125	60.993992
518.726379	1193.301636	34762.527344	21694.091797	61.070190
519.075867	1192.261475	35272.394531	21966.857422	60.958084
519.425293	1190.626831	35616.785156	22214.953125	61.070786
519.774658	1181.710449	35901.515625	22404.945313	61.127171
520.124084	1182.602051	36011.929688	22502.650391	61.212921
520.473389	1179.555542	35945.429688	22450.865234	61.184452
520.822693	1181.115967	35679.722656	22284.648438	61.172134
521.171997	1186.911621	35323.218750	22041.158203	61.091099
521.521240	1195.902344	34904.964844	21781.173828	61.067471
521.870361	1203.332642	34518.144531	21577.806641	61.157406
522.219482	1195.084839	34135.933594	21381.126953	61.279671
522.568604	1187.877563	33831.371094	21184.224609	61.256763
522.917664	1190.255249	33665.671875	21006.716797	61.019882
523.266724	1198.057129	33716.941406	20983.757813	60.843727
523.615662	1200.657593	33896.085938	21110.890625	60.896076
523.964600	1196.496704	34255.566406	21369.759766	61.021873
524.313538	1199.171631	34748.933594	21721.208984	61.168949
524.662354	1198.279907	35397.152344	22113.380859	61.157288
525.011169	1194.639160	36269.089844	22587.431641	60.992527
525.359985	1184.608276	37217.566406	23159.490234	60.985512
525.708740	1185.351196	38407.000000	23860.982422	60.920544
526.057434	1190.552490	39685.007813	24659.365234	60.966732
526.406067	1196.571045	41259.406250	25597.583984	60.906857
526.754700	1196.868164	43039.777344	26723.343750	61.005501
527.103333	1196.348145	45008.730469	28038.281250	61.265633
527.451782	1191.741333	47108.968750	29442.232422	61.524818
527.800293	1186.020020	49143.449219	30826.789063	61.806419
528.148743	1185.648438	51076.285156	32211.494141	62.187714
528.497131	1183.642456	52769.937500	33440.011719	62.528950
528.845642	1185.425659	54124.480469	34508.191406	62.945526
529.193909	1183.270874	55173.707031	35443.808594	63.456680
529.542175	1185.574219	55840.425781	36141.437500	63.957474
529.890503	1188.026245	56193.957031	36570.832031	64.325439
530.238770	1193.227417	56118.988281	36567.046875	64.402969
530.586914	1200.732056	55699.769531	36238.625000	64.290848
530.934998	1196.868286	54910.300781	35529.847656	63.918797
531.283142	1189.437988	53879.355469	34647.730469	63.500370
531.631226	1186.763184	52532.468750	33507.628906	62.947552
531.979248	1187.208984	50958.511719	32311.281250	62.534168
532.327148	1187.134644	49316.050781	31030.822266	62.007809
532.675110	1184.831177	47841.218750	29959.599609	61.673801
533.023071	1187.357544	46835.386719	29204.685547	61.376865
533.370850	1189.958130	46185.750000	28735.087891	61.217121
533.718689	1194.713501	46025.703125	28564.193359	61.050362
534.066467	1200.360474	46054.015625	28541.234375	60.955730
534.414246	1200.063354	46149.640625	28523.251953	60.786308
534.761963	1198.651489	46113.675781	28494.794922	60.772858
535.109619	1201.920776	45973.843750	28369.076172	60.679005
535.457153	1204.447144	45632.792969	28154.712891	60.660069
535.804749	1205.487183	45094.843750	27820.869141	60.641998
536.152344	1195.010620	44276.027344	27352.615234	60.717243
536.499817	1192.484375	43374.066406	26794.007813	60.693607
536.847229	1185.648560	42300.464844	26132.787109	60.676762
537.194641	1187.952026	41343.593750	25476.916016	60.487057
537.542114	1188.620605	40532.503906	24964.228516	60.430252
537.889404	1189.735229	39933.332031	24506.302734	60.181732
538.236694	1188.992065	39428.292969	24199.654297	60.175426
538.583984	1186.094360	39068.296875	23982.242188	60.176407
538.931213	1179.184204	38948.746094	23998.367188	60.416859
539.278381	1182.825073	38930.687500	24007.953125	60.467339
539.625488	1182.081909	39066.886719	24091.619141	60.471573
539.972595	1193.376099	39317.511719	24244.607422	60.463612
540.319641	1188.992065	39846.621094	24540.185547	60.405136
540.666687	1196.868286	40537.261719	24976.562500	60.445995
541.013611	1189.735229	41506.464844	25531.156250	60.375484
541.360596	1189.437988	42589.425781	26183.908203	60.373135
541.707458	1188.249146	43753.675781	26881.164063	60.360992
542.054260	1199.691772	44811.082031	27490.298828	60.283810
542.401062	1205.710327	45728.425781	28044.671875	60.281502
542.747864	1199.543091	46354.277344	28398.572266	60.235165
543.094666	1192.261353	46542.332031	28555.279297	60.337322
543.441284	1189.066406	46243.859375	28395.974609	60.386269
543.787903	1187.357544	45619.488281	28004.470703	60.355228
544.134460	1189.586548	44665.519531	27383.599609	60.249458
544.481079	1187.580444	43511.230469	26677.869141	60.227058
544.827637	1194.787720	42058.535156	25783.638672	60.172779
545.174072	1190.998413	40494.460938	24806.037109	60.083866
545.520508	1193.078735	38985.968750	23823.087891	59.879013
545.866943	1192.409912	37707.222656	23021.509766	59.781490
546.213318	1193.896118	36684.371094	22415.791016	59.796024
546.559631	1195.679443	35888.066406	21901.765625	59.684811
546.905823	1198.577271	35163.761719	21452.533203	59.631519
547.252136	1196.348145	34579.667969	21063.185547	59.511269
547.598389	1194.713501	34016.003906	20750.519531	59.582687
547.944458	1192.038574	33575.019531	20461.259766	59.504162
548.290588	1192.410156	32968.562500	20120.583984	59.567230
548.636658	1198.428589	32392.642578	19765.712891	59.521564
548.982727	1194.713501	31723.025391	19395.611328	59.619732
549.328735	1198.131348	31159.960938	19029.669922	59.514187
549.674622	1185.202637	30452.970703	18605.921875	59.521858
550.020569	1182.453491	29748.876953	18215.609375	59.626492
550.366455	1180.521606	28950.421875	17773.134766	59.750351
550.712280	1184.905396	28276.271484	17363.876953	59.720032
551.058044	1188.100586	27702.802734	16986.419922	59.583241
551.403748	1184.088257	27268.947266	16709.197266	59.517704
551.749512	1186.985962	26932.880859	16522.548828	59.565079
552.095154	1187.283203	26684.412109	16350.907227	59.471889
552.440735	1191.072632	26570.947266	16284.778320	59.471161
552.786316	1190.923950	26496.273438	16224.890625	59.410233
553.131897	1197.239868	26473.908203	16202.450195	59.363876
553.477417	1195.382202	26453.400391	16164.333008	59.264156
553.822815	1200.806274	26416.919922	16150.663086	59.286919
554.168213	1194.416382	26381.849609	16116.409180	59.243801
554.513672	1187.506104	26271.955078	16059.418945	59.287380
554.859009	1181.116089	26126.250000	15967.655273	59.276245
555.204285	1182.379272	25918.500000	15889.710938	59.456905
555.549500	1196.496704	25726.130859	15753.811523	59.345825
555.894714	1199.766113	25533.460938	15608.698242	59.213905
556.239990	1201.400757	25317.984375	15417.442383	58.947163
556.585022	1208.905396	25047.593750	15276.492188	59.011581
556.930115	1201.623657	24765.615234	15117.781250	59.056873
557.275146	1191.444092	24438.388672	14966.426758	59.255020
557.620178	1181.859009	24240.593750	14828.222656	59.180885
557.965149	1186.317139	24020.507813	14710.304688	59.226917
558.310059	1196.719604	23873.017578	14608.359375	59.143864
558.654968	1191.889771	23698.927734	14506.863281	59.159157
558.999756	1191.815552	23586.208984	14450.245117	59.204239
559.344604	1185.945679	23539.177734	14415.024414	59.181950
559.689331	1188.546265	23461.603516	14368.363281	59.173817
560.033997	1188.917847	23393.990234	14303.273438	59.060181
560.378723	1196.273804	23334.099609	14278.159180	59.092911
560.723389	1196.199585	23307.796875	14261.812500	59.089413
561.067932	1196.570923	23311.068359	14255.793945	59.052765
561.412476	1203.926880	23239.884766	14207.200195	59.009342
561.757019	1199.988892	23193.669922	14151.622070	58.887970
562.101501	1197.314087	23184.009766	14122.049805	58.784348
562.445862	1190.552490	23197.755859	14088.390625	58.607346
562.790222	1199.097290	23224.505859	14074.867188	58.458710
563.134644	1195.233521	23211.054688	14075.090820	58.502735
563.478943	1193.821777	23241.443359	14085.122070	58.470257
563.823181	1181.784668	23236.539063	14102.656250	58.585423
564.167358	1187.060181	23265.814453	14125.096680	58.599483
564.511536	1176.509277	23339.302734	14155.336914	58.561337
564.855774	1180.670288	23410.781250	14170.124023	58.431801
565.199768	1179.630005	23524.912109	14203.782227	58.285919
565.543823	1187.060181	23615.484375	14248.661133	58.236820
565.887817	1195.084961	23824.052734	14357.737305	58.167267
566.231812	1205.710205	24010.328125	14447.942383	58.068207
566.575745	1212.694702	24150.759766	14513.847656	57.987251
566.919617	1207.790771	24251.515625	14575.222656	58.008987
567.263428	1200.806274	24326.859375	14624.708008	58.046661
567.607239	1191.741333	24455.255859	14700.347656	58.067783
567.950989	1197.016846	24462.166016	14715.579102	58.106495
568.294678	1193.598999	24469.818359	14728.804688	58.150364
568.638367	1195.753662	24435.640625	14704.136719	58.125854
568.981995	1192.484375	24397.818359	14690.985352	58.169819
569.325623	1190.701050	24279.900391	14633.327148	58.220409
569.669128	1198.057007	24107.218750	14555.085938	58.304314
570.012573	1197.462646	23969.984375	14441.922852	58.159832
570.356140	1203.629761	23908.384766	14393.848633	58.094521
570.699524	1198.651489	23881.265625	14328.983398	57.887211
571.042908	1195.456543	23911.134766	14376.610352	58.026684
571.386230	1188.620605	23980.757813	14377.428711	57.865608
571.729492	1189.883789	24080.322266	14454.406250	57.947876
572.072815	1195.530762	24155.367188	14500.175781	57.947472
572.416016	1193.152954	24237.398438	14527.073242	57.862251
572.759094	1195.902344	24339.044922	14588.448242	57.868313
573.102234	1186.317261	24462.166016	14561.031250	57.461765
573.445374	1191.667114	24532.751953	14605.315430	57.467976
573.788391	1177.772461	24543.898438	14574.776367	57.335155
574.131409	1179.184204	24545.458984	14586.367188	57.378345
574.474365	1177.846680	24530.375000	14580.497070	57.392719
574.817261	1181.041748	24462.462891	14554.342773	57.441940
575.160156	1187.729004	24293.201172	14461.835938	57.450058
575.502930	1187.951782	24065.537109	14321.403320	57.407505
575.845703	1186.168579	23866.851563	14166.334961	57.230049
576.188477	1193.895996	23668.685547	14033.332031	57.128170
576.531250	1200.954956	23447.708984	13883.684570	57.009350
576.873901	1204.892944	23158.671875	13728.170898	57.043839
577.216431	1192.855835	22908.865234	13589.745117	57.086407
577.559082	1191.072632	22646.353516	13422.711914	57.009926
577.901611	1200.434692	22346.171875	13255.085938	57.007481
578.244080	1202.217896	21991.822266	13055.433594	57.015114
578.586487	1198.131348	21639.181641	12842.036133	56.963337
578.928955	1203.035400	21287.060547	12651.895508	57.004810
579.271301	1211.357300	20994.158203	12477.135742	56.947338
579.613647	1215.443848	20660.019531	12315.304688	57.084614
579.955872	1208.756714	20338.064453	12119.367188	57.036095
580.298157	1203.629761	20019.380859	11935.839844	57.038433
580.640320	1206.081787	19760.361328	11769.550781	56.932789
580.982483	1205.487305	19584.710938	11660.698242	56.886036
581.324524	1207.122070	19360.613281	11531.484375	56.872597
581.666626	1198.800171	19215.427734	11455.250000	56.927692
582.008728	1196.719727	19068.603516	11361.703125	56.876957
582.350647	1194.341919	18970.375000	11315.188477	56.935349
582.692566	1196.719727	18852.755859	11252.625977	56.954498
583.034424	1182.750732	18738.328125	11200.987305	57.065830
583.376343	1178.664185	18652.955078	11130.175781	56.949444
583.718201	1178.218262	18593.289063	11075.786133	56.833351
584.059937	1193.747681	18539.345703	11023.106445	56.667740
584.401611	1190.924194	18410.208984	10973.992188	56.814602
584.743347	1187.803345	18320.970703	10915.070313	56.774479
585.085022	1179.109863	18221.404297	10832.444336	56.643391
585.426514	1182.973633	18183.138672	10773.001953	56.411388
585.768127	1184.979858	18104.302734	10731.096680	56.421391
586.109619	1191.221191	18055.783203	10719.950195	56.501488
586.451172	1190.626831	18032.082031	10684.806641	56.373867
586.792542	1196.199585	17999.240234	10657.314453	56.305969
587.133850	1196.051025	17970.857422	10631.456055	56.247475
587.475220	1200.732056	17912.158203	10626.254883	56.401665
587.816589	1199.914673	17873.369141	10602.477539	56.392406
588.157776	1202.069458	17889.867188	10590.738281	56.260685
588.498962	1203.555542	17941.208984	10585.686523	56.054035
588.840210	1201.103394	17988.093750	10594.157227	55.954365
589.181335	1199.023071	17985.865234	10641.636719	56.250088
589.522400	1196.942505	18006.447266	10692.830078	56.491184
589.863403	1191.221191	18014.398438	10673.139648	56.362228
590.204407	1189.437866	18026.361328	10638.738281	56.122490
590.545410	1183.196533	18042.337891	10641.487305	56.101856
590.886353	1192.410156	18050.509766	10669.945313	56.219475
591.227112	1194.936401	18054.669922	10651.517578	56.089741
591.567932	1198.948730	18029.853516	10602.032227	55.867966
591.908752	1196.942505	17982.150391	10562.503906	55.796520
592.249512	1196.050903	17967.958984	10538.579102	55.703430
592.590149	1188.694946	17911.041016	10488.572266	55.613472
592.930786	1190.329590	17859.103516	10471.631836	55.680779
593.271423	1193.301636	17779.970703	10453.723633	55.830505
593.612000	1195.753662	17704.408203	10417.092773	55.857605
593.952576	1195.382202	17671.119141	10375.112305	55.716663
594.292969	1192.335815	17669.708984	10370.059570	55.698948
594.633484	1191.667114	17713.173828	10393.316406	55.694981
594.973877	1189.512329	17790.966797	10425.711914	55.634876
595.314209	1185.202637	17897.369141	10465.538086	55.530418
595.654480	1190.106689	18043.748047	10539.915039	55.476494
595.994812	1185.871460	18174.816406	10628.929688	55.583549
596.335022	1190.106567	18336.871094	10723.963867	55.601498
596.675171	1194.416138	18503.830078	10792.543945	55.450333
597.015320	1196.719604	18679.183594	10839.057617	55.154339
597.355408	1201.549316	18765.078125	10833.708008	54.841816
597.695496	1195.679321	18803.937500	10844.852539	54.799133
598.035461	1197.388306	18764.482422	10842.401367	54.903862
598.375366	1199.914673	18733.796875	10834.673828	54.949375
598.715271	1198.502930	18659.121094	10805.027344	55.018242
599.055176	1199.320190	18535.408203	10702.861328	54.819408
599.395081	1195.233521	18350.990234	10614.515625	54.904503
599.734802	1200.657715	18136.253906	10472.077148	54.745167
600.074524	1195.828003	17917.134766	10356.016602	54.781536
600.414246	1197.165527	17611.601563	10181.107422	54.731953
600.753906	1191.592773	17274.416016	10000.105469	54.769691
601.093506	1190.106689	16968.291016	9799.489258	54.565105
601.433044	1191.072632	16729.185547	9659.874023	54.503410
601.772583	1197.239746	16577.679688	9561.571289	54.382919
602.112122	1208.756714	16494.908203	9519.069336	54.364975
602.451538	1205.115845	16505.681641	9503.020508	54.232666
602.790894	1199.765991	16597.445313	9551.391602	54.239510
603.130310	1193.524536	16725.023438	9644.567383	54.412281
603.469604	1190.775391	16915.830078	9759.067383	54.488155
603.808838	1193.821777	17115.259766	9861.903320	54.442837
604.148010	1192.112793	17354.291016	9983.090820	54.392288
604.487305	1194.713379	17581.880859	10078.049805	54.209099
604.826416	1193.524536	17785.025391	10164.017578	54.066799
605.165527	1196.942505	17921.890625	10209.788086	53.888634
605.504456	1200.211914	18023.314453	10273.168945	53.931538
605.843445	1199.023071	18096.130859	10307.125000	53.903316
606.182434	1196.645264	18122.804688	10309.206055	53.837139
606.521423	1197.908447	18059.351563	10263.211914	53.763508
606.860229	1194.267578	17919.216797	10182.890625	53.743797
607.199036	1198.502930	17744.529297	10109.553711	53.856136
607.537903	1195.085083	17583.218750	10021.208008	53.856796
607.876648	1203.183960	17370.787109	9939.177734	54.033947
608.215271	1198.725952	17159.841797	9810.188477	53.952763
608.553955	1194.713501	16917.021484	9671.911133	53.918278
608.892578	1190.403809	16675.462891	9519.367188	53.787094
609.231140	1195.902222	16497.507813	9424.260742	53.774479
609.569641	1198.131470	16384.343750	9347.356445	53.661999
609.908081	1204.818726	16353.879883	9308.421875	53.492443
610.246521	1204.669922	16309.745117	9270.006836	53.394882
610.584961	1212.991821	16299.043945	9232.484375	53.158325
610.923340	1207.865112	16269.546875	9198.082031	53.049965
611.261597	1205.561768	16194.426758	9153.872070	53.028099
611.599854	1196.125244	16055.629883	9103.123047	53.211720
611.938110	1196.422485	15928.942383	9025.253906	53.139801
612.276245	1195.753662	15754.925781	8923.534180	53.078434
612.614319	1198.725830	15549.032227	8820.104492	53.109520
612.952393	1198.651489	15299.747070	8694.309570	53.156567
613.290466	1193.673218	15057.965820	8575.127930	53.240757
613.628479	1186.465942	14767.368164	8424.516602	53.295803
613.966370	1184.682739	14472.684570	8281.855469	53.410385
614.304260	1181.116089	14218.715820	8132.283691	53.316315
614.642151	1187.803345	14041.801758	8013.474121	53.101540
614.979980	1193.598877	13915.635742	7915.839844	52.839348
615.317749	1201.474976	13780.627930	7839.085938	52.766754
615.655396	1199.543091	13672.145508	7775.111328	52.720100
615.993164	1195.456543	13586.624023	7746.058594	52.865089
616.330811	1193.450317	13544.270508	7721.464355	52.854904
616.668396	1192.261353	13516.704102	7696.721191	52.776913
617.005859	1196.125122	13456.890625	7654.814941	52.677704
617.343445	1196.570923	13440.543945	7624.796875	52.501148
617.680908	1190.626831	13416.174805	7643.372559	52.780830
618.018311	1182.973633	13451.022461	7660.908203	52.803299
618.355652	1182.453491	13461.499023	7689.960449	52.996845
618.692993	1181.487671	13457.188477	7656.003906	52.742535
619.030273	1187.431885	13447.604492	7631.112793	52.557827
619.367554	1187.654785	13410.453125	7601.019531	52.470509
619.704712	1201.921021	13414.464844	7605.552246	52.434868
620.041870	1199.394653	13394.402344	7596.635254	52.457867
620.379028	1195.530762	13372.781250	7575.385254	52.391586
620.716064	1189.140747	13295.282227	7532.884277	52.401035
621.053040	1189.437988	13253.971680	7509.552734	52.385902
621.389954	1192.112915	13185.835938	7459.621582	52.256577
621.726929	1190.106567	13155.296875	7417.566406	52.046474
622.063843	1190.181030	13065.984375	7357.752441	51.933926
622.400635	1193.078735	13023.855469	7333.232910	51.899841
622.737427	1195.084961	12977.713867	7312.650879	51.920212
623.074219	1198.948730	12942.938477	7288.799316	51.855038
623.410889	1203.406860	12876.437500	7275.351074	52.016865
623.747559	1207.344849	12855.262695	7269.480957	52.044804
624.084167	1209.276733	12812.910156	7263.165527	52.172352
624.420715	1204.372803	12844.859375	7267.920410	52.090160
624.757324	1200.806274	12831.411133	7240.279785	51.927425
625.093750	1190.924072	12877.331055	7236.044922	51.727798
625.430176	1193.524658	12932.686523	7216.949219	51.310516
625.766602	1187.729004	12987.223633	7232.998535	51.233295
626.102905	1187.134521	13049.713867	7289.319824	51.440632
626.439209	1189.734985	13100.757813	7336.353516	51.604458
626.775452	1195.604980	13208.125000	7385.393066	51.527809
627.111694	1199.171509	13281.684570	7404.042969	51.354149
627.447876	1190.180908	13340.532227	7412.885254	51.214191
627.783997	1186.985962	13355.020508	7406.941406	51.117176
628.120056	1187.283203	13384.000000	7401.665527	50.951271
628.456055	1187.357544	13405.473633	7387.622559	50.746490
628.792053	1179.778687	13396.557617	7377.814453	50.733795
629.128052	1182.230591	13329.090820	7342.595215	50.715694
629.463928	1189.437988	13240.448242	7320.378418	50.874912
629.799744	1200.360474	13180.187500	7285.307129	50.793278
630.135559	1191.815552	13096.002930	7228.243652	50.708443
630.471375	1193.821777	12982.765625	7183.289551	50.805805
630.807068	1192.558594	12805.480469	7112.701660	50.978928
631.142700	1201.474976	12674.781250	7041.520020	50.901150
631.478333	1192.261353	12530.411133	6941.359863	50.705795
631.813965	1187.951782	12392.579102	6881.323730	50.812687
632.149475	1186.465820	12242.635742	6824.927734	50.998329
632.484924	1192.112793	12138.539063	6774.921875	51.001205
632.820435	1197.313965	12063.714844	6730.117188	50.916615
633.155884	1200.063354	12009.325195	6666.588379	50.572601
633.491150	1200.434692	11957.686523	6620.149902	50.381969
633.826477	1197.388306	11871.122070	6562.341797	50.263142
634.161804	1196.348022	11807.965820	6549.412598	50.445316
634.497009	1197.165405	11731.285156	6520.955078	50.538532
634.832153	1197.016724	11687.817383	6491.382813	50.466751
635.167297	1201.474976	11617.082031	6440.782715	50.302467
635.502380	1193.153076	11567.002930	6399.619141	50.188370
635.837463	1193.896118	11490.098633	6352.957031	50.106445
636.172424	1178.886963	11435.187500	6314.468262	50.072449
636.507324	1186.168579	11361.554688	6269.440918	49.956558
636.842224	1188.620728	11301.221680	6223.075684	49.783981
637.177124	1199.245972	11181.148438	6178.123047	49.879040
637.511963	1195.085083	11060.109375	6124.773438	49.971375
637.846741	1190.701172	10935.502930	6057.454590	49.942047
638.181396	1184.088257	10805.102539	5998.532715	50.040920
638.516113	1188.992188	10682.280273	5936.936035	50.013691
638.850769	1189.289429	10595.270508	5877.122559	49.838852
639.185303	1193.301758	10533.079102	5820.131348	49.538971
639.519836	1187.283203	10459.668945	5767.005371	49.390980
639.854370	1186.688843	10376.301758	5735.872559	49.503536
640.188843	1187.728882	10286.766602	5678.957031	49.359371
640.523254	1188.026245	10199.237305	5654.585938	49.566696
640.857605	1198.948730	10102.791992	5593.657715	49.357437
641.191895	1202.589478	10032.353516	5573.669922	49.503937
641.526184	1200.137573	9998.025391	5530.351563	49.218788
641.860413	1187.580444	9957.233398	5520.246094	49.405209
642.194580	1184.756836	9901.877930	5497.583984	49.475361
642.528748	1189.363647	9821.111328	5462.587402	49.505890
642.862793	1202.143677	9722.139648	5415.628418	49.454071
643.196838	1200.880615	9656.605469	5367.628418	49.277245
643.530823	1198.651489	9591.589844	5337.238770	49.310352
643.864746	1192.335815	9570.487305	5299.938965	49.027557
644.198669	1194.564819	9555.627930	5273.487305	48.784733
644.532532	1199.097290	9532.073242	5242.205566	48.519382
644.866333	1198.205688	9488.606445	5234.850098	48.690586
645.200073	1194.490601	9442.686523	5219.989258	48.804592
645.533813	1195.010620	9444.543945	5231.356934	48.928177
645.867554	1200.434814	9438.451172	5211.369629	48.688114
646.201172	1202.292358	9443.653320	5202.973145	48.543930
646.534729	1198.280029	9417.053711	5178.230469	48.425114
646.868225	1197.908569	9422.477539	5191.159668	48.552708
647.201782	1200.732056	9420.693359	5179.716797	48.406372
647.535217	1202.292358	9446.846680	5183.729004	48.291710
647.868591	1198.577271	9442.686523	5178.825684	48.279911
648.201965	1195.679443	9434.959961	5175.184082	48.299179
648.535278	1196.868286	9390.081055	5152.968262	48.285088
648.868591	1196.422485	9396.025391	5131.791992	47.994640
649.201782	1197.759888	9361.994141	5109.649902	47.914967
649.534912	1198.131348	9346.836914	5091.371094	47.777401
649.868103	1192.410034	9294.527344	5084.089355	48.032867
650.201172	1188.100464	9269.264648	5075.841797	48.108677
650.534180	1178.589722	9218.589844	5063.656250	48.321720
650.867188	1183.716675	9172.448242	5040.918945	48.283035
651.200134	1187.729004	9160.484375	5019.074219	48.055473
651.533020	1201.623657	9119.395508	5000.053223	47.973465
651.865845	1200.954956	9092.720703	4965.279785	47.699398
652.198608	1199.914673	9027.557617	4939.422363	47.773102
652.531433	1191.146973	9004.300781	4923.669922	47.772297
652.864136	1189.809448	8974.059570	4905.020020	47.727276
653.196777	1234.168213	8993.526367	4918.617188	47.483940
653.529358	1238.923584	8953.477539	4893.651367	47.374454
653.861938	1239.220825	8894.704102	4877.676270	47.527443
654.194519	1196.348145	8775.374023	4821.132324	47.826519
654.526978	1189.214966	8719.795898	4776.104004	47.630974
654.859375	1189.437988	8671.276367	4730.854004	47.333500
655.191833	1193.227417	8631.524414	4702.544922	47.179043
655.524170	1198.948730	8592.960938	4692.142578	47.243549
655.856445	1199.765991	8540.131836	4678.842285	47.396496
656.188660	1194.044556	8502.237305	4652.315918	47.320473
656.520874	1194.341919	8472.368164	4621.405762	47.087822
656.853088	1194.119019	8476.305664	4599.932617	46.769104
657.185181	1193.747559	8462.113281	4579.499512	46.582024
657.517212	1188.546387	8463.749023	4571.177734	46.495358
657.849243	1193.078735	8479.203125	4578.088379	46.458302
658.181274	1191.369751	8546.967773	4604.911133	46.407394
658.513123	1201.474976	8615.771484	4642.879395	46.415791
658.844971	1196.422485	8700.476563	4685.232422	46.492336
659.176819	1191.890015	8788.525391	4711.460938	46.330654
659.508667	1192.855835	8864.833984	4730.482422	46.111008
659.840393	1201.177734	8910.307617	4739.176270	45.893616
660.172058	1213.660645	8963.508789	4762.432617	45.791504
660.503662	1204.967285	8970.715820	4757.677246	45.748455
660.835266	1195.976563	8981.416016	4761.763672	45.800716
661.166931	1189.437988	8940.176758	4734.049316	45.732559
661.498413	1190.552368	8944.487305	4737.838867	45.748211
661.829773	1196.125244	8897.750000	4689.690430	45.361404
662.161194	1199.394531	8808.512695	4660.340820	45.484196
662.492615	1204.372925	8705.677734	4597.035156	45.227627
662.823975	1200.063232	8564.725586	4539.598633	45.345398
663.155212	1199.245850	8425.408203	4469.011230	45.248989
663.486450	1190.923950	8266.400391	4390.101563	45.215015
663.817627	1194.044556	8130.872559	4331.700195	45.231850
664.148743	1190.106689	8024.024902	4272.034668	45.097527
664.479858	1190.626831	7899.121582	4225.818848	45.244007
664.810913	1189.437988	7831.061035	4190.599121	45.187164
665.141907	1189.363647	7762.479004	4166.450684	45.291870
665.472778	1191.146973	7705.786621	4134.723633	45.184029
665.803711	1198.428589	7647.310059	4104.036621	45.056000
666.134583	1201.623657	7571.744141	4059.306641	44.860737
666.465454	1205.412964	7529.688965	4035.826904	44.754753
666.796143	1199.543091	7475.894043	3999.269775	44.607552
667.126831	1203.555298	7473.664063	3980.694092	44.291714
667.457458	1204.967163	7453.974609	3973.040771	44.296215
667.788147	1203.926880	7437.033203	3957.585938	44.177959
668.118774	1192.484253	7406.644043	3946.217529	44.313850
668.449219	1183.642334	7390.594238	3942.130859	44.441917
668.779663	1187.431763	7380.563965	3942.130859	44.479904
669.110107	1194.861938	7356.860840	3922.291992	44.262100
669.440552	1206.156128	7334.792969	3888.335205	43.764694
669.770874	1201.995117	7310.124512	3869.462646	43.670776
670.101135	1199.988892	7273.195313	3862.552734	43.841156
670.431396	1188.769165	7234.781250	3847.469482	43.974442
670.761597	1186.911621	7195.327637	3833.203125	44.043079
671.091797	1188.546265	7174.150879	3819.085205	43.947758
671.421875	1193.153076	7136.702637	3795.531250	43.784916
671.751892	1195.010620	7117.754395	3767.370850	43.431904
672.081909	1198.205688	7104.230957	3744.708252	43.117023
672.411865	1194.193237	7076.813965	3725.018311	43.022072
672.741821	1190.626831	7037.210938	3707.111328	43.041962
673.071716	1182.899414	6976.579590	3692.770752	43.320847
673.401550	1189.066406	6928.580078	3675.904297	43.328373
673.731262	1184.533936	6897.744629	3657.328369	43.282043
674.060974	1189.809448	6848.705078	3638.901367	43.278618
674.390625	1191.146851	6823.441895	3626.790039	43.244240
674.720276	1198.725830	6768.457520	3609.552002	43.284424
675.049927	1198.205688	6755.528809	3584.586182	42.941185
675.379395	1195.679565	6725.585449	3560.809326	42.769806
675.708923	1190.329590	6707.083984	3539.633057	42.584885
676.038330	1188.026245	6681.152344	3519.719971	42.447487
676.367737	1184.459717	6640.880371	3510.506104	42.629528
676.697083	1193.227417	6596.149902	3508.574951	42.853619
677.026428	1193.153076	6553.128906	3490.147705	42.854572
677.355652	1196.273926	6537.302246	3482.048584	42.796528
677.684875	1192.335815	6519.544434	3465.181641	42.664852
678.013977	1193.747559	6537.970703	3461.838623	42.440052
678.343079	1189.437988	6548.967285	3451.064209	42.198223
678.672180	1186.985962	6577.945313	3440.958984	41.810242
679.001221	1184.608276	6594.365723	3448.686523	41.851749
679.330139	1188.249023	6608.186035	3460.128906	41.917091
679.659058	1193.004395	6621.709473	3479.150391	42.112179
679.987976	1202.886841	6643.332031	3492.227783	42.080025
680.316772	1206.304688	6680.482910	3492.822266	41.769146
680.645630	1203.704102	6719.417969	3507.757080	41.772526
680.974304	1195.753784	6741.337402	3513.850342	41.800770
681.302979	1188.992188	6780.197266	3513.924561	41.581955
681.631653	1183.122192	6789.113281	3510.357422	41.513359
681.960266	1183.047852	6806.128906	3507.979736	41.346226
682.288757	1186.242798	6801.894531	3506.865234	41.324188
682.617249	1197.239868	6812.147949	3497.875000	40.973694
682.945679	1199.023071	6793.349121	3495.645752	41.052711
683.274109	1207.419312	6772.767090	3493.713867	41.080891
683.602478	1201.326416	6708.718262	3482.494385	41.420116
683.930725	1197.314087	6645.857910	3452.030029	41.381989
684.259033	1188.323364	6565.091309	3419.708252	41.500484
684.587280	1191.146973	6510.627441	3382.705322	41.198730
684.915344	1194.639160	6446.801270	3356.997070	41.170815
685.243469	1199.691772	6385.427246	3329.653564	41.073479
685.571533	1199.171509	6335.495605	3304.167969	40.982548
685.899536	1196.868286	6284.375488	3273.852295	40.825176
686.227539	1196.496704	6218.988770	3255.796631	41.001553
686.555420	1190.923950	6164.079590	3240.639404	41.215588
686.883301	1191.890015	6159.992188	3232.019775	41.064571
687.211121	1188.397583	6161.181641	3221.692139	40.888454
687.538940	1189.586548	6164.228027	3219.239990	40.799992
687.866638	1187.877563	6135.621094	3214.261475	40.955719
688.194336	1185.945801	6136.958984	3216.341797	41.009708
688.521973	1187.283203	6125.664551	3203.041748	40.818203
688.849609	1190.478149	6112.810547	3181.270752	40.444092
689.177063	1190.998291	6071.498535	3150.361084	40.146763
689.504578	1192.484497	6021.195313	3133.568359	40.198799
689.832031	1196.496826	5973.046875	3121.754639	40.306454
690.159485	1201.252075	5909.146484	3107.859619	40.498093
690.486816	1201.549316	5858.323730	3077.469971	40.283691
690.814087	1198.800171	5792.343262	3045.817139	40.208984
691.141296	1191.592773	5738.027832	3002.275635	39.826431
691.468506	1189.363770	5675.613281	2969.805420	39.686638
691.795715	1181.636108	5593.434082	2931.985352	39.674286
692.122803	1184.459595	5526.042480	2912.889404	39.811050
692.449829	1196.125244	5466.674316	2884.505859	39.535450
692.776855	1199.765991	5404.111328	2861.843750	39.532379
693.103821	1196.199341	5352.842285	2831.305420	39.337177
693.430664	1186.985840	5297.338379	2813.324219	39.566883
693.757568	1185.351318	5272.372559	2799.503906	39.494598
694.084351	1191.369751	5222.292480	2773.126221	39.240555
694.411133	1195.530884	5191.679199	2751.281006	38.931240
694.737854	1193.376099	5148.435059	2728.247314	38.807796
695.064575	1190.403809	5141.673828	2721.039795	38.737823
695.391174	1191.815674	5114.181641	2720.965576	38.985397
695.717773	1198.725830	5106.603027	2723.343506	39.013962
696.044250	1200.211792	5089.067871	2727.429932	39.271656
696.370789	1189.214966	5099.470215	2715.764404	39.039635
696.697205	1185.202637	5115.593750	2714.798584	38.917145
697.023621	1180.967529	5169.314453	2717.176025	38.517426
697.349915	1188.323364	5212.410156	2740.432861	38.570477
697.676208	1192.187256	5277.201660	2762.798096	38.448109
698.002380	1200.211914	5347.492188	2800.989502	38.598251
698.328674	1198.577271	5428.928223	2821.571533	38.365475
698.654724	1197.685547	5519.726074	2844.976807	38.113739
698.980896	1198.502808	5588.158691	2862.140625	37.899048
699.306946	1197.982788	5652.207520	2876.852783	37.691631
699.632935	1197.833984	5676.728027	2891.118896	37.805870
699.958862	1199.840210	5686.684082	2888.964111	37.646149
700.284729	1200.880615	5678.511230	2888.889893	37.698715
700.610596	1201.400757	5653.545410	2863.998779	37.343758
700.936340	1191.889893	5608.295410	2844.159424	37.412090
701.262146	1194.193237	5517.051270	2808.345703	37.339939
701.587830	1191.964233	5429.300293	2777.658447	37.421963
701.913513	1195.530762	5318.068848	2740.507080	37.476337
702.239075	1190.255371	5215.679688	2687.677979	37.199123
702.564697	1187.134521	5095.160156	2634.923096	37.046547
702.890137	1186.317139	4972.783691	2573.251953	36.628735
703.215698	1191.295532	4867.273926	2544.571045	36.814022
703.541016	1195.902344	4792.599609	2509.277100	36.516132
703.866455	1196.719604	4716.662109	2478.887207	36.425812
704.191711	1188.546265	4653.355957	2453.030029	36.495045
704.517029	1188.992188	4583.957520	2431.110596	36.587070
704.842163	1180.001587	4534.992188	2416.844727	36.865768
705.167419	1183.568115	4497.617676	2398.045898	36.646336
705.492493	1183.791016	4454.225098	2386.677490	36.780636
705.817566	1192.855957	4418.262207	2374.194580	36.626041
706.142578	1193.673218	4377.470215	2355.024658	36.476933
706.467590	1198.131348	4355.253906	2344.696533	36.316776
706.792480	1191.518433	4350.499023	2328.795898	36.001408
707.117371	1191.295532	4345.817871	2320.622559	35.800255
707.442200	1186.540039	4357.111816	2310.071533	35.436241
707.766907	1197.536987	4354.659668	2300.560791	34.937630
708.091675	1200.434692	4357.780273	2302.343994	34.899860
708.416321	1205.635986	4338.684570	2300.412354	34.942848
708.741028	1193.450317	4348.715332	2311.854736	35.445656
709.065552	1188.992188	4359.415039	2323.594727	35.787106
709.390137	1185.425659	4383.117676	2326.417969	35.681747
709.714600	1194.862183	4390.547852	2320.102539	35.211235
710.039063	1200.509155	4416.256348	2325.229492	34.975399
710.363403	1196.942505	4443.822754	2339.867188	35.200703
710.687744	1190.849731	4480.082520	2356.882324	35.449986
711.012085	1190.106689	4524.961426	2364.906982	35.227928
711.336304	1195.010742	4558.917480	2374.120361	35.051792
711.660461	1197.165527	4586.483887	2386.008789	35.076176
711.984619	1198.800171	4588.193359	2376.720947	34.753147
712.308716	1190.626831	4593.542480	2365.352783	34.521160
712.632751	1183.791016	4590.124512	2356.213623	34.418903
712.956726	1179.332886	4582.843262	2354.281494	34.521671
713.280701	1180.373047	4557.729004	2355.247803	34.786819
713.604553	1187.431763	4516.268066	2342.467529	34.697884
713.928467	1194.713501	4463.661621	2325.303711	34.585747
714.252258	1199.691772	4426.733887	2300.115234	34.100067
714.575989	1203.555542	4383.415039	2283.025391	33.947094
714.899719	1202.440918	4343.588867	2262.443604	33.745708
715.223267	1203.183960	4294.399902	2249.440674	33.846123
715.546936	1198.577148	4258.734863	2235.917480	33.898262
715.870422	1200.731934	4230.202637	2223.063232	33.746201
716.193970	1205.784546	4207.392090	2217.713379	33.712898
716.517395	1211.654419	4192.976563	2204.041504	33.286812
716.840820	1208.013550	4160.506348	2202.035400	33.667210
717.164124	1193.450195	4122.091797	2184.277100	33.832302
717.487488	1192.484375	4081.671143	2175.509521	34.024284
717.810730	1186.837402	4061.535156	2147.943115	33.433277
718.133972	1191.444214	4028.098877	2127.212646	32.988449
718.457092	1188.917969	3989.461670	2105.144775	32.716034
718.780212	1194.119019	3933.808838	2092.884766	32.805382
719.103210	1196.570923	3890.565186	2080.253174	32.801937
719.426208	1199.988892	3846.875000	2066.953125	32.754116
719.749207	1196.645386	3808.163330	2054.024414	32.830677
720.072083	1199.023071	3758.974609	2029.504517	32.441296
720.394958	1195.828003	3722.417725	2006.990723	32.105042
720.717773	1190.849731	3686.677734	1986.631836	31.884491
721.040527	1192.781616	3669.737061	1977.195313	31.668461
721.363281	1192.633057	3652.721436	1972.068481	31.683229
721.685913	1195.902344	3628.424561	1958.322632	31.342789
722.008545	1199.989014	3603.161865	1948.811890	31.159760
722.331055	1199.394531	3555.607666	1937.220581	31.314062
722.653503	1205.115845	3531.087891	1927.412598	31.053543
722.976013	1194.936401	3499.137939	1921.171265	31.517851
723.298401	1192.112915	3494.382568	1909.728516	31.169922
723.620789	1187.060181	3481.008057	1916.489868	31.798008
723.943115	1184.459595	3480.636719	1905.047485	31.382067
724.265381	1190.626831	3466.073242	1900.886719	31.214092
724.587585	1194.341919	3460.054688	1893.233398	30.846428
724.909790	1197.759888	3462.878174	1893.901978	30.733147
725.231873	1198.057007	3469.416992	1889.889648	30.458961
725.553894	1196.793945	3475.881592	1881.790649	30.055742
725.875916	1217.672974	3490.072998	1902.298218	30.127850
726.197937	1208.905273	3494.977295	1905.418945	30.467705
726.519775	1212.026001	3493.936768	1905.939087	30.409302
726.841675	1188.843628	3491.930664	1897.468384	30.768476
727.163513	1195.382202	3504.264893	1899.474609	30.494940
727.485291	1180.595825	3535.100342	1901.852417	30.633053
727.806946	1188.472046	3538.518311	1888.998047	29.809029
728.128662	1189.363770	3550.852539	1889.592651	29.652010
728.450256	1202.663940	3545.576904	1891.672974	29.408220
728.771790	1199.914673	3544.833984	1901.926758	29.937578
729.093323	1196.273804	3547.211914	1912.106323	30.448805
729.414795	1192.112915	3542.976563	1913.592407	30.689974
729.736145	1190.775391	3550.852783	1909.282837	30.444233
730.057495	1205.115845	3541.936523	1895.536743	29.545307
730.378845	1209.053833	3545.577393	1891.152832	29.192902
730.700134	1205.784546	3543.942627	1892.713013	29.379042
731.021301	1189.140747	3559.546143	1896.948364	29.860193
731.342468	1184.682617	3562.815674	1903.858521	30.241198
731.663574	1189.066528	3555.310791	1902.744141	30.160776
731.984680	1194.193359	3551.744141	1899.920532	29.934761
732.305664	1193.673218	3557.390869	1892.044556	29.545462
732.626648	1196.348145	3572.029053	1885.877441	29.024490
732.947571	1194.862061	3582.134033	1886.026001	28.952040
733.268433	1202.589478	3565.639404	1882.385132	28.767725
733.589233	1196.942505	3559.249023	1872.948608	28.616358
733.909973	1193.227417	3533.688721	1860.317261	28.502493
734.230713	1185.276978	3508.128906	1855.338989	28.846521
734.551331	1182.899292	3469.491455	1854.967407	29.391689
734.871948	1186.465820	3435.832031	1847.983032	29.409048
735.192505	1185.871460	3407.448242	1833.791138	29.164858
735.513062	1188.397827	3388.872314	1811.054565	28.296474
735.833435	1185.574219	3346.148438	1792.033081	28.069338
736.153931	1190.255249	3313.604248	1778.361328	27.697098
736.474304	1191.741333	3258.917236	1780.961914	28.503651
736.794617	1194.490479	3247.028564	1777.989868	28.428188
737.114807	1190.701050	3227.115479	1771.451172	28.518269
737.434998	1186.317261	3218.793701	1750.720703	27.769249
737.755188	1185.128418	3189.889893	1739.277954	27.641668
738.075256	1187.134521	3191.599365	1739.872559	27.575342
738.395325	1195.902344	3202.893311	1740.986938	27.159294
738.715271	1202.961060	3233.505859	1753.321411	27.104073
739.035278	1202.961060	3250.075439	1746.634155	26.558022
739.355164	1190.626831	3269.765625	1748.863281	26.849409
739.675049	1182.453491	3275.041016	1738.386353	26.566769
739.994873	1185.054077	3275.115234	1739.946777	26.549114
740.314636	1197.834106	3271.028564	1742.918945	26.292028
740.634277	1201.326294	3247.772217	1747.451538	26.686522
740.953979	1204.372681	3227.710205	1745.742554	26.756281
741.273499	1199.691772	3200.069580	1737.643555	26.892509
741.593140	1196.868286	3176.441406	1734.819946	27.175135
741.912598	1195.010742	3145.234375	1726.795288	27.267876
742.232117	1191.072632	3098.274658	1712.231934	27.325857
742.551453	1196.422363	3067.290283	1689.495239	26.355301
742.870850	1192.335815	3034.077148	1673.000000	26.098354
743.190063	1202.292358	3023.452148	1664.380859	25.373308
743.509338	1196.719727	2986.746338	1649.223267	25.279152
743.828552	1193.227417	2963.638428	1640.901367	25.286442
744.147705	1183.790894	2930.425049	1641.867188	26.226231
744.466797	1183.939575	2915.787354	1643.501831	26.535950
744.785828	1189.735229	2896.988525	1640.381226	26.395966
745.104858	1194.861938	2878.264404	1628.715820	25.772440
745.423706	1195.976685	2866.598877	1621.731323	25.484795
745.742615	1193.673218	2855.304932	1618.610474	25.573492
746.061401	1196.422363	2841.484619	1620.096680	25.754303
746.380249	1197.759888	2828.407227	1626.858032	26.314589
746.698975	1199.320190	2815.404297	1621.656860	26.133335
747.017639	1197.314087	2805.670654	1606.944946	25.468908
747.336304	1199.543091	2794.896729	1598.325806	24.996510
747.654907	1199.766113	2794.599609	1601.892212	25.214300
747.973389	1196.793823	2794.451172	1602.635376	25.402290
748.291931	1196.199585	2798.760742	1600.629272	25.236460
748.610352	1194.490601	2799.503662	1585.842896	24.383121
748.928711	1197.685547	2798.314697	1590.969849	24.570608
749.247070	1202.218018	2788.581299	1590.524048	24.477749
749.565308	1199.988892	2783.825439	1601.446655	25.347172
749.883545	1197.091064	2781.968018	1586.363159	24.561661
750.201782	1191.072632	2776.915771	1577.372437	24.359270
750.519836	1190.923950	2762.649414	1563.849243	23.727127
750.837952	1192.632935	2757.522705	1567.713257	23.968481
751.155884	1190.329468	2752.247070	1570.462402	24.337580
751.473877	1191.295532	2748.531982	1573.508789	24.544331
751.791809	1193.896118	2733.077148	1574.103149	24.701904
752.109619	1191.890015	2716.135986	1569.422241	24.768457
752.427490	1199.320190	2706.104736	1561.546021	24.039656
752.745300	1195.828003	2697.783203	1554.635864	23.889385
753.062988	1199.765991	2701.349854	1550.251953	23.341085
753.380615	1187.505981	2696.742920	1549.137329	23.961205
753.698303	1186.837402	2694.959717	1542.524414	23.584759
754.015808	1185.871460	2682.922607	1539.923828	23.649984
754.333374	1189.066406	2679.356201	1546.685547	23.996618
754.650757	1184.385376	2693.324951	1547.725586	24.079176
754.968262	1184.162476	2705.213623	1544.604858	23.696928
755.285583	1184.682617	2710.191650	1538.586426	23.199064
755.602905	1186.985962	2683.368408	1540.146851	23.600977
755.920105	1180.893188	2667.541748	1540.221191	24.170340
756.237305	1184.534058	2643.988037	1536.654663	24.126873
756.554443	1193.598877	2645.399658	1528.704224	23.082048
756.871582	1197.388306	2650.378174	1532.345093	23.052933
757.188599	1195.084961	2661.895020	1536.134399	23.251097
757.505615	1190.181030	2669.548096	1536.208862	23.390263
757.822510	1197.016846	2672.297363	1530.264648	22.588776
758.139465	1201.103516	2683.888428	1528.927124	22.108643
758.456238	1196.719604	2698.229004	1539.181030	22.807812
758.773010	1194.193359	2706.030762	1548.988892	23.467836
759.089783	1189.512207	2716.878906	1547.354126	23.428684
759.406433	1192.261597	2725.944092	1546.313965	23.085115
759.723145	1186.688843	2741.918945	1539.552368	22.688831
760.039673	1192.484375	2747.566162	1541.781372	22.461649
760.356201	1192.558594	2750.389648	1537.620605	22.150156
760.672668	1193.598877	2746.005859	1535.688477	22.036077
760.989136	1189.215088	2736.792236	1532.567749	22.186464
761.305481	1186.094360	2738.872803	1531.973511	22.274855
761.621826	1189.140747	2735.454834	1534.574097	22.339146
761.938049	1191.072632	2738.055420	1540.964233	22.617680
762.254333	1187.803223	2746.897461	1540.890015	22.646917
762.570496	1185.425537	2781.447998	1539.032227	22.155497
762.886597	1177.921021	2858.574219	1551.292114	22.215832
763.202637	1183.419434	2950.560791	1572.245605	22.003117
763.518677	1181.561890	3089.655518	1607.167847	22.305298
763.834656	1192.187134	3205.865234	1625.446289	21.515810
764.150574	1189.883667	3314.495850	1654.350098	21.861233
764.466370	1195.976563	3361.975342	1656.727661	21.271992
764.782288	1188.620605	3390.359131	1667.798828	21.763630
765.097961	1195.902222	3366.582031	1658.065308	21.291170
765.413696	1194.564819	3316.501953	1647.588501	21.349535
765.729309	1199.394531	3231.127930	1622.845703	20.841867
766.044861	1193.450317	3127.772705	1598.846069	20.958025
766.360474	1200.509155	3022.560547	1579.601563	20.805801
766.675903	1203.258301	2910.214844	1557.236450	20.737385
766.991394	1199.840454	2824.023682	1539.775269	20.929585
767.306763	1185.351318	2746.228516	1523.651733	21.673737
767.622131	1175.097534	2686.637695	1508.047974	22.027231
767.937378	1181.710571	2638.563721	1485.905762	20.880291
768.252625	1187.431885	2594.948242	1467.255859	19.880692
768.567810	1194.416260	2557.277100	1451.652222	18.874704
768.882996	1190.255249	2510.986328	1447.119751	19.448660
769.197998	1195.679321	2461.500732	1448.457397	19.969490
769.513062	1198.279907	2437.574951	1449.497437	20.271002
769.828064	1200.880737	2410.974609	1445.336548	20.201393
770.142944	1198.057129	2397.080078	1434.859863	19.749641
770.457825	1190.923950	2360.448730	1425.943726	20.095322
770.772705	1188.174805	2335.780273	1421.633911	20.343151
771.087402	1192.261597	2310.888916	1418.735962	20.245739
771.402100	1192.112915	2293.353516	1418.958984	20.599138
771.716736	1191.890015	2288.598145	1414.872437	20.331974
772.031372	1192.112915	2271.359863	1412.494629	20.419952
772.345947	1194.342041	2262.889404	1407.739380	19.970789
772.660461	1194.490601	2237.180420	1401.497925	19.853203
772.974854	1189.883789	2235.248779	1396.742554	19.788185
773.289246	1195.233521	2220.313721	1389.906616	18.991011
773.603638	1200.657715	2211.174561	1393.844727	19.117643
773.917908	1197.834229	2192.524658	1393.250366	19.645926
774.232178	1195.902344	2182.642334	1394.364868	20.112951
774.546265	1190.255249	2174.320557	1390.129517	20.311077
774.860474	1195.605103	2165.329834	1384.482544	19.477428
775.174561	1192.707153	2156.339111	1376.012085	19.022297
775.488586	1195.679321	2147.571533	1368.953247	18.203104
775.802551	1186.094360	2136.426270	1369.176270	19.265049
776.116516	1185.871460	2129.962158	1374.005859	19.927576
776.430359	1187.357544	2133.379883	1374.228882	19.753374
776.744202	1197.759888	2132.190918	1370.810913	18.519400
777.057922	1199.023071	2112.946533	1364.940918	18.154457
777.371704	1196.793945	2096.079834	1369.399048	19.193575
777.685303	1194.341919	2092.736084	1361.151367	18.567513
777.998962	1197.388306	2091.770264	1367.318726	18.999760
778.312500	1201.177856	2082.408203	1356.693359	17.647543
778.626038	1202.663818	2074.234619	1358.179443	17.843143
778.939453	1195.902222	2080.401855	1354.241333	17.901546
779.252869	1195.084839	2085.528809	1364.197876	18.991991
779.566223	1192.781494	2076.389648	1362.488892	19.206182
779.879578	1195.530762	2073.937744	1358.179321	18.516310
780.192749	1196.570923	2064.426758	1350.823364	17.773972
780.505920	1195.530884	2067.621826	1350.749146	17.798403
780.819031	1195.902344	2060.042969	1351.120728	17.962168
781.132141	1195.456543	2062.940674	1347.851440	17.567457
781.445190	1195.976563	2062.420654	1350.228882	17.802917
781.758118	1201.920776	2055.659180	1341.832886	16.388170
782.071045	1193.524658	2040.798462	1338.860718	17.153376
782.383911	1190.701050	2019.027832	1334.328247	17.339437
782.696838	1184.831177	2009.814331	1339.752441	18.778719
783.009583	1188.174805	1996.959961	1335.665771	18.236113
783.322266	1189.809570	1989.901245	1332.173462	17.793447
783.634888	1189.363647	1973.554565	1317.090210	16.287687
783.947510	1193.747559	1967.907593	1318.056030	16.057205
784.260132	1194.936401	1955.647461	1320.210815	16.468067
784.572571	1202.812622	1949.554688	1327.343872	16.676609
784.885010	1200.211914	1948.886108	1326.823608	16.911455
785.197449	1204.447144	1948.068726	1330.910400	17.006399
785.509766	1203.704102	1943.833618	1332.247925	17.367746
785.822083	1206.081787	1936.477539	1335.665649	17.741596
786.134277	1200.509155	1932.167969	1324.817505	16.989935
786.446533	1193.078735	1927.189575	1325.337524	18.016188
786.758606	1190.552368	1929.195923	1321.696777	17.754763
787.070740	1186.763062	1935.883179	1327.195190	18.746277
787.382690	1184.459839	1952.229858	1326.749390	18.532835
787.694641	1183.642334	1961.889038	1330.092896	18.818012
788.006653	1192.112793	1983.511230	1330.241577	17.453760
788.318481	1200.657715	2004.984497	1328.829834	15.935329
788.630310	1204.298462	2023.634399	1332.247681	15.616210
788.942017	1204.818726	2038.049194	1329.201294	14.927751
789.253784	1199.543091	2049.194580	1330.390015	15.400070
789.565430	1203.555420	2046.445679	1327.343628	14.686159
789.877014	1191.592773	2034.854126	1329.349976	16.336241
790.188538	1191.444214	2020.365234	1329.572876	16.663670
790.500061	1190.329468	1997.925781	1327.343872	16.965704
790.811462	1198.577148	1981.430664	1327.195190	16.429388
791.122925	1198.057007	1959.213989	1330.167358	17.356518
791.434204	1198.279907	1950.892212	1328.904175	17.356117
791.745483	1198.577148	1936.551758	1327.120972	17.418461
792.056702	1200.434692	1916.935913	1315.604004	16.073847
792.367920	1196.868286	1906.087769	1303.343872	15.013065
792.678955	1191.295532	1893.084595	1293.387329	14.547362
792.990112	1189.363647	1883.796875	1291.975708	14.776376
793.301086	1184.013794	1881.270630	1296.953979	16.197788
793.612122	1183.865234	1868.861938	1306.241821	17.865282
793.922974	1183.642456	1856.304810	1307.282104	18.380640
794.233826	1182.156372	1838.249390	1307.727905	19.139288
794.544556	1182.973633	1834.831421	1305.127319	18.739315
794.855286	1186.317261	1853.332642	1311.814453	18.814737
795.166016	1186.985962	1858.905396	1307.653442	17.958624
795.476624	1187.729004	1872.131348	1307.282104	17.468248
795.787292	1186.540161	1871.239868	1299.851685	16.549084
796.097778	1188.992065	1885.431641	1308.470825	17.155653
796.408264	1195.828003	1895.313843	1309.213989	16.209904
796.718689	1191.221069	1915.970093	1305.796021	15.808914
797.029053	1193.153076	1917.307251	1304.978638	15.442231
797.339355	1187.580444	1919.016235	1301.337891	15.552623
797.649658	1187.580444	1907.202148	1303.938354	16.169317
797.959839	1186.911621	1912.031860	1301.858032	15.852048
798.270020	1192.781616	1908.167969	1303.492554	15.475685
798.580078	1199.320190	1893.827637	1298.588623	14.293358
798.890137	1195.976685	1868.936401	1283.653809	13.028584
799.200195	1193.004517	1846.793945	1279.270020	13.194693
799.510071	1193.301758	1834.385620	1278.824097	13.340273
799.820007	1198.057129	1831.636353	1289.152222	14.377853
800.129883	1202.440918	1831.562134	1290.563965	14.007324
800.439575	1192.112915	1829.109985	1293.684692	15.945407
800.749329	1189.586548	1825.543457	1287.517578	15.399004
801.058960	1189.289307	1811.946167	1284.916992	15.358007
801.368591	1201.103394	1810.088501	1279.864380	12.933155
801.678162	1205.858887	1797.605835	1283.653809	13.146654
801.987671	1201.846558	1800.949341	1286.477295	14.126246
802.297119	1193.673218	1790.918579	1291.158447	16.322475
802.606506	1183.122192	1785.271484	1288.409180	17.485197
802.915894	1181.338989	1776.801147	1278.229614	16.271500
803.225159	1179.109863	1773.160156	1274.737427	16.097553
803.534424	1187.208862	1768.478882	1273.400024	14.828076
803.843628	1183.493652	1762.757446	1279.344238	16.546967
804.152771	1186.614380	1758.893921	1274.886108	15.424582
804.461792	1189.512207	1765.061157	1280.458862	15.801723
804.770874	1192.632935	1777.841187	1279.567261	14.855280
805.079773	1190.998291	1782.893921	1284.619751	15.817225
805.388733	1186.763062	1787.203491	1275.629272	14.800171
805.697571	1187.803345	1792.999023	1269.907837	13.566603
806.006470	1198.948730	1801.543579	1264.483765	10.875472
806.315125	1199.988892	1809.717163	1268.644653	11.260058
806.623901	1195.530762	1811.500366	1271.988281	12.412547
806.932495	1191.815552	1810.683105	1278.303955	13.975268
807.241150	1197.908569	1805.481934	1279.269897	13.391194
807.549622	1202.143677	1792.033203	1282.687866	13.654114
807.858154	1200.657593	1785.197144	1275.109009	12.736763
808.166565	1192.261475	1769.370728	1271.245239	13.686103
808.474915	1190.181030	1767.513184	1267.901733	13.462043
808.783264	1186.688843	1753.172729	1260.768555	13.077108
809.091492	1188.100464	1754.881836	1255.195801	11.837957
809.399719	1189.809448	1748.268677	1251.257813	11.003196
809.707825	1196.496704	1753.544312	1260.174194	11.431248
810.015930	1198.131348	1741.729980	1257.573608	10.934954
810.323975	1197.759766	1728.058228	1266.638550	12.988683
810.632080	1186.317261	1717.581665	1267.158691	15.216798
810.939880	1186.317261	1720.405273	1275.480591	16.694502
811.247864	1184.682495	1718.770508	1264.706665	14.983330
811.555664	1189.289307	1716.095581	1259.876953	13.399166
811.863464	1191.221191	1710.151367	1257.424927	12.757734
812.171143	1194.936401	1705.098633	1256.979126	12.161371
812.478882	1199.766113	1702.423828	1259.802612	11.943813
812.786438	1202.143677	1692.244507	1249.623169	9.687698
813.094055	1203.926880	1682.807983	1249.994751	9.619898
813.401489	1196.050903	1672.405640	1247.022461	10.700336
813.708984	1190.106689	1664.009399	1253.858398	13.452489
814.016357	1186.763062	1665.421265	1254.304199	14.110515
814.323730	1183.865356	1667.873169	1254.006958	14.491833
814.630981	1181.636230	1675.823608	1257.722168	15.396172
814.938232	1184.756958	1675.154785	1260.025513	15.348468
815.245361	1186.911743	1670.250977	1267.604492	16.694847
815.552490	1194.044800	1667.576172	1262.328979	14.420202
815.859619	1197.091187	1670.770996	1266.787109	14.713720
816.166565	1203.035400	1680.281860	1256.458984	11.194129
816.473572	1200.063354	1682.659546	1259.579712	12.332538
816.780457	1195.605103	1681.470581	1252.520996	11.714332
817.087341	1193.450317	1681.396118	1256.013184	12.821684
817.394043	1191.815674	1683.699585	1255.195801	12.885180
817.700806	1195.530762	1688.380737	1256.533325	12.377512
818.007507	1195.753784	1691.055664	1259.579712	12.886268
818.314209	1197.908569	1699.080444	1264.037842	13.194929
818.620667	1196.645386	1713.495117	1263.963501	13.024697
818.927246	1202.589478	1726.126465	1267.381470	12.375819
819.233704	1202.886597	1755.030273	1267.233032	11.653930
819.540161	1203.183960	1780.813354	1271.096680	11.757144
819.846497	1193.301636	1818.187622	1272.805664	12.722965
820.152832	1187.060181	1853.927246	1278.081177	13.649047
820.458984	1183.419434	1904.378784	1292.050171	15.067526
820.765259	1193.747437	1962.409180	1297.771362	13.533121
821.071350	1196.199585	2045.999634	1308.693970	13.237747
821.377502	1195.679443	2183.905518	1313.969360	11.969925
821.683472	1182.453613	2452.138428	1350.972168	13.272471
821.989441	1182.899292	2901.744141	1402.612427	12.782604
822.295349	1182.750732	3540.895752	1478.624390	12.546882
822.601196	1186.540161	4261.112793	1562.883423	12.240506
822.907043	1189.512329	4872.178223	1634.139648	12.073518
823.212769	1188.472046	5240.347656	1686.225952	12.284532
823.518494	1198.428711	5263.456543	1688.083496	12.045546
823.824097	1195.828003	5055.333984	1671.365356	12.321198
824.129700	1193.227417	4704.179199	1631.687866	12.488365
824.435242	1190.329590	4351.093262	1594.313477	12.781212
824.740723	1191.146973	4012.495117	1545.719604	12.567490
825.046082	1196.570923	3684.894775	1498.165649	12.120398
825.351501	1193.004517	3356.476563	1456.556274	12.181888
825.656799	1197.462646	3051.092529	1422.599976	12.145754
825.962036	1196.125122	2803.961670	1394.142090	12.315740
826.267212	1198.205688	2645.399658	1373.560181	12.116861
826.572449	1190.701050	2581.648193	1365.386719	12.558757
826.877502	1197.536987	2610.774658	1371.256836	12.292331
827.182495	1198.280029	2735.305908	1387.083374	12.283680
827.487488	1200.360474	2882.648438	1405.807617	12.212365
827.792419	1197.982788	3015.427490	1417.398804	12.072775
828.097290	1199.691772	3036.677734	1409.522461	11.422553
828.402100	1194.564819	2971.885986	1396.296753	11.350336
828.706848	1193.153076	2828.481689	1381.213257	11.499841
829.011597	1189.140747	2675.269775	1376.755005	12.624358
829.316223	1198.502808	2529.041748	1358.922485	12.056745
829.620789	1194.193237	2403.841553	1344.656372	12.438585
829.925354	1197.462646	2276.709717	1315.901245	10.974188
830.229797	1201.697876	2160.425781	1308.025024	11.090441
830.534302	1207.121948	2033.293945	1291.752808	10.243733
830.838562	1207.716431	1945.245117	1281.796265	10.044333
831.142944	1200.063354	1860.540039	1266.935669	10.124856
831.447144	1195.159302	1818.038940	1263.963501	11.046146
831.751404	1192.410034	1770.262329	1258.093628	11.366848
832.055542	1193.227417	1756.739258	1251.852173	10.403464
832.359619	1186.168579	1743.587524	1249.548950	11.370330
832.663635	1178.441040	1756.070313	1256.533325	13.519447
832.967651	1174.280151	1775.611938	1257.202026	13.789704
833.271545	1182.602051	1829.778931	1256.013184	11.343287
833.575439	1192.855957	1920.130981	1265.449707	9.981609
833.879211	1193.970337	2041.541626	1289.895142	11.317609
834.183044	1190.626831	2166.370117	1309.808350	12.214434
834.486694	1188.694946	2270.542725	1315.604004	11.730768
834.790344	1193.673096	2300.189209	1311.591675	10.656743
835.093933	1194.861938	2276.040771	1307.207886	10.391061
835.397522	1187.580444	2210.431641	1302.229492	11.208771
835.700928	1186.168579	2148.686279	1291.158447	10.907838
836.004395	1190.478149	2090.061279	1278.675415	9.804237
836.307739	1189.215088	2022.891602	1277.263794	10.561496
836.611023	1186.614502	1952.155396	1271.765503	11.122985
836.914307	1188.397827	1882.385132	1268.421875	11.531054
837.217529	1191.444214	1815.884155	1256.756226	10.459294
837.520691	1195.753784	1760.454468	1250.589111	9.710512
837.823730	1190.106567	1706.510620	1252.595337	12.100751
838.126831	1194.936401	1664.232422	1247.617065	11.225466
838.429749	1189.883667	1630.796021	1248.657227	13.329987
838.732727	1193.821777	1600.406250	1239.592285	11.257318
839.035522	1196.125122	1587.106079	1236.694458	10.376294
839.338379	1200.137573	1579.675781	1234.836792	9.142484
839.641113	1196.645386	1590.003906	1233.796753	9.444658
839.943848	1194.936401	1607.836548	1233.945190	9.447512
840.246460	1189.289429	1633.842651	1237.437500	10.830666
840.549072	1193.375977	1650.709351	1242.490112	10.739242
840.851563	1190.998291	1655.836060	1249.771606	12.643834
841.154053	1197.239746	1658.511108	1254.229858	12.355008
841.456482	1195.902222	1653.681274	1252.446655	12.351905
841.758850	1200.880493	1635.922974	1247.914185	10.811287
842.061157	1201.995117	1610.957397	1237.214722	8.611944
842.363403	1203.183960	1580.121704	1230.601685	7.273807
842.665588	1201.177734	1567.341675	1228.149780	7.366112
842.967712	1193.375977	1549.509155	1224.063110	8.616758
843.269775	1191.518433	1539.626831	1222.725708	8.964815
843.571777	1189.512329	1518.598999	1217.227295	8.421783
843.873840	1192.261475	1503.441406	1223.468628	10.028652
844.175659	1189.958130	1490.884155	1224.583130	11.506150
844.477600	1194.639160	1477.955444	1229.412720	12.273760
844.779297	1196.868164	1466.215698	1222.651245	9.572421
845.081116	1201.252075	1456.853516	1215.815308	5.697633
845.382751	1197.536987	1456.184692	1214.106445	6.406188
845.684387	1194.416260	1453.807007	1216.038452	8.335761
845.985962	1195.084961	1442.884644	1219.456177	9.835047
846.287537	1196.496704	1431.516235	1215.889648	8.251631
846.588989	1202.589478	1427.949707	1217.895874	6.791969
846.890381	1198.428589	1425.423340	1216.186890	7.823221
847.191711	1195.382202	1422.897095	1214.700806	8.491138
847.493042	1190.998169	1417.175781	1210.837036	8.771366
847.794250	1190.180908	1410.414429	1215.146606	11.336012
848.095459	1181.041626	1416.061157	1215.741089	14.764502
848.396606	1184.459839	1410.339844	1212.397461	12.368346
848.697693	1186.911621	1417.101563	1212.026001	10.910286
848.998657	1195.828003	1403.949829	1214.403687	8.925389
849.299622	1192.112793	1403.652710	1217.375854	11.942456
849.600464	1191.666992	1396.222290	1211.505859	9.698535
849.901367	1193.450317	1401.349243	1205.636108	5.861402
850.202087	1195.605103	1396.371094	1206.973511	5.662517
850.502808	1192.558716	1388.643555	1209.128174	8.450148
850.803467	1192.261475	1385.299805	1216.335571	12.471148
851.104065	1189.437988	1387.157349	1217.152954	14.017325
851.404663	1187.134644	1395.702271	1214.923828	13.323825
851.705139	1184.013794	1390.278198	1215.889648	15.453880
852.005615	1181.116089	1394.439087	1211.060059	14.036916
852.306030	1188.769165	1396.222534	1211.282837	10.852401
852.606384	1187.580444	1398.748657	1210.094116	10.661488
852.906616	1196.719604	1396.965454	1213.214844	8.237494
853.206909	1197.165405	1395.999512	1214.923828	8.931276
853.506958	1201.029175	1398.451538	1215.592407	7.376688
853.807129	1194.341919	1394.216187	1214.998169	10.334622
854.107178	1191.518433	1387.231812	1217.078613	13.060007
854.407166	1190.701172	1380.990234	1217.004272	13.822707
854.707092	1191.518433	1382.104858	1214.923828	12.280725
855.007019	1193.004517	1388.792114	1207.047729	7.172678
855.306763	1193.227417	1392.730103	1201.623657	4.208585
855.606567	1193.896118	1386.711792	1207.642212	7.129137
855.906250	1190.255371	1378.612671	1213.066284	12.110448
856.205933	1189.660767	1376.978027	1208.459473	10.035757
856.505493	1179.630005	1382.773560	1204.224243	12.106827
856.805054	1173.611450	1386.860229	1200.657593	12.682906
857.104492	1167.741577	1384.631226	1206.601929	17.917107
857.403931	1174.503174	1385.151367	1208.236450	16.014036
857.703308	1182.825073	1385.819946	1212.248901	14.494863
858.002563	1191.221313	1386.191528	1210.688477	9.984686
858.301819	1197.982788	1389.460938	1210.465698	6.519235
858.601013	1194.193237	1395.702271	1210.168335	7.927733
858.900208	1196.348145	1394.885132	1210.317017	7.035904
859.199219	1194.639160	1389.015137	1208.682495	7.224831
859.498291	1194.416260	1377.646851	1208.162231	7.502007
859.797302	1192.038574	1374.748901	1213.437866	11.712141
860.096191	1196.496704	1372.073853	1212.769165	9.267983
860.395020	1196.050903	1375.566284	1210.391479	7.988494
860.693787	1196.422485	1390.723999	1204.967285	4.397701
860.992554	1195.085083	1394.959351	1204.447144	4.683975
861.291260	1198.205688	1391.169922	1209.425415	5.814407
861.589844	1195.976563	1367.467285	1209.276733	7.755621
861.888428	1187.060303	1357.436523	1209.128052	12.952364
862.186890	1185.276978	1360.408569	1204.149780	10.776356
862.485413	1180.298706	1366.501343	1204.447144	12.968902
862.783813	1192.335815	1369.176270	1198.279907	3.361274
863.082153	1198.428589	1369.101929	1203.406860	2.916842
863.380371	1204.521362	1372.891479	1199.022949	-3.265670
863.678589	1195.828003	1373.040039	1201.772095	3.354226
863.976746	1196.050781	1371.182495	1198.131226	1.187931
864.274902	1198.131348	1370.290649	1203.258179	2.977958
864.572937	1201.995117	1369.770874	1205.561523	2.125698
864.870911	1200.657593	1371.405273	1208.682251	4.699717
865.168884	1192.930054	1370.810913	1206.899048	7.853006
865.466736	1194.639038	1367.764526	1207.864990	7.639518
865.764587	1189.437988	1368.359009	1208.310913	10.548187
866.062317	1195.010620	1371.851196	1206.379028	6.428620
866.360107	1191.295532	1367.318726	1203.778442	7.091628
866.657715	1196.942505	1363.157593	1199.394531	1.475213
866.955322	1196.050903	1356.693237	1202.143921	3.792909
867.252808	1190.478149	1365.535278	1209.276978	10.738682
867.550293	1192.558716	1368.136108	1211.728882	10.918357
867.847717	1193.598877	1372.891235	1211.134399	9.780407
868.145081	1197.685547	1371.776733	1211.951660	8.194621
868.442383	1198.279907	1361.374390	1210.391235	7.425958
868.739624	1194.490601	1365.015137	1204.521362	5.882298
869.036804	1194.193237	1370.142090	1194.564819	0.211188
869.333984	1189.586548	1373.411499	1196.199463	3.597398
869.631042	1197.908447	1360.185547	1199.171509	0.778336
869.928101	1204.372681	1361.968872	1199.320190	-3.205972
870.224976	1202.589478	1372.668579	1191.890015	-6.290874
870.521851	1197.536987	1380.916016	1192.930176	-2.512180
870.818726	1186.911743	1380.767578	1200.211914	6.860857
871.115479	1188.917847	1382.402222	1207.121948	9.408565
871.412231	1190.181152	1389.238159	1204.298462	7.092094
871.708862	1193.004517	1388.717773	1207.121948	7.213324
872.005493	1194.564941	1391.392578	1204.001343	4.794246
872.302063	1191.815552	1394.439087	1209.796875	8.874252
872.598572	1195.605103	1398.005737	1206.750488	5.506596
872.895020	1192.930176	1397.931274	1204.521484	5.654266
873.191406	1195.753784	1400.606079	1208.236572	6.093555
873.487671	1186.094360	1403.132446	1204.818726	8.627226
873.783997	1183.345215	1402.612671	1208.162231	11.318149
874.080200	1177.921021	1397.114136	1208.236572	13.830522
874.376343	1186.465820	1398.005737	1207.047729	9.729563
874.672424	1195.084961	1400.531860	1205.115845	4.882470
874.968445	1193.673218	1398.748657	1198.725708	2.463723
875.264465	1193.524658	1399.937500	1197.611328	1.979853
875.560364	1186.688721	1400.680542	1194.490601	3.645878
875.856201	1184.831177	1398.971680	1195.456543	4.961867
876.152039	1190.181030	1394.290649	1201.772095	5.678843
876.447754	1188.026245	1385.522827	1205.932983	9.066860
876.743469	1194.639160	1390.278198	1205.710205	5.658914
877.039063	1192.781616	1393.324585	1195.605103	1.407921
877.334595	1199.914673	1397.262695	1194.639160	-2.673203
877.630127	1199.617554	1392.581543	1194.193237	-2.811051
877.925537	1191.890015	1385.448608	1200.583374	4.491332
878.221008	1188.992188	1383.293579	1207.716431	9.636701
878.516296	1182.750610	1391.541382	1210.168457	13.131733
878.811646	1185.574219	1395.256470	1215.072388	14.068033
879.106812	1182.973633	1409.745483	1207.716431	10.910877
879.401978	1191.295532	1419.330688	1208.088013	7.363987
879.697083	1193.078735	1441.324219	1206.081909	5.238030
879.992126	1196.125122	1462.203247	1219.084717	8.628892
880.287109	1197.091064	1500.469116	1222.502686	8.376223
880.582031	1196.199585	1559.316895	1228.000977	8.757884
880.876892	1191.741333	1671.588257	1229.858643	7.943639
881.171753	1186.242920	1862.694946	1252.000854	9.721004
881.466492	1187.728882	2151.509521	1275.034668	9.058678
881.761230	1195.010620	2502.441650	1304.161377	8.348491
882.055786	1189.660889	2820.010986	1320.507935	8.025702
882.350403	1189.215088	3014.164307	1340.198120	8.273273
882.644958	1181.636230	3064.615479	1352.383667	9.067941
882.939453	1187.431763	3004.281982	1354.464233	9.193519
883.233826	1185.202637	2906.648193	1347.108398	9.405221
883.528137	1189.214966	2784.940186	1335.591431	9.173037
883.822449	1195.159302	2669.473877	1322.737061	8.653360
884.116577	1197.016846	2550.886719	1314.563843	8.682297
884.410828	1198.205688	2418.033447	1295.170776	7.949080
884.704956	1195.084961	2264.152588	1284.991333	8.409793
884.999023	1200.880615	2093.702148	1266.638550	7.365182
885.292969	1199.765991	1944.948120	1258.911011	7.936988
885.586914	1202.589478	1822.274414	1244.347656	6.738615
885.880798	1193.450317	1735.563110	1238.477905	8.305944
886.174622	1193.970337	1668.616211	1229.412842	7.467147
886.468384	1196.645386	1627.601196	1229.784302	7.689632
886.762085	1196.719604	1588.666504	1219.679077	5.857802
887.055664	1192.707397	1545.868164	1216.929810	6.858749
887.349304	1185.648560	1517.112915	1213.363403	8.361335
887.642822	1185.128540	1498.760132	1220.199341	11.182164
887.936340	1189.289429	1488.357788	1216.558472	9.117996
888.229736	1191.444214	1466.066895	1211.728638	7.386289
888.523071	1192.930176	1450.240601	1202.812378	3.840576
888.816284	1195.902222	1438.872192	1205.264282	3.853176
889.109619	1197.834106	1433.968262	1203.332520	2.328512
889.402710	1201.400757	1420.519531	1209.722656	3.797894
889.695862	1196.570923	1415.318359	1210.688599	6.453870
889.988892	1186.911743	1405.064453	1216.929932	13.760172
890.281921	1172.051025	1397.188477	1217.301514	20.099051
>>>>>End Processed Spectral Data<<<<<
