Jaz Data File
++++++++++++++++++++++++++++++++++++
Date: Fri Jun 04 16:41:22 2021
User: jaz
Dark Spectrum Present: Yes
Reference Spectrum Present: Yes
Processed Spectrum Present: Yes
Spectrometers: JAZA3586
Integration Time (usec): 24400 (JAZA3586)
Spectra Averaged: 10 (JAZA3586)
Boxcar Smoothing: 1 (JAZA3586)
Correct for Electrical Dark: No (JAZA3586)
Strobe/Lamp Enabled: Yes (JAZA3586)
Correct for Detector Non-linearity: No (JAZA3586)
Correct for Stray Light: No (JAZA3586)
Number of Pixels in Processed Spectrum: 2048
>>>>>Begin Processed Spectral Data<<<<<
W	D	R	S	P
191.335022	0.000000	0.000000	0.000000	0.000000
191.713211	234.499390	230.487045	235.539612	-25.925545
192.091385	471.747955	472.490997	473.754150	269.997528
192.469528	709.665283	712.117249	709.888184	9.090683
192.847641	718.878906	723.559875	717.838562	-22.224976
193.225739	727.126465	723.336975	733.516418	-168.623062
193.603790	728.761047	731.584534	746.816650	639.479004
193.981842	720.587830	734.779602	755.732910	247.644058
194.359863	726.383362	741.689758	754.098328	181.067871
194.737854	739.237793	743.398682	754.692688	371.432556
195.115829	760.636902	748.971436	751.200500	80.891762
195.493774	758.259277	751.200500	744.067444	201.052307
195.871704	756.401672	756.847473	743.621582	-2866.771729
196.249603	754.989929	757.219055	741.169617	-619.987976
196.627457	752.909485	755.807312	745.479187	-256.409271
197.005310	756.847473	745.702148	752.389343	40.000000
197.383133	753.875427	743.695984	754.395508	-5.109126
197.760910	758.036377	750.754700	753.949707	56.122646
198.138687	750.754700	751.794922	747.856934	-278.571838
198.516449	748.302673	750.828918	748.079773	-8.823387
198.894180	752.983704	749.863098	743.993164	288.102417
199.271866	760.191162	750.531799	737.380188	236.154022
199.649536	759.596741	749.417236	737.825989	213.868484
200.027191	750.234619	743.547363	740.946777	138.888687
200.404816	738.643372	742.581360	754.989929	415.099182
200.782410	736.488586	750.531799	759.968262	167.195892
201.159988	741.169617	762.494568	770.890686	139.372269
201.537537	737.677429	777.429382	767.472839	74.953323
201.915070	738.866211	781.738953	764.872253	60.658688
202.292557	733.665039	778.618164	754.469788	46.280983
202.670029	742.209961	774.903076	747.336731	15.681498
203.047485	743.324463	772.599670	749.863037	22.334852
203.424911	736.191406	769.256104	749.937317	41.572769
203.802292	728.463867	765.615234	750.234558	58.599972
204.179688	718.432922	760.711243	739.906433	50.790833
204.557037	725.937500	768.587341	739.683594	32.230118
204.934357	733.590759	771.782410	743.324402	25.486311
205.311661	738.866272	775.720398	748.971436	27.419355
205.688934	733.665039	769.924805	758.705078	69.057365
206.066177	727.052063	773.416992	759.299500	69.551353
206.443390	723.485657	770.221985	756.847473	71.383049
206.820587	725.789001	765.392334	750.606140	62.664268
207.197769	721.256531	758.482178	750.160339	77.644882
207.574921	725.194580	762.345886	752.983826	74.800186
207.952042	722.222473	765.169434	746.965271	57.612453
208.329147	726.383362	765.838135	747.188171	52.730782
208.706223	732.327637	776.463379	755.510071	52.525307
209.083267	738.048889	783.522156	761.231262	50.980225
209.460297	737.677429	787.237305	759.076599	43.178417
209.837280	731.213074	773.491394	747.633972	38.839996
210.214264	723.114014	766.506836	745.033447	50.513962
210.591217	722.148132	763.163269	747.336731	61.412933
210.968124	719.918945	761.305664	749.640137	71.813354
211.345016	726.606262	768.290039	744.290344	42.424377
211.721893	729.132568	771.187927	745.033447	37.809399
212.098724	733.590759	773.417053	746.668152	32.836079
212.475555	738.717590	767.472839	749.491516	37.467686
212.852356	736.191345	760.859863	749.417236	53.614452
213.229126	734.482361	763.980530	749.937317	52.392933
213.605865	733.887939	763.906250	751.274902	57.921192
213.982590	737.603088	767.324219	750.085938	41.999912
214.359283	740.278015	762.940369	750.754700	46.229465
214.735931	731.436035	761.157043	748.748535	58.250042
215.112579	738.866211	756.996155	743.101501	23.360748
215.489197	730.024231	761.454346	739.089172	28.841579
215.865799	734.556702	765.838196	738.717712	13.301828
216.242355	732.699158	772.674072	740.798157	20.260204
216.618896	747.262451	774.977356	745.776428	-5.361819
216.995407	747.633972	778.172424	748.228455	1.946669
217.371902	740.129395	773.491394	755.064270	44.766129
217.748367	725.417419	761.157043	751.497742	72.973129
218.124802	717.764221	758.036377	759.299561	103.136620
218.501236	719.027405	760.562683	752.612244	80.858589
218.877609	725.343201	771.782410	747.856934	48.480011
219.253983	732.253357	769.479004	739.757874	20.159533
219.630295	735.596924	766.729736	733.070618	-8.114610
220.006592	733.293518	766.283997	733.813721	1.576827
220.382889	732.104675	764.352051	728.835449	-10.137960
220.759140	724.971619	766.729797	735.151184	24.377417
221.135391	724.005676	766.804016	732.847717	20.659775
221.511581	723.634094	768.513000	737.825989	31.622639
221.887772	725.937561	770.816406	738.346130	27.649038
222.263931	727.646545	772.228210	744.810364	38.499725
222.640060	727.795166	778.395325	744.290344	32.599064
223.016159	729.281189	776.909241	740.649475	23.868887
223.392212	730.767273	778.692566	736.562805	12.092847
223.768265	733.665039	779.584167	738.197571	9.870684
224.144302	734.556824	776.983582	747.559631	30.647657
224.520294	735.745605	769.404724	752.017822	48.344154
224.896286	734.853943	759.893860	753.801086	75.667755
225.272217	743.250061	763.014648	756.624573	67.669067
225.648148	744.216064	760.859863	755.212891	66.071609
226.024048	745.702148	766.729736	752.835144	33.922081
226.399902	734.036560	765.392334	742.209961	26.066654
226.775772	729.132568	763.683350	743.101563	40.430328
227.151581	726.680603	758.630798	743.324402	52.092949
227.527374	734.333740	762.717468	745.627747	39.790424
227.903137	738.569031	770.816345	743.101501	14.055343
228.278870	743.695984	773.119812	753.801086	34.343262
228.654572	737.082947	774.085693	756.847473	53.413673
229.030273	736.637207	775.348877	761.900146	65.259232
229.405930	729.132629	775.423157	750.160217	45.425251
229.781555	729.578430	777.206482	745.702148	33.853409
230.157181	725.640381	776.686340	742.358459	32.751034
230.532761	727.795166	776.463562	746.370789	38.167732
230.908325	735.374023	771.187988	745.479187	28.215708
231.283859	740.278015	769.404724	750.977600	36.734615
231.659332	741.021057	776.017578	748.376953	21.018934
232.034821	731.361633	777.577942	748.451355	36.977688
232.410263	717.987122	777.949463	738.123230	33.581257
232.785690	713.528992	770.147766	736.265625	40.157410
233.161087	716.649719	770.296387	738.048889	39.889095
233.536469	722.593994	765.763855	742.135559	45.266685
233.911804	720.810730	768.141602	740.055176	40.659393
234.287140	720.141907	763.609070	738.643372	42.564232
234.662430	724.154297	770.370605	743.324402	41.479092
235.037704	727.497864	767.472839	745.033386	43.866249
235.412933	727.795166	770.519226	755.510071	64.869545
235.788162	722.222412	771.782410	755.287109	66.716499
236.163345	726.532043	773.045471	764.426453	81.469826
236.538513	732.253357	775.943359	757.516296	57.823158
236.913635	730.767273	777.726563	757.441895	56.803715
237.288742	730.024231	781.813232	753.132324	44.619694
237.663834	727.423645	790.135071	753.726807	41.943172
238.038879	732.476257	792.810059	752.909485	33.866966
238.413910	728.612488	794.890442	753.058105	36.883484
238.788910	725.714661	793.404480	753.578125	41.163448
239.163879	725.194519	788.351868	747.633972	35.529442
239.538834	723.708496	781.813232	744.513367	35.805809
239.913757	726.680603	776.983582	739.832275	26.144918
240.288651	728.389587	774.011414	745.627747	37.784897
240.663528	729.281250	775.200256	741.615479	26.860834
241.038361	726.234863	768.736023	743.993164	41.783096
241.413177	728.463867	777.577942	740.946716	25.416033
241.787979	729.801331	781.441711	748.302734	35.827396
242.162735	725.714661	789.615051	745.702148	31.279133
242.537476	726.531982	785.008240	744.810486	31.257992
242.912170	727.720886	793.553040	742.581360	22.573277
243.286865	731.658936	796.525146	744.513245	19.816648
243.661514	725.714661	806.927490	747.113831	26.349495
244.036148	725.789001	797.342468	745.850647	28.037279
244.410751	726.606262	796.153625	747.039551	29.380392
244.785339	726.011902	791.175476	746.965271	32.155033
245.159882	720.885010	795.856445	748.674255	37.066444
245.534378	719.621887	795.707825	747.113831	36.132751
245.908890	722.816895	797.788330	744.216003	28.543016
246.283356	721.033630	808.042053	743.027161	25.277473
246.657791	726.160461	812.425964	741.838379	18.174028
247.032196	726.680603	819.856262	748.748535	23.684225
247.406586	728.835388	828.252441	751.423340	22.720400
247.780960	725.640381	836.722961	759.373779	30.367857
248.155289	723.039795	834.791016	760.339783	33.377701
248.529602	731.658875	821.193665	763.311829	35.352688
248.903870	733.665039	815.249451	763.906311	37.067463
249.278122	736.934387	814.877930	756.847595	25.548246
249.652344	732.922058	817.552734	754.246887	25.197517
250.026550	735.745544	813.317566	742.061279	8.141769
250.400711	736.711426	805.738708	747.188171	15.177688
250.774857	736.934387	804.401184	741.912659	7.378847
251.148987	719.547546	800.537415	750.606140	38.348740
251.523071	713.008972	803.361023	748.451355	39.226982
251.897125	714.197754	804.772766	758.407898	48.810532
252.271164	728.984070	816.512512	757.219055	32.258068
252.645187	735.448303	829.887024	757.144714	22.974064
253.019165	732.996338	824.908875	749.417297	17.865854
253.393112	729.875671	822.754089	742.878601	13.999948
253.767044	727.572266	820.673523	745.330566	19.074179
254.140930	724.080017	825.057434	745.256348	20.971354
254.514801	730.470032	827.212219	750.680420	20.890978
254.888657	732.847717	817.998718	746.222229	15.706817
255.262466	735.522644	818.518799	742.135559	7.967737
255.636276	730.470032	811.831543	744.884766	17.716896
256.010010	729.429871	818.295898	741.541199	13.628749
256.383759	731.881836	818.890320	743.918884	13.834339
256.757446	730.024231	831.075989	741.838379	11.691185
257.131134	731.213074	834.419617	745.776367	14.110824
257.504791	726.829285	839.695068	749.714539	20.276520
257.878418	726.457703	843.038757	750.754700	20.841291
258.252014	718.061462	845.862122	749.788757	24.825611
258.625580	726.680664	856.115906	750.531799	18.427080
258.999115	732.699219	861.242859	752.537903	15.433423
259.372650	727.943787	875.583252	753.058105	17.010572
259.746124	723.039795	894.307556	753.578186	17.830788
260.119598	719.547546	918.084412	756.550293	18.637720
260.493042	727.572266	938.889160	757.887756	14.345985
260.866425	732.996399	945.502136	759.373840	12.412579
261.239838	730.395691	941.935547	752.092224	10.256475
261.613159	735.596924	924.994629	754.841370	10.160866
261.986511	724.674500	906.195984	758.779358	18.788332
262.359802	728.538269	900.177490	762.643250	19.870155
262.733063	729.132629	894.976257	759.745361	18.458794
263.106293	738.049011	898.394226	758.556458	12.789559
263.479523	733.813660	890.072266	750.308899	10.556372
263.852692	727.349304	887.025879	744.216003	10.563039
264.225861	725.343201	886.951660	741.912598	10.252803
264.598969	719.101746	889.552246	753.132324	19.965080
264.972076	714.049133	889.403625	756.847473	24.406754
265.345154	717.095520	888.660461	750.308899	19.359072
265.718201	725.640381	892.747131	744.736145	11.427284
266.091217	737.603210	907.459167	750.085938	7.349008
266.464203	730.024231	918.901672	754.469788	12.942550
266.837158	727.349304	937.923279	757.367676	14.255499
267.210114	719.696106	945.725098	752.389465	14.464232
267.583038	723.634277	954.269836	753.355286	12.886568
267.955902	725.045959	952.635193	744.587646	8.586385
268.328766	730.618652	946.542419	748.005554	8.052334
268.701569	730.098572	950.034668	741.318176	5.101302
269.074371	729.578430	953.526855	749.417236	8.858649
269.447144	723.262695	974.331543	747.708313	9.736619
269.819885	728.538269	980.721619	750.383118	8.662289
270.192596	727.943848	993.501648	752.537903	9.261281
270.565277	738.271790	993.724609	756.253113	7.039000
270.937927	733.590820	1008.362244	756.550293	8.355844
271.310577	731.510254	1033.476563	758.630798	8.981315
271.683136	723.857117	1066.689819	753.652527	8.690948
272.055725	724.377197	1092.844360	755.955872	8.570282
272.428284	727.349365	1101.314941	746.445129	5.106289
272.800812	741.095276	1098.565796	744.216003	0.873003
273.173279	749.268555	1089.500854	741.466797	-2.293068
273.545776	752.240723	1071.519531	744.290344	-2.490105
273.918152	745.999329	1069.141846	749.268616	1.011717
274.290558	734.779602	1064.757935	746.147949	3.445180
274.662964	735.448425	1064.015015	740.352356	1.492523
275.035278	731.956055	1059.705444	732.030457	0.022701
275.407593	731.584656	1058.145142	733.590759	0.614313
275.779907	728.686768	1068.844727	742.358582	4.019255
276.152161	731.584656	1076.274902	756.773254	7.307604
276.524384	739.832214	1099.085815	757.367676	4.881082
276.896606	730.990234	1109.339722	750.531799	5.164951
277.268799	735.076843	1120.039185	737.083008	0.521133
277.640930	724.525818	1125.017456	738.717590	3.543588
278.013031	730.618652	1133.339355	741.838379	2.785982
278.385162	724.154297	1138.911987	744.810364	4.980273
278.757233	727.126465	1140.992554	742.209900	3.644521
279.129272	729.281250	1146.119507	744.513184	3.654159
279.501282	732.253235	1151.617798	739.609192	1.754072
279.873230	734.408020	1158.230835	749.863037	3.646575
280.245178	737.751709	1179.258423	743.844543	1.380010
280.617126	732.476257	1204.595703	756.253113	5.036195
280.988983	727.869446	1222.874146	746.965332	3.857718
281.360870	725.789001	1242.861694	754.841309	5.618612
281.732697	726.754883	1269.313354	747.188232	3.766110
282.104492	730.990234	1301.486450	743.027161	2.109905
282.476288	726.680664	1324.817505	739.460693	2.136640
282.848053	729.058289	1334.848511	736.562988	1.238828
283.219757	730.915833	1337.151733	744.438965	2.230672
283.591461	730.024231	1331.579102	750.457520	3.396746
283.963135	730.098633	1329.498535	750.234558	3.359347
284.334747	729.801331	1336.334351	750.085999	3.344363
284.706360	736.414307	1349.040161	751.943542	2.534865
285.077942	730.767273	1372.371094	765.318054	5.385065
285.449524	732.401855	1395.182251	762.420227	4.529158
285.821014	731.361633	1417.101563	752.983704	3.153101
286.192535	742.135559	1439.912476	749.194336	1.011609
286.563995	742.432800	1468.370483	759.373840	2.333677
286.935425	738.123230	1486.128784	758.556458	2.731695
287.306824	728.166687	1493.261719	753.578186	3.321352
287.678223	729.801270	1479.218750	743.250061	1.794566
288.049561	734.631042	1464.803833	751.200500	2.269252
288.420898	735.745544	1444.147827	754.395569	2.632688
288.792145	731.287354	1436.940308	755.658691	3.453729
289.163452	728.909668	1443.033203	753.206726	3.402361
289.534668	729.355469	1470.302246	756.624573	3.680305
289.905914	721.702332	1494.376343	756.401672	4.490812
290.277039	722.519714	1528.332642	756.698914	4.241580
290.648193	724.748718	1561.917603	746.445129	2.591641
291.019318	729.875671	1598.102905	745.404968	1.788621
291.390381	732.773438	1625.372070	740.723816	0.890700
291.761475	734.110840	1621.359741	748.599915	1.633034
292.132507	734.408020	1616.975952	747.708313	1.506999
292.503510	733.962219	1595.205078	755.287170	2.476067
292.874481	731.584656	1584.059570	757.293396	3.015777
293.245422	731.807556	1578.264160	766.655457	4.116915
293.616364	731.064453	1598.697266	763.534729	3.742398
293.987213	733.813660	1638.598022	761.900085	3.104212
294.358093	734.110840	1685.111450	759.522461	2.672093
294.728943	737.751770	1731.625000	756.698914	1.906394
295.099731	735.894226	1773.308716	761.082764	2.428011
295.470490	736.265686	1805.184692	758.259277	2.057555
295.841248	728.166687	1834.014038	762.866028	3.137805
296.211975	726.903564	1849.320313	753.429626	2.363299
296.582642	725.566101	1885.134277	750.160217	2.120972
296.953308	725.789001	1923.177368	747.856934	1.843005
297.323883	724.525818	1980.464844	751.200439	2.123879
297.694519	727.497864	2006.842163	759.968201	2.538045
298.065063	731.138855	2010.260132	756.178772	1.957587
298.435608	725.714661	1982.545288	752.463684	2.128292
298.806122	722.073792	1934.545776	750.606018	2.353228
299.176575	720.587830	1872.131348	756.327393	3.103623
299.547028	730.990173	1821.977173	760.488281	2.703800
299.917450	738.197571	1796.862915	753.206726	1.417743
300.287872	743.101501	1790.249878	745.330566	0.212870
300.658234	743.993164	1794.187866	748.377014	0.417432
301.028564	741.987000	1788.466431	751.720520	0.930121
301.398865	732.773438	1784.379883	758.184875	2.416440
301.769135	727.126465	1780.738892	753.355286	2.489418
302.139374	720.513489	1796.119751	751.423401	2.873720
302.509583	721.628113	1804.813110	752.760803	2.874180
302.879791	721.182190	1803.847046	754.544128	3.081465
303.249939	724.600098	1795.599487	748.822815	2.261693
303.620087	729.281250	1791.290039	743.621643	1.350308
303.990173	730.544434	1784.528320	744.513245	1.325334
304.360260	730.841553	1781.407837	758.705078	2.652239
304.730286	731.436035	1792.924683	767.770020	3.422927
305.100281	731.287354	1797.085571	767.027039	3.353326
305.470276	724.228699	1808.305298	758.482178	3.159692
305.840179	721.330811	1806.967773	748.525635	2.504965
306.210144	719.993408	1822.794312	744.736145	2.243627
306.579987	721.107910	1825.023438	754.395508	3.015412
306.949890	724.377197	1833.568237	759.225159	3.141746
307.319702	727.572266	1849.097534	767.918640	3.597456
307.689484	732.327637	1863.214966	753.503906	1.872536
308.059265	735.299805	1895.388062	747.782532	1.076015
308.429016	732.922058	1931.202026	745.107666	1.016925
308.798737	735.374023	1983.808228	754.618408	1.541482
309.168396	735.448425	2034.928589	759.448059	1.846864
309.538055	745.479187	2072.674316	759.002258	1.018921
309.907684	746.593750	2098.531738	753.355286	0.500136
310.277313	743.175781	2109.825928	757.590515	1.054749
310.646851	737.305908	2119.336426	759.596680	1.612900
311.016388	741.243958	2140.364014	765.689514	1.747209
311.385895	742.952881	2152.921387	764.723633	1.544059
311.755371	740.129395	2169.416748	762.791748	1.585570
312.124817	735.819824	2172.908691	763.386169	1.918207
312.494232	737.677429	2166.295654	759.596741	1.534302
312.863617	738.643372	2155.596436	754.395508	1.111691
313.232971	736.934326	2137.094971	752.166443	1.087883
313.602295	735.968445	2120.005127	753.206726	1.245508
313.971619	736.637146	2119.559326	756.476074	1.434566
314.340820	734.928223	2130.853271	751.349121	1.176345
314.710083	734.630920	2162.952148	746.445129	0.827139
315.079285	731.807434	2183.682617	744.736145	0.890484
315.448486	740.946716	2216.227295	747.485352	0.443213
315.817596	736.785828	2222.171631	746.668030	0.665295
316.186707	740.203674	2197.651611	744.141785	0.270206
316.555786	727.349365	2144.673828	750.829041	1.656620
316.924866	723.485657	2101.355225	752.983704	2.140845
317.293884	723.559875	2087.386230	760.265442	2.691366
317.662872	731.213074	2094.667969	758.927917	2.032692
318.031830	728.240967	2108.339600	765.020752	2.665011
318.400757	717.764221	2123.720459	768.661621	3.620127
318.769684	715.609436	2125.726318	772.005310	3.999376
319.138550	726.680603	2136.723145	764.649231	2.692729
319.507416	732.179016	2155.744873	755.658691	1.649356
319.876190	729.206848	2180.784668	744.438965	1.049349
320.244995	732.030457	2195.645264	749.788757	1.213318
320.613770	736.042786	2178.406982	752.166504	1.117867
320.982483	738.048889	2154.035889	754.321228	1.149187
321.351166	735.894104	2129.590088	756.550293	1.482116
321.719818	732.699036	2111.980469	755.955872	1.686156
322.088440	739.089172	2110.865967	762.271667	1.689961
322.457062	736.934326	2133.974121	757.813477	1.494528
322.825623	745.776367	2173.726318	766.432556	1.446563
323.194183	742.878662	2219.570801	763.237610	1.378686
323.562653	741.169617	2257.390869	763.980652	1.504466
323.931183	725.120300	2316.015625	752.092102	1.695385
324.299591	722.742493	2378.950195	747.708252	1.507405
324.668060	721.405090	2428.733154	750.011719	1.675520
325.036407	732.179016	2472.051514	752.835144	1.187221
325.404755	733.070618	2497.686279	755.807312	1.288478
325.773102	739.014832	2510.243408	755.732971	0.943873
326.141388	734.110840	2511.580811	760.414063	1.479813
326.509674	727.200745	2518.862305	761.157043	1.895241
326.877899	714.346375	2542.787842	758.705139	2.426043
327.246124	716.798340	2556.905273	757.516296	2.212804
327.614288	723.559875	2559.580322	755.435791	1.736142
327.982422	726.680664	2549.549316	755.287170	1.569313
328.350525	725.714661	2538.032471	755.064270	1.619452
328.718628	725.491699	2519.308105	756.996094	1.756278
329.086700	726.086121	2525.029541	762.345947	2.015618
329.454712	728.835388	2528.595947	757.516296	1.593596
329.822693	730.098572	2546.205811	760.414001	1.669253
330.190674	735.522644	2549.400879	755.435730	1.097818
330.558563	737.751709	2569.388184	763.014648	1.379255
330.926483	730.098572	2591.604736	758.333557	1.516782
331.294312	730.990234	2616.347656	755.212891	1.284778
331.662231	719.993408	2642.873779	748.599915	1.487690
332.029999	720.959290	2683.071533	754.767090	1.723031
332.397766	719.398926	2720.148438	756.476074	1.853163
332.765503	733.070618	2761.014893	751.051941	0.886677
333.133240	736.934387	2814.215576	752.315125	0.740426
333.500916	734.185242	2870.016846	750.828918	0.779260
333.868561	722.519714	2911.552002	757.293274	1.588536
334.236176	720.959290	2927.675781	749.194336	1.279505
334.603790	724.303040	2929.533203	755.584412	1.418508
334.971344	725.491882	2922.326172	755.138489	1.349515
335.338867	728.241028	2903.527588	764.946472	1.687384
335.706360	725.045898	2914.821289	759.002258	1.550678
336.073853	730.618652	2927.452881	757.367676	1.217617
336.441284	729.652649	2955.687744	750.606140	0.941292
336.808655	735.151123	2928.567383	754.321228	0.873984
337.176086	729.652771	2896.468750	754.915710	1.165902
337.543396	732.550598	2813.175049	761.008484	1.367757
337.910706	728.761169	2760.643311	759.522461	1.513931
338.277954	729.281250	2758.934326	768.736023	1.943917
338.645264	727.795166	2842.153564	759.745300	1.511103
339.012421	724.674377	2966.833252	759.150879	1.537647
339.379669	730.024170	3088.318359	751.943604	0.929461
339.746796	724.302917	3185.506104	765.838135	1.687598
340.113953	725.045898	3246.434326	764.054932	1.547125
340.481018	721.999512	3265.381592	763.534851	1.633075
340.848114	722.148132	3265.901611	752.686523	1.200525
341.215118	725.194580	3261.889404	750.160339	0.984185
341.582153	722.742615	3272.440430	756.327393	1.317206
341.949066	726.309082	3286.929688	756.550293	1.181011
342.316010	721.479492	3309.666016	760.265381	1.498574
342.682922	720.662109	3328.836182	762.643127	1.609594
343.049835	721.182190	3350.904297	757.887756	1.395796
343.416656	730.767273	3397.789063	765.986816	1.320557
343.783478	733.144836	3471.794678	760.562683	1.001145
344.150269	736.860107	3573.589111	768.215820	1.105348
344.516998	741.912659	3676.647217	763.757629	0.744359
344.883728	743.175781	3771.606201	758.482117	0.505421
345.250427	739.089172	3847.468994	760.339783	0.683656
345.617065	728.835449	3889.673096	763.163269	1.086035
345.983704	730.915833	3904.979492	775.794739	1.413926
346.350281	733.367859	3885.586670	776.240540	1.360080
346.716827	733.219238	3844.943115	769.924805	1.179589
347.083405	727.943665	3800.806885	761.602844	1.095369
347.449860	729.949951	3745.154297	761.528625	1.047315
347.816376	730.470032	3707.185547	766.878418	1.223106
348.182770	734.036621	3664.981689	760.414063	0.899964
348.549194	726.754883	3649.526611	756.030212	1.001629
348.915558	718.730225	3655.545654	752.166443	1.138520
349.281921	722.593994	3669.588623	758.928040	1.232919
349.648193	723.039795	3713.129883	760.191101	1.242481
350.014526	729.058289	3755.036377	764.872131	1.183546
350.380737	730.395691	3807.345703	764.352051	1.103572
350.746948	730.767273	3866.565186	765.095154	1.094710
351.113159	730.247131	3919.023193	763.014648	1.027589
351.479309	721.182190	3951.641846	762.643066	1.283436
351.845428	723.039795	3969.028564	761.677185	1.190312
352.211517	723.336975	3983.666016	760.785461	1.148611
352.577576	720.513489	4022.006592	761.157043	1.231066
352.943604	721.925293	4068.296875	761.082764	1.170147
353.309601	728.612488	4138.215332	766.655457	1.115760
353.675537	737.900391	4221.062988	763.757629	0.742349
354.041473	733.070618	4319.514160	759.596680	0.739620
354.407379	728.018066	4432.975098	759.819641	0.858352
354.773254	727.720886	4540.639648	759.076660	0.822356
355.139038	735.968445	4626.310547	761.825867	0.664657
355.504913	737.528809	4706.483398	758.110657	0.518571
355.870636	731.361633	4801.962402	761.454285	0.739268
356.236389	725.863281	4909.478516	758.556458	0.781458
356.602081	730.098572	5044.708984	750.160339	0.464973
356.967804	738.791992	5162.924316	746.816711	0.181385
357.333405	739.757874	5299.121094	749.863098	0.221637
357.699036	735.225403	5421.275391	751.720520	0.352005
358.064606	731.658875	5574.785156	764.203430	0.671974
358.430176	735.448242	5697.978516	761.231384	0.519556
358.795654	734.630920	5749.470215	770.147705	0.708234
359.161163	737.751709	5740.256348	767.249817	0.589667
359.526581	742.358459	5718.411621	770.816406	0.571898
359.892029	747.262512	5737.730469	772.674011	0.509201
360.257416	740.872375	5821.767090	769.924805	0.571798
360.622772	729.801331	5995.263672	770.965027	0.781768
360.988098	722.148132	6238.902344	770.073425	0.868723
361.353394	720.067688	6525.413574	777.057861	0.981684
361.718658	727.720886	6799.665527	781.293152	0.882292
362.083893	733.962341	7043.154785	779.064026	0.714857
362.449097	740.872498	7184.255859	780.401428	0.613481
362.814209	739.163574	7190.571777	774.828796	0.552828
363.179382	739.683594	7001.619629	780.995911	0.659737
363.544434	738.643372	6697.721191	768.958801	0.508727
363.909546	737.751709	6319.669434	774.234375	0.653587
364.274536	734.853943	6016.068359	768.438782	0.635930
364.639587	737.825928	5793.457520	771.113708	0.658430
365.004517	735.151062	5679.997559	770.444885	0.713750
365.369507	737.157227	5614.610840	770.742126	0.688574
365.734344	722.445313	5570.326660	769.627625	0.973256
366.099274	724.377258	5523.664063	766.061035	0.868541
366.464081	727.052063	5495.280762	758.853699	0.666949
366.828918	738.420410	5496.171875	757.218994	0.395115
367.193665	742.135559	5501.076660	755.881592	0.288846
367.558411	734.408142	5515.416504	761.082764	0.557929
367.923126	735.745605	5509.695313	762.791748	0.566536
368.287781	733.367859	5507.688965	765.169434	0.666096
368.652435	734.853943	5481.609375	768.215820	0.702835
369.017059	738.791931	5450.996094	772.822571	0.722181
369.381653	738.717590	5422.761230	772.525391	0.721765
369.746185	744.736145	5397.646484	776.909180	0.691460
370.110687	738.717590	5404.259766	777.206482	0.824961
370.475220	738.717712	5452.259277	788.797668	1.062470
370.839661	733.293640	5522.772949	782.259033	1.022353
371.204041	733.293640	5595.515137	781.516052	0.991777
371.568451	740.203674	5641.730957	769.330383	0.594237
371.932770	737.380188	5695.229004	763.832031	0.533535
372.297150	736.637207	5733.420410	759.002258	0.447589
372.661377	733.219238	5775.921875	758.630798	0.503927
373.025696	743.993164	5810.101563	764.574951	0.406264
373.389862	738.048889	5812.701660	769.404602	0.617889
373.754059	736.117004	5810.918457	772.302429	0.713041
374.118225	719.250305	5810.695313	775.497559	1.104741
374.482361	727.869446	5840.714355	776.463440	0.950430
374.846436	730.470032	5899.338379	770.147705	0.767628
375.210510	738.643311	5979.808594	764.649353	0.496188
375.574524	738.569031	6091.187988	762.197327	0.441434
375.938538	735.299744	6240.239746	772.302490	0.672174
376.302460	732.476257	6377.253906	772.748291	0.713439
376.666412	732.699158	6556.545410	774.234375	0.713192
377.030304	730.098572	6702.253906	777.503723	0.793770
377.394196	733.442200	6865.645020	778.618164	0.736700
377.757996	728.463867	6979.477051	776.834961	0.773812
378.121796	732.327637	7059.724121	774.680176	0.669352
378.485565	734.631042	7080.454590	777.800964	0.680289
378.849304	733.665100	7012.914063	781.961853	0.769149
379.212982	727.423645	6873.521973	782.481934	0.895825
379.576630	724.897278	6708.867188	786.568604	1.030609
379.940277	725.120300	6588.496094	774.977356	0.850313
380.303864	723.782898	6498.812988	769.701843	0.795129
380.667450	725.714661	6465.673828	760.042480	0.598050
381.030945	721.925293	6455.865723	773.491394	0.899314
381.394501	730.692932	6481.352051	772.674011	0.730022
381.757935	734.482422	6507.357910	782.630554	0.834041
382.121399	748.451355	6502.008301	782.853516	0.597929
382.484741	746.816650	6533.289551	789.317810	0.734492
382.848145	746.147949	6564.273926	787.608887	0.712617
383.211487	745.925049	6652.991699	799.200012	0.901885
383.574768	737.825989	6737.474121	799.645935	1.030393
383.938019	731.807556	6834.810059	809.973938	1.280786
384.301270	717.912903	6918.623535	806.333069	1.425968
384.664459	725.417480	7009.049316	813.689026	1.404785
385.027649	728.835449	7067.600098	812.797424	1.324579
385.390778	739.683594	7133.878418	819.930481	1.254996
385.753876	740.946716	7169.320801	831.744629	1.412455
386.116943	741.541199	7209.221191	837.911804	1.490034
386.479980	733.219238	7219.400879	845.564941	1.732078
386.842987	723.485596	7277.283203	839.249207	1.766359
387.205994	719.696106	7321.344238	842.667175	1.862733
387.568909	725.194519	7385.542480	847.868347	1.841853
387.931793	723.039734	7404.191895	859.979736	2.049646
388.294678	722.816895	7452.042969	873.577087	2.240379
388.657471	721.256531	7490.457031	890.963928	2.507052
389.020294	730.172852	7509.851074	907.682068	2.618254
389.383057	731.807434	7521.812988	924.623047	2.839698
389.745819	731.584534	7523.001953	940.672424	3.078708
390.108521	728.240967	7537.490723	966.901367	3.504944
390.471191	718.061523	7584.747559	991.867004	3.987447
390.833801	719.250305	7693.972656	1014.157898	4.228234
391.196442	717.987244	7873.116699	1042.541382	4.535964
391.558960	722.148193	8064.074219	1076.572144	4.827398
391.921509	723.857117	8256.370117	1115.135254	5.194523
392.284027	725.491760	8436.777344	1161.723022	5.657050
392.646484	732.699219	8552.616211	1210.688599	6.112461
393.008911	735.002502	8574.459961	1258.911011	6.682969
393.371307	730.693054	8509.444336	1295.839478	7.265259
393.733673	725.714661	8463.303711	1334.922607	7.873356
394.096008	719.250305	8405.717773	1375.937866	8.543425
394.458344	729.281250	8420.801758	1421.188110	8.995709
394.820587	739.312073	8436.702148	1472.531250	9.525556
395.182831	744.513245	8500.379883	1526.400757	10.081240
395.545013	735.002502	8476.379883	1581.533325	10.935144
395.907196	731.436035	8379.489258	1631.464844	11.768077
396.269287	736.934387	8235.044922	1678.275391	12.554377
396.631409	737.305847	8102.117676	1730.064453	13.479754
396.993469	727.943787	7986.131348	1779.401733	14.486509
397.355530	714.494934	7893.178223	1827.772827	15.508106
397.717499	717.689941	7879.432129	1887.363403	16.332247
398.079468	729.355469	7869.921387	1952.452637	17.128855
398.441376	730.395691	7870.962402	2024.303345	18.120518
398.803284	730.395752	7843.990234	2100.686523	19.262987
399.165131	723.485596	7857.364746	2185.540283	20.494526
399.526978	725.491882	7883.741699	2258.579590	21.417074
399.888763	729.058289	7907.072754	2338.975342	22.428444
400.250519	726.829163	7913.908203	2408.299805	23.395744
400.612244	732.253357	7938.428223	2488.992432	24.378246
400.973938	734.779602	7947.419434	2562.255127	25.337126
401.335602	738.049011	7986.874512	2634.105713	26.156742
401.697205	731.733215	8039.257813	2719.033936	27.195267
402.058807	731.064514	8106.204590	2800.841064	28.064234
402.420349	727.423645	8202.425781	2903.304443	29.108767
402.781860	726.309082	8297.310547	3010.300537	30.167627
403.143341	719.919006	8426.299805	3123.612061	31.190947
403.504822	725.343079	8575.797852	3231.499268	31.923708
403.866241	729.504089	8759.844727	3347.263428	32.598358
404.227631	735.819824	8919.818359	3450.915771	33.175667
404.588959	734.482422	9088.782227	3576.933350	34.023808
404.950287	736.414246	9231.666992	3701.538818	34.903309
405.311554	730.544434	9344.831055	3809.872070	35.746750
405.672821	738.049011	9375.294922	3902.007080	36.631561
406.034027	740.426575	9354.563477	3957.214111	37.343121
406.395203	744.067444	9267.778320	4004.693604	38.253601
406.756348	730.618652	9186.045898	4023.715576	38.946545
407.117493	726.606262	9096.064453	4057.226318	39.794933
407.478516	722.519714	9084.176758	4113.695801	40.556267
407.839600	725.343201	9093.018555	4177.819336	41.259678
408.200592	728.463928	9117.538086	4242.017090	41.882492
408.561554	725.789001	9092.126953	4282.585938	42.513187
408.922485	725.045959	9102.380859	4345.148438	43.213058
409.283417	725.343201	9112.336914	4371.600098	43.475132
409.644257	727.200745	9221.413086	4446.497559	43.786251
410.005096	729.504150	9339.331055	4528.155762	44.119953
410.365906	730.692932	9469.063477	4638.347168	44.718342
410.726715	735.968445	9561.868164	4730.333496	45.257313
411.087433	736.860046	9650.584961	4790.593262	45.477432
411.448120	733.590759	9754.386719	4863.039063	45.776985
411.808807	728.538147	9780.094727	4913.564453	46.235432
412.169434	732.104736	9714.114258	4937.787598	46.823402
412.530029	727.795166	9637.286133	4947.224121	47.358807
412.890564	729.801331	9610.387695	4934.964355	47.352314
413.251099	734.259460	9630.895508	4975.459473	47.671955
413.611572	739.386414	9660.765625	5008.746582	47.855385
413.972076	736.191406	9711.959961	5072.423340	48.310425
414.332489	726.903503	9755.500977	5116.708008	48.621113
414.692871	723.336975	9881.816406	5191.457031	48.786701
415.053223	733.887939	10009.914063	5272.298340	48.926231
415.413574	737.305908	10238.023438	5392.296875	48.996204
415.773834	741.912659	10403.496094	5505.162598	49.300926
416.134094	744.736145	10580.929688	5610.523926	49.468197
416.494263	738.940613	10710.291992	5678.733887	49.539860
416.854462	737.900391	10954.226563	5799.625000	49.545448
417.214630	728.240967	11207.079102	5944.589355	49.779839
417.574738	731.436035	11493.145508	6122.841309	50.098042
417.934784	730.395813	11763.235352	6277.391113	50.277130
418.294861	732.922058	12116.916992	6463.296875	50.337116
418.654846	731.436035	12549.655273	6679.591797	50.330391
419.014832	733.070618	12967.385742	6924.938965	50.610664
419.374756	728.463867	13464.840820	7168.206543	50.561810
419.734680	734.110840	13974.929688	7429.603516	50.567062
420.094543	729.578430	14499.581055	7670.121094	50.403347
420.454376	734.630920	14956.320313	7915.617188	50.493202
420.814148	732.104675	15371.300781	8151.231934	50.679882
421.173920	733.888000	15842.159180	8392.343750	50.690483
421.533691	736.637207	16279.429688	8643.635742	50.872444
421.893341	734.928223	16630.806641	8836.005859	50.963383
422.253021	736.042786	16851.560547	9002.592773	51.295589
422.612640	735.819824	16893.986328	9072.436523	51.593834
422.972260	739.906494	16863.894531	9088.858398	51.779697
423.331757	736.265625	16766.039063	9041.452148	51.811005
423.691315	730.990173	16782.904297	9020.276367	51.640484
424.050781	724.600159	16890.791016	9080.014648	51.684498
424.410248	723.262695	17014.951172	9167.766602	51.833202
424.769653	719.473328	17164.968750	9263.692383	51.954765
425.128998	725.566101	17213.191406	9276.174805	51.860764
425.488373	725.491760	17146.541016	9237.686523	51.837093
425.847656	732.030457	16947.482422	9153.054688	51.932098
426.206940	727.943787	16749.169922	9060.176758	52.007462
426.566193	727.572266	16431.822266	8920.784180	52.171940
426.925385	722.296692	16107.714844	8762.817383	52.260658
427.284576	730.544373	15609.218750	8544.590820	52.518429
427.643677	735.596985	15275.450195	8361.359375	52.447311
428.002777	740.649597	14929.942383	8184.965332	52.464317
428.361847	739.237793	14609.327148	8002.700684	52.367813
428.720856	735.596985	14301.936523	7837.451172	52.349079
429.079865	739.460693	14064.687500	7711.656738	52.323284
429.438812	731.881836	13915.637695	7644.933105	52.436131
429.797760	729.504089	13796.828125	7609.044922	52.646900
430.156616	721.405090	13629.051758	7547.744629	52.886009
430.515503	715.832336	13550.140625	7491.794434	52.795692
430.874268	715.906677	13514.401367	7473.070801	52.796551
431.233093	724.748718	13564.706055	7480.203613	52.612755
431.591827	732.847717	13622.438477	7524.042969	52.687439
431.950562	738.569092	13654.461914	7537.937500	52.643425
432.309204	732.179016	13711.750000	7565.800781	52.649055
432.667877	731.361633	13791.105469	7628.585938	52.812859
433.026459	733.962219	13928.194336	7708.312988	52.859085
433.385010	742.135559	14052.575195	7768.423340	52.787796
433.743561	740.872375	14270.208008	7837.970703	52.457108
434.102051	733.219238	14407.296875	7910.416504	52.487614
434.460510	729.727051	14588.668945	8000.916504	52.465691
434.818939	731.138733	14607.617188	8049.957031	52.742619
435.177338	725.566101	14635.851563	8094.910156	52.977665
435.535675	721.256531	14537.475586	8102.340332	53.423328
435.894012	721.107910	14508.200195	8067.864746	53.287212
436.252289	731.881775	14550.999023	8053.523438	52.981979
436.610535	728.389587	14576.113281	8036.582520	52.775410
436.968719	729.652771	14675.976563	8114.229004	52.949982
437.326935	726.309082	14755.331055	8180.729004	53.135708
437.685028	732.550476	14895.020508	8280.295898	53.293991
438.043152	731.213074	14995.032227	8332.009766	53.287251
438.401215	727.795166	15188.442383	8429.346680	53.258694
438.759277	724.005676	15423.015625	8530.622070	53.109810
439.117249	729.949890	15819.421875	8714.966797	52.917805
439.475250	736.934387	16143.828125	8884.672852	52.883720
439.833130	740.575256	16532.058594	9091.161133	52.880314
440.191071	737.231628	16801.705078	9225.425781	52.838299
440.548889	745.033386	17086.580078	9375.961914	52.815861
440.906708	740.798096	17380.968750	9520.705078	52.763329
441.264496	742.878601	17580.767578	9648.431641	52.889961
441.622223	730.172852	17761.248047	9738.336914	52.892517
441.979950	732.476257	17829.308594	9791.315430	52.985481
442.337616	728.761047	17830.794922	9835.823242	53.251343
442.695251	722.742493	17711.763672	9775.860352	53.288048
443.052887	723.708496	17502.451172	9676.219727	53.356274
443.410461	723.559875	17338.912109	9572.494141	53.257584
443.768005	738.569092	17182.058594	9507.181641	53.325737
444.125458	737.305847	17098.617188	9469.510742	53.371059
444.482941	732.476135	17139.185547	9479.540039	53.313942
444.840393	729.206848	17255.470703	9555.701172	53.408890
445.197754	731.807434	17532.619141	9686.326172	53.298126
445.555084	742.358459	17810.955078	9841.915039	53.311687
445.912415	741.392578	18180.835938	10032.205078	53.274708
446.269714	740.203796	18433.464844	10181.553711	53.361271
446.626953	733.665100	18741.375000	10356.312500	53.436268
446.984161	730.024231	19037.099609	10529.958008	53.530849
447.341309	724.451599	19324.800781	10675.888672	53.501347
447.698456	722.222473	19500.898438	10768.321289	53.497375
448.055542	729.132629	19573.937500	10836.010742	53.632172
448.412598	735.522705	19520.439453	10838.686523	53.783386
448.769653	739.609314	19381.195313	10775.157227	53.834194
449.126617	730.024231	19071.501953	10616.819336	53.904022
449.483582	725.937561	18841.982422	10488.647461	53.889854
449.840515	723.188293	18478.566406	10339.074219	54.157593
450.197388	725.863220	18273.937500	10215.509766	54.077995
450.554230	727.200745	18019.748047	10105.467773	54.232998
450.911041	729.132629	17885.111328	10009.914063	54.096485
451.267822	728.538147	17751.291016	9925.059570	54.024879
451.624573	730.767273	17567.466797	9845.184570	54.134228
451.981262	729.578430	17467.083984	9800.751953	54.196690
452.337921	731.956116	17282.664063	9743.613281	54.448776
452.694580	732.847839	17233.177734	9696.430664	54.323658
453.051147	733.665039	17189.933594	9678.004883	54.352173
453.407715	727.720886	17121.128906	9615.366211	54.214752
453.764221	721.182190	17097.873047	9651.997070	54.533695
454.120728	719.919128	16866.716797	9563.280273	54.768513
454.477142	725.789001	16813.517578	9562.165039	54.926189
454.833557	725.194519	16633.705078	9452.420898	54.858852
455.189911	729.875549	16516.974609	9379.901367	54.791737
455.546265	731.435852	16326.239258	9283.530273	54.839386
455.902557	737.380188	16195.245117	9207.518555	54.795010
456.258820	738.494690	16178.601563	9195.407227	54.772369
456.615051	740.129395	16247.776367	9240.583008	54.814590
456.971252	739.014832	16252.604492	9252.620117	54.878372
457.327393	732.476257	16444.677734	9354.711914	54.876049
457.683502	734.556641	16679.623047	9483.999023	54.872410
458.039612	737.157288	17135.916016	9721.916016	54.789265
458.395630	736.711426	17543.021484	9952.477539	54.835152
458.751648	729.652649	17995.822266	10184.749023	54.760822
459.107605	719.176086	18619.445313	10535.382813	54.838318
459.463562	716.649719	19301.990234	10905.782227	54.823494
459.819458	718.210144	19972.794922	11246.756836	54.680729
460.175323	720.810730	20509.855469	11566.110352	54.804565
460.531158	727.572266	20996.390625	11839.172852	54.821156
460.886932	729.504150	21260.164063	12066.019531	55.217491
461.242676	732.699158	21373.773438	12129.621094	55.214771
461.598419	734.705322	21127.978516	12048.184570	55.476524
461.954102	734.333801	20717.679688	11823.569336	55.492386
462.309723	731.584656	20060.992188	11499.164063	55.705685
462.665344	728.612488	19427.486328	11151.278320	55.739540
463.020905	723.782715	18872.666016	10872.643555	55.920033
463.376373	726.531982	18488.892578	10648.397461	55.858932
463.731873	732.104675	18137.812500	10461.452148	55.897457
464.087341	734.705261	17875.376953	10288.846680	55.739597
464.442749	737.083008	17713.099609	10178.506836	55.616253
464.798126	725.566101	17639.093750	10133.627930	55.624481
465.153503	726.234863	17700.021484	10163.720703	55.600357
465.508820	722.593933	17747.205078	10199.459961	55.665684
465.864105	726.977844	17902.052734	10286.766602	55.660831
466.219330	735.002625	18157.060547	10444.139648	55.728985
466.574524	733.367920	18391.781250	10553.586914	55.612122
466.929657	730.172852	18562.083984	10654.490234	55.654819
467.284790	723.782776	18737.064453	10774.637695	55.796909
467.639893	724.600098	18890.128906	10898.351563	56.005810
467.994934	727.795227	19051.589844	11020.208008	56.169659
468.349945	725.640442	19092.232422	11029.867188	56.103096
468.704926	733.293518	19031.453125	11014.485352	56.187023
469.059875	729.429871	18827.417969	10881.856445	56.096989
469.414764	728.463867	18546.775391	10769.436523	56.351986
469.769653	723.336975	18345.416016	10670.167969	56.445278
470.124451	728.018005	18261.529297	10616.001953	56.394775
470.479248	730.841492	18150.373047	10557.525391	56.411873
470.834015	733.665039	18090.259766	10515.172852	56.356148
471.188721	731.510254	18167.388672	10556.335938	56.348328
471.543365	729.504089	18292.810547	10577.438477	56.071072
471.898010	730.841553	18401.439453	10635.096680	56.049347
472.252625	735.225403	18510.070313	10709.399414	56.113983
472.607178	736.042725	18762.552734	10865.211914	56.190407
472.961700	731.213074	19015.626953	10987.070313	56.090710
473.316193	727.349365	19339.513672	11127.874023	55.880253
473.670654	728.538269	19464.490234	11227.586914	56.036915
474.025055	733.219238	19654.111328	11360.217773	56.165417
474.379456	729.727051	19745.353516	11473.604492	56.500252
474.733795	726.903503	19897.080078	11545.901367	56.436615
475.088104	730.470032	20032.978516	11626.742188	56.450035
475.442383	735.968445	20061.214844	11612.624023	56.282104
475.796570	739.906494	20175.791016	11679.049805	56.283230
476.150787	737.157288	20340.445313	11787.160156	56.368111
476.504944	741.763977	20628.886719	11957.239258	56.395668
476.859070	741.466858	20929.218750	12101.386719	56.271347
477.213135	731.287354	21236.460938	12242.785156	56.139481
477.567200	725.417480	21652.037109	12478.102539	56.161415
477.921173	725.863281	22034.619141	12710.372070	56.242180
478.275146	733.442139	22511.494141	12984.920898	56.256081
478.629089	737.603027	22803.728516	13177.885742	56.377289
478.983002	734.110840	23195.974609	13406.514648	56.417423
479.336823	740.723816	23491.548828	13603.862305	56.539219
479.690643	734.408020	23901.849609	13826.844727	56.512226
480.044403	733.887939	24393.287109	14079.473633	56.407124
480.398163	721.776611	25084.375000	14419.260742	56.223415
480.751862	726.903503	25995.251953	14928.382813	56.202644
481.105499	733.442200	27115.515625	15548.290039	56.154976
481.459137	735.002502	28580.986328	16379.069336	56.180691
481.812744	728.761047	30372.203125	17349.833984	56.069981
482.166290	725.194519	32559.525391	18572.857422	56.064198
482.519806	723.411316	35216.296875	20029.636719	55.971611
482.873291	724.080017	38326.382813	21783.031250	56.004417
483.226715	724.154358	41898.636719	23814.244141	56.078644
483.580139	724.451599	45383.656250	25954.681641	56.495029
483.933502	727.423645	48725.792969	28182.203125	57.199398
484.286804	725.566101	51446.386719	30262.607422	58.234550
484.640106	728.463867	53510.515625	32075.146484	59.388908
484.993347	724.897400	54637.093750	33276.769531	60.379425
485.346558	726.234863	54899.828125	33677.265625	60.824894
485.699738	733.144958	54222.035156	33267.113281	60.823788
486.052887	733.665039	52984.156250	32271.529297	60.358978
486.405975	732.104736	51374.386719	31034.017578	59.835205
486.759064	729.429749	49756.000000	29754.599609	59.202938
487.112061	734.779602	48402.652344	28630.546875	58.521111
487.464996	732.996338	47607.984375	27968.662109	58.102768
487.817963	731.064514	47443.402344	27724.796875	57.787159
488.170868	727.349304	47511.464844	27768.710938	57.800304
488.523743	728.909729	47600.625000	27842.419922	57.846207
488.876587	728.909668	47485.832031	27841.826172	57.986958
489.229401	736.934387	47060.824219	27670.111328	58.141010
489.582153	741.392578	46267.636719	27227.341797	58.177322
489.934845	742.358582	45187.125000	26588.634766	58.153698
490.287537	746.965271	44062.261719	25902.150391	58.074600
490.640198	748.228333	43202.351563	25365.833984	57.986370
490.992798	750.457458	42621.675781	24899.437500	57.674416
491.345337	737.231628	42533.105469	24760.712891	57.478115
491.697876	732.179016	42586.234375	24776.541016	57.448105
492.050354	726.160461	42972.085938	25080.587891	57.649174
492.402832	725.640320	43217.808594	25283.732422	57.794395
492.755219	728.166687	43088.593750	25229.787109	57.840828
493.107605	729.206848	42354.332031	24872.912109	58.002720
493.459930	737.305847	41033.011719	24200.767578	58.228191
493.812225	743.027161	39304.656250	23271.462891	58.421898
494.164490	742.358459	37354.207031	22144.515625	58.456913
494.516724	740.575195	35390.757813	20935.013672	58.280895
494.868896	732.253235	33593.375000	19821.365234	58.090263
495.221039	736.191345	32156.953125	18934.488281	57.918064
495.573120	742.878601	31015.443359	18253.130859	57.841984
495.925201	745.924988	30403.335938	17865.048828	57.722919
496.277222	746.890930	30035.166016	17648.603516	57.708118
496.629211	734.705261	29984.787109	17554.390625	57.503036
496.981140	728.240967	29914.796875	17524.146484	57.546722
497.333069	733.813660	29997.271484	17558.103516	57.492485
497.684967	736.637207	30074.771484	17624.605469	57.563198
498.036804	740.649475	30179.537109	17695.193359	57.592339
498.388580	737.751709	30090.220703	17652.322266	57.625717
498.740326	737.825989	29938.052734	17600.382813	57.748035
499.092072	743.695984	29614.462891	17435.208984	57.814583
499.443756	732.699158	29314.056641	17255.248047	57.808830
499.795410	739.832214	28956.664063	17038.953125	57.763824
500.147003	735.968445	28661.158203	16818.048828	57.589870
500.498566	737.751709	28278.427734	16640.763672	57.743725
500.850098	725.566101	27869.314453	16426.474609	57.843552
501.201599	719.398926	27479.599609	16262.859375	58.084244
501.553009	721.033630	27133.349609	16069.523438	58.111111
501.904449	728.092346	26945.806641	15972.557617	58.145664
502.255859	735.374023	26756.333984	15845.648438	58.069626
502.607178	738.420410	26726.093750	15799.359375	57.954166
502.958405	734.333801	26630.390625	15715.471680	57.851040
503.309692	732.104675	26565.750000	15684.336914	57.878914
503.660919	730.841553	26566.492188	15650.679688	57.749031
504.012115	731.658875	26588.337891	15673.713867	57.787987
504.363251	729.801270	26711.009766	15740.957031	57.776974
504.714294	728.612488	26791.927734	15789.625000	57.786251
505.065369	722.891174	26865.486328	15824.918945	57.767895
505.416443	723.559875	26834.875000	15811.098633	57.781616
505.767395	721.405090	26776.771484	15843.496094	58.038296
506.118317	728.018066	26721.634766	15849.588867	58.174168
506.469238	726.606262	26764.062500	15853.375977	58.096188
506.820160	726.309082	26732.111328	15824.695313	58.057762
507.170929	722.593994	26765.326172	15856.645508	58.112381
507.521729	722.668274	26869.423828	15915.567383	58.106251
507.872498	725.343262	26991.130859	15998.637695	58.149010
508.223236	727.423645	27131.490234	16074.352539	58.123352
508.573883	728.463867	27269.541016	16171.393555	58.185013
508.924500	730.098572	27503.896484	16275.340820	58.061398
509.275116	734.408020	27736.687500	16366.437500	57.891518
509.625702	734.333740	27997.490234	16507.091797	57.853748
509.976196	728.761047	28262.302734	16661.419922	57.866364
510.326660	725.343262	28537.669922	16846.802734	57.965160
510.677124	724.897400	28750.771484	16993.775391	58.049492
511.027557	728.538147	28945.666016	17133.392578	58.137932
511.377869	727.795166	29146.951172	17261.267578	58.177212
511.728180	728.612488	29343.853516	17373.833984	58.169075
512.078430	731.213074	29488.076172	17461.957031	58.180004
512.428650	728.984070	29612.009766	17540.867188	58.206795
512.778931	731.287415	29687.130859	17594.958984	58.239269
513.129028	724.228577	29741.818359	17592.582031	58.131477
513.479126	728.240967	29770.201172	17607.218750	58.119278
513.829285	726.903503	29718.859375	17595.998047	58.185429
514.179382	732.624817	29631.775391	17573.632813	58.275097
514.529297	729.058289	29501.599609	17545.771484	58.447090
514.879272	732.847717	29476.929688	17511.738281	58.373375
515.229187	729.206848	29419.640625	17429.486328	58.208530
515.579163	725.566101	29464.669922	17396.125000	58.006538
515.928955	719.398926	29473.509766	17429.634766	58.114250
516.278748	725.640320	29679.775391	17570.216797	58.176754
516.628540	733.293518	29936.119141	17706.562500	58.122009
516.978333	738.717590	30419.755859	17943.363281	57.965107
517.327942	735.374023	30963.576172	18272.226563	58.014866
517.677612	731.807434	31612.759766	18635.863281	57.977669
518.027222	727.200684	32220.109375	18996.306641	58.010220
518.376831	727.200684	32940.179688	19413.144531	58.007500
518.726379	726.606262	33582.972656	19825.970703	58.129875
519.075867	725.714661	34108.886719	20160.333984	58.216816
519.425293	723.857178	34482.183594	20399.960938	58.285183
519.774658	719.770508	34644.535156	20533.556641	58.405075
520.124084	725.863281	34682.425781	20601.468750	58.532444
520.473389	734.779602	34437.902344	20490.238281	58.616112
520.822693	742.952881	34068.839844	20297.052734	58.675407
521.171997	737.231628	33614.402344	19999.394531	58.588257
521.521240	733.144958	33181.816406	19772.474609	58.675220
521.870361	730.915833	32823.750000	19577.951172	58.726616
522.219482	733.888000	32516.580078	19396.875000	58.720596
522.568604	734.333801	32276.287109	19242.177734	58.676910
522.917664	732.996338	32128.570313	19092.158203	58.476910
523.266724	729.355469	32162.826172	19094.240234	58.424618
523.615662	733.516418	32451.562500	19204.949219	58.236351
523.964600	737.231628	32914.988281	19475.708984	58.234257
524.313538	742.581360	33513.496094	19772.400391	58.069233
524.662354	735.374023	34154.359375	20138.193359	58.059277
525.011169	733.888000	35010.847656	20624.800781	58.029976
525.359985	731.213074	36017.871094	21248.275391	58.143970
525.708740	735.448425	37223.359375	21984.912109	58.236996
526.057434	735.225403	38586.890625	22740.718750	58.136135
526.406067	736.637207	40109.355469	23681.093750	58.275013
526.754700	727.497986	41800.855469	24658.994141	58.265251
527.103333	730.692932	43698.324219	25843.453125	58.445759
527.451782	733.219238	45820.925781	27131.787109	58.549370
527.800293	732.699036	48010.925781	28552.976563	58.843742
528.148743	726.383362	50109.675781	30042.744141	59.364937
528.497131	717.467041	51969.402344	31441.865234	59.947784
528.845642	721.925232	53491.500000	32799.671875	60.788338
529.193909	720.662109	54667.562500	33996.761719	61.683067
529.542175	723.262695	55447.957031	34932.980469	62.512398
529.890503	724.228699	55786.035156	35466.691406	63.097206
530.238770	732.030457	55511.488281	35374.785156	63.240410
530.586914	736.339905	54707.535156	34813.949219	63.140366
530.934998	738.346191	53440.300781	33707.207031	62.557186
531.283142	737.825989	51960.933594	32445.474609	61.901062
531.631226	736.414307	50174.250000	30966.103516	61.146870
531.979248	738.197510	48381.996094	29583.333984	60.543320
532.327148	735.968445	46744.878906	28320.853516	59.955528
532.675110	733.813721	45635.097656	27457.978516	59.517593
533.023071	727.349304	45070.988281	27009.263672	59.268734
533.370850	731.510254	44967.410156	26881.240234	59.114273
533.718689	729.504150	45187.574219	27010.599609	59.114342
534.066467	735.151123	45402.531250	27191.080078	59.228748
534.414246	726.086243	45507.667969	27286.857422	59.311821
534.761963	728.240906	45303.925781	27239.970703	59.475769
535.109619	728.315247	44947.574219	27033.931641	59.489052
535.457153	730.172852	44288.214844	26666.357422	59.543961
535.804749	731.510254	43521.484375	26150.771484	59.404716
536.152344	722.891174	42571.152344	25556.939453	59.343082
536.499817	725.863281	41648.234375	24954.939453	59.207409
536.847229	727.200745	40711.500000	24411.265625	59.233410
537.194641	730.767273	39908.878906	23902.888672	59.145576
537.542114	735.596863	39305.246094	23505.962891	59.037006
537.889404	730.470032	38823.097656	23165.804688	58.896786
538.236694	726.829285	38426.765625	22919.267578	58.865978
538.583984	720.364929	38014.308594	22722.960938	58.997768
538.931213	724.823059	37731.218750	22553.773438	58.986969
539.278381	727.720886	37543.750000	22459.109375	59.026978
539.625488	725.863281	37612.781250	22434.294922	58.851303
539.972595	728.612549	37967.207031	22567.369141	58.645489
540.319641	726.532043	38678.433594	22899.132813	58.422897
540.666687	730.172852	39658.187500	23431.437500	58.316010
541.013611	726.977844	40930.917969	24178.998047	58.332638
541.360596	734.259460	42329.441406	25023.521484	58.394409
541.707458	737.825989	43709.613281	25951.193359	58.674232
542.054260	739.683594	44887.238281	26729.882813	58.871208
542.401062	733.070740	45863.425781	27427.884766	59.150463
542.747864	727.423645	46392.019531	27850.962891	59.397301
543.094666	725.268860	46350.781250	27931.728516	59.629925
543.441284	724.823059	45664.371094	27592.984375	59.787346
543.787903	730.247131	44623.464844	26969.064453	59.778748
544.134460	728.092346	43323.613281	26209.837891	59.822598
544.481079	732.253357	41945.222656	25307.431641	59.629719
544.827637	724.005676	40409.535156	24360.818359	59.560276
545.174072	720.587830	38848.878906	23355.500000	59.365135
545.520508	719.919128	37439.656250	22514.392578	59.353561
545.866943	720.216309	36273.769531	21761.335938	59.181477
546.213318	727.052063	35412.007813	21250.728516	59.171692
546.559631	729.875671	34725.894531	20796.962891	59.027756
546.905823	735.894104	34178.136719	20454.945313	58.964500
547.252136	737.454590	33774.675781	20150.378906	58.760761
547.598389	733.962341	33350.406250	19899.830078	58.761364
547.944458	728.761047	32971.457031	19708.349609	58.864769
548.290588	729.281250	32352.666016	19448.216797	59.193333
548.636658	738.346130	31736.177734	19095.353516	59.220295
548.982727	740.352295	30950.500000	18672.199219	59.357033
549.328735	734.928223	30268.921875	18227.869141	59.229855
549.674622	725.491699	29484.732422	17774.177734	59.280724
550.020569	716.798340	28780.638672	17345.005859	59.251362
550.366455	718.953125	28042.070313	16885.220703	59.166996
550.712280	720.736389	27380.703125	16521.359375	59.267227
551.058044	723.782898	26874.849609	16163.442383	59.040268
551.403748	718.135803	26476.585938	15897.586914	58.929989
551.749512	717.244141	26206.939453	15699.199219	58.776516
552.095154	719.250305	26036.490234	15578.308594	58.691463
552.440735	726.234863	25965.306641	15593.020508	58.903851
552.786316	726.977844	25973.556641	15580.387695	58.833359
553.131897	734.110901	25998.968750	15609.218750	58.876671
553.477417	736.934387	26064.132813	15601.043945	58.688328
553.822815	738.420410	26090.806641	15617.094727	58.687469
554.168213	737.380188	26067.994141	15620.809570	58.756691
554.513672	736.934387	25955.875000	15551.114258	58.742275
554.859009	738.569031	25749.236328	15446.495117	58.806610
555.204285	739.312012	25528.708984	15301.753906	58.744640
555.549500	739.014893	25266.716797	15196.168945	58.942150
555.894714	732.476257	25037.193359	15051.057617	58.912766
556.239990	738.271790	24733.146484	14891.899414	58.986046
556.585022	734.036621	24432.591797	14716.323242	59.000591
556.930115	736.414307	24119.330078	14564.745117	59.138607
557.275146	738.271790	23832.447266	14380.325195	59.071404
557.620178	739.237793	23656.427734	14241.378906	58.917088
557.965149	743.547363	23502.619141	14112.092773	58.739410
558.310059	730.172852	23359.068359	14034.223633	58.792313
558.654968	732.327576	23182.818359	13954.273438	58.893799
558.999756	725.566101	23049.669922	13881.754883	58.932663
559.344604	732.773438	22992.009766	13844.231445	58.903450
559.689331	728.166687	22954.117188	13787.687500	58.757984
560.033997	730.990173	22914.515625	13750.981445	58.692165
560.378723	726.086182	22889.398438	13743.031250	58.731949
560.723389	729.652771	22884.791016	13737.309570	58.711693
561.067932	728.538147	22913.250000	13788.355469	58.868549
561.412476	726.754883	22924.765625	13783.600586	58.819889
561.757019	723.411316	22907.974609	13770.820313	58.813011
562.101501	722.371094	22913.173828	13771.563477	58.804508
562.445862	727.423645	22878.328125	13754.622070	58.811134
562.790222	730.990173	22912.728516	13761.532227	58.744457
563.134644	734.185242	22876.541016	13761.383789	58.833839
563.478943	734.333801	22882.115234	13783.674805	58.919403
563.823181	734.408142	22818.810547	13766.807617	59.011784
564.167358	729.206848	22833.150391	13733.074219	58.830532
564.511536	729.875549	22865.619141	13750.387695	58.821205
564.855774	732.030457	22934.130859	13772.825195	58.736763
565.199768	739.237793	23083.921875	13854.113281	58.693493
565.543823	734.631042	23260.021484	13932.502930	58.591091
565.887817	726.383484	23494.000000	14092.551758	58.706924
566.231812	723.931396	23678.865234	14177.405273	58.608200
566.575745	726.457703	23835.939453	14266.195313	58.589531
566.919617	734.631042	24013.599609	14360.782227	58.534172
567.263428	735.076843	24126.017578	14460.793945	58.679626
567.607239	732.030457	24263.626953	14541.338867	58.684116
567.950989	730.321472	24274.921875	14535.989258	58.636242
568.294678	728.463867	24284.953125	14542.231445	58.641029
568.638367	726.457703	24144.593750	14492.375000	58.783142
568.981995	723.262695	23982.615234	14422.381836	58.897251
569.325623	727.720886	23786.900391	14286.258789	58.798874
569.669128	733.887939	23668.091797	14169.007813	58.581150
570.012573	735.299744	23590.146484	14092.105469	58.441895
570.356140	730.841492	23560.130859	14093.815430	58.534340
570.699524	723.931335	23540.365234	14090.397461	58.582626
571.042908	722.148132	23603.076172	14157.565430	58.718845
571.386230	719.398926	23715.048828	14209.502930	58.663719
571.729492	721.182190	23881.787109	14293.911133	58.602650
572.072815	722.222473	24035.517578	14357.069336	58.485283
572.416016	724.748718	24171.640625	14419.112305	58.405876
572.759094	728.612488	24336.146484	14497.425781	58.323814
573.102234	735.299744	24435.193359	14549.661133	58.288704
573.445374	729.801270	24471.304688	14576.187500	58.321438
573.788391	719.696106	24429.623047	14596.992188	58.529472
574.131409	717.392822	24391.429688	14605.610352	58.664341
574.474365	727.869446	24327.453125	14597.067383	58.768826
574.817261	739.534973	24198.537109	14516.003906	58.725723
575.160156	739.163391	24027.568359	14378.096680	58.565342
575.502930	742.061279	23806.146484	14214.184570	58.411694
575.845703	741.763977	23596.240234	14084.153320	58.379765
576.188477	739.906494	23350.076172	13986.075195	58.585003
576.531250	731.213074	23117.435547	13866.819336	58.677189
576.873901	733.739319	22818.068359	13700.604492	58.715237
577.216431	733.813721	22542.703125	13514.253906	58.601978
577.559082	742.432800	22225.728516	13346.179688	58.667664
577.901611	736.117004	21909.421875	13169.414063	58.721569
578.244080	733.144958	21581.373047	12970.801758	58.698788
578.586487	730.767273	21248.423828	12782.000000	58.735912
578.928955	757.739197	20926.990234	12606.942383	58.748848
579.271301	760.042542	20605.185547	12428.467773	58.797386
579.613647	758.556458	20298.759766	12226.809570	58.690552
579.955872	732.179016	20011.580078	12040.532227	58.655109
580.298157	737.231628	19731.830078	11880.633789	58.666168
580.640320	736.488525	19518.732422	11754.465820	58.661667
580.982483	736.414307	19308.304688	11623.100586	58.619160
581.324524	735.671204	19104.046875	11519.670898	58.709602
581.666626	735.225403	18930.847656	11427.684570	58.763908
582.008728	734.259460	18824.447266	11368.761719	58.786022
582.350647	733.665039	18713.363281	11331.684570	58.944366
582.692566	739.014893	18645.748047	11272.688477	58.825214
583.034424	734.779602	18529.166016	11209.902344	58.867569
583.376343	733.070618	18448.474609	11124.750977	58.659008
583.718201	726.754883	18352.474609	11066.200195	58.661129
584.059937	737.603088	18278.617188	11014.487305	58.587742
584.401611	726.383362	18179.943359	10959.280273	58.629276
584.743347	719.919128	18104.080078	10916.778320	58.656036
585.085022	710.631165	18026.880859	10872.716797	58.685257
585.426514	717.912903	17995.525391	10837.646484	58.571362
585.768127	725.417480	17908.515625	10824.197266	58.771587
586.109619	729.949951	17854.943359	10806.067383	58.838661
586.451172	730.767273	17809.171875	10766.018555	58.759888
586.792542	731.287415	17811.328125	10713.188477	58.441906
587.133850	731.287415	17779.154297	10665.560547	58.272823
587.475220	732.996338	17761.544922	10661.919922	58.307514
587.816589	728.835449	17727.439453	10656.347656	58.401924
588.157776	735.894226	17751.291016	10665.709961	58.357826
588.498962	734.333801	17796.021484	10692.383789	58.364975
588.840210	729.949890	17842.164063	10728.124023	58.427116
589.181335	726.234802	17913.271484	10761.485352	58.388489
589.522400	731.287354	17955.251953	10765.350586	58.256409
589.863403	744.438965	17990.398438	10779.319336	58.186852
590.204407	745.033386	17984.826172	10764.383789	58.117580
590.545410	740.649597	18016.626953	10785.040039	58.140797
590.886353	730.098450	18041.517578	10784.222656	58.077988
591.227112	728.835449	18023.166016	10797.225586	58.217869
591.567932	722.965515	17930.437500	10729.536133	58.152470
591.908752	727.572266	17795.947266	10694.092773	58.391735
592.249512	724.674500	17705.001953	10661.995117	58.522545
592.590149	727.349365	17602.462891	10641.338867	58.749172
592.930786	723.708557	17576.160156	10590.813477	58.549965
593.271423	720.959290	17522.884766	10540.732422	58.444332
593.612000	722.816895	17516.273438	10482.034180	58.113209
593.952576	720.810730	17507.429688	10464.646484	58.045254
594.292969	725.714661	17557.287109	10451.643555	57.783840
594.633484	729.875671	17625.794922	10503.284180	57.844784
594.973877	734.110840	17683.527344	10547.123047	57.895870
595.314209	731.436035	17768.751953	10609.165039	57.977020
595.654480	733.442200	17905.097656	10700.928711	58.046154
595.994812	740.129395	18125.554688	10811.937500	57.932480
596.335022	741.689758	18360.500000	10964.184570	58.020348
596.675171	735.076843	18552.052734	11045.471680	57.868374
597.015320	724.080017	18740.333984	11129.730469	57.757015
597.355408	721.479431	18862.861328	11183.971680	57.671967
597.695496	726.160461	18967.552734	11263.327148	57.765144
598.035461	733.367859	18948.009766	11251.586914	57.745953
598.375366	736.637207	18895.775391	11237.097656	57.824665
598.715271	734.631042	18776.373047	11186.051758	57.929111
599.055176	732.179016	18564.089844	11098.894531	58.135757
599.395081	728.686768	18293.923828	10943.007813	58.150776
599.734802	723.336975	17974.943359	10767.356445	58.220783
600.074524	725.120300	17641.173828	10582.341797	58.271404
600.414246	728.463867	17280.582031	10392.721680	58.386837
600.753906	732.476257	16929.205078	10182.963867	58.348125
601.093506	730.841553	16657.628906	10016.749023	58.303707
601.433044	733.070618	16467.193359	9885.531250	58.169502
601.772583	733.442200	16340.057617	9808.850586	58.151035
602.112122	735.299744	16329.731445	9787.897461	58.050194
602.451538	739.609314	16396.232422	9791.315430	57.813911
602.790894	742.061218	16547.216797	9849.940430	57.625999
603.130310	742.878601	16697.900391	9935.611328	57.616547
603.469604	728.612488	16907.435547	10082.285156	57.814297
603.808838	722.222473	17206.281250	10230.964844	57.684471
604.148010	722.816895	17506.464844	10379.421875	57.535793
604.487305	724.005676	17809.025391	10497.710938	57.206287
604.826416	720.736328	17968.775391	10605.301758	57.308342
605.165527	718.358704	18147.398438	10702.862305	57.286598
605.504456	723.708496	18259.076172	10811.491211	57.528214
605.843445	731.287415	18349.576172	10874.053711	57.569530
606.182434	730.841553	18347.943359	10894.264648	57.690662
606.521423	739.832214	18218.953125	10817.807617	57.657223
606.860229	739.832214	18024.578125	10704.049805	57.647465
607.199036	736.191406	17760.281250	10556.336914	57.683823
607.537903	721.776611	17482.462891	10414.195313	57.828297
607.876648	724.080017	17208.435547	10265.886719	57.884014
608.215271	730.618652	16934.929688	10110.816406	57.887051
608.553955	736.488525	16701.468750	9971.796875	57.847290
608.892578	737.900391	16520.392578	9835.080078	57.640957
609.231140	736.860107	16416.740234	9754.684570	57.512074
609.569641	735.968506	16367.848633	9682.165039	57.230457
609.908081	736.191345	16364.430664	9700.517578	57.359795
610.246521	736.711426	16333.520508	9702.375000	57.483967
610.584961	735.745544	16345.780273	9740.566406	57.686104
610.923340	726.309082	16290.500000	9726.596680	57.826885
611.261597	726.829285	16223.627930	9679.340820	57.770073
611.599854	725.343079	16078.812500	9589.805664	57.735893
611.938110	725.194519	15924.335938	9484.221680	57.628433
612.276245	727.423645	15718.592773	9365.412109	57.620510
612.614319	731.436035	15442.186523	9201.500000	57.577381
612.952393	732.847717	15143.042969	9039.892578	57.646996
613.290466	731.510254	14830.227539	8896.265625	57.911335
613.628479	732.996338	14544.980469	8738.965820	57.963936
613.966370	734.928223	14291.534180	8573.938477	57.824287
614.304260	730.172852	14081.332031	8427.118164	57.650017
614.642151	732.699036	13899.291992	8327.775391	57.684448
614.979980	737.751709	13755.143555	8248.494141	57.697750
615.317749	735.819824	13616.717773	8178.946777	57.784222
615.655396	725.640381	13542.934570	8119.578125	57.687195
615.993164	719.473206	13475.914063	8090.674316	57.784153
616.330811	721.405090	13461.870117	8063.033691	57.624493
616.668396	730.024231	13450.723633	8035.021973	57.426071
617.005859	728.018066	13426.948242	8001.437500	57.275845
617.343445	732.773438	13409.858398	7974.316895	57.123096
617.680908	731.584656	13398.414063	7994.675781	57.339458
618.018311	737.083008	13404.953125	8027.740723	57.552357
618.355652	730.395752	13412.532227	8037.994141	57.621193
618.692993	730.841553	13403.468750	8016.520996	57.491470
619.030273	727.869446	13397.523438	7995.938965	57.365963
619.367554	735.225403	13366.835938	7997.350098	57.491676
619.704712	730.098572	13345.140625	7987.988281	57.533615
620.041870	736.488586	13318.167969	7970.304199	57.494831
620.379028	727.943665	13294.836914	7948.087891	57.453690
620.716064	729.355530	13211.692383	7925.500000	57.650620
621.053040	727.646484	13129.514648	7885.599121	57.716728
621.389954	730.544373	13046.815430	7827.346191	57.621349
621.726929	728.463867	13008.028320	7799.705566	57.585445
622.063843	726.754944	12960.995117	7761.959473	57.504223
622.400635	728.018066	12918.344727	7736.399902	57.491341
622.737427	731.807434	12891.225586	7710.021484	57.389374
623.074219	730.841614	12842.184570	7685.501953	57.422703
623.410889	725.268860	12796.414063	7638.318848	57.269211
623.747559	722.891174	12763.499023	7618.332031	57.268215
624.084167	722.148193	12758.446289	7599.756348	57.140564
624.420715	728.018127	12753.691406	7631.855469	57.409157
624.757324	728.463928	12795.003906	7625.019531	57.154377
625.093750	723.857178	12858.679688	7652.585938	57.097900
625.430176	724.080078	12948.585938	7666.777832	56.793278
625.766602	723.559875	12954.976563	7693.749512	56.985950
626.102905	728.315247	13048.078125	7736.919434	56.889114
626.439209	724.897400	13151.359375	7781.872559	56.789898
626.775452	730.098572	13300.781250	7848.744629	56.628952
627.111694	724.748718	13395.815430	7887.828125	56.530991
627.447876	728.612488	13459.046875	7939.394531	56.642075
627.783997	723.262634	13497.386719	7941.697754	56.508259
628.120056	725.194519	13500.210938	7956.707031	56.606678
628.456055	728.092285	13484.234375	7932.781250	56.480152
628.792053	729.504089	13452.210938	7919.703613	56.514702
629.128052	729.355469	13362.601563	7878.614746	56.590832
629.463928	726.977783	13255.382813	7836.931152	56.750664
629.799744	721.256531	13158.566406	7780.832031	56.761276
630.135559	728.538147	13049.563477	7736.177246	56.875454
630.471375	722.222412	12917.007813	7670.270020	56.975567
630.807068	728.984070	12716.390625	7589.577637	57.231678
631.142700	724.897400	12557.976563	7497.292969	57.232742
631.478333	732.104736	12436.714844	7418.011719	57.121998
631.813965	733.144958	12352.604492	7352.997559	56.972118
632.149475	730.767273	12258.461914	7269.258301	56.719852
632.484924	727.572266	12162.538086	7196.441895	56.570957
632.820435	725.789001	12097.002930	7150.299316	56.498016
633.155884	733.144958	12037.635742	7124.813965	56.540970
633.491150	734.185120	11973.734375	7106.460938	56.695122
633.826477	729.206970	11883.531250	7079.340332	56.929790
634.161804	726.829285	11835.531250	7037.210938	56.805752
634.497009	727.572266	11807.742188	6997.682129	56.588570
634.832153	733.367859	11752.907227	6953.545410	56.446804
635.167297	731.881836	11667.237305	6903.168457	56.434258
635.502380	731.064453	11547.312500	6873.967285	56.793289
635.837463	732.624817	11477.020508	6825.447754	56.706985
636.172424	729.355469	11372.848633	6779.825684	56.846657
636.507324	734.556702	11310.062500	6709.164063	56.494766
636.842224	733.070618	11234.051758	6634.712891	56.200863
637.177124	731.361633	11131.735352	6575.122559	56.187988
637.511963	725.566101	10999.105469	6508.546875	56.290058
637.846741	725.714661	10853.918945	6452.373535	56.541698
638.181396	728.835449	10736.519531	6383.123535	56.499470
638.516113	722.148132	10631.009766	6325.910645	56.553043
638.850769	714.866516	10539.618164	6291.062500	56.756607
639.185303	713.900574	10451.867188	6261.713379	56.970959
639.519836	718.730225	10367.385742	6215.050781	56.964626
639.854370	729.652649	10243.670898	6154.048828	57.014771
640.188843	737.900330	10157.924805	6104.339844	56.968426
640.523254	741.243958	10083.696289	6057.083496	56.899830
640.857605	740.352356	10023.510742	5999.201660	56.649353
641.191895	736.934387	9956.563477	5936.118652	56.392551
641.526184	733.813660	9878.844727	5894.138184	56.427635
641.860413	734.036621	9809.371094	5867.463379	56.564606
642.194580	730.692932	9764.567383	5846.732910	56.631741
642.528748	737.157227	9704.901367	5822.435547	56.706326
642.862793	737.008606	9670.127930	5792.640625	56.594250
643.196838	743.398682	9619.454102	5763.513672	56.557953
643.530823	733.590759	9581.114258	5735.501465	56.534584
643.864746	733.219299	9538.091797	5699.092285	56.399151
644.198669	725.268860	9492.990234	5680.294434	56.514400
644.532532	727.423645	9454.128906	5634.820801	56.234249
644.866333	726.457703	9422.922852	5607.105957	56.122211
645.200073	721.553711	9384.209961	5559.032715	55.842907
645.533813	720.959290	9344.086914	5555.168457	56.060966
645.867554	713.454773	9329.449219	5541.125000	56.031494
646.201172	718.210144	9315.406250	5552.716309	56.233524
646.534729	723.188416	9320.235352	5546.326172	56.102261
646.868225	722.742615	9323.430664	5562.524902	56.272034
647.201782	730.618652	9337.028320	5570.623535	56.237209
647.535217	726.234802	9330.564453	5601.830566	56.664444
647.868591	727.275085	9321.796875	5609.186035	56.802593
648.201965	727.052063	9303.666992	5601.087402	56.829357
648.535278	726.903564	9323.952148	5579.763184	56.447968
648.868591	726.383362	9308.125000	5557.992188	56.301033
649.201782	723.336914	9288.434570	5524.704590	56.057362
649.534912	730.470032	9247.567383	5502.785156	56.032173
649.868103	733.442139	9226.986328	5487.330078	55.970604
650.201172	738.866211	9209.450195	5499.144531	56.197758
650.534180	737.900391	9183.519531	5504.048340	56.433376
650.867188	738.197571	9144.064453	5490.525391	56.535839
651.200134	733.813660	9125.265625	5458.649414	56.305344
651.533020	736.414246	9099.557617	5423.429688	56.043705
651.865845	739.757874	9063.148438	5402.625488	56.021252
652.198608	743.695984	9023.173828	5382.043457	56.022228
652.531433	735.448303	8975.842773	5355.071289	56.060703
652.864136	734.333801	8936.314453	5328.322266	56.010719
653.196777	801.057678	8952.661133	5437.993652	56.883728
653.529358	804.549988	8916.104492	5423.355957	56.941071
653.861938	807.893555	8859.262695	5393.783203	56.957886
654.194519	735.225403	8738.075195	5225.784668	56.112000
654.526978	731.956116	8675.734375	5192.273926	56.148571
654.859375	734.779602	8629.369141	5169.017090	56.168056
655.191833	735.448303	8598.831055	5158.614746	56.250175
655.524170	737.157288	8563.165039	5118.937500	55.989983
655.856445	726.457703	8525.047852	5087.581543	55.921951
656.188660	730.172852	8502.237305	5063.581543	55.756210
656.520874	734.631042	8484.329102	5042.033691	55.581554
656.853088	738.866211	8477.866211	5042.554199	55.610390
657.185181	735.745544	8459.809570	5034.529297	55.654430
657.517212	736.042786	8477.197266	5043.520020	55.643860
657.849243	741.838379	8509.519531	5057.562988	55.560013
658.181274	735.448425	8573.346680	5086.393066	55.511627
658.513123	733.293518	8623.945313	5120.200684	55.596260
658.844971	726.532043	8716.081055	5151.036133	55.378647
659.176819	735.522644	8779.014648	5196.509277	55.460819
659.508667	739.609192	8898.270508	5237.227051	55.126907
659.840393	739.832214	8970.641602	5280.099609	55.161858
660.172058	732.253235	9042.416992	5310.340820	55.090218
660.503662	723.411316	9053.711914	5335.455078	55.364674
660.835266	729.949951	9072.288086	5346.451660	55.338226
661.166931	735.745605	9020.202148	5334.191895	55.506912
661.498413	743.101501	8967.670898	5300.310059	55.409691
661.829773	738.494690	8860.452148	5246.515137	55.504112
662.161194	733.070618	8738.000977	5172.583496	55.459732
662.492615	731.213074	8572.454102	5099.543945	55.709690
662.823975	729.652771	8420.504883	5017.216797	55.748882
663.155212	734.853943	8300.356445	4935.781250	55.527405
663.486450	733.962341	8177.088379	4865.639160	55.509968
663.817627	747.336731	8043.714844	4803.745117	55.594822
664.148743	746.073547	7901.574219	4727.436035	55.640587
664.479858	744.290344	7786.404785	4663.907715	55.659668
664.810913	731.510254	7697.910156	4603.053711	55.574524
665.141907	733.888000	7643.298340	4560.329590	55.380150
665.472778	739.460754	7584.450684	4533.506348	55.428070
665.803711	743.770264	7556.587402	4494.794434	55.058342
666.134583	743.027161	7521.589844	4475.252930	55.059254
666.465454	736.339905	7489.417480	4454.819824	55.063488
666.796143	738.048889	7441.120605	4443.971191	55.286926
667.126831	735.299622	7408.724609	4441.667969	55.539227
667.457458	735.894104	7403.077637	4427.699219	55.372784
667.788147	736.191345	7386.804688	4417.816895	55.357685
668.118774	737.305908	7347.424316	4398.869629	55.393318
668.449219	740.352295	7323.870605	4385.347168	55.365452
668.779663	730.024231	7317.554688	4376.059082	55.347523
669.110107	724.377258	7317.777832	4362.832520	55.183292
669.440552	719.324646	7316.514160	4346.932129	54.987164
669.770874	722.816895	7304.700684	4335.860840	54.893768
670.101135	729.058350	7302.619629	4323.452637	54.679558
670.431396	724.005676	7261.529785	4305.991211	54.791164
670.761597	722.371094	7201.048340	4280.059570	54.913811
671.091797	719.919128	7122.955566	4259.997559	55.287491
671.421875	730.990173	7095.166504	4241.942383	55.167423
671.751892	739.014832	7073.024902	4229.607910	55.108738
672.081909	734.259460	7060.541504	4216.530762	55.044514
672.411865	730.247131	7014.994629	4189.707520	55.045338
672.741821	722.073914	6956.072266	4162.661621	55.190704
673.071716	732.773438	6935.490234	4143.416992	54.986286
673.401550	733.516418	6879.540527	4124.617676	55.175529
673.731262	737.305847	6859.923828	4099.132813	54.908321
674.060974	728.983948	6811.775879	4067.033936	54.876938
674.390625	731.213074	6788.965332	4060.718018	54.962711
674.720276	732.030334	6741.337891	4036.941406	54.996536
675.049927	737.305969	6688.879395	4016.359375	55.095573
675.379395	731.956116	6656.929688	3993.845703	55.053234
675.708923	731.138733	6616.954590	3969.697266	55.023102
676.038330	725.194519	6568.731934	3951.493164	55.211395
676.367737	726.531921	6512.484863	3916.793701	55.138050
676.697083	719.473206	6492.869141	3918.428467	55.408554
677.026428	720.364807	6489.822266	3897.623779	55.070324
677.355652	720.364929	6499.853027	3887.518311	54.799892
677.684875	731.584656	6512.930176	3877.784424	54.419849
678.013977	743.101501	6513.525391	3873.697998	54.252453
678.343079	744.364685	6494.355469	3872.360596	54.400017
678.672180	735.596924	6493.314941	3870.800537	54.452194
679.001221	725.937561	6530.466309	3887.369873	54.464928
679.330139	725.268860	6598.750000	3915.307861	54.312580
679.659058	728.463867	6636.570313	3944.285889	54.430672
679.987976	730.618652	6681.374512	3969.845703	54.433876
680.316772	732.922058	6713.027344	3984.557861	54.374222
680.645630	731.064453	6768.383301	3994.811523	54.059544
680.974304	728.686829	6795.207031	4001.796143	53.953655
681.302979	731.064453	6815.565918	4019.257080	54.042103
681.631653	735.894226	6815.342285	4031.442627	54.208015
681.960266	737.157288	6840.457031	4051.504639	54.304188
682.288757	731.584534	6848.704590	4045.560303	54.175426
682.617249	728.463867	6854.054199	4033.597656	53.956169
682.945679	730.247070	6808.804199	4019.479736	54.112064
683.274109	732.922058	6760.433594	4002.836182	54.249817
683.602478	732.550537	6696.606934	3974.675537	54.361069
683.930725	731.361755	6617.251465	3924.298096	54.247299
684.259033	730.098572	6548.596191	3873.475342	54.023857
684.587280	728.463867	6458.095215	3837.809814	54.267818
684.915344	733.516418	6406.603516	3796.943359	53.999294
685.243469	735.151123	6333.786621	3770.640381	54.218372
685.571533	737.454590	6271.669922	3735.792236	54.178188
685.899536	730.024231	6205.094238	3714.169922	54.504250
686.227539	730.470032	6146.915527	3688.610107	54.614048
686.555420	730.990173	6131.237793	3674.195068	54.501293
686.883301	731.881775	6119.126465	3659.111572	54.336308
687.211121	730.841553	6120.761230	3661.563721	54.374130
687.538940	732.699158	6127.521973	3660.821045	54.276516
687.866638	733.516418	6142.828613	3666.988037	54.230034
688.194336	732.922058	6157.688965	3661.712158	53.989231
688.521973	733.813660	6135.026855	3664.387451	54.257690
688.849609	730.321472	6101.962402	3653.167725	54.412537
689.177063	729.429871	6056.117188	3635.037842	54.548119
689.504578	728.315247	5996.898438	3591.793701	54.350071
689.832031	730.692932	5942.730957	3553.676514	54.162758
690.159485	734.110840	5860.924316	3511.769531	54.179047
690.486816	728.983948	5797.692871	3465.776123	53.993874
690.814087	729.875671	5715.811035	3432.414063	54.203236
691.141296	729.281250	5646.115234	3382.482666	53.961582
691.468506	730.692871	5569.138184	3349.492188	54.124809
691.795715	731.287354	5477.150879	3309.443359	54.324280
692.122803	723.188293	5426.401855	3276.006836	54.278179
692.449829	724.302917	5351.579590	3234.917236	54.256840
692.776855	727.126404	5293.325684	3181.642578	53.754032
693.103821	731.956116	5222.218262	3145.457031	53.749668
693.430664	730.321472	5187.519043	3118.485107	53.579933
693.757568	715.758118	5141.524902	3105.036377	53.985638
694.084351	718.433044	5102.367676	3083.785889	53.955021
694.411133	715.832336	5063.507324	3053.173096	53.760708
694.737854	733.442139	5029.922363	3031.922607	53.496822
695.064575	732.030334	5000.647461	3015.873047	53.503105
695.391174	740.798096	4969.588867	3018.547852	53.862907
695.717773	731.436035	4964.684570	3005.470703	53.718430
696.044250	732.624817	4979.173828	3010.523193	53.641171
696.370789	727.646545	4996.263184	2996.257080	53.146271
696.697205	724.897278	5021.006348	3004.430420	53.060413
697.023621	723.411194	5030.071289	3012.306641	53.147808
697.349915	720.513428	5075.098633	3061.197998	53.752186
697.676208	726.606262	5149.698730	3101.024170	53.682308
698.002380	725.789001	5251.270996	3152.144287	53.615398
698.328674	726.680603	5366.588379	3178.595947	52.844051
698.654724	729.355469	5492.976563	3232.317139	52.543259
698.980896	728.018066	5590.982422	3274.446533	52.363708
699.306946	736.562927	5662.461426	3320.514404	52.456448
699.632935	728.761047	5681.037598	3350.904297	52.948242
699.958862	728.315247	5703.253906	3363.461182	52.968414
700.284729	717.838623	5687.427734	3378.247314	53.533779
700.610596	721.702332	5653.174316	3356.551025	53.429253
700.936340	725.640381	5583.701172	3331.585693	53.641682
701.262146	728.835449	5480.568848	3256.242188	53.189152
701.587830	733.442139	5373.721191	3192.490479	52.993542
701.913513	738.420410	5235.221191	3114.250000	52.833775
702.239075	737.083008	5101.327148	3049.606689	52.987953
702.564697	728.092346	4960.449707	2979.390625	53.192539
702.890137	722.816895	4831.608887	2912.295654	53.287651
703.215698	727.423645	4738.433105	2858.203125	53.123272
703.541016	738.643372	4636.043945	2813.621094	53.240044
703.866455	736.488586	4559.363281	2762.278076	52.991261
704.191711	744.884766	4485.283691	2729.510498	53.059200
704.517029	735.596924	4415.959473	2694.811035	53.234268
704.842163	739.683594	4380.442871	2667.913330	52.962296
705.167419	728.315247	4325.756348	2642.799072	53.217934
705.492493	736.340027	4305.471680	2616.124268	52.667831
705.817566	734.333801	4259.775391	2611.146240	53.236237
706.142578	735.151123	4238.301758	2589.449951	52.932320
706.467590	734.631042	4205.607910	2585.066162	53.311653
706.792480	735.151062	4190.079590	2568.347900	53.060341
707.117371	742.729980	4191.268066	2569.759521	52.979828
707.442200	733.219238	4205.683105	2555.047607	52.465004
707.766907	734.185242	4216.456543	2547.840332	52.082531
708.091675	731.807617	4216.085449	2551.035400	52.212479
708.416321	736.562927	4211.032715	2552.818604	52.274326
708.741028	732.476257	4218.462891	2562.700928	52.502342
709.065552	729.206970	4241.348145	2565.004150	52.270027
709.390137	733.144958	4273.818359	2574.514893	52.006207
709.714600	734.631042	4283.106445	2582.688477	52.080322
710.039063	735.596924	4304.728516	2598.366211	52.191109
710.363403	729.058289	4325.384277	2621.177246	52.612553
710.687744	725.937561	4378.956543	2650.006592	52.670654
711.012085	721.256531	4427.847656	2670.365723	52.584953
711.336304	723.931396	4490.931152	2688.569824	52.153931
711.660461	724.897278	4521.320801	2699.715088	52.017849
711.984619	726.754883	4523.104004	2712.792480	52.314407
712.308716	727.795105	4500.664551	2723.046143	52.884178
712.632751	731.064453	4487.661621	2722.080322	53.000515
712.956726	733.739441	4452.293457	2712.197998	53.205051
713.280701	739.312073	4410.089355	2694.811279	53.272076
713.604553	737.528809	4348.046387	2674.675049	53.652870
713.928467	730.172852	4312.009766	2643.096680	53.406223
714.252258	722.816895	4271.960449	2615.381592	53.324547
714.575989	720.959290	4228.419434	2594.725098	53.422298
714.899719	727.126465	4174.921387	2564.558350	53.292957
715.223267	730.024231	4140.519043	2532.682373	52.856205
715.546936	734.705322	4120.234863	2491.444580	51.889645
715.870422	735.968445	4105.745605	2473.092041	51.550102
716.193970	735.002502	4083.751953	2467.147705	51.725136
716.517395	738.271790	4048.383789	2462.615234	52.093204
716.840820	735.968445	4015.616211	2454.367432	52.395840
717.164124	741.243958	3964.198486	2437.129150	52.618961
717.487488	738.346191	3932.322998	2412.980713	52.431019
717.810730	744.810486	3903.641846	2391.804688	52.139351
718.133972	735.522644	3874.738281	2363.123779	51.847382
718.457092	730.915833	3830.304932	2338.975342	51.883114
718.780212	724.377197	3763.061279	2308.362549	52.127346
719.103210	728.538147	3703.990479	2271.880127	51.869156
719.426208	732.550537	3652.795898	2246.245361	51.834507
719.749207	732.401917	3608.660156	2224.400635	51.872906
720.072083	726.754944	3566.456299	2218.976563	52.548542
720.394958	724.600159	3530.716797	2192.153320	52.298367
720.717773	723.411316	3480.710938	2177.367188	52.731152
721.040527	726.457703	3445.120117	2148.537598	52.308071
721.363281	729.058289	3402.618408	2138.283691	52.709694
721.685913	734.259521	3378.544189	2114.061279	52.180531
722.008545	745.033447	3355.882568	2097.119873	51.787228
722.331055	740.129456	3315.535889	2089.987061	52.413383
722.653503	737.677490	3297.628906	2079.510254	52.416336
722.976013	726.011963	3269.616943	2080.030273	53.232254
723.298401	726.457703	3283.214111	2063.386475	52.290031
723.620789	725.863281	3269.022461	2055.510498	52.283287
723.943115	724.080078	3260.923828	2044.290649	52.041462
724.265381	723.114075	3234.694580	2035.448730	52.251350
724.587585	720.216309	3229.493408	2026.160767	52.044647
724.909790	727.869446	3236.998047	2030.470337	51.914471
725.231873	734.259460	3247.251953	2036.340332	51.813957
725.553894	743.250183	3262.707031	2047.485718	51.766541
725.875916	778.766846	3315.907471	2081.367920	51.341305
726.197937	782.110413	3316.650391	2086.271729	51.455544
726.519775	777.503662	3319.696533	2084.860107	51.426327
726.841675	741.243958	3276.155518	2065.541260	52.242348
727.163513	741.095398	3287.449463	2071.559814	52.249779
727.485291	733.367859	3302.012939	2081.442139	52.481918
727.806946	726.829285	3330.916748	2081.218994	52.010147
728.128662	723.336975	3367.324951	2088.946777	51.649624
728.450256	724.971680	3376.984131	2097.045654	51.737087
728.771790	725.417480	3388.278564	2095.633789	51.456543
729.093323	724.600159	3395.114258	2092.884766	51.236752
729.414795	726.903564	3407.522705	2091.844482	50.918869
729.736145	731.956116	3391.027588	2087.683350	50.984989
730.057495	729.058350	3375.052002	2090.061035	51.436356
730.378845	728.538269	3375.275146	2091.918701	51.511745
730.700134	726.309082	3377.132813	2089.986816	51.443546
731.021301	723.559875	3386.272217	2085.825928	51.160843
731.342468	729.206848	3382.557373	2082.482422	51.002518
731.663574	729.652649	3399.200928	2091.324219	51.007565
731.984680	731.510254	3401.355713	2091.101318	50.923962
732.305664	725.566101	3421.937500	2102.469727	51.065056
732.626648	723.114075	3427.584717	2112.277588	51.365452
732.947571	724.302917	3430.482422	2117.404541	51.478535
733.268433	725.343201	3418.222412	2107.893799	51.340981
733.589233	723.708496	3403.510498	2097.491455	51.264347
733.909973	720.587830	3392.067627	2092.958984	51.371197
734.230713	722.593933	3364.947266	2078.841553	51.327259
734.551331	727.497864	3326.607422	2048.229004	50.814754
734.871948	732.327637	3286.037842	2025.417969	50.635750
735.192505	732.179016	3237.369873	2007.065063	50.889774
735.513062	731.510315	3201.258545	1996.142578	51.204906
735.833435	732.550537	3148.206299	1967.610352	51.127312
736.153931	731.361755	3111.203369	1940.861328	50.822689
736.474304	728.092346	3060.305908	1920.576660	51.131008
736.794617	716.278259	3017.804932	1913.889526	52.035519
737.114807	716.946960	2986.597656	1911.140259	52.615734
737.434998	726.234802	2989.421143	1906.905151	52.168503
737.755188	739.906494	3001.904297	1894.348022	51.036369
738.075256	737.157288	3006.585205	1893.010376	50.931469
738.395325	735.225403	3008.219727	1887.660522	50.701183
738.715271	731.138733	3026.795898	1910.322876	51.365860
739.035278	729.727051	3055.922607	1916.267090	51.007751
739.355164	728.315247	3078.287354	1932.316528	51.234703
739.675049	725.417480	3079.327393	1927.635376	51.073235
739.994873	734.631042	3077.916016	1926.595215	50.867229
740.314636	733.219238	3065.135986	1917.307251	50.777458
740.634277	732.178955	3046.931641	1906.310547	50.723846
740.953979	729.652649	3016.913330	1898.360352	51.096394
741.273499	721.182190	2984.888672	1875.103516	50.974865
741.593140	720.587830	2941.644775	1849.171753	50.812927
741.912598	723.262695	2904.939209	1828.887085	50.677742
742.232117	726.457703	2861.100586	1818.856323	51.174774
742.551453	738.866211	2839.850342	1808.676758	50.919498
742.870850	731.807434	2821.199951	1788.466431	50.572540
743.190063	744.141785	2797.125977	1769.370728	49.938477
743.509338	741.169617	2759.305908	1756.070435	50.289013
743.828552	747.856934	2713.312256	1744.553711	50.710732
744.147705	730.767273	2698.006104	1730.361816	50.812061
744.466797	726.680664	2672.594482	1722.782837	51.189430
744.785828	727.572266	2651.269775	1712.677734	51.208958
745.104858	731.361633	2620.582764	1710.225708	51.813099
745.423706	731.287415	2606.316650	1698.188599	51.567257
745.742615	728.018066	2599.034912	1683.476685	51.066277
746.061401	737.454529	2585.511963	1667.798828	50.341743
746.380249	736.414307	2584.620361	1666.238647	50.309559
746.698975	736.265625	2578.750244	1658.362427	50.046375
747.017639	737.677429	2571.245850	1652.641235	49.900719
747.336304	738.643372	2564.409912	1643.204712	49.544193
747.654907	744.884827	2549.177979	1648.405884	50.076176
747.973389	743.398743	2549.103760	1660.814575	50.806515
748.291931	735.448425	2540.113037	1664.158203	51.461628
748.610352	731.658936	2549.549072	1664.975464	51.340645
748.928711	727.423645	2554.155762	1656.579224	50.864357
749.247070	733.293518	2560.843262	1659.625610	50.687107
749.565308	724.302917	2562.329346	1647.662964	50.236496
749.883545	729.206848	2551.852783	1635.848755	49.743172
750.201782	726.086182	2543.976563	1630.350464	49.742508
750.519836	728.612488	2530.750732	1630.053101	50.020615
750.837952	727.943787	2518.639404	1630.647461	50.410786
751.155884	729.355530	2506.156494	1613.112183	49.738640
751.473877	730.470032	2492.410645	1609.619995	49.896683
751.791809	731.287415	2487.803711	1602.932617	49.623516
752.109619	732.253357	2479.333252	1608.802368	50.172237
752.427490	728.612488	2463.358154	1605.310181	50.537537
752.745300	727.349304	2453.104248	1604.121460	50.805138
753.062988	726.160461	2453.921631	1598.474487	50.488113
753.380615	730.767273	2458.082764	1594.387817	49.997849
753.698303	729.949890	2453.847412	1588.294922	49.790955
754.015808	735.894104	2434.528564	1581.979370	49.809731
754.333374	738.643372	2423.606201	1586.734741	50.332939
754.650757	736.414246	2414.689697	1586.957520	50.679600
754.968262	735.968445	2426.652588	1584.728516	50.202168
755.285583	727.943787	2426.875244	1580.270142	50.168381
755.602905	725.491760	2424.720947	1571.428223	49.783539
755.920105	720.439209	2411.940674	1562.586304	49.786957
756.237305	727.423645	2412.832275	1553.669922	49.023499
756.554443	727.349304	2395.742676	1558.128052	49.795139
756.871582	733.888000	2382.293945	1562.066040	50.241146
757.188599	737.825989	2368.473633	1555.007324	50.113911
757.505615	740.500916	2394.405273	1548.394531	48.847664
757.822510	739.460693	2415.656006	1553.446899	48.561539
758.139465	735.819824	2439.061035	1563.106323	48.571304
758.456238	738.643311	2438.243652	1583.093750	49.685234
758.773010	735.151123	2450.801025	1588.889526	49.761806
759.089783	732.253357	2455.927979	1596.914063	50.163803
759.406433	730.395752	2475.097900	1602.115234	49.963799
759.723145	733.293640	2480.001953	1608.728149	50.119102
760.039673	731.287415	2491.593018	1611.402954	49.997883
760.356201	732.624817	2484.534424	1605.235962	49.809139
760.672668	735.002502	2485.797607	1603.601196	49.611668
760.989136	735.596924	2488.323975	1605.384644	49.624825
761.305481	731.733154	2497.686279	1604.344360	49.413044
761.621826	728.092285	2497.611572	1599.737671	49.258881
761.938049	734.259460	2508.905762	1607.687988	49.217049
762.254333	733.145020	2542.564697	1619.427734	48.981602
762.570496	735.299744	2598.960449	1631.390625	48.082298
762.886597	730.024231	2685.671631	1656.876465	47.393627
763.202637	736.860046	2799.652100	1714.683960	47.402935
763.518677	732.401917	2957.470947	1790.546997	47.555603
763.834656	730.024231	3104.144531	1864.626587	47.790428
764.150574	725.863281	3232.911377	1929.195801	47.997982
764.466370	726.680603	3284.031494	1969.765137	48.608288
764.782288	731.138733	3293.988281	1989.826782	49.112831
765.097961	735.522644	3266.793213	1977.864136	49.079762
765.413696	734.259521	3210.546631	1962.706421	49.608421
765.729309	733.813721	3132.156982	1916.861694	49.327717
766.044861	733.590820	3014.015625	1857.122070	49.268505
766.360474	734.482422	2877.967041	1780.218750	48.786743
766.675903	734.482422	2734.563232	1715.055298	49.026665
766.991394	723.708496	2618.650879	1656.653442	49.233421
767.306763	727.200684	2533.053955	1619.873535	49.432190
767.622131	727.720886	2467.147705	1574.697632	48.692867
767.937378	736.339905	2402.578369	1548.988770	48.771461
768.252625	736.711426	2339.718262	1518.896118	48.794846
768.567810	737.528809	2283.322510	1500.766235	49.375114
768.882996	733.813660	2235.768799	1476.246460	49.431091
769.197998	733.516418	2213.626709	1450.314819	48.428715
769.513062	724.674500	2189.032227	1437.609009	48.685818
769.828064	727.275085	2166.295898	1430.104492	48.840813
770.142944	725.566101	2135.162842	1420.965210	49.333199
770.457825	727.274963	2105.516113	1406.996216	49.318020
770.772705	727.795166	2072.228516	1391.095581	49.336803
771.087402	735.225403	2040.724121	1387.974731	49.999996
771.402100	739.163513	2017.616089	1371.108032	49.430420
771.716736	741.689758	2010.185913	1353.275391	48.213444
772.031372	734.631042	1997.628540	1332.396484	47.329105
772.345947	733.813660	1981.727905	1321.845459	47.121170
772.660461	727.869446	1961.591797	1315.975464	47.669235
772.974854	731.658875	1954.904663	1306.910645	47.026669
773.289246	734.110901	1947.697266	1305.944702	47.119331
773.603638	735.671204	1937.146118	1303.121094	47.229443
773.917908	731.361633	1926.520874	1299.406006	47.528763
774.232178	739.163513	1913.369263	1302.303711	47.959240
774.546265	732.030457	1903.189819	1296.582520	48.204544
774.860474	729.429749	1874.286011	1294.724976	49.376965
775.174561	723.262695	1857.939453	1283.133667	49.341892
775.488586	724.600098	1841.369995	1280.012817	49.733856
775.802551	726.977844	1834.905640	1275.777710	49.533905
776.116516	723.188416	1828.515625	1264.186401	48.944603
776.430359	728.835388	1817.295898	1249.994629	47.880402
776.744202	732.773438	1811.277344	1244.942017	47.488800
777.057922	735.819824	1804.292969	1239.443726	47.134914
777.371704	738.048889	1801.618164	1234.539673	46.681564
777.685303	725.194519	1788.540649	1224.137329	46.921955
777.998962	722.445374	1781.407715	1223.914429	47.354755
778.312500	723.114075	1785.568726	1220.422119	46.807465
778.626038	733.887939	1793.741821	1224.508789	46.291367
778.939453	731.881775	1786.311890	1225.474731	46.811344
779.252869	730.024231	1766.473022	1243.753296	49.566280
779.566223	723.336914	1767.810547	1245.165039	49.960873
779.879578	726.606262	1774.869141	1239.815308	48.958046
780.192749	724.377258	1777.915527	1223.691528	47.394032
780.505920	729.950012	1768.553345	1218.861938	47.073982
780.819031	729.429871	1760.602905	1221.016602	47.672573
781.132141	728.389465	1753.766968	1220.273682	47.971039
781.445190	725.566101	1736.306030	1217.301636	48.651043
781.758118	722.965515	1725.829468	1214.329346	48.996059
782.071045	724.971680	1720.999634	1202.143677	47.907490
782.383911	720.959290	1714.683960	1190.181030	47.218487
782.696838	727.943787	1703.538452	1180.001587	46.336639
783.009583	735.076843	1694.399292	1175.023071	45.860100
783.322266	740.278015	1682.362183	1174.651733	46.107738
783.634888	737.825989	1662.969116	1169.524902	46.662933
783.947510	724.154297	1648.182983	1168.336060	48.070126
784.260132	724.748718	1638.969360	1164.695190	48.122570
784.572571	719.696228	1623.440063	1158.676636	48.573544
784.885010	723.336975	1612.963501	1156.298950	48.667835
785.197449	722.816833	1603.972778	1147.011108	48.140659
785.509766	725.788879	1614.449585	1144.261841	47.090298
785.822083	726.977783	1607.910767	1137.426147	46.592461
786.134277	728.389587	1607.093628	1132.670532	46.008774
786.446533	733.070618	1595.205078	1133.413696	46.436268
786.758606	732.476257	1590.301147	1136.311523	47.076656
787.070740	730.618652	1594.313477	1138.243530	47.195477
787.382690	730.618652	1614.598022	1135.642700	45.818268
787.694641	737.231628	1635.700073	1137.426025	44.541843
788.006653	743.101563	1661.706055	1147.679810	44.042702
788.318481	742.209961	1675.377808	1162.094482	44.995605
788.630310	735.151123	1701.309448	1174.057251	45.427971
788.942017	733.219238	1717.433105	1189.214966	46.330959
789.253784	731.584534	1740.838501	1205.635864	46.970470
789.565430	736.414246	1741.284302	1211.803101	47.308491
789.877014	732.179016	1727.612671	1204.224243	47.421062
790.188538	730.024231	1703.389771	1190.403931	47.297718
790.500061	723.857117	1678.498413	1174.725952	47.229137
790.811462	721.850891	1662.820679	1168.781860	47.496845
791.122925	720.587708	1641.049805	1154.218384	47.110107
791.434204	723.634216	1619.873535	1146.342407	47.164658
791.745483	730.172852	1605.235962	1132.521973	45.979439
792.056702	733.293518	1584.282593	1118.033081	45.210869
792.367920	737.677429	1574.400391	1110.602661	44.569736
792.678955	732.773438	1548.171509	1102.949585	45.398212
792.990112	731.436035	1549.731812	1105.401611	45.700539
793.301086	727.720886	1539.403809	1095.147827	45.267300
793.612122	730.915955	1535.540039	1097.971313	45.618240
793.922974	731.287415	1523.280151	1097.079712	46.186321
794.233826	730.247070	1511.911743	1102.800903	47.661594
794.544556	729.652649	1507.305054	1095.742188	47.076244
794.855286	727.720886	1504.333008	1093.290161	47.072311
795.166016	731.287415	1510.871582	1092.249878	46.301922
795.476624	731.807556	1526.252319	1098.565796	46.165356
795.787292	734.631042	1536.060181	1105.550171	46.282211
796.097778	726.829163	1553.744263	1109.636841	46.293468
796.408264	725.194519	1558.202515	1111.791626	46.409771
796.718689	719.324707	1561.694702	1103.023804	45.549950
797.029053	731.064514	1553.521118	1106.218872	45.613880
797.339355	734.036621	1551.515137	1104.658447	45.337196
797.649658	740.129456	1558.796875	1118.924438	46.269703
797.959839	732.476257	1556.047485	1110.082520	45.849861
798.270020	732.178955	1550.400757	1108.373657	45.977104
798.580078	735.894104	1535.317017	1097.376953	45.217976
798.890137	735.968445	1532.345093	1099.234497	45.614857
799.200195	725.789001	1520.753784	1100.497559	47.135239
799.510071	725.566101	1501.955200	1098.788574	48.071575
799.820007	720.439209	1484.494141	1086.900269	47.962658
800.129883	729.652771	1479.367065	1070.330688	45.441032
800.439575	716.946960	1469.113403	1061.042847	45.747307
800.749329	723.114075	1458.562378	1065.278076	46.524548
801.058960	722.296692	1449.794556	1066.021118	47.247482
801.368591	729.132629	1452.246704	1062.751831	46.136456
801.678162	727.869446	1456.110352	1051.977905	44.505665
801.987671	722.445313	1443.553223	1042.615845	44.399807
802.297119	721.925293	1422.079712	1044.993530	46.142426
802.606506	726.977844	1409.374023	1047.891235	47.027431
802.915894	724.005676	1406.253296	1051.829224	48.050522
803.225159	730.321472	1412.940430	1042.690063	45.760315
803.534424	725.417480	1413.609253	1041.278320	45.897213
803.843628	732.401855	1412.048828	1042.764404	45.665260
804.152771	739.609192	1409.671265	1047.965576	46.019077
804.461792	738.346130	1408.407837	1052.423706	46.872932
804.770874	741.169678	1407.813599	1056.659058	47.325020
805.079773	727.423645	1419.182007	1055.172974	47.379166
805.388733	736.860046	1425.274780	1047.296875	45.094448
805.697571	730.470032	1438.129028	1044.324707	44.351116
806.006470	730.767334	1442.141602	1052.200928	45.184879
806.315125	724.971680	1454.847290	1060.671509	45.994114
806.623901	731.733215	1455.293091	1065.723999	46.159386
806.932495	735.374023	1461.683228	1062.083130	44.982098
807.241150	726.011902	1450.091919	1059.185425	46.013355
807.549622	725.491760	1441.250000	1045.810791	44.752407
807.858154	727.572205	1424.754761	1048.411377	46.019390
808.166565	734.779602	1409.968384	1049.451660	46.605049
808.474915	732.624817	1413.832153	1056.436157	47.534916
808.783264	725.640381	1414.203735	1038.900757	45.494778
809.091492	728.240967	1421.262329	1023.074219	42.543171
809.399719	729.801331	1400.234741	1015.049500	42.546829
809.707825	733.145020	1393.918945	1015.198059	42.685257
810.015930	730.321472	1376.086304	1030.281616	46.450367
810.323975	728.315247	1369.101929	1021.513855	45.756039
810.632080	730.915833	1354.464355	1019.284668	46.246414
810.939880	732.253235	1349.783203	1010.665527	45.084824
811.247864	728.315247	1344.061890	1016.089661	46.735847
811.555664	722.816833	1336.334473	1022.033936	48.770741
811.863464	719.993347	1326.823608	1014.157898	48.475590
812.171143	716.426819	1325.932007	1011.037170	48.335987
812.478882	718.210144	1319.913574	1004.572815	47.591995
812.786438	722.816895	1317.535767	1000.783386	46.739140
813.094055	737.157288	1320.805176	1000.411804	45.105022
813.401489	741.764099	1317.610107	1004.795715	45.677422
813.708984	743.844543	1318.798950	1005.241516	45.463947
814.016357	742.804382	1313.077759	1004.498474	45.889236
814.323730	738.717712	1307.579346	995.359192	45.114922
814.630981	730.693054	1306.316162	991.124023	45.243313
814.938232	726.977844	1298.811523	983.990906	44.945423
815.245361	728.538147	1302.823853	981.761902	44.093689
815.552490	731.138733	1301.412109	984.808289	44.482098
815.859619	729.058350	1308.322266	983.322266	43.894314
816.166565	730.395752	1304.904419	985.922852	44.477501
816.473572	736.191345	1305.127319	993.055847	45.148228
816.780457	742.952881	1301.412109	1002.789551	46.527420
817.087341	738.791931	1308.916870	1008.882324	47.373894
817.394043	734.259460	1314.712402	1009.996887	47.503838
817.700806	728.315247	1325.337646	1003.606750	46.110748
818.007507	726.011902	1326.675171	1003.309570	46.165245
818.314209	726.680603	1329.052734	1004.052551	46.046612
818.620667	725.937561	1338.860718	1014.009216	46.999638
818.927246	725.640381	1356.619141	1013.266113	45.584061
819.233704	732.327637	1381.139038	1016.312561	43.770027
819.540161	731.510254	1404.990234	1024.485840	43.501751
819.846497	729.281189	1458.785278	1048.039917	43.695263
820.152832	730.692932	1510.276978	1076.720703	44.386204
820.458984	735.225403	1570.313843	1106.441772	44.452343
820.765259	736.191345	1639.860962	1139.432251	44.622604
821.071350	727.275085	1732.144897	1177.029419	44.757473
821.377502	726.160461	1901.257935	1245.462158	44.192226
821.683472	722.222473	2209.242920	1381.436157	44.331177
821.989441	721.479431	2762.203857	1623.068726	44.179867
822.295349	722.073914	3515.633057	1948.440308	43.899784
822.601196	733.590759	4360.826660	2308.957031	43.431591
822.907043	730.915833	5079.779785	2611.220703	43.236694
823.212769	720.736389	5487.181641	2802.475586	43.674881
823.518494	721.033630	5530.574707	2833.385742	43.920033
823.824097	719.324646	5268.434082	2738.501221	44.386192
824.129700	722.222412	4872.549316	2576.075439	44.667637
824.435242	720.439209	4441.668457	2398.640381	45.098034
824.740723	725.045959	4063.838867	2250.035156	45.674866
825.046082	729.206970	3739.433350	2103.732910	45.661877
825.351501	727.795166	3433.231689	1960.625854	45.568642
825.656799	725.863281	3123.240479	1819.748047	45.628395
825.962036	728.612488	2824.469482	1688.455078	45.797142
826.267212	730.321472	2594.056641	1591.638672	46.214573
826.572449	733.293640	2475.840820	1527.218140	45.561150
826.877502	732.773438	2491.370361	1523.280151	44.950989
827.182495	734.482422	2605.722168	1566.598633	44.468712
827.487488	737.825989	2756.630859	1630.201660	44.203163
827.792419	737.008606	2870.537109	1683.476685	44.361633
828.097290	735.522644	2899.217773	1700.343384	44.591347
828.402100	737.008606	2829.967529	1671.662598	44.657063
828.706848	742.358459	2685.300293	1610.214233	44.667099
829.011597	736.414246	2495.233887	1527.069458	44.953743
829.316223	725.120300	2328.126953	1436.866211	44.400684
829.620789	717.095520	2177.441162	1369.845093	44.698292
829.925354	726.606262	2053.950195	1311.368774	44.055084
830.229797	725.120178	1919.165039	1278.081177	46.309898
830.534302	728.240906	1793.370483	1224.063110	46.550407
830.838562	719.473145	1672.479980	1167.741577	47.037273
831.142944	722.222412	1570.982422	1111.865845	45.907375
831.447144	722.668152	1489.843750	1074.343140	45.840221
831.751404	725.640320	1435.751587	1047.668335	45.348953
832.055542	732.847717	1400.457642	1022.182434	43.338886
832.359619	727.349304	1393.399048	1011.631592	42.681839
832.663635	722.965515	1400.383423	1018.838928	43.676643
832.967651	716.872559	1439.912476	1039.420776	44.610016
833.271545	724.822998	1508.122192	1069.661987	44.023918
833.575439	731.733154	1621.359497	1113.129028	42.871468
833.879211	732.996338	1760.900024	1168.781738	42.395550
834.183044	726.160461	1896.205444	1221.090820	42.300117
834.486694	723.114075	1999.486328	1265.226685	42.472923
834.790344	732.773438	2028.092773	1287.220337	42.803879
835.093933	742.061279	2003.498535	1286.403076	43.152508
835.397522	744.141785	1932.613892	1262.551880	43.619877
835.700928	738.717590	1853.853027	1232.979370	44.323025
836.004395	735.225403	1773.754517	1202.812378	45.023968
836.307739	732.104736	1708.516724	1174.800293	45.339012
836.611023	729.949951	1646.325317	1150.503296	45.893131
836.914307	723.114075	1574.474609	1116.398438	46.194809
837.217529	724.600098	1496.679688	1086.528809	46.877125
837.520691	733.219238	1420.519409	1047.445435	45.718918
837.823730	737.380188	1356.247559	1022.256836	46.031940
838.126831	729.429871	1298.811523	993.575928	46.391739
838.429749	715.832458	1248.211304	979.458496	49.518505
838.732727	714.346375	1214.700806	957.910645	48.678349
839.035522	720.587830	1198.948608	945.427917	47.002201
839.338379	721.999512	1196.050903	928.189636	43.495312
839.641113	724.005676	1200.211792	931.904724	43.657368
839.943848	728.538147	1220.422241	940.300964	43.051365
840.246460	724.005676	1252.000732	957.316223	44.188019
840.549072	720.439209	1287.071655	969.724792	43.994232
840.851563	723.114075	1303.195313	981.316101	44.511356
841.154053	735.671204	1308.099487	983.545105	43.302177
841.456482	736.711426	1282.242065	977.823792	44.197769
841.758850	732.773438	1260.248535	971.582336	45.273968
842.061157	734.036560	1228.669800	958.802429	45.440914
842.363403	731.510254	1212.620483	958.207825	47.119675
842.665588	726.829285	1185.648438	937.328857	45.878551
842.967712	718.507324	1161.500122	931.756104	48.138206
843.269775	719.101746	1142.924438	913.477722	45.862568
843.571777	724.005676	1120.410767	908.722351	46.597958
843.873840	725.120178	1101.537964	896.313782	45.479679
844.175659	725.640381	1079.990112	885.836975	45.208611
844.477600	724.674377	1067.507202	880.858704	45.556992
844.779297	724.674377	1061.488647	877.812317	45.466583
845.081116	727.943665	1055.024292	876.029053	45.274887
845.382751	728.686707	1048.337036	869.638977	44.095768
845.684387	734.259460	1040.015137	861.465637	41.603863
845.985962	730.024231	1022.851318	855.298584	42.780998
846.287537	730.024231	1005.092957	855.744385	45.704998
846.588989	728.835449	999.371582	859.608154	48.338352
846.890381	735.819824	1004.795715	858.270691	45.524849
847.191711	738.569031	1008.139343	849.502930	41.152119
847.493042	740.872375	1000.411804	843.335938	39.478996
847.794250	735.596924	991.198303	844.450439	42.587219
848.095459	734.036621	987.111633	849.577332	45.654728
848.396606	723.188293	980.424377	849.205811	48.989052
848.697693	719.473206	975.669128	849.577332	50.783058
848.998657	716.798340	977.303711	853.663879	52.538471
849.299622	722.073914	989.563721	854.481262	49.499962
849.600464	721.925293	986.963074	853.292419	49.565434
849.901367	716.055359	981.316101	843.335876	47.983173
850.202087	716.649719	960.511230	843.410156	51.980503
850.502808	718.210144	961.997314	837.094421	48.765602
850.803467	723.411316	962.888977	831.893250	45.299397
851.104065	722.891174	965.712402	832.116150	44.981644
851.404663	722.445374	958.728027	829.738464	45.408787
851.705139	721.702332	952.338074	835.311218	49.259010
852.005615	722.816895	955.978821	826.840637	44.614376
852.306030	727.943787	956.127441	831.670410	45.457516
852.606384	733.590637	959.025208	827.732239	41.760056
852.906616	730.098572	950.629089	830.704407	45.619915
853.206909	728.761047	951.223450	821.936707	41.883778
853.506958	730.544373	950.926270	825.131653	42.919716
853.807129	737.900330	955.533020	816.512634	36.121552
854.107178	741.689758	958.356506	823.942810	37.962933
854.407166	745.181946	959.248108	823.571350	36.619240
854.707092	739.460693	964.597961	828.921143	39.735958
855.007019	742.730042	960.511230	824.463074	37.529884
855.306763	734.928223	953.006653	820.822266	39.386768
855.606567	736.191345	948.845703	822.011047	40.356426
855.906250	724.897278	940.003723	829.218445	48.497463
856.205933	723.262695	937.700378	834.939697	52.078999
856.505493	718.953125	928.189636	839.323547	57.528404
856.805054	729.281250	944.090332	840.586670	51.815975
857.104492	730.841614	956.498840	831.150330	44.451809
857.403931	735.151123	964.597900	827.286560	40.155472
857.703308	728.538147	960.659851	818.741699	38.860455
858.002563	728.463867	951.372070	837.540344	48.933361
858.301819	733.887939	955.012878	844.450500	50.000042
858.601013	745.033386	951.817871	847.199707	49.407150
858.900208	747.856873	955.532959	829.961426	39.534908
859.199219	746.519470	952.709412	819.187500	35.243248
859.498291	740.129395	948.325623	812.797546	34.903683
859.797302	734.556702	937.328796	811.385742	37.889355
860.096191	734.928223	937.700378	814.060608	39.025272
860.395020	729.429749	938.591980	816.661194	41.705162
860.693787	735.671204	945.427734	823.422852	41.835003
860.992554	726.160461	943.050110	818.667419	42.651623
861.291260	725.566101	935.174072	823.348450	46.650108
861.589844	722.742493	937.551758	827.360779	48.702873
861.888428	726.160400	937.551758	831.596008	49.876972
862.186890	728.761047	944.164734	825.280273	44.808529
862.485413	730.172852	936.437256	818.964539	43.047508
862.783813	730.841553	930.418701	823.051270	46.202541
863.082153	735.002502	931.904724	834.196594	50.377335
863.380371	739.237793	938.814880	836.054199	48.510780
863.678589	743.993164	946.319519	832.710632	43.848698
863.976746	738.717590	948.845764	825.428955	41.265938
864.274902	728.463867	948.994385	825.503174	44.002666
864.572937	724.451477	956.573242	823.571350	42.701672
864.870911	729.875671	958.802246	824.908875	41.512527
865.168884	737.751709	959.173828	822.679688	38.355690
865.466736	738.346191	943.198730	821.713806	40.696404
865.764587	738.791992	939.483582	822.382568	41.651260
866.062317	735.522644	942.975830	826.023376	43.624653
866.360107	731.658875	951.669250	827.583679	43.600128
866.657715	726.531921	953.824036	826.320557	43.903255
866.955322	725.788879	950.183167	825.354553	44.370861
867.252808	733.144958	948.325623	829.515564	44.785904
867.550293	731.807434	945.725037	827.880859	44.911415
867.847717	728.761047	942.752930	828.178162	46.458359
868.145081	726.011902	941.341125	820.970764	44.099384
868.442383	724.600159	944.610535	816.438293	41.742638
868.739624	722.519714	947.211121	810.939941	39.351852
869.036804	721.330811	949.960266	815.100891	41.014000
869.333984	725.937561	948.771484	818.518799	41.547192
869.631042	728.909668	949.291565	823.719971	43.020912
869.928101	731.138733	942.530029	826.543457	45.131813
870.224976	732.624756	946.839600	832.339111	46.548759
870.521851	732.104675	945.279236	839.917969	50.575123
870.818726	731.956116	945.353516	837.837463	49.616982
871.115479	728.612488	941.638367	846.976746	55.563324
871.412231	729.875671	943.867432	842.518555	52.638889
871.708862	729.058289	945.056335	849.057312	55.555607
872.005493	734.259521	950.554688	836.574402	47.303360
872.302063	736.265625	951.743469	835.088196	45.862057
872.598572	732.179016	955.978821	826.246277	42.031879
872.895020	731.584534	949.440186	825.206055	42.974106
873.191406	733.590820	951.372070	824.314392	41.658119
873.487671	735.448425	953.972656	833.527893	44.882652
873.783997	738.271912	959.694031	830.184326	41.510040
874.080200	737.603088	954.418457	828.623962	41.980824
874.376343	741.318298	958.430725	819.633301	36.071175
874.672424	738.643311	962.294495	823.645691	38.006676
874.968445	734.408020	968.164368	832.339111	41.894516
875.264465	734.779541	964.746521	837.317383	44.588070
875.560364	732.253357	965.266602	833.230713	43.335457
875.856201	723.336975	964.969421	826.023376	42.496941
876.152039	723.559875	971.582336	826.766357	41.611748
876.447754	723.559875	971.136536	830.630127	43.247311
876.743469	738.271790	975.594727	828.103821	37.852234
877.039063	740.649597	967.347168	826.320618	37.790886
877.334595	741.243958	966.826965	833.082092	40.711460
877.630127	731.658936	967.347168	833.230713	43.095821
877.925537	731.584656	968.313049	837.911804	44.915249
878.221008	737.231628	971.136536	833.453613	41.137222
878.516296	739.980774	974.480164	839.174866	42.300362
878.811646	730.544250	990.306641	839.100586	41.790630
879.106812	727.274963	1008.956604	843.187317	41.150127
879.401978	729.652649	1023.445618	852.326477	41.755196
879.697083	739.014832	1041.352661	855.447266	38.510708
879.992126	735.968445	1061.860229	868.673096	40.720467
880.287109	730.395752	1097.822632	881.155945	41.031345
880.582031	720.885071	1159.345337	916.226868	44.551765
880.876892	723.857117	1284.842651	967.867371	43.496712
881.171753	727.720886	1501.955078	1061.711670	43.138210
881.466492	735.225403	1829.853149	1200.509155	42.506119
881.761230	740.129395	2233.837158	1364.718140	41.814655
882.055786	737.083008	2622.142822	1516.072876	41.324409
882.350403	738.197510	2878.784912	1621.656860	41.271820
882.644958	726.680664	2955.093750	1666.535767	42.175983
882.939453	728.761169	2904.939209	1661.780273	42.874210
883.233826	723.708557	2787.094971	1618.461914	43.363342
883.528137	724.971680	2654.316162	1574.548950	44.034504
883.822449	728.761047	2529.115967	1518.821899	43.883614
884.116577	732.996338	2414.615479	1482.265015	44.556385
884.410828	737.231628	2298.406006	1425.274780	44.072155
884.704956	739.089172	2149.206299	1361.820313	44.161659
884.999023	737.528809	1969.913696	1271.913940	43.361870
885.292969	732.401917	1764.838257	1183.716675	43.713570
885.586914	725.714661	1573.285767	1113.500610	45.752617
885.880798	723.857117	1439.095093	1047.148315	45.200508
886.174622	726.309082	1341.758545	999.817444	44.440426
886.468384	735.374023	1286.328613	963.557678	41.416054
886.762085	736.191406	1219.901978	953.823975	44.992313
887.055664	733.665039	1177.846680	940.077942	46.470383
887.349304	728.538269	1149.017212	929.749817	47.852943
887.642822	728.686829	1127.989624	908.573730	45.050247
887.936340	734.408020	1114.020752	903.149597	44.450981
888.229736	730.172852	1076.943726	881.527527	43.646881
888.523071	723.114075	1059.333984	875.360413	45.281773
888.816284	718.061523	1041.204102	864.215027	45.228798
889.109619	727.869446	1032.139038	860.425476	43.565323
889.402710	740.872375	1012.968994	856.784668	42.599682
889.695862	740.872375	992.238586	855.149963	45.462589
889.988892	731.361633	978.864075	854.555481	49.774799
890.281921	718.210083	973.217102	842.592896	48.776230
>>>>>End Processed Spectral Data<<<<<
