Jaz Data File
++++++++++++++++++++++++++++++++++++
Date: Fri Jun 04 16:18:22 2021
User: jaz
Dark Spectrum Present: Yes
Reference Spectrum Present: Yes
Processed Spectrum Present: Yes
Spectrometers: JAZA3586
Integration Time (usec): 40000 (JAZA3586)
Spectra Averaged: 10 (JAZA3586)
Boxcar Smoothing: 1 (JAZA3586)
Correct for Electrical Dark: No (JAZA3586)
Strobe/Lamp Enabled: Yes (JAZA3586)
Correct for Detector Non-linearity: No (JAZA3586)
Correct for Stray Light: No (JAZA3586)
Number of Pixels in Processed Spectrum: 2048
>>>>>Begin Processed Spectral Data<<<<<
W	D	R	S	P
191.335022	0.000000	0.000000	0.000000	0.000000
191.713211	302.709259	311.922791	302.337769	-4.032010
192.091385	614.260559	623.697021	605.864441	-88.975273
192.469528	925.737549	936.511475	917.861572	-73.102196
192.847641	941.043945	939.334961	932.870667	478.253571
193.225739	943.644531	952.486572	938.963562	-52.939919
193.603790	944.016113	964.152100	948.474304	22.140415
193.981842	948.622864	970.021973	949.960266	6.249804
194.359863	958.876648	966.455505	960.362610	19.606674
194.737854	973.662903	971.953857	968.090149	326.074066
195.115829	975.297607	974.554504	968.387390	929.913757
195.493774	979.532715	978.195313	974.108704	405.563171
195.871704	981.613220	970.690735	968.981750	115.646477
196.249603	985.922791	974.554504	965.712402	177.778671
196.627457	980.721680	972.399658	961.031433	236.604126
197.005310	977.675293	975.000305	953.972656	886.083923
197.383133	973.142761	974.108704	953.601135	-2023.063354
197.760910	981.613220	970.913757	953.452576	263.196808
198.138687	975.669006	967.867249	961.923035	176.190704
198.516449	972.771179	966.158203	959.471008	201.122314
198.894180	962.220215	971.582336	960.734192	-15.872716
199.271866	966.083984	966.381104	958.728027	-2475.760010
199.649536	964.152161	962.591736	967.570007	-219.033096
200.027191	959.545410	962.071594	965.786804	247.068054
200.404816	956.053040	967.272888	961.179993	45.695385
200.782410	950.777649	981.687683	967.272766	53.364925
201.159988	955.755920	997.811279	973.439941	42.049389
201.537537	953.303955	1012.523193	984.065186	51.944656
201.915070	964.523621	1007.321960	979.755676	35.590294
202.292557	958.282227	998.182678	984.436768	65.549484
202.670029	960.659912	993.501648	981.167480	62.443619
203.047485	948.771484	991.049622	988.077637	92.970398
203.424911	953.303955	989.563660	985.328369	88.319565
203.802292	955.904541	989.340637	988.300476	96.889107
204.179688	961.254333	992.015625	987.483154	85.265671
204.557037	959.768250	994.764832	984.288147	70.063690
204.934357	958.653748	996.176575	981.464600	60.791935
205.311661	961.848694	999.074402	981.910461	53.892239
205.688934	962.294617	996.993958	979.012634	48.179642
206.066177	960.362732	998.405701	980.201477	52.148258
206.443390	955.681641	1001.600647	984.139587	61.974220
206.820587	951.743591	1001.600647	983.247864	63.189198
207.197769	950.331848	991.272644	982.876404	79.491753
207.574921	950.480286	994.319031	972.102539	49.322247
207.952042	943.793152	992.387024	972.548279	59.174389
208.329147	939.112061	993.353027	979.384094	74.246529
208.706223	954.492676	992.535706	998.702820	116.210892
209.083267	968.535889	993.724609	1004.721375	143.657501
209.460297	972.102356	994.021790	1000.486145	129.491440
209.837280	954.715576	986.740051	983.322205	89.327393
210.214264	943.644531	987.334473	984.288086	93.027260
210.591217	945.204895	989.563660	980.201477	78.894402
210.968124	945.873596	985.402649	979.458496	84.962570
211.345016	956.870422	987.260254	978.269592	70.415558
211.721893	954.938660	991.495605	984.659668	81.300575
212.098724	953.824036	997.439758	981.613281	63.713825
212.475555	952.560852	995.210632	982.579285	70.383560
212.852356	950.480408	987.928955	978.492493	74.801529
213.229126	952.858093	983.990906	981.687500	92.601357
213.605865	942.678528	983.247864	973.216980	75.274712
213.982590	943.124451	986.219971	963.557617	47.413666
214.359283	946.319519	983.247864	957.762024	30.985697
214.735931	942.381409	982.727783	961.923035	48.434650
215.112579	937.700378	985.105469	962.591736	52.507774
215.489197	934.876770	988.895020	970.096375	65.199455
215.865799	950.108887	995.507813	968.090149	39.607243
216.242355	955.755859	994.913391	972.845520	43.643356
216.618896	955.012878	990.455261	963.037598	22.641590
216.995407	939.557922	978.715393	963.557617	61.290207
217.371902	937.105957	977.898132	970.467834	81.784996
217.748367	939.409363	982.579163	977.823792	88.984497
218.124802	948.622864	984.511047	980.275879	88.198990
218.501236	951.966492	989.637939	976.709290	65.680504
218.877609	951.297852	990.009460	973.439941	57.197544
219.253983	951.817932	995.804993	975.148926	53.040585
219.630295	947.285339	992.387146	974.182922	59.637486
220.006592	949.068604	994.839111	985.625549	79.870087
220.382889	951.743591	992.164246	985.997070	84.742516
220.759140	955.087158	987.706116	985.997131	94.760765
221.135391	945.427795	989.712219	978.864075	75.503479
221.511581	942.158447	992.015625	977.155090	70.193794
221.887772	938.889160	997.216797	972.102539	56.942783
222.263931	945.873718	998.108459	975.371826	56.472202
222.640060	939.780823	1005.538757	975.223206	53.898262
223.016159	939.037842	1010.888489	982.579102	60.599678
223.392212	940.895447	1009.328125	977.377991	53.311584
223.768265	952.858093	1001.303467	979.978577	55.981575
224.144302	959.916809	992.758728	977.526550	53.619709
224.520294	958.802246	991.569824	979.607117	63.492245
224.896286	952.635193	994.467590	979.384094	63.943027
225.272217	952.040710	993.724609	978.789734	64.171120
225.648148	951.372009	997.439758	983.545166	69.838783
226.024048	950.926208	997.291199	981.241699	65.384445
226.399902	953.824036	999.817383	981.018860	59.127735
226.775772	953.303894	991.123962	977.155090	63.064922
227.151581	948.399902	991.346863	978.566895	70.242439
227.527374	942.158447	984.213806	975.000305	78.091972
227.903137	933.019226	987.185852	980.498779	87.654625
228.278870	942.530029	990.529541	978.715515	75.387199
228.654572	943.718811	999.074402	982.133362	69.395973
229.030273	953.972595	997.737000	974.777405	47.538200
229.405930	950.406067	990.232422	979.161316	72.201561
229.781555	946.542419	990.604004	977.898132	71.163383
230.157181	940.598145	997.142578	972.473938	56.373001
230.532761	937.328857	994.541992	966.306824	50.649151
230.908325	939.483643	988.895020	967.421387	56.541115
231.283859	943.124451	983.545166	974.703064	78.124825
231.659332	947.582581	991.495422	979.012695	71.573860
232.034821	944.387512	996.102234	980.647278	70.114975
232.410263	942.307129	995.656433	980.275818	71.169983
232.785690	948.028503	986.517151	973.514221	66.216194
233.161087	957.464844	984.213806	975.817627	68.611198
233.536469	955.978821	984.065247	967.347168	40.476303
233.911804	957.019104	987.111633	971.730957	48.888721
234.287140	958.579407	999.148682	963.632019	12.454283
234.662430	965.861084	1005.687256	975.891907	25.186510
235.037704	955.384338	1002.566650	976.709290	45.196918
235.412933	951.074768	990.901123	983.322266	80.970245
235.788162	940.449524	984.956848	979.681335	88.146866
236.163345	944.090393	994.096130	982.504883	76.820168
236.538513	943.495911	1003.978333	985.551270	69.533195
236.913635	949.737488	1009.551086	988.969238	65.590019
237.288742	943.718933	1006.281738	980.201477	58.313473
237.663834	935.396973	1004.869934	971.210938	51.550941
238.038879	934.728271	1003.532532	971.433777	53.347721
238.413910	935.025452	1013.266174	975.000305	51.092133
238.788910	941.861328	1008.956543	977.377930	52.934628
239.163879	935.248352	1011.185730	973.662781	50.586983
239.538834	939.260681	999.445862	977.229309	63.086342
239.913757	935.917053	1003.978333	976.189148	59.170345
240.288651	949.663086	1002.640930	981.687561	60.448807
240.663528	954.864258	1010.442688	983.173523	50.935703
241.038361	959.991150	1009.551086	985.253967	50.974274
241.413177	955.161438	1004.795715	983.693665	57.484924
241.787979	953.452454	1000.709167	978.121033	52.201214
242.162735	954.789856	996.845398	978.641113	56.713707
242.537476	952.932373	1002.417969	970.690735	35.885921
242.912170	953.601074	1010.888489	975.520447	38.262108
243.286865	954.195557	1017.352783	979.904297	40.705936
243.661514	955.755859	1018.393066	983.842285	44.839844
244.036148	951.594910	1016.758484	983.322205	48.688698
244.410751	952.560852	1018.838928	981.687561	43.946220
244.785339	947.805481	1021.885315	984.213867	49.147499
245.159882	951.669250	1014.529297	981.316101	47.163265
245.534378	944.684875	1009.179504	980.647278	55.760307
245.908890	950.183167	1006.058838	985.031189	62.367077
246.283356	946.913879	1007.842102	987.334656	66.341629
246.657791	945.650696	1010.591309	987.557434	64.530861
247.032196	938.740540	1018.170105	987.780457	61.740131
247.406586	931.013123	1030.132935	989.563660	59.070469
247.780960	936.139954	1043.581665	985.848450	46.265549
248.155289	939.929382	1048.634277	983.545105	40.123055
248.529602	944.090332	1046.405151	976.040527	31.227339
248.903870	940.895325	1037.711792	978.195313	38.526493
249.278122	938.146179	1027.755249	974.034363	40.049721
249.652344	946.096497	1018.467468	983.545105	51.745346
250.026550	953.675476	1008.882385	983.768066	54.508739
250.400711	960.139709	1010.591309	982.950684	45.213581
250.774857	949.068665	1017.947266	976.189148	39.374325
251.148987	933.465088	1023.371399	976.337708	47.685886
251.523071	925.737610	1020.919434	974.480164	51.209938
251.897125	937.626038	1020.845032	983.247864	54.821411
252.271164	945.650696	1019.284668	984.659668	52.976868
252.645187	950.703308	1023.222839	991.867004	56.762222
253.019165	939.632263	1026.120605	982.950684	50.085850
253.393112	942.678650	1034.814087	986.665833	47.741871
253.767044	951.223450	1036.968750	984.882568	39.254768
254.140930	957.093445	1030.950317	991.124023	46.076385
254.514801	951.297791	1028.646851	986.740051	45.821190
254.888657	942.158508	1032.510620	980.498718	42.434216
255.262466	941.564148	1041.129761	979.755676	38.358150
255.636276	942.009827	1040.832520	976.932190	35.338406
256.010010	945.204895	1040.758179	986.888855	43.623787
256.383759	944.238953	1037.043091	988.820618	48.038445
256.757446	952.337891	1043.730347	995.284973	46.991936
257.131134	948.325623	1045.142090	993.278809	46.431343
257.504791	948.399902	1056.436035	990.380920	38.858311
257.878418	945.130615	1054.652832	989.266357	40.298439
258.252014	952.040710	1057.253418	989.786438	35.875637
258.625580	957.687805	1056.956177	988.151855	30.688576
258.999115	954.344177	1066.244141	989.712219	31.606840
259.372650	953.303894	1078.132446	981.539001	22.619110
259.746124	949.514465	1091.729858	985.477051	25.287407
260.119598	957.093323	1097.896973	989.266418	22.849617
260.493042	952.115051	1107.407715	993.798828	26.842077
260.866425	953.006653	1109.711182	992.907227	25.462297
261.239838	949.811707	1114.020752	984.213867	20.950222
261.613159	944.610535	1108.299438	983.024963	23.467949
261.986511	936.808777	1103.023926	976.263428	23.737097
262.359802	935.248352	1095.593628	980.572998	28.266905
262.733063	943.867493	1088.311890	982.207703	26.543230
263.106293	951.520691	1089.203613	979.161316	20.075565
263.479523	948.919983	1095.370605	980.870300	21.816444
263.852692	940.523743	1094.776245	977.823914	24.181242
264.225861	938.220398	1090.466797	988.894958	33.284573
264.598969	947.731140	1081.773438	987.408875	29.600906
264.972076	949.811707	1083.630981	994.318909	33.259186
265.345154	948.771484	1081.104614	992.015625	32.678242
265.718201	944.164734	1089.277954	985.699890	28.622585
266.091217	949.143005	1100.348999	986.888672	24.963076
266.464203	948.399963	1106.739136	989.266418	25.809441
266.837158	945.502136	1116.695557	990.380859	26.215216
267.210114	938.666260	1120.113525	988.523376	27.477468
267.583038	943.793152	1134.676758	992.387024	25.457331
267.955902	948.622803	1136.757324	995.507813	24.921003
268.328766	956.647461	1131.779053	994.467590	21.595264
268.701569	952.263611	1130.292969	997.365417	25.333916
269.074371	947.879700	1143.964722	996.696594	24.895779
269.447144	949.440186	1153.698364	995.879395	22.735544
269.819885	950.554749	1159.494019	986.963074	17.425314
270.192596	948.177063	1156.893433	984.139648	17.230362
270.565277	940.449524	1168.410278	980.721680	17.666267
270.937927	942.307129	1185.128418	984.362549	17.319494
271.310577	942.604309	1205.561646	990.901123	18.366787
271.683136	948.548523	1221.165161	989.117859	14.881460
272.055725	949.960266	1232.161987	986.591492	12.980511
272.428284	952.263672	1236.917480	983.693665	11.041480
272.800812	951.817871	1244.273315	991.123962	13.440027
273.173279	947.582703	1239.740845	987.483093	13.657121
273.545776	953.675476	1235.802856	985.625488	11.324677
273.918152	952.189453	1229.338501	986.814453	12.493278
274.290558	944.684814	1225.028931	991.198303	16.591570
274.662964	938.666321	1226.812134	993.724609	19.107786
275.035278	939.112122	1221.759644	991.644104	18.585686
275.407593	940.821045	1228.149658	988.969238	16.757187
275.779907	948.697205	1232.607910	991.198242	14.969861
276.152161	947.434021	1244.942017	986.665833	13.186810
276.524384	959.248108	1255.270142	981.093079	7.379508
276.896606	948.177063	1259.431152	982.950745	11.172120
277.268799	948.994324	1266.861450	978.343994	9.233315
277.640930	946.690918	1262.254517	979.086914	10.266075
278.013031	942.827148	1269.313354	978.864014	11.037791
278.385162	942.752869	1267.752930	982.356262	12.185658
278.757233	945.799316	1281.870483	990.009460	13.154995
279.129272	952.040771	1280.607300	986.442871	10.470361
279.501282	953.452454	1287.889038	985.774170	9.664528
279.873230	943.644531	1300.297729	980.795959	10.416681
280.245178	944.981995	1317.164429	979.532715	9.283276
280.617126	941.489746	1335.071289	987.260254	11.629231
280.988983	945.576416	1340.049683	992.758606	11.960808
281.360870	949.365906	1364.792358	995.359314	11.071372
281.732697	946.616699	1386.340210	991.792725	10.273734
282.104492	947.582703	1414.203735	988.151855	8.694240
282.476288	945.947937	1431.070435	986.814392	8.423945
282.848053	946.542297	1431.962036	992.387146	9.444372
283.219757	947.582520	1432.853638	986.888733	8.099846
283.591461	944.238953	1426.835083	991.272644	9.745974
283.963135	951.372009	1433.596680	988.597717	7.719578
284.334747	951.669189	1433.893921	1002.046570	10.446868
284.706360	948.028381	1443.553223	1000.411865	10.571314
285.077942	947.359680	1460.717163	997.216858	9.711980
285.449524	943.273132	1486.203125	990.083801	8.621861
285.821014	947.434021	1500.171875	986.591553	7.084286
286.192535	944.238953	1528.555664	995.656494	8.799602
286.563995	944.907715	1542.004395	994.987793	8.387264
286.935425	949.960266	1561.694702	994.170471	7.227026
287.306824	950.703308	1560.654297	980.944519	4.957974
287.678223	949.365906	1551.515015	980.350098	5.145601
288.049561	940.523865	1535.465820	982.207703	7.006371
288.420898	934.059570	1525.880737	977.600891	7.357175
288.792145	936.214294	1527.812500	978.864014	7.209238
289.163452	940.077942	1538.512207	975.223206	5.872869
289.534668	941.861267	1550.549194	988.003235	7.580562
289.905914	935.471252	1582.127808	990.381042	8.491338
290.277039	933.910889	1609.248413	998.925842	9.627031
290.648193	939.780823	1636.294434	1003.086731	9.088969
291.019318	945.873718	1641.569946	1004.870056	8.480186
291.390381	950.108887	1657.990845	1000.337585	7.095632
291.761475	951.743591	1652.864136	991.644104	5.690963
292.132507	954.418457	1653.458496	983.322205	4.134777
292.503510	957.390564	1632.876587	983.024902	3.794947
292.874481	956.721863	1629.161499	985.179688	4.232027
293.245422	957.687805	1626.560913	988.523376	4.610078
293.616364	952.189453	1642.907593	996.696716	6.443622
293.987213	954.567078	1657.025024	1007.173401	7.488893
294.358093	941.935608	1692.690308	1010.071228	9.075617
294.728943	944.684814	1731.104858	1004.052734	7.549136
295.099731	941.043945	1775.017700	995.136414	6.486112
295.470490	947.433899	1808.602539	999.817444	6.082844
295.841248	939.780762	1822.497070	998.925781	6.700343
296.211975	939.855164	1834.905640	1005.538757	7.338535
296.582642	943.198730	1861.654785	1005.835938	6.819837
296.953308	946.839600	1899.697754	1004.721375	6.074543
297.323883	950.703369	1949.629272	995.062012	4.440634
297.694519	953.601135	1959.585571	991.198242	3.737345
298.065063	954.195557	1963.598022	997.885559	4.328303
298.435608	946.988098	1941.455688	1002.715149	5.603707
298.806122	939.483582	1913.815063	1006.133118	6.840540
299.176575	938.369080	1872.205688	994.319031	5.991407
299.547028	936.288574	1846.274048	997.439758	6.720017
299.917450	940.821045	1821.456909	991.644104	5.771177
300.287872	943.495911	1814.100952	994.170410	5.820607
300.658234	949.440186	1806.819214	989.786560	4.705781
301.028564	955.904541	1813.432129	990.380920	4.020440
301.398865	950.703308	1820.639648	988.894958	4.390166
301.769135	945.502136	1812.466309	986.888733	4.773738
302.139374	942.901550	1813.580933	989.415039	5.342206
302.509583	942.307129	1814.249512	991.792786	5.675335
302.879791	951.743469	1815.661255	988.226257	4.222947
303.249939	952.189392	1817.147339	987.185974	4.046044
303.620087	951.817871	1814.843750	983.173645	3.633237
303.990173	943.570313	1811.500366	991.792725	5.556025
304.360260	938.517761	1808.676758	995.879395	6.592086
304.730286	946.022278	1810.608765	1012.820313	7.726009
305.100281	949.960266	1819.599121	1010.145508	6.920717
305.470276	947.433899	1824.503296	1009.922546	7.124710
305.840179	944.981934	1834.682617	997.811279	5.937879
306.210144	935.768372	1849.171753	1001.080566	7.150422
306.579987	937.774597	1861.060181	995.953796	6.301322
306.949890	943.347351	1866.855835	1000.932068	6.235429
307.319702	951.149231	1870.125122	994.987793	4.770371
307.689484	954.864441	1895.759766	1001.452087	4.951416
308.059265	950.851990	1914.261108	1001.080566	5.213629
308.429016	948.622803	1952.898438	1010.517029	6.163072
308.798737	941.712646	1978.087036	1005.390137	6.144256
309.168396	942.009949	2013.306519	1001.006287	5.507003
309.538055	936.808777	2036.563477	1003.458191	6.060390
309.907684	941.638367	2059.820068	1003.161072	5.502031
310.277313	935.619812	2080.922119	1008.882324	6.396784
310.646851	946.765320	2104.996094	995.805115	4.234026
311.016388	944.610535	2121.194092	1000.114685	4.717400
311.385895	946.988220	2124.834961	992.090027	3.829175
311.755371	943.495911	2118.816406	993.650330	4.267297
312.124817	941.638367	2125.503418	993.204529	4.355747
312.494232	946.839539	2122.085449	996.845276	4.254917
312.863617	943.198730	2120.896729	1007.842102	5.488960
313.232971	947.359680	2105.293213	1001.303406	4.658620
313.602295	947.136719	2111.757568	1006.207458	5.072101
313.971619	957.167664	2120.822510	1001.823547	3.837554
314.340820	957.241943	2122.383057	1010.071289	4.534159
314.710083	951.297791	2133.454346	1008.362244	4.827149
315.079285	946.319397	2145.937012	1003.309753	4.750710
315.448486	945.576416	2182.270752	1005.761719	4.866627
315.817596	948.474182	2189.180908	1009.996887	4.958682
316.186707	943.941711	2180.710205	1018.244446	6.007813
316.555786	950.257507	2142.741943	1014.157898	5.358593
316.924866	949.960266	2113.243896	1013.489075	5.461162
317.293884	952.337952	2093.702148	1009.922546	5.045242
317.662872	943.198730	2086.494873	1007.173340	5.595629
318.031830	938.517578	2089.095459	1005.315857	5.805629
318.400757	938.889160	2103.064453	1006.504639	5.808015
318.769684	944.016113	2119.039307	1015.941162	6.121160
319.138550	945.799316	2142.593018	1022.108215	6.376112
319.507416	944.833435	2152.921143	1026.417847	6.753187
319.876190	942.901550	2158.419922	1022.331238	6.534635
320.244995	947.136780	2165.032959	1029.018433	6.723204
320.613770	954.567078	2154.853271	1031.693359	6.425658
320.982483	956.721863	2146.754150	1031.173218	6.256247
321.351166	954.418457	2119.410889	1031.247437	6.594805
321.719818	949.068604	2111.237549	1028.349731	6.821825
322.088440	949.142883	2119.262451	1034.442505	7.289821
322.457062	948.102722	2138.729736	1030.430176	6.914630
322.825623	949.068665	2164.884033	1043.358765	7.755297
323.194183	948.474304	2192.450439	1050.120361	8.171062
323.562653	948.399963	2229.676025	1058.962402	8.629087
323.931183	944.759094	2267.793213	1065.426636	9.120516
324.299591	943.570251	2310.517334	1081.104614	10.061426
324.668060	950.108826	2355.990723	1087.791870	9.793358
325.036407	949.068665	2393.885010	1084.968384	9.406020
325.404755	949.514465	2418.033447	1077.983887	8.748230
325.773102	945.650818	2418.702148	1089.946655	9.795711
326.141388	943.793213	2432.893799	1106.962036	10.957542
326.509674	948.325684	2451.395508	1122.639771	11.597205
326.877899	954.715637	2471.085693	1116.992798	10.701686
327.246124	958.282227	2471.159912	1118.776123	10.608518
327.614288	948.325623	2467.964844	1124.423096	11.588111
327.982422	935.916992	2456.968018	1140.100952	13.423873
328.350525	941.861267	2445.079834	1145.822266	13.568287
328.718628	951.372070	2432.151123	1160.162720	14.100054
329.086700	960.734131	2433.488525	1168.410278	14.101207
329.454712	961.848694	2449.983643	1179.184082	14.604548
329.822693	954.046936	2467.741943	1177.623901	14.770278
330.190674	956.498962	2483.642822	1192.855835	15.477055
330.558563	955.681641	2485.500244	1206.453247	16.392244
330.926483	958.802307	2488.249268	1225.251831	17.421299
331.294312	952.783875	2499.840576	1231.270386	18.001055
331.662231	948.102722	2542.936279	1245.982300	18.677786
332.029999	951.000488	2581.202148	1259.282593	18.910673
332.397766	947.805481	2624.074951	1272.954224	19.397163
332.765503	943.495911	2658.328369	1298.663086	20.711479
333.133240	936.882996	2701.795654	1326.452271	22.073008
333.500916	939.186340	2737.386719	1354.612915	23.102350
333.868561	947.656921	2759.008789	1372.742798	23.467880
334.236176	951.892151	2761.535156	1387.826172	24.089502
334.603790	943.421692	2767.850830	1405.658813	25.335985
334.971344	937.923279	2775.949951	1420.370728	26.248121
335.338867	937.700378	2785.311768	1432.036499	26.755417
335.706360	949.514465	2788.878174	1450.166138	27.218742
336.073853	957.539124	2792.444580	1461.534546	27.467104
336.441284	959.025208	2797.274414	1478.847046	28.278093
336.808655	954.195496	2797.943115	1497.868530	29.487391
337.176086	950.406067	2765.250000	1515.849731	31.156599
337.543396	946.393738	2725.498291	1524.543335	32.496662
337.910706	944.907715	2670.217041	1529.075684	33.858738
338.277954	945.130615	2679.356201	1553.001099	35.051407
338.645264	942.827209	2740.804688	1593.050293	36.164139
339.012421	943.793213	2856.791016	1643.353394	36.568790
339.379669	941.266907	2965.124268	1676.938110	36.349953
339.746796	948.994385	3041.878906	1724.417480	37.050449
340.113953	955.681641	3098.572021	1763.426392	37.694172
340.481018	954.269836	3119.079346	1797.308472	38.942856
340.848114	954.344177	3121.011475	1811.723267	39.571331
341.215118	947.285400	3117.147705	1841.741577	41.221794
341.582153	950.554688	3129.705078	1880.081665	42.655476
341.949066	953.452454	3151.326904	1917.381836	43.857346
342.316010	952.783752	3168.342041	1952.824097	45.137169
342.682922	946.170837	3174.434814	1986.706055	46.697124
343.049835	938.443359	3194.348389	2033.145142	48.526058
343.416656	942.975830	3227.412842	2076.835205	49.634083
343.783478	951.149170	3273.703857	2140.289795	51.199684
344.150269	946.245178	3347.486328	2215.261475	52.848351
344.516998	947.879883	3430.259033	2306.727783	54.739738
344.883728	944.239014	3518.233643	2383.779785	55.926331
345.250427	956.201660	3579.979492	2446.491455	56.799389
345.617065	949.885986	3607.100342	2482.305420	57.670147
345.983704	951.966492	3631.619873	2517.227295	58.412807
346.350281	944.907715	3630.579346	2539.815430	59.385803
346.716827	950.108887	3612.672607	2549.994873	60.088177
347.083405	950.331848	3569.428467	2554.898926	61.264145
347.449860	961.031311	3534.357422	2560.991943	62.174812
347.816376	968.164368	3512.141357	2560.843506	62.605881
348.182770	961.923035	3484.128906	2576.521240	64.015320
348.549194	959.322449	3458.494385	2600.075195	65.651855
348.915558	950.777527	3444.525635	2641.461914	67.796921
349.281921	958.133606	3457.305908	2678.464600	68.836029
349.648193	953.526855	3492.227783	2727.504150	69.877365
350.014526	947.805603	3540.970703	2794.525146	71.214882
350.380737	946.839600	3586.518311	2854.190186	72.256920
350.746948	942.827209	3636.300781	2915.936279	73.255188
351.113159	950.628967	3664.684326	2946.177002	73.526428
351.479309	952.040771	3710.306396	3001.384033	74.298256
351.845428	950.108887	3742.553711	3047.377686	75.105110
352.211517	954.344177	3781.414063	3111.500732	76.303619
352.577576	946.839600	3805.859619	3156.007813	77.270119
352.943604	952.189392	3835.506592	3216.267578	78.523384
353.309601	944.238953	3893.759766	3292.725342	79.622643
353.675537	941.564026	3969.622803	3402.767578	81.279915
354.041473	937.477356	4057.745850	3507.311279	82.359383
354.407379	931.310303	4133.534668	3602.716064	83.423439
354.773254	932.276184	4219.130859	3710.455078	84.523933
355.139038	924.177246	4282.140137	3804.596436	85.778770
355.504913	930.641541	4361.421387	3923.035156	87.221962
355.870636	927.595032	4415.885254	4015.021484	88.508301
356.236389	929.081238	4489.593262	4130.636719	89.918404
356.602081	926.034729	4584.774902	4256.431152	91.025772
356.967804	935.768494	4699.572754	4398.720703	92.006706
357.333405	946.393738	4820.388672	4558.248535	93.233337
357.699036	945.576355	4950.641113	4710.792480	94.011368
358.064606	946.542419	5091.371094	4851.521973	94.213295
358.430176	943.793152	5201.190430	4962.604492	94.395966
358.795654	955.012878	5261.301270	5024.498535	94.500999
359.161163	958.133545	5258.329590	5040.622559	94.937271
359.526581	961.774414	5234.105957	5063.433105	96.005157
359.892029	954.864258	5239.010254	5140.559570	97.701973
360.257416	952.783875	5312.867676	5301.053223	99.729034
360.622772	943.793152	5459.615234	5509.843750	101.112282
360.988098	943.941833	5642.623535	5753.854004	102.367271
361.353394	940.003723	5837.742188	6015.697266	103.633415
361.718658	950.034668	6058.570313	6266.097656	104.062363
362.083893	952.337891	6243.212402	6464.113770	104.175140
362.449097	958.505066	6395.830078	6552.459473	102.880630
362.814209	951.074768	6419.011719	6513.153809	101.721710
363.179382	952.486572	6309.415527	6318.554688	100.170616
363.544434	952.635071	6061.912598	6028.996582	99.355759
363.909546	956.201660	5772.058594	5697.903809	98.460197
364.274536	951.372070	5514.451172	5441.560059	98.402588
364.639587	949.514465	5350.687500	5269.697266	98.159805
365.004517	953.229553	5254.688477	5166.639160	97.953033
365.369507	959.173828	5193.239746	5123.841309	98.360954
365.734344	948.771484	5130.825684	5105.042480	99.383476
366.099274	946.765320	5087.804688	5101.104980	100.321182
366.464081	938.740540	5070.492188	5081.637207	100.269737
366.828918	939.037781	5086.020996	5067.742676	99.559235
367.193665	936.957275	5094.194336	5083.049316	99.731903
367.558411	944.461914	5116.856934	5099.618652	99.586853
367.923126	939.186340	5109.946777	5094.491699	99.629440
368.287781	934.059570	5110.466797	5084.757813	99.384422
368.652435	934.802551	5068.411621	5056.597168	99.714188
369.017059	951.149109	5059.346191	5048.052246	99.725090
369.381653	963.260498	5061.798340	5027.470703	99.162437
369.746185	962.443115	5071.978027	5043.891113	99.316536
370.110687	952.486572	5070.046387	5073.909668	100.093826
370.475220	948.399902	5083.271973	5111.804199	100.690041
370.839661	946.913879	5150.144531	5157.500488	100.175011
371.204041	948.622864	5206.391113	5222.292480	100.373466
371.568451	947.508362	5248.298340	5294.217285	101.067688
371.932770	949.514465	5290.651367	5331.740234	100.946503
372.297150	955.756042	5339.096191	5337.981934	99.974579
372.661377	959.545410	5383.975098	5338.205078	98.965515
373.025696	955.235840	5397.869629	5339.468262	98.685432
373.389862	950.406067	5389.250977	5329.511230	98.654160
373.754059	949.217285	5388.062012	5336.792480	98.844978
374.118225	953.006653	5400.841309	5352.322266	98.909157
374.482361	955.161438	5432.494141	5407.603027	99.444061
374.846436	951.669250	5499.367188	5481.906250	99.616051
375.210510	946.690979	5579.094238	5592.691406	100.293526
375.574524	949.663086	5670.337891	5694.114746	100.503677
375.938538	944.981995	5769.755371	5803.785645	100.705322
376.302460	947.582520	5873.332520	5911.524902	100.775360
376.666412	943.941711	6041.628906	6057.975098	100.320656
377.030304	954.121277	6178.048340	6195.360840	100.331406
377.394196	951.669250	6318.777832	6325.167969	100.119064
377.757996	952.040771	6432.238281	6416.263184	99.708504
378.121796	944.016052	6495.767090	6428.151855	98.782089
378.485565	941.712646	6507.506348	6371.904297	97.563644
378.849304	937.997498	6431.420410	6244.103516	96.590164
379.212982	940.895325	6341.514160	6092.896973	95.396507
379.576630	945.725037	6188.896484	5935.672363	95.170403
379.940277	947.954102	6082.718262	5815.971191	94.805077
380.303864	951.892273	6000.613281	5748.578125	95.007942
380.667450	953.229675	6006.334473	5760.095703	95.126984
381.030945	953.452576	5999.053223	5753.185547	95.127090
381.394501	946.839600	6022.904297	5797.544434	95.560356
381.757935	943.570251	6040.959473	5814.039063	95.548302
382.121399	939.334961	6043.857910	5859.140625	96.381302
382.484741	943.198730	6083.238281	5897.258301	96.381737
382.848145	945.947998	6108.724121	5940.279785	96.737328
383.211487	952.560852	6170.989746	6033.826660	97.371567
383.574768	946.542297	6239.050781	6142.828613	98.181915
383.938019	943.198730	6301.762207	6261.787598	99.254005
384.301270	943.941833	6397.092285	6366.257324	99.434547
384.664459	947.062500	6466.342285	6426.813965	99.283813
385.027649	945.427917	6535.369629	6483.061035	99.064240
385.390778	943.198730	6597.709473	6561.302246	99.356140
385.753876	953.080994	6623.195313	6638.650879	100.272583
386.116943	954.715637	6684.718750	6726.179688	100.723579
386.479980	955.755859	6687.839355	6778.042969	101.573662
386.842987	946.170837	6740.371094	6834.438965	101.623482
387.205994	954.715637	6789.039551	6905.025879	101.987999
387.568909	947.434021	6841.125488	6976.133301	102.290718
387.931793	947.136780	6881.397949	7063.587891	103.070137
388.294678	946.913879	6906.883301	7103.339844	103.296265
388.657471	955.384460	6945.744141	7120.652344	102.919830
389.020294	957.167664	6928.877441	7136.924316	103.483871
389.383057	949.737366	6937.125000	7171.624512	103.916557
389.745819	948.251282	6941.880371	7217.988770	104.606697
390.108521	945.799316	6984.604004	7280.552246	104.900772
390.471191	941.266907	7024.653809	7412.587891	106.376945
390.833801	939.186462	7132.467285	7592.326660	107.425133
391.196442	945.353516	7272.898926	7825.636719	108.735420
391.558960	947.434021	7422.693359	8009.312500	109.059395
391.921509	950.628967	7554.580078	8199.973633	109.772842
392.284027	952.189270	7704.894531	8336.765625	109.357300
392.646484	959.471008	7816.720215	8448.442383	109.212471
393.008911	953.526855	7850.306152	8423.625000	108.312851
393.371307	952.783875	7819.767090	8373.693359	108.066513
393.733673	953.898376	7763.593750	8307.341797	107.984909
394.096008	964.597900	7730.975098	8307.267578	108.517006
394.458344	954.789978	7739.892090	8329.781250	108.693886
394.820587	943.273010	7779.792480	8336.021484	108.136147
395.182831	937.105957	7847.704590	8333.867188	107.035027
395.545013	937.105957	7832.844238	8256.963867	106.150459
395.907196	936.734375	7763.297363	8156.804688	105.764359
396.269287	933.762390	7642.703613	8020.234863	105.627281
396.631409	942.530029	7538.902344	7898.378906	105.449608
396.993469	946.913879	7441.565918	7788.410645	105.340469
397.355530	948.920105	7355.968750	7731.644531	105.863480
397.717499	945.947937	7345.566895	7717.378418	105.809898
398.079468	947.731201	7328.402344	7716.188965	106.077530
398.441376	947.062439	7329.740234	7727.631348	106.233925
398.803284	944.164612	7314.433594	7746.058594	106.775620
399.165131	943.198792	7358.271973	7798.888184	106.868454
399.526978	943.793213	7392.525879	7804.460938	106.387856
399.888763	944.016113	7431.757813	7829.872559	106.136414
400.250519	943.273010	7435.770996	7824.150879	105.981979
400.612244	942.901550	7463.634277	7870.218262	106.235252
400.973938	948.177063	7456.872559	7873.486816	106.400887
401.335602	944.164734	7489.787598	7905.585938	106.352310
401.697205	949.588806	7527.459473	7945.041016	106.348282
402.058807	943.867493	7578.876953	8027.517090	106.761711
402.420349	946.616699	7651.991699	8141.720215	107.303520
402.781860	949.960266	7717.675781	8255.551758	107.947678
403.143341	951.223450	7818.429688	8417.161133	108.718704
403.504822	953.749756	7945.264160	8567.104492	108.894211
403.866241	945.873718	8114.302246	8800.117188	109.567162
404.227631	939.186462	8274.796875	8966.109375	109.424065
404.588959	942.307129	8437.965820	9178.688477	109.882019
404.950287	938.220398	8552.466797	9274.316406	109.480240
405.311554	946.765320	8614.434570	9332.643555	109.366714
405.672821	942.009949	8642.819336	9307.752930	108.634590
406.034027	944.684753	8643.487305	9263.394531	108.051994
406.395203	943.272949	8616.960938	9189.612305	107.462540
406.756348	947.285339	8549.567383	9098.888672	107.225739
407.117493	945.725037	8518.659180	9006.678711	106.444260
407.478516	946.690918	8511.897461	8951.917969	105.816368
407.839600	943.941833	8520.961914	8945.824219	105.607246
408.200592	948.994385	8495.178711	8977.106445	106.386375
408.561554	951.297791	8477.569336	9003.707031	106.990685
408.922485	954.864258	8491.686523	9050.071289	107.408752
409.283417	953.006653	8536.491211	9080.238281	107.170151
409.644257	950.183289	8635.239258	9166.131836	106.908112
410.005096	947.359680	8742.085938	9283.530273	106.946297
410.365906	951.817871	8844.030273	9403.232422	107.085487
410.726715	950.628967	8932.672852	9501.906250	107.131424
411.087433	946.616699	8998.059570	9530.661133	106.614990
411.448120	940.746765	9077.712891	9582.079102	106.198448
411.808807	946.245117	9085.663086	9573.756836	105.996666
412.169434	947.805481	9037.069336	9525.311523	106.035683
412.530029	951.446350	8993.006836	9462.153320	105.834023
412.890564	942.232849	8954.370117	9446.031250	106.136459
413.251099	947.285461	8978.443359	9464.308594	106.049759
413.611572	946.616699	8986.989258	9549.013672	106.990021
413.972076	955.384460	9047.025391	9616.406250	107.036652
414.332489	949.663086	9100.002930	9706.386719	107.439980
414.692871	946.988220	9206.181641	9810.411133	107.315842
415.053223	950.851868	9312.954102	9955.375977	107.682541
415.413574	950.926208	9491.579102	10163.497070	107.867287
415.773834	949.663086	9645.087891	10325.774414	107.828102
416.134094	940.523865	9788.491211	10486.120117	107.884621
416.494263	940.746765	9908.788086	10610.502930	107.824615
416.854462	945.799316	10135.633789	10878.735352	108.086128
417.214630	948.845764	10373.032227	11187.984375	108.647453
417.574738	950.034485	10659.914063	11540.252930	109.066422
417.934784	947.136719	10893.077148	11834.566406	109.466064
418.294861	948.102722	11212.281250	12186.760742	109.493980
418.654846	948.845764	11562.915039	12607.387695	109.840454
419.014832	947.508301	11937.473633	13080.028320	110.396347
419.374756	945.056335	12356.765625	13564.854492	110.586395
419.734680	951.520691	12767.065430	14083.709961	111.143326
420.094543	954.567078	13224.622070	14585.328125	111.089653
420.454376	956.647522	13616.866211	15059.898438	111.398163
420.814148	953.452454	14035.338867	15538.481445	111.490257
421.173920	951.000488	14444.598633	16002.280273	111.543854
421.533691	947.656921	14868.418945	16416.962891	111.123985
421.893341	945.947937	15194.163086	16690.099609	110.499115
422.253021	946.022278	15399.238281	16864.710938	110.139420
422.612640	941.935608	15485.058594	16888.041016	109.647049
422.972260	944.090393	15473.690430	16812.400391	109.213676
423.331757	945.056335	15398.199219	16705.109375	109.042397
423.691315	947.656921	15374.496094	16733.865234	109.422501
424.050781	936.585754	15464.179688	16901.044922	109.890594
424.410248	933.687988	15586.481445	17031.966797	109.864922
424.769653	934.728271	15726.691406	17112.361328	109.367722
425.128998	934.059570	15811.916992	17057.601563	108.372742
425.488373	932.350586	15787.840820	16925.044922	107.655113
425.847656	925.811829	15621.403320	16679.474609	107.199921
426.206940	931.979004	15389.875977	16437.248047	107.244301
426.566193	939.483582	15095.637695	16102.292969	107.111076
426.925385	950.257507	14787.875000	15785.835938	107.211945
427.284576	954.418457	14389.390625	15347.375000	107.130524
427.643677	950.703308	14092.625000	15013.311523	107.005722
428.002777	947.656921	13811.539063	14678.278320	106.737770
428.361847	946.393738	13493.671875	14307.359375	106.484970
428.720856	953.081055	13221.796875	14007.028320	106.400276
429.079865	951.372070	13022.741211	13765.024414	106.149124
429.438812	948.325623	12915.668945	13673.186523	106.329872
429.797760	943.347351	12826.135742	13564.333008	106.212326
430.156616	946.765320	12676.786133	13426.797852	106.393951
430.515503	953.378235	12606.645508	13344.323242	106.330223
430.874268	948.622864	12566.448242	13326.489258	106.542023
431.233093	946.393738	12602.484375	13346.180664	106.380325
431.591827	945.576355	12668.984375	13383.184570	106.092087
431.950562	944.164612	12680.799805	13417.065430	106.273224
432.309204	942.009949	12741.281250	13503.331055	106.458450
432.667877	936.808655	12810.977539	13619.762695	106.811302
433.026459	942.009827	12943.608398	13742.213867	106.654160
433.385010	939.929382	13067.620117	13856.639648	106.505936
433.743561	944.387512	13212.213867	13975.598633	106.222656
434.102051	939.334961	13384.372070	14110.012695	105.830765
434.460510	944.759094	13551.702148	14247.323242	105.517761
434.818939	940.598145	13626.078125	14302.084961	105.328972
435.177338	941.564148	13665.383789	14299.335938	104.982407
435.535675	933.539368	13593.756836	14248.437500	105.171165
435.894012	937.254578	13530.674805	14195.535156	105.279427
436.252289	940.375244	13512.618164	14246.432617	105.836784
436.610535	949.960266	13513.807617	14239.448242	105.775627
436.968719	954.492737	13642.872070	14369.551758	105.727127
437.326935	957.019043	13723.936523	14468.152344	105.829247
437.685028	958.059326	13881.829102	14659.184570	106.014931
438.043152	948.251282	13963.859375	14818.414063	106.565613
438.401215	948.994324	14159.573242	15044.221680	106.696518
438.759277	944.164612	14377.726563	15281.915039	106.730820
439.117249	949.142883	14734.081055	15675.125000	106.826607
439.475250	944.907715	14993.100586	15988.608398	107.086372
439.833130	943.495911	15298.856445	16377.135742	107.511337
440.191071	935.991394	15519.385742	16621.072266	107.554390
440.548889	939.632141	15789.625000	16892.130859	107.424286
440.906708	946.096497	16079.332031	17189.265625	107.334412
441.264496	950.331848	16271.403320	17371.310547	107.179047
441.622223	944.313293	16439.550781	17502.376953	106.859055
441.979950	946.616699	16507.685547	17449.029297	106.049355
442.337616	955.384338	16551.748047	17411.656250	105.513519
442.695251	962.517395	16432.267578	17241.648438	105.232025
443.052887	957.910706	16267.168945	17064.585938	105.208725
443.410461	950.183289	16080.000977	16904.166016	105.447289
443.768005	940.300964	15958.518555	16801.035156	105.609962
444.125458	943.867432	15855.756836	16770.943359	106.137291
444.482941	942.752869	15877.303711	16845.839844	106.485207
444.840393	952.189270	15967.877930	17019.187500	107.001411
445.197754	949.514465	16204.977539	17307.927734	107.229874
445.555084	945.947937	16466.226563	17611.306641	107.377968
445.912415	939.260742	16826.373047	17992.031250	107.337128
446.269714	941.712708	17074.392578	18288.277344	107.524384
446.626953	943.793213	17416.185547	18585.339844	107.097656
446.984161	949.068665	17712.208984	18840.718750	106.732094
447.341309	944.684814	17997.232422	19011.763672	105.949440
447.698456	951.669250	18149.404297	19152.939453	105.835274
448.055542	951.966492	18241.912109	19158.140625	105.299202
448.412598	950.628967	18153.046875	19068.679688	105.322701
448.769653	951.669250	18037.582031	18835.591797	104.670570
449.126617	949.440186	17746.537109	18524.039063	104.628784
449.483582	957.985046	17557.658203	18251.794922	104.181625
449.840515	952.635193	17210.294922	17932.441406	104.441887
450.197388	955.384460	17009.898438	17711.017578	104.367119
450.554230	948.474182	16810.841797	17511.740234	104.418625
450.911041	949.663147	16721.826172	17371.531250	104.119308
451.267822	946.839600	16587.785156	17237.710938	104.155281
451.624573	938.369080	16393.259766	17102.257813	104.587532
451.981262	940.969543	16257.584961	17018.146484	104.965599
452.337921	942.084167	16155.120117	16888.710938	104.822121
452.694580	952.486572	16144.643555	16828.080078	104.498611
453.051147	948.845703	16145.164063	16769.455078	104.108170
453.407715	951.074890	16051.691406	16660.156250	104.029404
453.764221	950.034668	16058.082031	16603.240234	103.608398
454.120728	948.399963	15855.829102	16354.993164	103.348427
454.477142	940.523926	15787.397461	16270.067383	103.250984
454.833557	941.192566	15575.188477	16076.136719	103.423180
455.189911	945.576477	15425.765625	15954.281250	103.649925
455.546265	955.755859	15260.442383	15810.058594	103.842209
455.902557	953.303955	15189.036133	15725.502930	103.768456
456.258820	956.350281	15220.614258	15757.972656	103.767166
456.615051	948.548523	15312.081055	15914.676758	104.195320
456.971252	944.536194	15321.071289	15995.444336	104.690788
457.327393	936.214294	15494.198242	16236.926758	105.101860
457.683502	947.656921	15707.372070	16508.654297	105.428848
458.039612	947.805481	16110.390625	16998.605469	105.857941
458.395630	955.904480	16523.439453	17473.843750	106.105042
458.751648	948.028503	16916.873047	17972.861328	106.612801
459.107605	952.486572	17511.666016	18645.451172	106.846870
459.463562	940.523865	18073.244141	19324.578125	107.303764
459.819458	945.576416	18680.447266	19928.509766	107.037338
460.175323	941.935547	19184.369141	20382.796875	106.569450
460.531158	948.845703	19727.892578	20747.994141	105.432129
460.886932	939.409363	20034.318359	20868.960938	104.371025
461.242676	947.136780	20179.580078	20769.244141	103.065987
461.598419	940.895325	19945.525391	20340.814453	102.079964
461.954102	947.656921	19559.001953	19776.412109	101.168159
462.309723	941.266907	18958.265625	19098.845703	100.780266
462.665344	943.421631	18339.470703	18505.242188	100.952927
463.020905	944.536194	17866.384766	18034.755859	100.994995
463.376373	949.217224	17502.748047	17700.169922	101.192627
463.731873	955.310059	17252.867188	17446.873047	101.190399
464.087341	956.647522	16995.037109	17220.695313	101.406990
464.442749	954.492859	16850.150391	17118.751953	101.689781
464.798126	953.526855	16737.728516	17063.767578	102.065605
465.153503	952.635254	16815.226563	17188.224609	102.351433
465.508820	954.418457	16892.128906	17247.369141	102.228928
465.864105	949.365906	17031.818359	17357.414063	102.024544
466.219330	939.632141	17295.964844	17574.376953	101.702164
466.574524	937.551697	17458.835938	17747.056641	101.744545
466.929657	937.254456	17687.093750	17892.615234	101.227005
467.284790	940.375244	17880.429688	18021.753906	100.834259
467.639893	937.477356	18091.300781	18109.429688	100.105682
467.994934	941.192566	18293.701172	18240.724609	99.694702
468.349945	943.495911	18329.070313	18192.203125	99.212753
468.704926	951.223450	18290.208984	18124.664063	99.045242
469.059875	952.560852	18064.998047	17890.609375	98.980927
469.414764	953.155334	17806.126953	17687.763672	99.297668
469.769653	946.988220	17605.880859	17535.664063	99.578499
470.124451	950.257507	17494.279297	17473.994141	99.877388
470.479248	950.851868	17376.953125	17365.958984	99.933067
470.834015	951.000488	17306.812500	17302.132813	99.971390
471.188721	945.353516	17371.974609	17392.037109	100.122131
471.543365	934.505371	17460.693359	17518.203125	100.347992
471.898010	933.762268	17566.648438	17660.417969	100.563759
472.252625	936.585876	17694.003906	17789.705078	100.571098
472.607178	947.508301	17934.521484	18024.947266	100.532326
472.961700	953.898376	18177.863281	18238.642578	100.352875
473.316193	955.607239	18435.396484	18485.029297	100.283943
473.670654	953.898254	18619.962891	18612.906250	99.960052
474.025055	950.703308	18859.144531	18814.117188	99.748566
474.379456	954.269775	19022.017578	18975.429688	99.742149
474.733795	953.601074	19158.289063	19137.556641	99.886116
475.088104	957.687744	19194.250000	19286.162109	100.503998
475.442383	952.486511	19184.517578	19349.396484	100.904335
475.796570	959.248047	19229.617188	19485.890625	101.402672
476.150787	954.864258	19403.486328	19690.148438	101.553848
476.504944	953.303955	19657.453125	19996.646484	101.813469
476.859070	951.594971	19943.220703	20292.742188	101.840401
477.213135	954.121277	20230.103516	20552.580078	101.672943
477.567200	956.350281	20645.455078	20935.533203	101.473289
477.921173	952.486572	21045.279297	21346.576172	101.499527
478.275146	942.158508	21492.656250	21869.666016	101.834557
478.629089	933.316467	21749.224609	22170.148438	102.022125
478.983002	930.047180	22141.990234	22596.421875	102.142342
479.336823	928.263916	22489.724609	22918.078125	101.986664
479.690643	939.260742	22932.197266	23392.500000	102.092949
480.044403	939.557922	23420.515625	23886.541016	102.072975
480.398163	950.183105	24027.718750	24641.306641	102.658813
480.751862	942.529968	24813.841797	25634.884766	103.439453
481.105499	946.468018	25780.294922	26963.568359	104.764763
481.459137	946.245117	27024.123047	28657.666016	106.264091
481.812744	950.183289	28631.289063	30756.126953	107.676132
482.166290	951.074890	30475.853516	33276.917969	109.487167
482.519806	954.567078	32802.863281	36345.546875	111.123619
482.873291	955.830261	35543.300781	39814.292969	112.348381
483.226715	951.669250	38880.164063	43606.410156	112.460938
483.580139	944.016113	42332.191406	47077.535156	111.465454
483.933502	948.102722	45887.355469	50212.667969	109.624802
484.286804	950.257507	49061.792969	52493.089844	107.131966
484.640106	956.276062	51666.472656	53997.644531	104.597046
484.993347	950.777588	53177.718750	54508.105469	102.547318
485.346558	954.418396	53527.015625	54141.644531	101.169106
485.699738	954.492676	52732.488281	53004.890625	100.526100
486.052887	962.814636	51050.203125	51288.792969	100.476349
486.405975	963.854797	48983.625000	49542.824219	101.164520
486.759064	963.706299	46930.343750	47981.128906	102.285973
487.112061	952.263672	45391.312500	47066.613281	103.769890
487.464996	941.415527	44630.671875	46720.140625	104.782570
487.817963	941.415466	44683.203125	46821.265625	104.887917
488.170868	945.204895	45071.886719	46865.402344	104.064468
488.523743	950.034485	45374.886719	46764.277344	103.127510
488.876587	940.152344	45339.000000	46318.531250	102.206207
489.229401	938.889160	44931.230469	45600.917969	101.522285
489.582153	935.619934	44037.812500	44519.738281	101.118103
489.934845	937.254578	42837.972656	43353.109375	101.229424
490.287537	929.972839	41565.835938	42373.503906	101.987572
490.640198	935.248291	40603.988281	41707.675781	102.782257
490.992798	940.226563	39983.632813	41387.949219	103.596809
491.345337	954.344177	39919.953125	41425.175781	103.862953
491.697876	954.715637	40192.125000	41650.167969	103.715950
492.050354	957.242004	40799.769531	41962.167969	102.917480
492.402832	952.412292	41309.488281	42004.593750	101.722389
492.755219	953.675476	41423.621094	41499.332031	100.187080
493.107605	949.217224	40857.656250	40366.140625	98.768394
493.459930	948.548584	39687.910156	38702.429688	97.456123
493.812225	948.771423	37975.078125	36652.121094	96.426979
494.164490	953.601074	35979.683594	34544.300781	95.901962
494.516724	956.870422	33902.027344	32571.265625	95.960678
494.868896	959.396729	32045.054688	31008.009766	96.663910
495.221039	958.802429	30596.671875	29931.736328	97.756470
495.573120	956.870422	29523.587891	29163.593750	98.739815
495.925201	952.040833	28945.884766	28806.349609	99.501549
496.277222	950.777649	28695.187500	28657.224609	99.863167
496.629211	953.898254	28679.734375	28688.056641	100.030014
496.981140	960.214050	28727.585938	28729.443359	100.006691
497.333069	964.375000	28846.916016	28766.818359	99.712730
497.684967	956.424622	28975.982422	28814.072266	99.422150
498.036804	952.783752	29081.640625	28804.490234	99.014709
498.388580	945.502136	29005.109375	28655.216797	98.753036
498.740326	944.461914	28870.544922	28354.662109	98.152687
499.092072	944.164734	28612.568359	27975.568359	97.697739
499.443756	940.523865	28332.744141	27610.593750	97.363663
499.795410	945.799316	28000.240234	27226.671875	97.140694
500.147003	945.799316	27644.994141	26867.640625	97.088478
500.498566	953.452454	27297.406250	26470.791016	96.862221
500.850098	950.926208	26923.664063	26084.564453	96.769310
501.201599	949.440125	26620.062500	25749.384766	96.608269
501.553009	944.164612	26339.794922	25431.294922	96.422615
501.904449	944.833313	26141.181641	25269.984375	96.542366
502.255859	944.833435	25943.318359	25079.843750	96.545891
502.607178	948.474304	25851.255859	25068.994141	96.858734
502.958405	952.263672	25763.130859	25013.193359	96.977386
503.309692	957.167664	25737.794922	25032.212891	97.152687
503.660919	959.471008	25764.617188	25031.916016	97.046173
504.012115	955.904602	25842.337891	25097.826172	97.008362
504.363251	948.028503	25954.906250	25197.984375	96.973145
504.714294	945.353516	26047.638672	25276.968750	96.929878
505.065369	941.118347	26092.515625	25337.376953	96.997627
505.416443	944.164734	26100.833984	25339.306641	96.972862
505.767395	947.136902	26075.203125	25335.962891	97.058113
506.118317	949.440186	26057.593750	25270.431641	96.864914
506.469238	952.635193	26060.640625	25272.958984	96.862823
506.820160	957.390564	26068.515625	25243.679688	96.715256
507.170929	965.266663	26096.898438	25275.556641	96.731842
507.521729	961.551453	26122.087891	25373.859375	97.026184
507.872498	956.053040	26222.767578	25532.419922	97.267761
508.223236	942.455750	26382.146484	25756.740234	97.541611
508.573883	939.483582	26578.453125	25905.791016	97.376404
508.924500	938.369080	26749.130859	26084.265625	97.424080
509.275116	947.805481	26940.681641	26278.494141	97.452431
509.625702	946.022217	27187.958984	26554.453125	97.585899
509.976196	943.495911	27445.791016	26846.833984	97.739983
510.326660	933.539368	27674.718750	27090.697266	97.816025
510.677124	933.019226	27886.181641	27284.255859	97.766769
511.027557	936.139954	28084.943359	27470.978516	97.738518
511.377869	950.554688	28321.671875	27711.867188	97.772087
511.728180	950.926270	28489.966797	27860.400391	97.713913
512.078430	954.641357	28638.349609	27903.048828	97.343925
512.428650	944.981995	28742.000000	27932.623047	97.088257
512.778931	951.669250	28852.265625	28013.539063	96.993874
513.129028	942.530090	28886.224609	28063.693359	97.056473
513.479126	952.189392	28953.689453	28108.273438	96.980820
513.829285	945.204895	28896.998047	28067.037109	97.030739
514.179382	950.183167	28854.201172	27997.712891	96.930588
514.529297	943.793152	28750.919922	27842.716797	96.733917
514.879272	948.176941	28759.240234	27823.025391	96.633659
515.229187	951.074768	28657.593750	27780.599609	96.834702
515.579163	950.926270	28612.267578	27886.330078	97.375626
515.928955	956.721924	28603.873047	27959.000000	97.667488
516.278748	952.783875	28774.322266	28231.837891	98.050125
516.628540	954.195557	29044.859375	28576.900391	98.334114
516.978333	943.124451	29434.501953	29112.623047	98.870262
517.327942	944.461914	30004.478516	29751.625000	99.129898
517.677612	943.050110	30565.687500	30415.962891	99.494560
518.027222	946.839600	31223.265625	31037.431641	99.386208
518.376831	946.839600	31946.232422	31761.216797	99.403160
518.726379	945.353516	32654.187500	32334.833984	98.992859
519.075867	942.455750	33199.125000	32758.435547	98.633804
519.425293	939.780762	33600.957031	32938.988281	97.973221
519.774658	944.313293	33800.679688	32973.390625	97.482101
520.124084	946.839600	33851.949219	32876.351563	97.035118
520.473389	938.666321	33597.238281	32512.568359	96.678757
520.822693	929.750000	33241.105469	32067.789063	96.368721
521.171997	932.647766	32722.916016	31566.990234	96.363899
521.521240	942.678528	32236.603516	31127.265625	96.455101
521.870361	943.347351	31778.828125	30818.687500	96.886246
522.219482	945.427795	31468.318359	30555.283203	97.008690
522.568604	949.960266	31246.521484	30438.033203	97.331421
522.917664	955.458679	31108.990234	30366.406250	97.537323
523.266724	951.074890	31152.083984	30560.115234	98.039902
523.615662	944.461914	31325.876953	30897.375000	98.589600
523.964600	947.805481	31750.072266	31487.562500	99.147758
524.313538	952.189392	32254.439453	32096.843750	99.496536
524.662354	955.161560	32878.062500	32909.121094	100.097290
525.011169	951.297791	33664.183594	33832.925781	100.515831
525.359985	955.532959	34621.277344	35017.535156	101.177032
525.708740	954.567078	35818.000000	36349.710938	101.525124
526.057434	958.950867	37087.613281	37806.117188	101.988739
526.406067	950.108887	38487.324219	39467.746094	102.611870
526.754700	947.582520	39940.164063	41221.144531	103.285187
527.103333	942.827209	41657.003906	43243.816406	103.897446
527.451782	939.334961	43560.121094	45415.015625	104.352089
527.800293	946.839539	45647.359375	47683.996094	104.556183
528.148743	951.520691	47847.015625	49874.660156	104.323753
528.497131	960.511230	49981.878906	51769.605469	103.646828
528.845642	956.870361	51902.082031	53258.261719	102.662033
529.193909	955.384277	53440.371094	54252.652344	101.547646
529.542175	955.087158	54534.558594	54716.230469	100.339073
529.890503	957.762024	55058.464844	54577.425781	99.110847
530.238770	946.170837	54906.144531	53787.957031	97.927750
530.586914	948.994324	54069.644531	52428.816406	96.911133
530.934998	940.375244	52576.234375	50607.207031	96.186707
531.283142	950.777649	50671.855469	48662.042969	95.957825
531.631226	947.582581	48418.996094	46661.144531	96.297028
531.979248	952.337891	46309.765625	45024.253906	97.165810
532.327148	953.006653	44541.878906	43813.199219	98.328293
532.675110	946.245117	43502.386719	43208.371094	99.309113
533.023071	949.960266	43144.546875	43042.230469	99.757515
533.370850	944.981995	43242.769531	43159.402344	99.802902
533.718689	948.474304	43675.582031	43417.605469	99.396225
534.066467	948.177063	44087.890625	43574.609375	98.810188
534.414246	948.399963	44314.066406	43480.539063	98.077911
534.761963	955.161438	44296.683594	43083.988281	97.202003
535.109619	956.573242	43916.550781	42505.617188	96.715706
535.457153	968.461670	43193.656250	41635.457031	96.309792
535.804749	956.647522	42148.441406	40679.921875	96.434921
536.152344	950.703308	41133.984375	39729.074219	96.503746
536.499817	943.644531	40159.066406	38866.714844	96.704483
536.847229	946.839539	39373.535156	38152.886719	96.823433
537.194641	946.690979	38704.285156	37464.324219	96.715996
537.542114	948.177063	38279.351563	37015.160156	96.613579
537.889404	952.560852	37919.281250	36513.468750	96.197083
538.236694	951.966492	37522.281250	36053.089844	95.982559
538.583984	948.920105	37117.703125	35617.378906	95.851883
538.931213	947.136719	36748.937500	35413.121094	96.268860
539.278381	948.697083	36484.644531	35397.292969	96.940140
539.625488	954.046875	36365.832031	35624.511719	97.906570
539.972595	958.430847	36510.722656	36140.398438	98.958366
540.319641	954.195496	37004.535156	37106.480469	100.282784
540.666687	950.554688	37895.429688	38328.386719	101.171898
541.013611	945.725098	39217.050781	39822.316406	101.581512
541.360596	945.353516	40693.519531	41208.214844	101.294891
541.707458	942.381409	42364.214844	42567.285156	100.490250
542.054260	937.254578	43726.480469	43492.652344	99.453537
542.401062	941.935547	44901.425781	44203.800781	98.413025
542.747864	943.496033	45498.453125	44333.906250	97.386269
543.094666	948.474182	45549.792969	43968.261719	96.454071
543.441284	954.121277	44937.093750	42955.664063	95.495010
543.787903	958.282227	43882.449219	41580.992188	94.638321
544.134460	954.864319	42526.941406	40032.449219	93.999596
544.481079	946.245178	41031.968750	38495.796875	93.673126
544.827637	930.567322	39371.972656	36998.964844	93.826950
545.174072	931.756165	37749.199219	35549.613281	94.025696
545.520508	932.721985	36336.410156	34338.554688	94.356926
545.866943	940.226624	35239.328125	33354.191406	94.503830
546.213318	953.155273	34420.511719	32677.369141	94.791519
546.559631	949.663086	33790.128906	32099.220703	94.851151
546.905823	946.245117	33215.542969	31595.226563	94.978767
547.252136	941.043945	32778.718750	31177.421875	94.970436
547.598389	944.090332	32419.095703	30714.367188	94.583862
547.944458	951.892090	32148.335938	30310.162109	94.107742
548.290588	948.622803	31729.490234	29730.970703	93.507263
548.636658	950.480408	31149.185547	29095.755859	93.200272
548.982727	950.108887	30421.166016	28312.677734	92.845566
549.328735	950.926270	29727.851563	27546.099609	92.418396
549.674622	954.121277	28984.447266	26767.775391	92.091881
550.020569	956.276062	28310.599609	26088.056641	91.874985
550.366455	950.777649	27559.173828	25430.998047	92.001862
550.712280	947.731201	26934.734375	24924.771484	92.265511
551.058044	949.663086	26397.822266	24513.656250	92.596054
551.403748	954.715637	25999.634766	24244.904297	92.993668
551.749512	959.025146	25746.265625	24062.937500	93.208893
552.095154	957.836365	25609.322266	23958.689453	93.304123
552.440735	956.647522	25631.615234	23940.263672	93.145477
552.786316	955.978821	25666.240234	23933.724609	92.988678
553.131897	951.743469	25736.158203	23955.642578	92.815987
553.477417	949.885925	25774.275391	23939.072266	92.607254
553.822815	947.656921	25806.375000	23928.820313	92.447098
554.168213	949.440186	25761.275391	23834.751953	92.235466
554.513672	950.554749	25680.507813	23664.080078	91.846214
554.859009	948.697083	25507.603516	23440.501953	91.583084
555.204285	945.725037	25291.310547	23217.966797	91.483696
555.549500	945.204834	24993.654297	22962.662109	91.554581
555.894714	948.399902	24722.076172	22677.265625	91.398842
556.239990	947.210999	24428.134766	22363.556641	91.207420
556.585022	941.564026	24184.123047	22134.484375	91.181526
556.930115	937.403137	23892.708984	21914.025391	91.380280
557.275146	944.313293	23670.171875	21701.150391	91.335770
557.620178	949.811707	23514.287109	21536.050781	91.232964
557.965149	951.966492	23388.564453	21385.736328	91.073387
558.310059	948.845764	23224.281250	21285.054688	91.294327
558.654968	946.542419	23088.380859	21133.328125	91.170326
558.999756	951.000488	22981.755859	21036.513672	91.170334
559.344604	952.932434	22973.880859	21007.757813	91.071579
559.689331	949.440186	22845.115234	20989.552734	91.525436
560.033997	945.947937	22767.912109	20960.277344	91.716446
560.378723	937.774658	22696.880859	20896.601563	91.726318
560.723389	940.969727	22733.585938	20895.187500	91.564125
561.067932	935.545593	22804.396484	20922.085938	91.392731
561.412476	938.294861	22819.257813	20960.500000	91.505135
561.757019	940.375244	22821.783203	20974.765625	91.558968
562.101501	941.786926	22823.197266	20980.414063	91.578316
562.445862	943.421631	22813.091797	20963.025391	91.540489
562.790222	937.700378	22787.009766	20904.476563	91.384018
563.134644	937.031677	22736.039063	20901.503906	91.584320
563.478943	937.031677	22742.281250	20885.082031	91.482788
563.823181	936.214294	22748.298828	20885.007813	91.457527
564.167358	941.043945	22772.669922	20913.244141	91.482880
564.511536	939.483582	22787.974609	20991.187500	91.776154
564.855774	940.152344	22822.898438	21066.232422	91.972366
565.199768	936.957336	22920.904297	21184.671875	92.102272
565.543823	937.180176	23095.367188	21350.291016	92.124466
565.887817	940.152344	23317.458984	21627.587891	92.448280
566.231812	938.294739	23546.234375	21836.083984	92.435623
566.575745	938.889099	23741.726563	22024.443359	92.468994
566.919617	937.700378	23958.244141	22148.601563	92.139008
567.263428	947.136780	24106.255859	22251.806641	91.992577
567.607239	953.081055	24229.373047	22293.271484	91.682091
567.950989	962.443176	24229.593750	22261.244141	91.540222
568.294678	951.594971	24225.062500	22174.384766	91.188774
568.638367	949.143005	24105.734375	22031.054688	91.040649
568.981995	942.307129	23980.236328	21883.416016	90.898399
569.325623	950.183167	23763.943359	21727.603516	91.074074
569.669128	945.056335	23585.095703	21611.392578	91.282242
570.012573	949.440186	23441.318359	21520.890625	91.461685
570.356140	944.759094	23399.859375	21524.607422	91.648880
570.699524	947.805481	23370.507813	21566.662109	91.955269
571.042908	942.975769	23424.005859	21699.367188	92.328468
571.386230	948.325623	23544.228516	21823.601563	92.385223
571.729492	947.136780	23718.914063	21980.232422	92.364754
572.072815	949.960266	23831.187500	22144.291016	92.627594
572.416016	941.935547	23947.099609	22266.000000	92.692513
572.759094	940.672424	24061.228516	22366.755859	92.671143
573.102234	936.734436	24205.150391	22361.400391	92.076172
573.445374	939.037781	24295.802734	22347.062500	91.656631
573.788391	940.375183	24289.412109	22280.193359	91.394852
574.131409	936.660095	24264.521484	22257.156250	91.394989
574.474365	928.263916	24164.359375	22188.650391	91.497246
574.817261	933.910889	24048.593750	22037.146484	91.297966
575.160156	935.694153	23862.765625	21806.214844	91.030037
575.502930	949.811707	23641.787109	21602.253906	91.012093
575.845703	943.793152	23454.843750	21422.216797	90.970535
576.188477	954.121277	23252.515625	21230.218750	90.930748
576.531250	947.211121	23035.031250	20971.423828	90.657265
576.873901	943.793213	22822.750000	20715.896484	90.370415
577.216431	940.449524	22540.992188	20451.751953	90.327835
577.559082	943.273010	22290.296875	20184.333984	90.134628
577.901611	954.492737	21955.265625	19840.015625	89.927750
578.244080	952.189392	21652.185547	19471.398438	89.464798
578.586487	951.966492	21317.228516	19116.158203	89.192032
578.928955	954.195557	21005.156250	18822.513672	89.114525
579.271301	955.681641	20676.441406	18554.654297	89.240845
579.613647	957.762146	20351.812500	18214.419922	88.979134
579.955872	956.201721	20060.843750	17916.986328	88.778343
580.298157	954.121277	19811.408203	17660.494141	88.593727
580.640320	952.189392	19562.568359	17459.951172	88.701912
580.982483	941.192566	19365.146484	17320.259766	88.900940
581.324524	940.598145	19211.712891	17162.591797	88.784912
581.666626	937.328857	19106.128906	17067.927734	88.781853
582.008728	940.746765	19018.005859	16914.123047	88.361710
582.350647	940.746765	18926.537109	16807.498047	88.218254
582.692566	947.954102	18849.039063	16686.830078	87.921349
583.034424	947.433899	18751.482422	16588.232422	87.849670
583.376343	947.434021	18661.572266	16508.279297	87.844215
583.718201	947.062500	18603.021484	16480.789063	87.980080
584.059937	945.725037	18481.390625	16466.523438	88.509888
584.401611	944.907715	18379.744141	16380.629883	88.533798
584.743347	943.124512	18270.220703	16292.356445	88.585144
585.085022	942.084167	18195.029297	16189.968750	88.378448
585.426514	947.433899	18150.148438	16137.583008	88.300888
585.768127	947.731201	18082.013672	16070.934570	88.262833
586.109619	950.777649	18065.591797	16019.293945	88.043701
586.451172	948.028503	18004.144531	15968.323242	88.063988
586.792542	945.056335	17956.664063	15955.617188	88.237167
587.133850	946.170898	17883.103516	15933.104492	88.486702
587.475220	942.381409	17891.126953	15943.877930	88.510948
587.816589	944.164734	17869.802734	15936.819336	88.579552
588.157776	947.508301	17926.720703	15976.793945	88.515793
588.498962	955.830261	17911.267578	16003.394531	88.747719
588.840210	957.836426	17949.162109	16056.296875	88.859818
589.181335	952.932373	17969.890625	16112.842773	89.087067
589.522400	950.331848	18052.812500	16168.418945	88.981750
589.863403	949.068665	18114.185547	16215.676758	88.939728
590.204407	955.087219	18110.769531	16192.570313	88.818878
590.545410	952.858093	18122.435547	16219.096680	88.914467
590.886353	948.994324	18144.947266	16197.472656	88.674812
591.227112	941.564026	18158.320313	16190.413086	88.569817
591.567932	940.746765	18107.498047	16112.395508	88.378098
591.908752	940.821106	18018.335938	16048.347656	88.464424
592.249512	944.833435	18020.119141	16030.664063	88.348923
592.590149	949.811707	17921.371094	15960.149414	88.444077
592.930786	957.242004	17888.378906	15913.710938	88.337059
593.271423	961.180115	17790.597656	15866.454102	88.566788
593.612000	957.687805	17751.810547	15839.929688	88.615776
593.952576	951.966492	17734.126953	15875.668945	88.925987
594.292969	952.115051	17750.621094	15901.377930	88.991623
594.633484	949.960266	17833.914063	16000.719727	89.142395
594.973877	948.474182	17917.208984	16067.071289	89.096786
595.314209	937.848938	18010.162109	16179.195313	89.275230
595.654480	939.632141	18158.767578	16376.393555	89.648880
595.994812	940.523865	18318.220703	16576.416016	89.976784
596.335022	938.591980	18531.916016	16800.960938	90.161293
596.675171	935.545593	18716.855469	16932.847656	89.966942
597.015320	936.362976	18891.691406	17085.166016	89.938782
597.355408	953.303894	18983.529297	17118.455078	89.655853
597.695496	956.498840	19072.097656	17184.880859	89.582359
598.035461	951.669189	19074.994141	17087.990234	89.036209
598.375366	949.663086	19022.759766	17012.648438	88.877876
598.715271	948.622803	18924.310547	16841.677734	88.414169
599.055176	953.006653	18742.712891	16593.953125	87.921326
599.395081	947.211121	18524.486328	16304.915039	87.372498
599.734802	952.189392	18162.705078	15960.671875	87.205307
600.074524	950.406067	17821.728516	15684.117188	87.329910
600.414246	947.879822	17416.037109	15378.657227	87.628365
600.753906	945.204895	17094.900391	15116.219727	87.747879
601.093506	949.365906	16788.773438	14909.288086	88.134117
601.433044	942.752930	16608.738281	14791.741211	88.401642
601.772583	937.477356	16475.068359	14718.031250	88.691704
602.112122	935.842773	16447.501953	14753.250000	89.077560
602.451538	946.765320	16503.525391	14836.543945	89.284523
602.790894	945.650696	16638.087891	15002.312500	89.576027
603.130310	942.604309	16828.822266	15187.031250	89.665314
603.469604	942.381348	17032.859375	15445.530273	90.134972
603.808838	943.867432	17284.595703	15728.698242	90.478409
604.148010	954.864197	17546.363281	16033.413086	90.881165
604.487305	955.087158	17821.580078	16282.325195	90.873894
604.826416	957.613464	18046.943359	16482.126953	90.843315
605.165527	953.229492	18262.419922	16570.324219	90.224289
605.504456	948.622803	18460.882813	16611.787109	89.441139
605.843445	948.251282	18544.992188	16603.687500	88.967819
606.182434	940.820984	18545.513672	16551.154297	88.671425
606.521423	942.752930	18385.615234	16378.101563	88.490913
606.860229	936.734375	18197.404297	16122.948242	87.981606
607.199036	940.895325	17895.511719	15832.051758	87.829506
607.537903	937.254456	17598.302734	15572.141602	87.838928
607.876648	945.353516	17307.705078	15329.170898	87.908005
608.215271	944.981934	17017.253906	15103.217773	88.091072
608.553955	939.706543	16775.025391	14927.788086	88.334709
608.892578	935.545593	16554.421875	14809.276367	88.826691
609.231140	936.734375	16473.804688	14763.801758	88.994041
609.569641	941.192566	16426.919922	14743.666992	89.130295
609.908081	942.604309	16474.697266	14736.606445	88.809677
610.246521	945.947998	16495.576172	14753.995117	88.799850
610.584961	948.102722	16557.767578	14748.793945	88.411194
610.923340	954.715637	16542.757813	14706.440430	88.219704
611.261597	951.817810	16465.333984	14555.457031	87.688950
611.599854	946.913818	16349.867188	14391.842773	87.287994
611.938110	941.638367	16186.178711	14211.510742	87.046722
612.276245	940.895325	15975.828125	13983.401367	86.748016
612.614319	946.393799	15678.096680	13698.895508	86.565018
612.952393	948.251282	15374.497070	13366.761719	86.082756
613.290466	947.211121	15107.971680	13120.226563	85.963005
613.628479	948.845764	14852.519531	12887.063477	85.863762
613.966370	947.136719	14593.796875	12713.567383	86.222054
614.304260	947.285339	14358.480469	12558.868164	86.581268
614.642151	943.124329	14145.083008	12402.312500	86.799149
614.979980	941.861267	14020.700195	12271.465820	86.625458
615.317749	939.483582	13909.542969	12128.507813	86.268105
615.655396	946.690979	13849.878906	12065.871094	86.173897
615.993164	946.765320	13789.247070	12004.421875	86.102180
616.330811	951.817871	13757.223633	11956.645508	85.938919
616.668396	950.331848	13714.424805	11911.246094	85.873039
617.005859	940.598145	13664.938477	11874.393555	85.928192
617.343445	937.328857	13645.916992	11868.002930	86.010139
617.680908	936.882996	13673.632813	11875.061523	85.878883
618.018311	951.594971	13731.737305	11888.434570	85.576820
618.355652	948.622864	13752.840820	11880.262695	85.375305
618.692993	948.622864	13741.768555	11851.953125	85.227905
619.030273	940.375305	13736.492188	11841.104492	85.187790
619.367554	937.551758	13728.096680	11833.452148	85.187149
619.704712	935.991394	13723.266602	11843.184570	85.297241
620.041870	939.780823	13706.028320	11837.166992	85.360916
620.379028	953.378235	13683.069336	11804.324219	85.241234
620.716064	957.687805	13619.019531	11722.293945	85.019539
621.053040	961.625793	13535.875000	11636.624023	84.895714
621.389954	956.127441	13463.578125	11558.382813	84.767517
621.726929	948.697083	13411.640625	11507.632813	84.722649
622.063843	941.043945	13343.059570	11461.268555	84.826729
622.400635	933.390808	13257.539063	11447.820313	85.315666
622.737427	927.966614	13187.098633	11425.901367	85.633591
623.074219	927.372253	13156.858398	11402.940430	85.658287
623.410889	934.133728	13116.808594	11362.891602	85.603188
623.747559	936.214294	13112.573242	11341.938477	85.458420
624.084167	940.821045	13071.409180	11329.604492	85.641220
624.420715	946.022278	13074.231445	11329.456055	85.613907
624.757324	952.709473	13057.811523	11350.706055	85.897636
625.093750	955.087219	13109.450195	11417.504883	86.079521
625.430176	945.204895	13166.367188	11500.797852	86.371429
625.766602	952.115051	13220.979492	11549.987305	86.380219
626.102905	952.263672	13288.743164	11640.636719	86.640381
626.439209	958.059326	13351.528320	11735.668945	86.962006
626.775452	950.480469	13482.898438	11883.902344	87.241119
627.111694	951.000549	13563.664063	11930.637695	87.052483
627.447876	945.130615	13676.010742	11995.801758	86.802101
627.783997	944.833313	13727.799805	12005.461914	86.526306
628.120056	938.443359	13782.709961	12042.242188	86.449455
628.456055	939.409241	13767.921875	11993.053711	86.164665
628.792053	937.923157	13732.331055	11954.043945	86.101059
629.128052	941.118225	13662.041992	11847.418945	85.735130
629.463928	948.251282	13597.621094	11756.547852	85.445335
629.799744	956.276062	13477.473633	11631.125000	85.254219
630.135559	960.288391	13373.821289	11524.722656	85.104172
630.471375	959.025208	13196.980469	11393.207031	85.260826
630.807068	963.483398	13051.941406	11261.023438	85.184891
631.142700	963.854980	12927.039063	11128.393555	84.965172
631.478333	962.368896	12814.768555	11028.456055	84.928688
631.813965	954.492737	12736.972656	10897.905273	84.391510
632.149475	950.034485	12588.960938	10796.854492	84.602478
632.484924	947.656921	12496.975586	10714.229492	84.564056
632.820435	946.690918	12396.370117	10667.567383	84.900864
633.155884	946.393738	12327.118164	10620.682617	85.005913
633.491150	955.607239	12256.160156	10575.432617	85.127029
633.826477	955.532959	12204.221680	10513.092773	84.965988
634.161804	952.709534	12157.635742	10449.711914	84.757385
634.497009	946.690979	12105.696289	10392.349609	84.646065
634.832153	945.279236	12012.817383	10323.916992	84.740051
635.167297	958.430847	11948.398438	10284.536133	84.860168
635.502380	959.693909	11872.831055	10224.351563	84.894539
635.837463	958.802307	11815.321289	10172.488281	84.867775
636.172424	945.576355	11739.903320	10099.968750	84.807442
636.507324	943.050110	11657.578125	10007.016602	84.595108
636.842224	943.050110	11577.627930	9929.518555	84.502350
637.177124	949.885925	11461.268555	9815.464844	84.342651
637.511963	946.468018	11349.368164	9715.675781	84.295799
637.846741	947.508301	11214.362305	9607.119141	84.345329
638.181396	942.009949	11091.166992	9513.349609	84.453712
638.516113	950.331787	10994.351563	9420.322266	84.328690
638.850769	948.325623	10873.459961	9325.735352	84.406006
639.185303	945.502136	10778.278320	9229.290039	84.246681
639.519836	941.638428	10681.610352	9144.138672	84.214821
639.854370	942.752930	10618.006836	9081.426758	84.118454
640.188843	946.690918	10537.686523	9016.263672	84.136963
640.523254	942.604309	10471.036133	8950.654297	84.043732
640.857605	946.245117	10387.297852	8875.163086	83.983406
641.191895	950.108887	10299.843750	8827.609375	84.253738
641.526184	948.845703	10218.407227	8770.991211	84.385284
641.860413	950.406067	10164.687500	8713.778320	84.253693
642.194580	946.616699	10111.708008	8650.397461	84.055687
642.528748	947.954102	10060.959961	8599.722656	83.965363
642.862793	940.226624	10008.576172	8549.642578	83.911804
643.196838	941.192566	9970.831055	8500.750977	83.719391
643.530823	944.759094	9919.190430	8451.339844	83.644081
643.864746	943.793152	9851.278320	8381.866211	83.503624
644.198669	948.474182	9807.291016	8341.817383	83.457458
644.532532	950.851868	9773.409180	8293.595703	83.226929
644.866333	950.406067	9759.290039	8296.196289	83.390701
645.200073	953.378174	9736.331055	8266.549805	83.265526
645.533813	950.257507	9706.536133	8261.051758	83.492027
645.867554	953.749695	9677.707031	8230.586914	83.412117
646.201172	944.907715	9670.796875	8223.750977	83.416641
646.534729	942.901550	9695.391602	8215.949219	83.096901
646.868225	945.353516	9742.870117	8242.995117	82.951157
647.201782	949.514404	9749.780273	8237.497070	82.815483
647.535217	951.892090	9739.377930	8236.605469	82.898720
647.868591	953.378235	9724.740234	8227.243164	82.927422
648.201965	949.068665	9748.887695	8225.237305	82.685432
648.535278	939.409363	9760.777344	8229.545898	82.641792
648.868591	934.282410	9755.426758	8214.612305	82.532715
649.201782	938.443359	9705.198242	8212.456055	82.972694
649.534912	948.697205	9663.143555	8195.886719	83.162933
649.868103	952.263672	9604.295898	8180.581543	83.544739
650.201172	952.189270	9581.782227	8141.572266	83.310799
650.534180	952.189270	9571.454102	8103.677246	82.970970
650.867188	956.647461	9536.308594	8064.816406	82.849068
651.200134	962.220154	9506.215820	8064.816895	83.129684
651.533020	962.814636	9453.015625	8041.263184	83.371979
651.865845	967.421387	9424.409180	8030.265625	83.514885
652.198608	962.443176	9382.055664	8002.923340	83.620003
652.531433	954.269958	9328.410156	7980.038574	83.898384
652.864136	945.947998	9290.812500	7943.778809	83.857941
653.196777	1017.947266	9312.360352	7984.050781	83.985489
653.529358	1023.965759	9260.719727	7947.567871	84.057411
653.861938	1016.535461	9207.295898	7882.478516	83.825462
654.194519	936.883057	9059.209961	7727.705566	83.606857
654.526978	939.186462	9004.969727	7705.638184	83.890823
654.859375	939.632263	8926.133789	7668.040527	84.247253
655.191833	943.124451	8890.246094	7646.864746	84.354317
655.524170	940.746765	8861.045898	7563.421875	83.616478
655.856445	946.245117	8843.807617	7529.243652	83.354813
656.188660	953.303894	8822.483398	7517.280762	83.413742
656.520874	949.365906	8762.148438	7500.488281	83.851334
656.853088	951.743591	8755.684570	7505.243652	83.976799
657.185181	945.130615	8742.383789	7504.500000	84.124107
657.517212	943.050110	8774.928711	7518.246094	83.954262
657.849243	943.718750	8806.433594	7549.602051	84.015297
658.181274	944.610413	8839.793945	7614.171387	84.476326
658.513123	951.297668	8901.094727	7709.204590	85.007286
658.844971	942.529968	8974.431641	7816.423340	85.582390
659.176819	940.895325	9073.774414	7886.936035	85.406906
659.508667	944.907715	9156.993164	7989.771484	85.786530
659.840393	948.102722	9224.237305	8045.350098	85.755585
660.172058	950.777649	9304.855469	8116.606934	85.776421
660.503662	943.273010	9348.396484	8115.640625	85.333282
660.835266	949.885925	9395.727539	8122.847656	84.928917
661.166931	950.406067	9345.127930	8048.396484	84.553017
661.498413	950.851868	9319.938477	7985.610840	84.056465
661.829773	950.777649	9207.742188	7867.617676	83.769760
662.161194	953.749756	9100.002930	7769.686035	83.669594
662.492615	956.201721	8936.090820	7642.926270	83.794708
662.823975	952.263672	8771.807617	7497.887207	83.708511
663.155212	948.474304	8624.911133	7339.251465	83.251869
663.486450	944.981995	8474.597656	7193.692871	82.988441
663.817627	941.415466	8340.703125	7083.946777	83.015167
664.148743	941.192566	8202.722656	6999.093750	83.424583
664.479858	947.731262	8120.470215	6918.326660	83.240105
664.810913	946.690918	8048.470703	6851.603027	83.146935
665.141907	953.675354	8012.359375	6787.701660	82.650337
665.472778	953.229675	7932.410156	6735.764160	82.854065
665.803711	958.876648	7875.270996	6690.588379	82.871384
666.134583	955.532959	7811.371094	6657.375000	83.167686
666.465454	956.870361	7798.367676	6617.474609	82.739265
666.796143	958.059265	7743.606934	6579.728516	82.847687
667.126831	958.579407	7720.349609	6562.861816	82.881882
667.457458	958.356506	7696.275391	6562.193359	83.168663
667.788147	959.322449	7695.830078	6556.248535	83.083496
668.118774	959.842529	7683.718750	6526.156250	82.784294
668.449219	957.316223	7662.097168	6511.964844	82.846085
668.779663	951.520691	7665.737793	6516.570801	82.884575
669.110107	950.480469	7649.167969	6512.187500	83.026817
669.440552	949.440247	7620.264160	6496.732422	83.157524
669.770874	949.960266	7575.831543	6446.503906	82.955788
670.101135	947.285400	7552.871582	6419.681152	82.844971
670.431396	948.622864	7532.884277	6359.496094	82.178894
670.761597	951.669250	7509.850098	6334.381348	82.076302
671.091797	951.149109	7482.357910	6297.750000	81.862350
671.421875	957.316223	7440.377441	6293.812012	82.314445
671.751892	951.743591	7409.021484	6281.180176	82.533798
672.081909	948.994324	7368.303223	6242.394531	82.460594
672.411865	940.746765	7337.542480	6191.645996	82.086403
672.741821	943.050110	7292.367188	6122.618652	81.576782
673.071716	948.548584	7267.847168	6102.110840	81.552757
673.401550	953.378235	7224.230469	6089.553223	81.905533
673.731262	950.257507	7217.617676	6088.661621	81.986740
674.060974	952.263672	7177.494141	6051.436035	81.911385
674.390625	948.474304	7135.364746	6008.563965	81.787285
674.720276	950.703308	7074.584473	5962.050781	81.832863
675.049927	943.867432	7014.325684	5937.381348	82.259254
675.379395	946.096497	6985.050293	5904.985840	82.115036
675.708923	948.474182	6942.994629	5877.048340	82.217987
676.038330	947.285400	6909.707031	5843.686035	82.121002
676.367737	945.130615	6860.295410	5831.500488	82.607506
676.697083	951.297791	6811.330078	5804.900391	82.825523
677.026428	951.594910	6774.996094	5782.535156	82.957367
677.355652	948.845703	6762.811035	5758.015137	82.717545
677.684875	947.359619	6770.687012	5772.949707	82.866539
678.013977	943.793152	6776.853516	5786.027344	83.013611
678.343079	943.644531	6783.318359	5800.070313	83.162621
678.672180	944.016113	6787.851074	5803.265625	83.151726
679.001221	950.480469	6793.498047	5835.141113	83.598251
679.330139	953.452454	6811.627441	5865.828125	83.855049
679.659058	948.622864	6849.150391	5906.174316	84.018784
679.987976	946.096619	6897.447266	5925.419434	83.667107
680.316772	939.112122	6932.518066	5953.653809	83.667648
680.645630	939.186462	6972.418457	5974.458496	83.458946
680.974304	943.718811	7034.461426	6012.576172	83.222321
681.302979	943.050110	7084.170410	6040.365723	83.003021
681.631653	947.136902	7111.811035	6057.900879	82.904045
681.960266	944.982117	7099.699707	6048.910156	82.927086
682.288757	950.108887	7106.535156	6033.976074	82.578217
682.617249	946.542297	7099.773438	6019.560547	82.444786
682.945679	946.096497	7097.173340	5996.304199	82.102821
683.274109	943.347351	7089.593750	5949.270020	81.446831
683.602478	936.660156	7043.154785	5878.979980	80.935463
683.930725	933.613708	6979.849121	5807.426270	80.609047
684.259033	938.071838	6881.324219	5756.826172	81.079414
684.587280	948.994324	6821.361816	5699.539063	80.896584
684.915344	956.647522	6747.132813	5649.830566	81.049911
685.243469	960.214050	6683.380859	5576.864746	80.666016
685.571533	957.019043	6599.567871	5527.974121	81.008690
685.899536	949.811707	6538.861816	5463.924316	80.767082
686.227539	950.034485	6481.723145	5420.160645	80.809433
686.555420	943.421570	6466.045410	5394.749023	80.601677
686.883301	944.684753	6453.488281	5377.213379	80.462639
687.211121	944.238953	6445.314941	5382.488770	80.679665
687.538940	947.434021	6427.556641	5364.210938	80.596313
687.866638	944.684814	6436.695801	5360.123535	80.397484
688.194336	943.941833	6449.327637	5350.167480	80.034821
688.521973	943.124512	6455.717285	5352.916504	79.994881
688.849609	951.000549	6430.380371	5350.167480	80.285858
689.177063	942.604309	6409.724121	5327.802246	80.210388
689.504578	937.923279	6358.083496	5293.103027	80.351494
689.832031	930.790222	6296.338379	5232.249023	80.168114
690.159485	939.483582	6220.623535	5165.896973	80.028427
690.486816	950.406067	6162.519531	5092.931641	79.478806
690.814087	953.452576	6101.813965	5034.752441	79.273766
691.141296	953.452454	6014.805176	4981.922852	79.592766
691.468506	952.412292	5915.833496	4935.855469	80.255997
691.795715	951.594910	5825.630371	4867.496582	80.342079
692.122803	951.223450	5764.553223	4800.549805	79.972221
692.449829	952.709534	5703.699219	4749.652832	79.918999
692.776855	951.892273	5628.802734	4714.656250	80.454048
693.103821	947.285400	5573.669922	4676.984863	80.618011
693.430664	940.895447	5522.400879	4627.722168	80.471947
693.757568	941.043945	5477.225098	4584.031738	80.309578
694.084351	942.901550	5414.513672	4540.416504	80.452301
694.411133	945.650696	5364.135742	4517.902832	80.847900
694.737854	940.821106	5336.866699	4485.804199	80.640274
695.064575	941.638367	5308.706543	4478.076660	80.979683
695.391174	940.449524	5285.895020	4440.999023	80.556747
695.717773	952.115051	5267.170898	4445.382813	80.955338
696.044250	951.297791	5265.462402	4445.680176	80.997894
696.370789	950.777649	5273.264160	4463.884277	81.275139
696.697205	948.622864	5280.694336	4484.986328	81.632164
697.023621	950.331787	5312.644043	4519.388672	81.815712
697.349915	945.947937	5359.975098	4569.097168	82.082619
697.676208	941.118164	5439.255859	4637.901855	82.184761
698.002380	944.610413	5522.697754	4709.009277	82.226456
698.328674	948.325684	5634.003906	4819.125977	82.609177
698.654724	953.824036	5729.408203	4912.747559	82.899254
698.980896	950.703369	5843.017090	5027.024902	83.320938
699.306946	953.081055	5922.595215	5091.296387	83.272034
699.632935	949.588867	5982.781250	5144.943359	83.353745
699.958862	949.663086	6011.833496	5134.689453	82.672569
700.284729	948.102722	6007.300781	5109.203613	82.248230
700.610596	942.752930	5979.064941	5043.371582	81.421059
700.936340	939.483582	5903.648438	4970.183594	81.195930
701.262146	944.164612	5799.625000	4883.695313	81.136093
701.587830	952.932373	5669.595215	4778.259277	81.102402
701.913513	952.783752	5522.252441	4669.628418	81.340851
702.239075	954.864258	5372.532715	4526.818848	80.856102
702.564697	952.337952	5240.199219	4407.562500	80.581535
702.890137	954.864258	5114.181641	4287.118164	80.115402
703.215698	951.223389	5018.628418	4201.818848	79.918167
703.541016	946.616638	4912.895996	4121.051758	80.035591
703.866455	945.576355	4826.109863	4067.256836	80.444618
704.191711	938.146057	4755.448242	4025.424561	80.875923
704.517029	944.461914	4703.584473	3988.792969	80.985153
704.842163	944.164551	4664.056152	3939.307617	80.516945
705.167419	945.724915	4625.195801	3881.500000	79.787971
705.492493	941.118164	4579.796387	3845.165771	79.810509
705.817566	934.208008	4543.016602	3813.958984	79.797829
706.142578	936.214294	4512.552734	3795.085938	79.938507
706.467590	938.369141	4505.939941	3774.281006	79.491394
706.792480	943.570251	4490.336426	3768.782227	79.655998
707.117371	947.285339	4477.630859	3777.253174	80.161217
707.442200	951.297668	4467.079590	3785.723877	80.620079
707.766907	960.882751	4456.156738	3782.974609	80.740219
708.091675	959.173828	4443.228027	3782.677002	81.040733
708.416321	955.755859	4437.655762	3780.076416	81.114349
708.741028	944.090332	4458.535156	3788.472656	80.934044
709.065552	942.307129	4482.237793	3797.389404	80.653618
709.390137	944.387512	4499.327148	3819.085205	80.864883
709.714600	952.635071	4513.890137	3840.633545	81.094963
710.039063	951.223389	4549.109375	3860.843750	80.870277
710.363403	952.709473	4597.035156	3879.122070	80.300522
710.687744	953.080994	4651.499023	3906.168213	79.847305
711.012085	959.991211	4697.046387	3923.034912	79.288200
711.336304	953.824036	4768.748535	3938.118408	78.226830
711.660461	956.201843	4818.234375	3951.938721	77.568916
711.984619	957.390625	4860.512207	3975.641602	77.329155
712.308716	965.786804	4862.815918	3984.186279	77.453857
712.632751	956.350342	4861.552246	3985.078125	77.556244
712.956726	951.743469	4835.175293	3965.164795	77.596863
713.280701	948.028503	4793.788574	3952.681885	78.128990
713.604553	961.105652	4748.018066	3918.651123	78.099129
713.928467	961.923035	4684.266113	3881.796875	78.441826
714.252258	968.015808	4623.264160	3847.320557	78.771797
714.575989	956.944763	4568.279785	3814.330322	79.122696
714.899719	953.303894	4523.104004	3788.696045	79.427193
715.223267	939.037781	4477.853516	3739.135986	79.125290
715.546936	942.381348	4439.067383	3706.071289	79.037407
715.870422	948.994324	4406.076660	3683.928955	79.111061
716.193970	952.635193	4373.829590	3663.495361	79.237244
716.517395	948.177002	4326.572754	3644.919922	79.823181
716.840820	945.056335	4292.542480	3618.691406	79.869934
717.164124	954.864258	4261.261230	3592.016357	79.759087
717.487488	956.721863	4231.763184	3563.186768	79.585709
717.810730	950.108887	4191.193848	3537.998291	79.846390
718.133972	947.508301	4139.107910	3489.999023	79.661957
718.457092	949.291504	4088.507080	3445.565674	79.519043
718.780212	950.926270	4032.557373	3390.432861	79.162834
719.103210	947.879883	3981.139648	3350.681396	79.215157
719.426208	944.759216	3929.647705	3313.678467	79.363747
719.749207	951.966492	3888.707031	3275.338623	79.113976
720.072083	948.920105	3852.447266	3244.502686	79.061859
720.394958	952.635254	3808.014404	3204.528076	78.864929
720.717773	953.378235	3761.203857	3165.816162	78.795418
721.040527	952.858154	3726.058350	3132.305420	78.589615
721.363281	950.703308	3699.532471	3100.355469	78.202461
721.685913	951.446289	3678.430420	3084.900391	78.234932
722.008545	951.223389	3653.167969	3071.080322	78.456711
722.331055	952.783752	3626.938721	3056.219482	78.657959
722.653503	951.074890	3611.855225	3028.578857	78.078751
722.976013	954.195557	3585.700439	3027.761719	78.797729
723.298401	947.805481	3582.059570	3016.913330	78.546249
723.620789	943.644531	3566.604736	3021.222900	79.207390
723.943115	943.421631	3565.936279	2998.486328	78.362373
724.265381	949.960266	3545.800049	2999.155029	78.941498
724.587585	954.715637	3537.552734	2980.059326	78.415466
724.909790	953.303955	3523.806641	2980.728271	78.872681
725.231873	950.777649	3535.471924	2963.638672	77.876175
725.553894	946.096497	3538.593018	2964.307373	77.848160
725.875916	980.870178	3589.564453	3008.294189	77.717964
726.197937	986.145691	3588.524170	3015.352783	77.975098
726.519775	989.415039	3582.357178	3020.405518	78.327644
726.841675	956.944763	3556.722656	2975.527100	77.644417
727.163513	951.520691	3556.351318	2987.340820	78.155563
727.485291	957.910706	3586.072266	3013.123779	78.199646
727.806946	954.492859	3600.115479	3052.950195	79.318092
728.128662	954.567078	3623.149414	3074.944092	79.457054
728.450256	947.359680	3642.839844	3087.649658	79.402924
728.771790	949.960205	3658.591797	3077.395752	78.542816
729.093323	953.229675	3673.303467	3088.466797	78.499237
729.414795	947.582703	3670.851563	3077.767334	78.221603
729.736145	946.319519	3665.055908	3085.569092	78.685432
730.057495	949.811707	3660.375000	3083.339844	78.711617
730.378845	949.663086	3659.483154	3080.665283	78.639992
730.700134	952.709473	3651.755859	3069.371094	78.422569
731.021301	951.000549	3650.567139	3062.981201	78.234062
731.342468	958.207947	3643.805664	3066.622070	78.508186
731.663574	956.944763	3647.891846	3077.618408	78.807701
731.984680	958.207825	3657.403076	3081.110596	78.649467
732.305664	954.269836	3666.839111	3080.590576	78.387703
732.626648	951.520691	3675.904297	3079.921875	78.124138
732.947571	946.096497	3689.352783	3082.671143	77.884621
733.268433	951.520569	3695.966064	3097.457275	78.191994
733.589233	956.498840	3693.662354	3103.030029	78.421738
733.909973	960.362610	3668.473633	3095.897217	78.856979
734.230713	956.350281	3646.331299	3072.045898	78.650948
734.551331	944.461914	3612.078125	3034.522705	78.349380
734.871948	946.765320	3582.357178	2996.628906	77.776215
735.192505	937.997559	3535.769531	2957.991455	77.758705
735.513062	946.616699	3479.373291	2933.025391	78.428726
735.833435	942.530029	3427.138428	2889.558594	78.363602
736.153931	957.687744	3380.178955	2848.320313	78.044968
736.474304	954.269836	3350.161133	2811.912109	77.534500
736.794617	956.127441	3314.644531	2804.556396	78.372505
737.114807	957.093445	3294.731201	2803.813232	78.999397
737.434998	958.133606	3288.266846	2793.708008	78.775513
737.755188	954.418457	3274.892578	2781.225342	78.725586
738.075256	945.650696	3276.378174	2779.739014	78.691666
738.395325	949.068665	3284.700439	2781.968018	78.475525
738.715271	952.412292	3311.895264	2783.528564	77.606674
739.035278	950.777649	3328.836182	2795.416748	77.569122
739.355164	942.975891	3339.089844	2804.555908	77.691635
739.675049	941.861328	3352.389893	2825.955078	78.161018
739.994873	946.690979	3355.510986	2820.382568	77.784622
740.314636	957.910645	3358.185791	2809.311768	77.132874
740.634277	954.641357	3349.046875	2784.048828	76.403412
740.953979	953.601074	3326.309814	2763.169678	76.265938
741.273499	942.604309	3299.412354	2737.757813	76.168846
741.593140	942.975891	3254.458984	2714.724121	76.649849
741.912598	941.192627	3226.372803	2682.625244	76.205482
742.232117	949.217285	3196.354248	2655.281982	75.921707
742.551453	953.081055	3153.258789	2622.886230	75.894104
742.870850	958.653625	3100.875244	2601.115479	76.670959
743.190063	956.721741	3053.767578	2565.152588	76.699844
743.509338	953.006653	3029.544922	2541.970459	76.519844
743.828552	946.319397	3014.981689	2520.348389	76.089218
744.147705	942.158508	2987.415283	2505.041992	76.415024
744.466797	942.158508	2965.941650	2473.834717	75.683815
744.785828	944.981995	2942.313232	2454.367676	75.570122
745.104858	955.830261	2920.988281	2450.132324	76.039787
745.423706	953.080994	2902.338623	2457.116943	77.159424
745.742615	958.728027	2880.493408	2454.293213	77.822464
746.061401	957.464844	2863.626953	2437.574951	77.648697
746.380249	965.266663	2849.658203	2414.912842	76.929138
746.698975	956.350342	2840.295898	2395.148438	76.371536
747.017639	956.350342	2831.305420	2392.101807	76.575249
747.336304	947.805603	2824.617920	2399.457764	77.346687
747.654907	951.966492	2816.444580	2391.730225	77.220734
747.973389	943.941833	2816.890381	2386.454834	77.018295
748.291931	947.434082	2819.490967	2366.319092	75.792839
748.610352	943.124512	2822.760498	2365.501221	75.672989
748.928711	944.982117	2828.184326	2362.380615	75.265335
749.247070	946.022278	2818.079346	2375.383789	76.352455
749.565308	947.211121	2815.552734	2377.092529	76.532120
749.883545	948.845764	2811.094727	2375.977783	76.634865
750.201782	949.068665	2809.311523	2372.931641	76.541779
750.519836	950.183167	2800.543701	2372.337158	76.858208
750.837952	948.994324	2777.658447	2367.136475	77.550720
751.155884	942.529968	2766.958740	2343.359375	76.781807
751.473877	946.765198	2766.290039	2333.254150	76.200607
751.791809	947.062500	2760.643311	2324.932373	75.975105
752.109619	956.276062	2746.600342	2328.424561	76.642456
752.427490	951.892151	2720.222656	2315.421631	77.108292
752.745300	943.421631	2728.098633	2326.640869	77.505295
753.062988	939.037781	2723.046143	2322.926025	77.571846
753.380615	942.530029	2723.714844	2325.452393	77.640587
753.698303	949.663086	2701.646729	2300.858154	77.123726
754.015808	951.000488	2692.879150	2291.272949	76.944077
754.333374	950.851868	2692.879150	2283.471191	76.498192
754.650757	950.480408	2693.325195	2287.854980	76.735153
754.968262	949.811707	2695.554199	2292.090332	76.888695
755.285583	948.622864	2693.473389	2288.969482	76.817276
755.602905	951.149170	2704.916260	2277.378418	75.621742
755.920105	955.904480	2696.297119	2266.307373	75.293518
756.237305	948.548523	2694.068115	2267.644775	75.570404
756.554443	943.867371	2669.697021	2248.920410	75.618881
756.871582	936.585693	2671.108398	2242.307617	75.278458
757.188599	943.867432	2659.368652	2240.895752	75.606377
757.505615	946.690918	2666.650391	2266.084473	76.710732
757.822510	951.669250	2667.244873	2279.681641	77.409142
758.139465	948.622864	2671.851563	2278.270020	77.160225
758.456238	951.594910	2681.882568	2280.350586	76.793915
758.773010	940.077942	2702.910156	2281.093506	76.071655
759.089783	939.037781	2720.222900	2292.164795	75.967789
759.406433	935.991394	2745.857178	2301.452393	75.445427
759.723145	949.440125	2749.052002	2313.935303	75.821632
760.039673	953.824036	2767.553467	2316.535889	75.133141
760.356201	956.647522	2777.733154	2317.799072	74.743965
760.672668	952.560852	2784.197266	2320.325195	74.674446
760.989136	949.217285	2774.463623	2320.102539	75.106865
761.305481	943.347351	2767.999268	2306.430664	74.703743
761.621826	942.827148	2775.281006	2304.499023	74.308655
761.938049	947.136719	2798.537842	2308.437012	73.528114
762.254333	950.926270	2807.973877	2341.947510	74.904984
762.570496	946.096497	2843.639404	2369.736572	75.025452
762.886597	946.765320	2899.812256	2420.039551	75.434654
763.202637	954.715637	2989.346924	2482.751221	75.101349
763.518677	964.226379	3111.797852	2573.103271	74.916107
763.834656	955.978821	3263.004150	2671.257324	74.350227
764.150574	946.022217	3419.411377	2767.999268	73.663177
764.466370	942.084167	3539.707275	2851.441406	73.504013
764.782288	949.143005	3613.489990	2903.973389	73.369965
765.097961	957.687744	3626.418701	2905.682373	72.993294
765.413696	955.458679	3588.969971	2869.942627	72.697006
765.729309	953.749756	3496.834717	2804.481689	72.775070
766.044861	948.622803	3376.538330	2730.921875	73.408615
766.360474	948.697205	3231.499268	2628.904541	73.602844
766.675903	947.434021	3083.562744	2527.927002	73.988655
766.991394	943.867493	2955.464844	2439.655518	74.358223
767.306763	946.542419	2847.057373	2376.721191	75.252174
767.622131	947.805481	2755.516357	2316.313232	75.703911
767.937378	946.913879	2669.548096	2265.193115	76.526939
768.252625	943.124451	2609.214111	2216.301514	76.417076
768.567810	941.489746	2562.403564	2185.317139	76.736183
768.882996	943.421631	2511.580322	2148.314697	76.834892
769.197998	943.793152	2476.435303	2116.438721	76.511375
769.513062	941.266846	2432.894287	2089.466797	76.976326
769.828064	938.369080	2413.575195	2072.822998	76.901382
770.142944	943.347351	2379.247559	2045.925415	76.786545
770.457825	943.570313	2346.851318	2014.421021	76.310493
770.772705	953.824036	2321.217041	1986.334595	75.509415
771.087402	950.406189	2294.245361	1976.006470	76.318687
771.402100	956.721863	2274.554932	1967.684570	76.714020
771.716736	955.904480	2241.861572	1947.028442	77.072868
772.031372	952.189392	2217.936279	1936.551758	77.769295
772.345947	951.817871	2207.459717	1920.279419	77.128807
772.660461	952.263672	2199.657715	1912.849243	77.007385
772.974854	958.579407	2186.654541	1893.679077	76.143517
773.289246	954.567139	2171.794189	1872.874512	75.442574
773.603638	951.074890	2165.032471	1854.224487	74.397133
773.917908	950.108826	2153.441406	1849.692017	74.757660
774.232178	942.009827	2136.277588	1844.787964	75.592606
774.546265	935.545471	2112.798096	1837.729126	76.634666
774.860474	934.208069	2104.104492	1814.546753	75.249283
775.174561	933.093567	2096.525391	1811.649048	75.514130
775.488586	936.660095	2092.736084	1809.122681	75.467583
775.802551	936.660095	2083.448242	1807.710938	75.955696
776.116516	946.468079	2074.531982	1798.200195	75.503883
776.430359	943.198730	2058.259766	1784.156860	75.418129
776.744202	941.935547	2044.662231	1791.512817	77.043320
777.057922	942.158508	2030.619141	1782.670898	77.220276
777.371704	940.821045	2029.356079	1778.435669	76.948799
777.685303	943.347351	2013.158081	1764.912598	76.795380
777.998962	938.889160	2008.105469	1762.237671	77.004860
778.312500	936.511536	1994.507813	1766.175659	78.418434
778.626038	931.013000	1991.387207	1761.197266	78.291626
778.939453	936.214294	1989.603882	1763.797852	78.563858
779.252869	944.684753	1997.628540	1757.036499	77.150528
779.566223	953.006653	2004.315796	1752.132446	76.012451
779.879578	953.155273	2002.829712	1749.531860	75.868912
780.192749	952.486572	1994.359253	1743.587524	75.930672
780.505920	948.994324	1985.740112	1737.420532	76.048164
780.819031	951.520691	1975.486328	1729.024292	75.930634
781.132141	952.858093	1973.777344	1736.900391	76.797676
781.445190	958.505127	1974.817749	1734.002563	76.305008
781.758118	959.248230	1971.622681	1724.863281	75.625679
782.071045	957.762024	1958.322632	1705.395996	74.721504
782.383911	953.898254	1939.375366	1696.553833	75.360001
782.696838	955.161438	1917.084473	1692.764648	76.680069
783.009583	958.579407	1906.161987	1689.495483	77.134819
783.322266	960.659851	1889.518188	1672.108521	76.593880
783.634888	957.613464	1884.614258	1653.235718	75.040092
783.947510	962.145935	1873.394531	1639.563843	74.339531
784.260132	960.808411	1875.252319	1643.799194	74.689194
784.572571	957.985046	1872.428589	1643.353149	74.949196
784.885010	947.211121	1865.592773	1649.297485	76.448212
785.197449	945.650696	1856.602051	1646.696899	76.957588
785.509766	943.793152	1842.261597	1644.244995	77.960648
785.822083	944.536133	1831.041992	1626.560913	76.934044
786.134277	942.381409	1815.141235	1613.706543	76.919800
786.446533	937.180359	1817.073120	1598.994507	75.215317
786.758606	938.369141	1823.983276	1606.499146	75.442566
787.070740	946.245178	1831.933594	1611.625977	75.125832
787.382690	949.440186	1829.630249	1618.461914	76.008781
787.694641	955.012878	1838.472168	1618.610352	75.113533
788.006653	953.824036	1867.747437	1628.641235	73.837395
788.318481	954.715637	1900.960571	1650.560547	73.537506
788.630310	948.251282	1926.817993	1677.829712	74.555817
788.942017	946.691101	1942.272949	1690.164063	74.677231
789.253784	952.709534	1965.678345	1695.662476	73.344109
789.565430	952.263672	1968.799194	1684.591187	72.041504
789.877014	943.644531	1954.830078	1681.247681	72.944389
790.188538	943.347351	1936.477417	1671.959961	73.365273
790.500061	949.068665	1918.719116	1669.879395	74.337173
790.811462	953.824036	1904.155762	1655.167358	73.799843
791.122925	949.960266	1879.784546	1644.467773	74.692337
791.434204	944.313293	1849.394531	1622.325562	74.911758
791.745483	945.204895	1831.116211	1606.424805	74.637260
792.056702	949.365906	1806.076172	1597.434204	75.646149
792.367920	950.703308	1786.088867	1573.583008	74.561943
792.678955	948.474304	1774.348999	1574.028809	75.744484
792.990112	942.678650	1752.727051	1558.425171	76.013550
793.301086	940.152344	1746.485718	1560.802856	76.971947
793.612122	933.613770	1725.309204	1542.895996	76.959167
793.922974	942.232910	1728.430054	1544.233398	76.571190
794.233826	948.399963	1725.383423	1541.187012	76.293396
794.544556	962.145996	1730.584595	1547.651367	76.194168
794.855286	959.768250	1725.457642	1542.450195	76.098999
795.166016	958.728027	1722.188477	1545.719604	76.885658
795.476624	947.656921	1724.046021	1550.772095	77.682076
795.787292	946.542297	1736.528931	1557.607910	77.351387
796.097778	946.245117	1752.280884	1570.165039	77.405983
796.408264	944.238953	1758.596680	1577.595337	77.773727
796.718689	932.424805	1772.862915	1590.821289	78.339676
797.029053	934.951172	1790.249634	1583.836914	75.866585
797.339355	947.211121	1803.995728	1576.480957	73.445511
797.649658	955.235779	1797.605835	1568.233276	72.770569
797.959839	947.582520	1787.351929	1568.010376	73.880737
798.270020	936.511414	1779.624390	1561.917480	74.178207
798.580078	937.700256	1763.797852	1545.050781	73.520432
798.890137	937.254395	1746.559570	1539.478149	74.412445
799.200195	946.839539	1737.346313	1532.791016	74.123528
799.510071	943.124451	1719.736450	1526.400879	75.105255
799.820007	944.610535	1711.860474	1513.992310	74.210732
800.129883	941.861328	1691.427246	1510.276978	75.832642
800.439575	953.452454	1694.770874	1509.534058	75.012520
800.749329	957.018982	1687.191895	1510.202759	75.760651
801.058960	958.876526	1686.745972	1502.921021	74.744789
801.368591	950.628906	1679.538696	1501.063477	75.514771
801.678162	951.966492	1678.424194	1490.066772	74.071800
801.987671	953.378174	1672.628540	1479.069946	73.088844
802.297119	958.950928	1666.833008	1476.023438	73.045006
802.606506	960.288391	1659.105591	1471.342407	73.131287
802.915894	955.012878	1648.554565	1469.261841	74.148239
803.225159	950.406067	1641.867188	1463.094849	74.145714
803.534424	951.223450	1626.635132	1467.107300	76.380653
803.843628	948.325684	1622.622925	1463.095093	76.341614
804.152771	944.238953	1622.697266	1462.054688	76.322411
804.461792	945.204895	1629.607422	1455.813354	74.606453
804.770874	945.799316	1627.155273	1460.568726	75.550728
805.079773	956.424622	1621.656860	1457.522095	75.326698
805.388733	951.297791	1620.765259	1456.853516	75.516098
805.697571	955.533020	1624.926270	1455.887573	74.747475
806.006470	953.601074	1641.941406	1465.621094	74.384720
806.315125	952.486572	1651.823730	1469.039063	73.863152
806.623901	956.573242	1661.408813	1474.314819	73.455650
806.932495	953.081055	1660.071289	1466.587280	72.632721
807.241150	956.127441	1655.093140	1467.627319	73.179543
807.549622	950.777588	1657.990845	1468.816040	73.250671
807.858154	945.799316	1651.080688	1474.463257	74.957878
808.166565	932.201965	1645.805298	1469.930664	75.354004
808.474915	933.093567	1622.177124	1460.494263	76.536537
808.783264	930.790222	1602.189575	1449.497437	77.257629
809.091492	946.170898	1591.415649	1440.878418	76.669746
809.399719	945.279236	1589.929688	1433.076660	75.668518
809.707825	954.418457	1595.502319	1429.510132	74.107567
810.015930	951.000488	1587.106079	1425.794922	74.640823
810.323975	964.449280	1580.121582	1424.977539	74.800873
810.632080	969.353333	1581.087524	1418.587524	73.436172
810.939880	966.752686	1581.236206	1417.621582	73.373634
811.247864	950.554688	1570.685059	1404.990112	73.280624
811.555664	946.022156	1549.360229	1394.141968	74.273415
811.863464	947.211121	1547.057007	1380.470215	72.228401
812.171143	954.195557	1543.490234	1379.727173	72.210327
812.478882	948.028503	1539.032227	1375.194702	72.278091
812.786438	942.158508	1534.054077	1381.733398	74.265617
813.094055	932.870667	1539.255249	1382.699219	74.182053
813.401489	936.437195	1543.564575	1388.123413	74.397270
813.708984	942.381531	1535.763062	1381.881836	74.067070
814.016357	956.350342	1527.961304	1375.046265	73.248405
814.323730	957.539124	1524.394531	1372.445435	73.194382
814.630981	961.625793	1518.896118	1361.077271	71.680023
814.938232	953.824036	1520.679565	1354.464233	70.677658
815.245361	947.359680	1521.422485	1355.207275	71.045815
815.552490	949.588867	1525.954956	1358.030762	70.865013
815.859619	943.941895	1517.335815	1369.622070	74.238693
816.166565	950.108948	1522.016968	1374.377319	74.184723
816.473572	948.697205	1522.091187	1381.733398	75.521584
816.780457	956.053162	1536.877441	1391.615723	74.990417
817.087341	946.839600	1535.168457	1389.980957	75.322052
817.394043	943.867432	1540.964233	1395.033691	75.559982
817.700806	938.146179	1542.301758	1381.733398	73.422684
818.007507	941.192566	1549.211792	1386.563110	73.249420
818.314209	936.065674	1554.561523	1393.398804	73.942795
818.620667	935.025452	1556.939087	1399.640259	74.707291
818.927246	940.672546	1574.994751	1406.921875	73.503548
819.233704	950.703308	1596.691040	1419.627808	72.590309
819.540161	957.687744	1624.331665	1441.324219	72.547943
819.846497	955.458679	1645.285156	1463.912109	73.707436
820.152832	946.542297	1691.129883	1494.079102	73.535583
820.458984	939.557922	1753.024048	1535.391479	73.246262
820.765259	944.907715	1828.367065	1582.202148	72.136246
821.071350	947.359680	1928.378540	1648.108765	71.430748
821.377502	956.647461	2091.175781	1748.417358	69.788467
821.683472	955.681641	2376.423828	1925.183594	68.239120
821.989441	957.539124	2823.131836	2212.586426	67.273384
822.295349	957.316223	3414.135742	2609.883057	67.264481
822.601196	952.040833	4105.373535	3059.340576	66.827698
822.907043	950.554688	4775.510254	3464.736084	65.730995
823.212769	943.718811	5322.898438	3784.906250	64.879448
823.518494	941.489746	5620.777832	3962.935547	64.570633
823.824097	940.523743	5627.911621	3977.201416	64.784012
824.129700	941.118164	5397.869629	3832.014404	64.865547
824.435242	948.028503	5059.866699	3615.496094	64.872871
824.740723	948.325623	4707.523438	3396.674561	65.129555
825.046082	940.449524	4352.133789	3178.744385	65.606743
825.351501	942.084229	3957.437256	2937.186523	66.164803
825.656799	940.077942	3553.676025	2678.761719	66.524529
825.962036	949.737305	3184.688721	2459.197021	67.538818
826.267212	943.050110	2906.499268	2280.127686	68.098404
826.572449	939.334961	2734.563232	2177.143799	68.949944
826.877502	940.375244	2691.170166	2139.546875	68.492981
827.182495	942.975891	2752.841797	2174.543213	68.047440
827.487488	943.198792	2868.753906	2245.205322	67.617203
827.792419	941.935608	2982.065430	2306.727783	66.897324
828.097290	946.765198	3054.138672	2345.068115	66.352875
828.402100	949.217224	3059.934326	2338.009521	65.797180
828.706848	950.777588	2977.607178	2284.808594	65.818604
829.011597	948.920105	2840.444336	2205.676270	66.441452
829.316223	954.938477	2669.102295	2104.401611	67.056786
829.620789	950.629089	2527.109619	2009.962891	67.196121
829.925354	956.573242	2380.138916	1913.295044	67.206017
830.229797	958.356506	2235.248779	1823.314453	67.739304
830.534302	961.700195	2073.566162	1734.819946	69.533539
830.838562	955.830261	1922.434448	1636.071655	70.374352
831.142944	948.399902	1815.289917	1553.001343	69.743729
831.447144	950.406006	1722.188477	1484.271118	69.173004
831.751404	951.669189	1667.130249	1454.029785	70.214943
832.055542	958.282043	1620.468140	1428.544067	71.016594
832.359619	951.966492	1601.372192	1421.113892	72.242577
832.663635	949.142883	1604.938843	1423.937378	72.399727
832.967651	944.238953	1632.728027	1436.420288	71.487167
833.271545	943.941711	1695.291016	1470.153687	70.035599
833.575439	941.712708	1782.893921	1524.097290	69.234138
833.879211	945.725098	1898.211548	1596.914063	68.367271
834.183044	944.982117	2017.244507	1675.675171	68.144981
834.486694	940.375244	2121.714111	1740.021118	67.689796
834.790344	943.198730	2183.905518	1792.701782	68.469284
835.093933	947.879822	2208.722656	1804.590210	67.947441
835.397522	952.709473	2173.131592	1779.624512	67.756477
835.700928	944.313293	2118.890625	1730.436157	66.928146
836.004395	947.954102	2055.584717	1692.764648	67.243584
836.307739	951.520691	1999.486206	1650.189087	66.669022
836.611023	949.811707	1923.251587	1617.867554	68.628365
836.914307	946.096497	1838.397949	1566.226929	69.497864
837.217529	951.743591	1749.680298	1525.880737	71.952721
837.520691	954.790039	1669.433472	1462.946289	71.106262
837.823730	952.337952	1598.994507	1409.374023	70.676788
838.126831	950.554688	1540.592651	1364.866699	70.217857
838.429749	952.560852	1495.936523	1345.325073	72.282265
838.732727	955.235779	1455.367310	1318.278809	72.589508
839.035522	951.743591	1432.184937	1298.737183	72.223923
839.338379	949.960266	1415.243774	1284.545410	71.909950
839.641113	951.297668	1419.330688	1289.449341	72.249535
839.943848	947.731140	1426.983765	1300.892090	73.689934
840.246460	946.022278	1453.955688	1314.786621	72.600922
840.549072	950.777588	1488.952148	1316.272583	67.913834
840.851563	952.932373	1516.666992	1321.325195	65.348625
841.154053	955.755859	1524.766113	1316.792847	63.449997
841.456482	953.972656	1511.466187	1324.074585	66.386765
841.758850	951.892273	1500.320679	1310.848755	65.451843
842.061157	950.703369	1479.738770	1307.356323	67.415710
842.363403	949.365906	1442.884644	1291.307007	69.286346
842.665588	955.458679	1404.915894	1280.310181	72.276405
842.967712	960.214050	1386.786133	1266.118408	71.712234
843.269775	959.768250	1378.018188	1256.161743	70.865158
843.571777	950.034485	1358.105103	1238.774902	70.757462
843.873840	949.885986	1331.207520	1218.192993	70.362404
844.175659	951.743591	1305.052979	1201.474976	70.683487
844.477600	956.796143	1287.591797	1186.614380	69.474380
844.779297	950.851868	1264.186401	1176.434937	71.994324
845.081116	947.434021	1246.279541	1169.450562	74.291405
845.382751	943.495911	1243.827637	1174.577393	76.942085
845.684387	940.821045	1247.765747	1170.193481	74.727608
845.985962	935.916992	1244.942261	1161.871704	73.118523
846.287537	937.551758	1231.864746	1150.429077	72.330246
846.588989	945.056335	1218.267456	1141.066895	71.743256
846.890381	953.972656	1213.957886	1135.196899	69.705589
847.191711	961.774414	1211.951660	1132.744995	68.339783
847.493042	962.294617	1211.431519	1126.875122	66.060265
847.794250	959.545349	1213.363403	1130.070190	67.183891
848.095459	948.251282	1213.734863	1128.584106	67.926170
848.396606	942.455750	1207.344849	1140.695313	74.838699
848.697693	942.529968	1199.914551	1136.311523	75.288719
848.998657	952.114990	1186.985840	1138.391968	79.310387
849.299622	953.675354	1190.775391	1132.001953	75.211548
849.600464	947.359680	1185.351196	1131.036011	77.177681
849.901367	940.375244	1189.809570	1122.937012	73.190315
850.202087	938.666321	1182.973633	1117.958618	73.388016
850.502808	941.564148	1192.781616	1123.902954	72.582054
850.803467	947.062500	1193.970459	1130.218628	74.179924
851.104065	950.257507	1204.595825	1139.134888	74.262260
851.404663	951.074890	1197.314087	1132.967896	73.868423
851.705139	950.406067	1196.942505	1125.611938	71.066925
852.005615	951.892151	1191.815552	1121.450806	70.671997
852.306030	949.291504	1192.410034	1116.398315	68.734711
852.606384	948.251282	1191.815552	1115.581055	68.700462
852.906616	945.799316	1196.199463	1108.447876	64.955460
853.206909	942.678650	1200.434692	1108.299316	64.254814
853.506958	939.112122	1193.896118	1113.203247	68.328911
853.807129	937.403137	1192.855957	1110.379883	67.713776
854.107178	945.725098	1187.506226	1118.701782	71.542671
854.407166	937.923279	1193.524536	1114.169312	68.953506
854.707092	934.059509	1184.013794	1123.902954	75.951263
855.007019	923.879944	1183.345215	1117.438599	74.599060
855.306763	934.282410	1178.441162	1117.587158	75.076050
855.606567	940.746765	1176.434937	1108.968140	71.374550
855.906250	948.920105	1170.342163	1103.246826	69.697990
856.205933	942.752930	1165.140991	1096.856812	69.295036
856.505493	940.375244	1163.654907	1095.890991	69.650658
856.805054	939.334961	1165.809692	1097.228394	69.717903
857.104492	949.885986	1165.661133	1096.410889	67.906296
857.403931	955.087219	1165.438232	1093.215942	65.665825
857.703308	956.424622	1168.930298	1091.804321	63.706390
858.002563	950.034485	1170.787964	1093.810425	65.129639
858.301819	946.096497	1168.187378	1103.395386	70.826363
858.601013	952.412292	1162.540405	1103.841187	72.065033
858.900208	949.068665	1177.103638	1101.909302	67.025085
859.199219	947.136902	1186.540161	1095.742310	62.073261
859.498291	940.672546	1185.425659	1094.404785	62.811146
859.797302	950.554749	1170.119263	1094.850586	65.719109
860.096191	953.229675	1164.546509	1097.525513	68.284119
860.395020	950.108887	1170.713745	1099.457397	67.699554
860.693787	943.644531	1173.834473	1105.252930	70.206543
860.992554	945.204895	1173.017090	1100.720581	68.264862
861.291260	949.365784	1167.815796	1103.469604	70.544205
861.589844	946.765198	1165.661011	1093.290161	66.938225
861.888428	944.610535	1167.518677	1103.618286	71.333305
862.186890	938.517761	1166.404175	1098.937134	70.394440
862.485413	934.951172	1166.181274	1106.887695	74.357330
862.783813	940.895325	1166.032593	1102.280884	71.683182
863.082153	939.780823	1169.896362	1106.962036	72.650986
863.380371	949.588684	1171.456665	1114.615112	74.380463
863.678589	949.960205	1163.506348	1107.556396	73.799599
863.976746	952.486511	1157.784912	1106.144653	74.846245
864.274902	946.319397	1162.688843	1102.503784	72.184120
864.572937	945.204895	1162.837524	1108.522339	75.042717
864.870911	950.851868	1170.565063	1112.163086	73.418991
865.168884	955.681580	1169.004761	1106.813354	70.846390
865.466736	949.885925	1176.955078	1099.828857	66.034042
865.764587	948.771423	1173.462891	1088.386230	62.136230
866.062317	950.034485	1177.029419	1087.866089	60.720123
866.360107	949.217285	1182.750610	1090.986816	60.706337
866.657715	950.480469	1189.883789	1096.485229	60.986942
866.955322	955.755920	1184.162476	1093.141479	60.149570
867.252808	963.557800	1184.311157	1100.571777	62.066544
867.550293	956.127441	1178.886963	1106.144653	67.344917
867.847717	948.399963	1178.441040	1103.469849	67.409653
868.145081	948.920105	1171.679565	1103.915649	69.579781
868.442383	951.595032	1175.543213	1095.890991	64.432747
868.739624	952.560852	1170.936523	1099.383057	67.233772
869.036804	952.635193	1168.261597	1092.918701	65.058594
869.333984	957.613464	1168.558838	1097.153931	66.150047
869.631042	953.823975	1168.856079	1100.720581	68.313805
869.928101	952.338074	1177.326660	1104.658569	67.701431
870.224976	951.000549	1179.109863	1106.516113	68.175896
870.521851	962.814636	1186.614380	1112.386108	66.832726
870.818726	955.012878	1177.698120	1114.020630	71.404709
871.115479	947.285400	1169.673462	1116.249756	75.977257
871.412231	949.068665	1164.175049	1109.042480	74.369629
871.708862	958.802307	1169.524902	1102.652344	68.265121
872.005493	972.474060	1170.342285	1100.200439	64.551231
872.302063	950.629089	1176.955078	1103.543945	67.563988
872.598572	948.920105	1182.453491	1106.813354	67.610565
872.895020	939.334961	1191.072632	1105.030029	65.820526
873.191406	950.406067	1197.016724	1106.664673	63.362473
873.487671	941.712708	1203.778320	1105.104370	62.347618
873.783997	948.622864	1206.601929	1107.927856	61.751133
874.080200	950.851868	1207.122070	1104.286987	59.872398
874.376343	955.384460	1202.069458	1098.714355	58.102398
874.672424	951.223450	1204.075562	1104.287109	60.534855
874.968445	950.851868	1200.657593	1111.197266	64.188042
875.264465	949.811707	1194.044556	1116.769897	68.360252
875.560364	952.858093	1188.397583	1113.129150	68.044243
875.856201	949.217224	1186.614502	1109.488281	67.511749
876.152039	961.328552	1189.363770	1115.506714	67.611557
876.447754	961.031311	1186.614380	1119.741943	70.355736
876.743469	968.238770	1190.701172	1121.896851	69.071480
877.039063	957.539246	1193.747559	1122.416870	69.801788
877.334595	953.081055	1197.611328	1114.317993	65.937416
877.630127	950.331787	1207.493530	1119.147583	65.645767
877.925537	951.817871	1214.626587	1119.296265	63.726345
878.221008	947.879700	1227.332397	1124.051636	63.041775
878.516296	942.009827	1223.468506	1122.045532	63.965237
878.811646	944.238953	1232.236206	1120.410767	61.171352
879.106812	942.901550	1235.802856	1124.422974	61.973579
879.401978	946.022278	1244.867798	1136.534424	63.749374
879.697083	942.084167	1258.167969	1149.091675	65.491341
879.992126	942.158508	1285.362671	1162.540405	64.213058
880.287109	942.455627	1328.458374	1185.425659	62.945156
880.582031	938.517639	1385.597046	1236.843140	66.727631
880.876892	946.616699	1485.311401	1318.204468	68.979286
881.171753	944.907715	1678.647095	1439.243652	67.372139
881.466492	942.901550	1968.576172	1597.805664	63.851063
881.761230	939.260742	2350.120850	1804.664429	61.338730
882.055786	940.672424	2725.349609	2017.616089	60.343887
882.350403	946.690918	3058.151367	2208.202393	59.745918
882.644958	948.251282	3265.901611	2334.219727	59.800587
882.939453	953.452454	3332.848389	2383.780029	60.113056
883.233826	959.693909	3277.270264	2366.467041	60.700188
883.528137	955.161438	3162.026611	2301.155029	60.991203
883.822449	948.399902	3043.885498	2234.728516	61.385704
884.116577	939.632141	2907.391357	2159.088623	61.971836
884.410828	954.864258	2761.460938	2078.247070	62.182270
884.704956	956.127380	2578.378662	1957.653687	61.736820
884.999023	966.306885	2366.987549	1830.670410	61.710251
885.292969	957.316223	2120.079590	1681.544922	62.285130
885.586914	956.870422	1906.013306	1553.446899	62.854233
885.880798	948.399902	1732.367798	1438.946411	62.572269
886.174622	950.851868	1619.353516	1372.296875	63.043228
886.468384	955.755859	1539.329468	1320.805176	62.554115
886.762085	954.864258	1495.490845	1291.381226	62.245731
887.055664	949.663025	1458.339478	1267.753052	62.532879
887.349304	948.919983	1412.123169	1249.548828	64.902153
887.642822	950.926208	1373.560059	1224.731812	64.785538
887.936340	946.170837	1341.164063	1207.270630	66.102348
888.229736	934.133789	1323.331421	1188.992188	65.483032
888.523071	935.099670	1305.721680	1180.893066	66.319160
888.816284	942.975830	1295.616577	1171.605347	64.833549
889.109619	958.430847	1282.613647	1160.608521	62.365330
889.402710	959.842590	1268.273071	1156.150391	63.647343
889.695862	955.310059	1252.595337	1136.683105	61.009766
889.988892	950.406067	1241.152710	1133.785278	63.071823
890.281921	953.601196	1231.567627	1132.150635	64.234177
>>>>>End Processed Spectral Data<<<<<
