Jaz Data File
++++++++++++++++++++++++++++++++++++
Date: Fri Jun 04 16:41:33 2021
User: jaz
Dark Spectrum Present: Yes
Reference Spectrum Present: Yes
Processed Spectrum Present: Yes
Spectrometers: JAZA3586
Integration Time (usec): 24400 (JAZA3586)
Spectra Averaged: 10 (JAZA3586)
Boxcar Smoothing: 1 (JAZA3586)
Correct for Electrical Dark: No (JAZA3586)
Strobe/Lamp Enabled: Yes (JAZA3586)
Correct for Detector Non-linearity: No (JAZA3586)
Correct for Stray Light: No (JAZA3586)
Number of Pixels in Processed Spectrum: 2048
>>>>>Begin Processed Spectral Data<<<<<
W	D	R	S	P
191.335022	0.000000	0.000000	0.000000	0.000000
191.713211	234.499390	230.487045	235.911133	-35.184994
192.091385	471.747955	472.490997	477.692169	799.983582
192.469528	709.665283	712.117249	718.655945	366.671631
192.847641	718.878906	723.559875	720.216309	28.571056
193.225739	727.126465	723.336975	724.748718	62.745823
193.603790	728.761047	731.584534	731.658875	102.632942
193.981842	720.587830	734.779602	742.135559	151.832550
194.359863	726.383362	741.689758	749.194397	149.029434
194.737854	739.237793	743.398682	751.572021	296.432556
195.115829	760.636902	748.971436	758.630798	17.196943
195.493774	758.259277	751.200500	757.070374	16.842915
195.871704	756.401672	756.847473	761.602844	1166.703125
196.249603	754.989929	757.219055	757.887695	129.995621
196.627457	752.909485	755.807312	751.720703	-41.023212
197.005310	756.847473	745.702148	754.544128	20.666466
197.383133	753.875427	743.695984	759.150879	-51.824558
197.760910	758.036377	750.754700	760.711243	-36.734200
198.138687	750.754700	751.794922	753.429626	257.149567
198.516449	748.302673	750.828918	744.438965	-152.942734
198.894180	752.983704	749.863098	743.101563	316.673828
199.271866	760.191162	750.531799	744.736145	160.000381
199.649536	759.596741	749.417236	744.141785	151.824249
200.027191	750.234619	743.547363	748.228333	30.001642
200.404816	738.643372	742.581360	740.872375	56.602604
200.782410	736.488586	750.531799	753.652527	122.222321
201.159988	741.169617	762.494568	753.726807	58.884964
201.537537	737.677429	777.429382	765.392334	69.719604
201.915070	738.866211	781.738953	760.191162	49.740116
202.292557	733.665039	778.618164	765.466614	70.743858
202.670029	742.209961	774.903076	760.711243	56.590759
203.047485	743.324463	772.599670	762.643066	65.989639
203.424911	736.191406	769.256104	762.643066	79.999702
203.802292	728.463867	765.615234	771.708008	116.399864
204.179688	718.432922	760.711243	764.500732	108.963196
204.557037	725.937500	768.587341	763.831970	88.850204
204.934357	733.590759	771.782410	759.596741	68.093369
205.311661	738.866272	775.720398	766.432617	74.798531
205.688934	733.665039	769.924805	761.825867	77.664116
206.066177	727.052063	773.416992	756.624573	63.782066
206.443390	723.485657	770.221985	757.887695	73.608772
206.820587	725.789001	765.392334	748.525574	57.410755
207.197769	721.256531	758.482178	746.668030	68.263420
207.574921	725.194580	762.345886	737.603088	33.399925
207.952042	722.222473	765.169434	743.398743	49.307961
208.329147	726.383362	765.838135	747.633972	53.860683
208.706223	732.327637	776.463379	762.717468	68.855377
209.083267	738.048889	783.522156	763.534729	56.045765
209.460297	737.677429	787.237305	761.602844	48.275776
209.837280	731.213074	773.491394	743.027161	27.943605
210.214264	723.114014	766.506836	742.284180	44.178196
210.591217	722.148132	763.163269	739.014832	41.123108
210.968124	719.918945	761.305664	740.872375	50.628391
211.345016	726.606262	768.290039	745.850769	46.167858
211.721893	729.132568	771.187927	744.810486	37.279240
212.098724	733.590759	773.417053	752.389404	47.201591
212.475555	738.717590	767.472839	758.705078	69.509003
212.852356	736.191345	760.859863	768.884521	132.529953
213.229126	734.482361	763.980530	766.729797	109.320129
213.605865	733.887939	763.906250	759.150879	84.158432
213.982590	737.603088	767.324219	750.234558	42.499966
214.359283	740.278015	762.940369	747.411133	31.475626
214.735931	731.436035	761.157043	751.869202	68.749908
215.112579	738.866211	756.996155	752.612305	75.819839
215.489197	730.024231	761.454346	752.017883	69.976364
215.865799	734.556702	765.838196	744.141785	30.641384
216.242355	732.699158	772.674072	737.008728	10.780686
216.618896	747.262451	774.977356	742.804382	-16.085457
216.995407	747.633972	778.172424	745.479187	-7.055974
217.371902	740.129395	773.491394	750.308838	30.512091
217.748367	725.417419	761.157043	745.701965	56.756462
218.124802	717.764221	758.036377	749.342957	78.413322
218.501236	719.027405	760.562683	752.092102	79.606300
218.877609	725.343201	771.782410	753.726868	61.120049
219.253983	732.253357	769.479004	748.822815	44.510868
219.630295	735.596924	766.729736	749.417236	44.391468
220.006592	733.293518	766.283997	743.027161	29.504400
220.382889	732.104675	764.352051	752.017822	61.751217
220.759140	724.971619	766.729797	753.058105	67.259850
221.135391	724.005676	766.804016	756.476013	75.868217
221.511581	723.634094	768.513000	754.098328	67.880959
221.887772	725.937561	770.816406	755.435791	65.728584
222.263931	727.646545	772.228210	755.584412	62.666718
222.640060	727.795166	778.395325	750.606018	45.080593
223.016159	729.281189	776.909241	741.615417	25.896982
223.392212	730.767273	778.692566	743.175781	25.891356
223.768265	733.665039	779.584167	742.061279	18.284842
224.144302	734.556824	776.983582	745.479248	25.744188
224.520294	735.745605	769.404724	739.386414	10.816707
224.896286	734.853943	759.893860	733.665039	-4.748034
225.272217	743.250061	763.014648	726.829285	-83.081810
225.648148	744.216064	760.859863	737.528809	-40.178661
226.024048	745.702148	766.729736	740.723816	-23.675243
226.399902	734.036560	765.392334	750.531738	52.606510
226.775772	729.132568	763.683350	742.729980	39.354862
227.151581	726.680603	758.630798	744.959167	57.209553
227.527374	734.333740	762.717468	744.736145	36.649185
227.903137	738.569031	770.816345	751.200500	39.170609
228.278870	743.695984	773.119812	750.680420	23.737347
228.654572	737.082947	774.085693	753.875488	45.381878
229.030273	736.637207	775.348877	754.692688	46.640926
229.405930	729.132629	775.423157	756.327393	58.748009
229.781555	729.578430	777.206482	747.559631	37.753384
230.157181	725.640381	776.686340	743.175781	34.352180
230.532761	727.795166	776.463562	741.169617	27.480772
230.908325	735.374023	771.187988	740.872375	15.352536
231.283859	740.278015	769.404724	743.844543	12.244872
231.659332	741.021057	776.017578	748.005554	19.957689
232.034821	731.361633	777.577942	752.835144	46.463058
232.410263	717.987122	777.949463	748.525574	50.929386
232.785690	713.528992	770.147766	751.349121	66.797859
233.161087	716.649719	770.296387	748.525574	59.418144
233.536469	722.593994	765.763855	746.667969	55.765697
233.911804	720.810730	768.141602	738.271790	36.891479
234.287140	720.141907	763.609070	739.237793	43.931751
234.662430	724.154297	770.370605	740.129395	34.565933
235.037704	727.497864	767.472839	745.033386	43.866249
235.412933	727.795166	770.519226	739.832214	28.173933
235.788162	722.222412	771.782410	742.655701	41.229397
236.163345	726.532043	773.045471	750.160217	50.798607
236.538513	732.253357	775.943359	758.333679	59.694027
236.913635	730.767273	777.726563	760.934143	64.240471
237.288742	730.024231	781.813232	753.355286	45.050213
237.663834	727.423645	790.135071	752.835205	40.521420
238.038879	732.476257	792.810059	748.079773	25.861980
238.413910	728.612488	794.890442	751.126221	33.968658
238.788910	725.714661	793.404480	749.788818	35.565403
239.163879	725.194519	788.351868	754.321228	46.117687
239.538834	723.708496	781.813232	750.308899	45.780094
239.913757	726.680603	776.983582	755.435730	57.163864
240.288651	728.389587	774.011414	748.748535	44.625454
240.663528	729.281250	775.200256	750.903320	47.087410
241.038361	726.234863	768.736023	752.315002	61.363358
241.413177	728.463867	777.577942	757.887756	59.909283
241.787979	729.801331	781.441711	755.733093	50.216057
242.162735	725.714661	789.615051	752.240723	41.511581
242.537476	726.531982	785.008240	749.194336	38.754795
242.912170	727.720886	793.553040	748.971436	32.279896
243.286865	731.658936	796.525146	752.686584	32.416954
243.661514	725.714661	806.927490	755.658691	36.871059
244.036148	725.789001	797.342468	756.624695	43.094620
244.410751	726.606262	796.153625	744.141785	25.213785
244.785339	726.011902	791.175476	740.426575	22.120752
245.159882	720.885010	795.856445	740.500977	26.164587
245.534378	719.621887	795.707825	748.674255	38.183624
245.908890	722.816895	797.788330	751.794922	38.652092
246.283356	721.033630	808.042053	757.144714	41.502975
246.657791	726.160461	812.425964	757.441895	36.261810
247.032196	726.680603	819.856262	754.321228	29.665070
247.406586	728.835388	828.252441	749.788757	21.076233
247.780960	725.640381	836.722961	741.021057	13.846164
248.155289	723.039795	834.791016	740.352356	15.492055
248.529602	731.658875	821.193665	741.169617	10.622398
248.903870	733.665039	815.249451	751.200500	21.493643
249.278122	736.934387	814.877930	754.915710	23.069677
249.652344	732.922058	817.552734	758.556458	30.289726
250.026550	735.745544	813.317566	758.407898	29.214598
250.400711	736.711426	805.738708	753.503906	24.327309
250.774857	736.934387	804.401184	743.770203	10.132118
251.148987	719.547546	800.537415	749.788757	37.339500
251.523071	713.008972	803.361023	754.915710	46.381611
251.897125	714.197754	804.772766	756.698914	46.923714
252.271164	728.984070	816.512512	749.417297	23.344671
252.645187	735.448303	829.887024	749.714539	15.106341
253.019165	732.996338	824.908875	751.869202	20.533503
253.393112	729.875671	822.754089	756.847473	29.039902
253.767044	727.572266	820.673523	749.863098	23.942568
254.140930	724.080017	825.057434	756.178772	31.788054
254.514801	730.470032	827.212219	753.429626	23.732763
254.888657	732.847717	817.998718	757.590576	29.057625
255.262466	735.522644	818.518799	755.584412	24.171925
255.636276	730.470032	811.831543	756.476013	31.963493
256.010010	729.429871	818.295898	755.510071	29.347773
256.383759	731.881836	818.890320	750.234558	21.093025
256.757446	730.024231	831.075989	753.132324	22.867582
257.131134	731.213074	834.419617	753.949707	22.030224
257.504791	726.829285	839.695068	753.132324	23.304707
257.878418	726.457703	843.038757	745.925049	16.698551
258.252014	718.061462	845.862122	750.680420	25.523310
258.625580	726.680664	856.115906	754.989990	21.871420
258.999115	732.699219	861.242859	755.732971	17.919014
259.372650	727.943787	875.583252	747.188171	13.034716
259.746124	723.039795	894.307556	741.243958	10.629066
260.119598	719.547546	918.084412	739.906433	10.254461
260.493042	727.572266	938.889160	742.135559	6.891685
260.866425	732.996399	945.502136	746.965271	6.573410
261.239838	730.395691	941.935547	743.324402	6.111714
261.613159	735.596924	924.994629	754.172668	9.807798
261.986511	724.674500	906.195984	756.178772	17.355671
262.359802	728.538269	900.177490	765.838196	21.731586
262.733063	729.132629	894.976257	759.671082	18.414003
263.106293	738.049011	898.394226	756.476074	11.492119
263.479523	733.813660	890.072266	754.841309	13.456954
263.852692	727.349304	887.025879	757.070496	18.613369
264.225861	725.343201	886.951660	762.791748	23.172394
264.598969	719.101746	889.552246	762.197327	25.283340
264.972076	714.049133	889.403625	750.531738	20.805059
265.345154	717.095520	888.660461	745.256348	16.414093
265.718201	725.640381	892.747131	743.250183	10.538055
266.091217	737.603210	907.459167	750.457520	7.567770
266.464203	730.024231	918.901672	738.866211	4.681332
266.837158	727.349304	937.923279	738.569031	5.328164
267.210114	719.696106	945.725098	737.008728	7.659470
267.583038	723.634277	954.269836	751.200500	11.952287
267.955902	725.045959	952.635193	754.767090	13.059111
268.328766	730.618652	946.542419	760.265442	13.730211
268.701569	730.098572	950.034668	755.138611	11.385143
269.074371	729.578430	953.526855	753.726807	10.783008
269.447144	723.262695	974.331543	754.767090	12.548110
269.819885	728.538269	980.721619	761.677246	13.140827
270.192596	727.943848	993.501648	763.237549	13.290402
270.565277	738.271790	993.724609	764.129150	10.122167
270.937927	733.590820	1008.362244	757.293274	8.626245
271.310577	731.510254	1033.476563	751.572021	6.643711
271.683136	723.857117	1066.689819	745.404846	6.285203
272.055725	724.377197	1092.844360	742.952942	5.041357
272.428284	727.349365	1101.314941	746.890930	5.225498
272.800812	741.095276	1098.565796	749.937317	2.473502
273.173279	749.268555	1089.500854	754.618469	1.572430
273.545776	752.240723	1071.519531	756.327393	1.279969
273.918152	745.999329	1069.141846	759.819641	4.276847
274.290558	734.779602	1064.757935	763.237549	8.624187
274.662964	735.448425	1064.015015	760.265442	7.553116
275.035278	731.956055	1059.705444	757.293274	7.730669
275.407593	731.584656	1058.145142	756.401672	7.599516
275.779907	728.686768	1068.844727	752.092102	6.880725
276.152161	731.584656	1076.274902	752.092102	5.949529
276.524384	739.832214	1099.085815	750.308899	2.916236
276.896606	730.990234	1109.339722	757.813477	7.089541
277.268799	735.076843	1120.039185	757.070374	5.713164
277.640930	724.525818	1125.017456	758.928040	8.589997
278.013031	730.618652	1133.339355	757.070496	6.568285
278.385162	724.154297	1138.911987	753.949707	7.183811
278.757233	727.126465	1140.992554	746.147949	4.596048
279.129272	729.281250	1146.119507	740.129456	2.602498
279.501282	732.253235	1151.617798	742.952942	2.551409
279.873230	734.408020	1158.230835	748.376953	3.295937
280.245178	737.751709	1179.258423	743.547363	1.312699
280.617126	732.476257	1204.595703	740.946777	1.794148
280.988983	727.869446	1222.874146	742.952942	3.047142
281.360870	725.789001	1242.861694	752.389343	5.144411
281.732697	726.754883	1269.313354	751.423401	4.546702
282.104492	730.990234	1301.486450	753.726868	3.985414
282.476288	726.680664	1324.817505	755.510071	4.819868
282.848053	729.058289	1334.848511	752.612305	3.888147
283.219757	730.915833	1337.151733	748.154114	2.843494
283.591461	730.024231	1331.579102	751.274719	3.532593
283.963135	730.098633	1329.498535	763.014648	5.491495
284.334747	729.801331	1336.334351	759.076477	4.826637
284.706360	736.414307	1349.040161	753.132324	2.728912
285.077942	730.767273	1372.371094	745.553528	2.304577
285.449524	732.401855	1395.182251	757.441956	3.778039
285.821014	731.361633	1417.101563	761.974365	4.464190
286.192535	742.135559	1439.912476	762.048645	2.853790
286.563995	742.432800	1468.370483	757.664795	2.098251
286.935425	738.123230	1486.128784	758.110657	2.672096
287.306824	728.166687	1493.261719	762.568848	4.496456
287.678223	729.801270	1479.218750	754.469910	3.291709
288.049561	734.631042	1464.803833	744.884766	1.404287
288.420898	735.745544	1444.147827	742.507141	0.954485
288.792145	731.287354	1436.940308	744.884766	1.926926
289.163452	728.909668	1443.033203	748.154114	2.694834
289.534668	729.355469	1470.302246	743.993164	1.975539
289.905914	721.702332	1494.376343	751.349121	3.836908
290.277039	722.519714	1528.332642	757.441895	4.333783
290.648193	724.748718	1561.917603	763.980652	4.686263
291.019318	729.875671	1598.102905	762.940369	3.808300
291.390381	732.773438	1625.372070	753.281006	2.297513
291.761475	734.110840	1621.359741	753.503906	2.185753
292.132507	734.408020	1616.975952	750.085938	1.776398
292.503510	733.962219	1595.205078	764.352051	3.528602
292.874481	731.584656	1584.059570	764.426453	3.852524
293.245422	731.807556	1578.264160	772.971191	4.863053
293.616364	731.064453	1598.697266	763.757629	3.768089
293.987213	733.813660	1638.598022	769.181702	3.909002
294.358093	734.110840	1685.111450	758.630798	2.578333
294.728943	737.751770	1731.625000	765.095154	2.751194
295.099731	735.894226	1773.308716	762.420227	2.556934
295.470490	736.265686	1805.184692	765.838135	2.766575
295.841248	728.166687	1834.014038	762.271545	3.084047
296.211975	726.903564	1849.320313	763.237549	3.237121
296.582642	725.566101	1885.134277	763.088928	3.235931
296.953308	725.789001	1923.177368	762.048767	3.028238
297.323883	724.525818	1980.464844	756.253113	2.526181
297.694519	727.497864	2006.842163	751.126282	1.846916
298.065063	731.138855	2010.260132	744.141785	1.016552
298.435608	725.714661	1982.545288	744.661865	1.507538
298.806122	722.073792	1934.545776	744.587585	1.856851
299.176575	720.587830	1872.131348	751.200500	2.658403
299.547028	730.990173	1821.977173	755.658691	2.261119
299.917450	738.197571	1796.862915	760.116882	2.070467
300.287872	743.101501	1790.249878	760.339783	1.646212
300.658234	743.993164	1794.187866	752.315125	0.792421
301.028564	741.987000	1788.466431	751.720642	0.930132
301.398865	732.773438	1784.379883	752.909485	1.914789
301.769135	727.126465	1780.738892	767.101257	3.794070
302.139374	720.513489	1796.119751	766.358215	4.262222
302.509583	721.628113	1804.813110	766.878418	4.177523
302.879791	721.182190	1803.847046	751.349121	2.786359
303.249939	724.600098	1795.599487	750.531799	2.421262
303.620087	729.281250	1791.290039	754.246887	2.350794
303.990173	730.544434	1784.528320	764.797852	3.249900
304.360260	730.841553	1781.407837	766.655457	3.409009
304.730286	731.436035	1792.924683	763.163269	2.988938
305.100281	731.287354	1797.085571	756.104431	2.328497
305.470276	724.228699	1808.305298	756.773254	3.002053
305.840179	721.330811	1806.967773	751.200500	2.751352
306.210144	719.993408	1822.794312	754.246887	3.106044
306.579987	721.107910	1825.023438	756.773193	3.230798
306.949890	724.377197	1833.568237	756.773254	2.920692
307.319702	727.572266	1849.097534	752.983826	2.265804
307.689484	732.327637	1863.214966	748.079773	1.392901
308.059265	735.299805	1895.388062	752.686523	1.498741
308.429016	732.922058	1931.202026	757.887695	2.083456
308.798737	735.374023	1983.808228	759.968262	1.970007
309.168396	735.448425	2034.928589	768.736023	2.561609
309.538055	745.479187	2072.674316	763.980530	1.394018
309.907684	746.593750	2098.531738	762.197266	1.154159
310.277313	743.175781	2109.825928	756.921814	1.005819
310.646851	737.305908	2119.336426	756.698914	1.403226
311.016388	741.243958	2140.364014	753.281006	0.860330
311.385895	742.952881	2152.921387	749.417236	0.458475
311.755371	740.129395	2169.416748	755.510071	1.076108
312.124817	735.819824	2172.908691	762.791748	1.876845
312.494232	737.677429	2166.295654	757.070374	1.357462
312.863617	738.643372	2155.596436	752.983704	1.012054
313.232971	736.934326	2137.094971	746.519348	0.684566
313.602295	735.968445	2120.005127	752.463623	1.191817
313.971619	736.637146	2119.559326	751.869202	1.101440
314.340820	734.928223	2130.853271	757.739075	1.634103
314.710083	734.630920	2162.952148	767.770020	2.320143
315.079285	731.807434	2183.682617	770.742004	2.681675
315.448486	740.946716	2216.227295	772.153809	2.115333
315.817596	736.785828	2222.171631	757.293274	1.380614
316.186707	740.203674	2197.651611	754.024109	0.948263
316.555786	727.349365	2144.673828	747.782532	1.441672
316.924866	723.485657	2101.355225	751.126221	2.006036
317.293884	723.559875	2087.386230	753.652527	2.206487
317.662872	731.213074	2094.667969	756.996094	1.891007
318.031830	728.240967	2108.339600	756.773193	2.067405
318.400757	717.764221	2123.720459	762.866028	3.207910
318.769684	715.609436	2125.726318	767.101318	3.651604
319.138550	726.680603	2136.723145	770.742126	3.124837
319.507416	732.179016	2155.744873	760.934143	2.019937
319.876190	729.206848	2180.784668	752.686523	1.617528
320.244995	732.030457	2195.645264	750.531738	1.264081
320.613770	736.042786	2178.406982	755.064270	1.318771
320.982483	738.048889	2154.035889	756.921875	1.332850
321.351166	735.894104	2129.590088	754.841370	1.359498
321.719818	732.699036	2111.980469	754.469788	1.578413
322.088440	739.089172	2110.865967	759.373840	1.478715
322.457062	736.934326	2133.974121	757.144714	1.446658
322.825623	745.776367	2173.726318	753.875488	0.567185
323.194183	742.878662	2219.570801	749.714417	0.462910
323.562653	741.169617	2257.390869	757.516296	1.078120
323.931183	725.120300	2316.015625	758.110657	2.073698
324.299591	722.742493	2378.950195	759.522400	2.220730
324.668060	721.405090	2428.733154	751.646301	1.771259
325.036407	732.179016	2472.051514	758.482178	1.511787
325.404755	733.070618	2497.686279	768.141602	1.987457
325.773102	739.014832	2510.243408	774.680176	2.013594
326.141388	734.110840	2511.580811	777.949524	2.466353
326.509674	727.200745	2518.862305	777.132141	2.786876
326.877899	714.346375	2542.787842	764.946533	2.767393
327.246124	716.798340	2556.905273	758.184998	2.249144
327.614288	723.559875	2559.580322	752.017822	1.549980
327.982422	726.680664	2549.549316	770.593506	2.408997
328.350525	725.714661	2538.032471	763.088928	2.062236
328.718628	725.491699	2519.308105	758.184998	1.822555
329.086700	726.086121	2525.029541	749.565857	1.305196
329.454712	728.835388	2528.595947	752.092102	1.292212
329.822693	730.098572	2546.205811	748.005554	0.986009
330.190674	735.522644	2549.400879	746.890930	0.626739
330.558563	737.751709	2569.388184	750.085938	0.673399
330.926483	730.098572	2591.604736	754.989929	1.337162
331.294312	730.990234	2616.347656	754.321228	1.237484
331.662231	719.993408	2642.873779	753.132385	1.723403
332.029999	720.959290	2683.071533	756.327393	1.802552
332.397766	719.398926	2720.148438	766.506897	2.354516
332.765503	733.070618	2761.014893	768.661621	1.755029
333.133240	736.934387	2814.215576	770.816406	1.631075
333.500916	734.185242	2870.016846	761.231384	1.266305
333.868561	722.519714	2911.552002	758.556458	1.646241
334.236176	720.959290	2927.675781	762.197266	1.868748
334.603790	724.303040	2929.533203	767.992920	1.981194
334.971344	725.491882	2922.326172	764.797913	1.789212
335.338867	728.241028	2903.527588	762.271667	1.564421
335.706360	725.045898	2914.821289	760.414063	1.615150
336.073853	730.618652	2927.452881	774.382996	1.992155
336.441284	729.652649	2955.687744	767.027039	1.678967
336.808655	735.151123	2928.567383	758.407898	1.060299
337.176086	729.652771	2896.468750	744.661865	0.692680
337.543396	732.550598	2813.175049	753.503906	1.007068
337.910706	728.761169	2760.643311	764.946472	1.780876
338.277954	729.281250	2758.934326	770.296204	2.020787
338.645264	727.795166	2842.153564	767.398438	1.873063
339.012421	724.674377	2966.833252	763.311829	1.723225
339.379669	730.024170	3088.318359	762.717468	1.386311
339.746796	724.302917	3185.506104	758.407898	1.385704
340.113953	725.045898	3246.434326	755.138489	1.193493
340.481018	721.999512	3265.381592	752.017883	1.180254
340.848114	722.148132	3265.901611	752.686584	1.200527
341.215118	725.194580	3261.889404	754.841370	1.168717
341.582153	722.742615	3272.440430	754.692810	1.253097
341.949066	726.309082	3286.929688	757.962097	1.236146
342.316010	721.479492	3309.666016	761.454346	1.544512
342.682922	720.662109	3328.836182	769.627625	1.877387
343.049835	721.182190	3350.904297	766.729797	1.732031
343.416656	730.767273	3397.789063	768.736023	1.423639
343.783478	733.144836	3471.794678	767.770081	1.264318
344.150269	736.860107	3573.589111	774.828796	1.338467
344.516998	741.912659	3676.647217	775.348877	1.139327
344.883728	743.175781	3771.606201	781.441711	1.263556
345.250427	739.089172	3847.468994	780.624329	1.336232
345.617065	728.835449	3889.673096	768.513000	1.255286
345.983704	730.915833	3904.979492	760.859863	0.943397
346.350281	733.367859	3885.586670	750.085938	0.530359
346.716827	733.219238	3844.943115	752.463684	0.618450
347.083405	727.943665	3800.806885	752.240723	0.790698
347.449860	729.949951	3745.154297	764.872253	1.158207
347.816376	730.470032	3707.185547	769.850525	1.322951
348.182770	734.036621	3664.981689	772.599670	1.315721
348.549194	726.754883	3649.526611	764.797852	1.301606
348.915558	718.730225	3655.545654	764.203552	1.548389
349.281921	722.593994	3669.588623	756.996094	1.167362
349.648193	723.039795	3713.129883	761.677185	1.292181
350.014526	729.058289	3755.036377	763.088928	1.124616
350.380737	730.395691	3807.345703	765.689514	1.147039
350.746948	730.767273	3866.565186	764.500732	1.075754
351.113159	730.247131	3919.023193	761.082825	0.967007
351.479309	721.182190	3951.641846	764.426453	1.338641
351.845428	723.039795	3969.028564	759.076599	1.110195
352.211517	723.336975	3983.666016	758.110596	1.066568
352.577576	720.513489	4022.006592	755.435791	1.057773
352.943604	721.925293	4068.296875	763.237549	1.234539
353.309601	728.612488	4138.215332	769.181824	1.189855
353.675537	737.900391	4221.062988	767.101318	0.838345
354.041473	733.070618	4319.514160	766.952637	0.944725
354.407379	728.018066	4432.975098	764.946472	0.996730
354.773254	727.720886	4540.639648	768.438782	1.067893
355.139038	735.968445	4626.310547	764.352051	0.729592
355.504913	737.528809	4706.483398	766.283936	0.724501
355.870636	731.361633	4801.962402	765.020813	0.826885
356.236389	725.863281	4909.478516	761.454346	0.850725
356.602081	730.098572	5044.708984	759.745361	0.687126
356.967804	738.791992	5162.924316	761.602966	0.515603
357.333405	739.757874	5299.121094	764.203430	0.536162
357.699036	735.225403	5421.275391	762.940247	0.591433
358.064606	731.658875	5574.785156	768.513000	0.760957
358.430176	735.448242	5697.978516	768.958801	0.675272
358.795654	734.630920	5749.470215	772.822571	0.761573
359.161163	737.751709	5740.256348	760.934143	0.463417
359.526581	742.358459	5718.411621	759.968262	0.353891
359.892029	747.262512	5737.730469	764.872253	0.352868
360.257416	740.872375	5821.767090	776.091980	0.693177
360.622772	729.801331	5995.263672	779.361145	0.941224
360.988098	722.148132	6238.902344	779.807068	1.045160
361.353394	720.067688	6525.413574	779.807068	1.029041
361.718658	727.720886	6799.665527	776.389160	0.801527
362.083893	733.962341	7043.154785	776.909241	0.680704
362.449097	740.872498	7184.255859	768.438721	0.427822
362.814209	739.163574	7190.571777	768.215820	0.450324
363.179382	739.683594	7001.619629	755.584412	0.253928
363.544434	738.643372	6697.721191	758.482239	0.332918
363.909546	737.751709	6319.669434	770.667786	0.589691
364.274536	734.853943	6016.068359	772.748291	0.717531
364.639587	737.825928	5793.457520	774.828796	0.731914
365.004517	735.151062	5679.997559	765.615234	0.616079
365.369507	737.157227	5614.610840	772.971191	0.734276
365.734344	722.445313	5570.326660	773.565613	1.054487
366.099274	724.377258	5523.664063	782.704895	1.215340
366.464081	727.052063	5495.280762	779.509827	1.100152
366.828918	738.420410	5496.171875	784.488098	0.968266
367.193665	742.135559	5501.076660	780.772949	0.811891
367.558411	734.408142	5515.416504	783.150635	1.019502
367.923126	735.745605	5509.695313	772.674011	0.773540
368.287781	733.367859	5507.688965	764.723633	0.656759
368.652435	734.853943	5481.609375	761.751526	0.566652
369.017059	738.791931	5450.996094	765.912537	0.575540
369.381653	738.717590	5422.761230	771.856689	0.707489
369.746185	744.736145	5397.646484	768.067200	0.501429
370.110687	738.717590	5404.259766	768.364441	0.635443
370.475220	738.717712	5452.259277	761.231445	0.477639
370.839661	733.293640	5522.772949	761.454285	0.587969
371.204041	733.293640	5595.515137	760.636902	0.562361
371.568451	740.203674	5641.730957	768.290100	0.573014
371.932770	737.380188	5695.229004	779.212646	0.843762
372.297150	736.637207	5733.420410	775.794678	0.783654
372.661377	733.219238	5775.921875	774.457214	0.817775
373.025696	743.993164	5810.101563	769.553223	0.504530
373.389862	738.048889	5812.701660	772.228210	0.673530
373.754059	736.117004	5810.918457	770.147705	0.670582
374.118225	719.250305	5810.695313	769.033142	0.977774
374.482361	727.869446	5840.714355	767.918640	0.783306
374.846436	730.470032	5899.338379	767.992920	0.725940
375.210510	738.643311	5979.808594	765.838196	0.518871
375.574524	738.569031	6091.187988	768.067200	0.551098
375.938538	735.299744	6240.239746	773.565674	0.695120
376.302460	732.476257	6377.253906	773.045471	0.718703
376.666412	732.699158	6556.545410	776.983582	0.760398
377.030304	730.098572	6702.253906	775.200378	0.755202
377.394196	733.442200	6865.645020	782.407654	0.798497
377.757996	728.463867	6979.477051	777.057922	0.777379
378.121796	732.327637	7059.724121	774.011475	0.658783
378.485565	734.631042	7080.454590	771.856689	0.586616
378.849304	733.665100	7012.914063	767.844299	0.544320
379.212982	727.423645	6873.521973	766.209656	0.631067
379.576630	724.897278	6708.867188	765.615234	0.680451
379.940277	725.120300	6588.496094	772.228210	0.803426
380.303864	723.782898	6498.812988	781.367371	0.997128
380.667450	725.714661	6465.673828	776.240540	0.880248
381.030945	721.925293	6455.865723	780.772949	1.026304
381.394501	730.692932	6481.352051	776.091980	0.789458
381.757935	734.482422	6507.357910	778.246765	0.758103
382.121399	748.451355	6502.008301	777.429382	0.503654
382.484741	746.816650	6533.289551	785.379700	0.666434
382.848145	746.147949	6564.273926	792.141296	0.790518
383.211487	745.925049	6652.991699	794.741882	0.826414
383.574768	737.825989	6737.474121	791.992676	0.902831
383.938019	731.807556	6834.810059	798.011230	1.084772
384.301270	717.912903	6918.623535	814.580750	1.558980
384.664459	725.417480	7009.049316	814.060608	1.410699
385.027649	728.835449	7067.600098	814.209229	1.346852
385.390778	739.683594	7133.878418	807.670654	1.063262
385.753876	740.946716	7169.320801	824.314453	1.296871
386.116943	741.541199	7209.221191	835.088318	1.446378
386.479980	733.219238	7219.400879	841.106750	1.663344
386.842987	723.485596	7277.283203	848.685730	1.910345
387.205994	719.696106	7321.344238	858.345032	2.100217
387.568909	725.194519	7385.542480	863.323242	2.073896
387.931793	723.039734	7404.191895	869.638977	2.194221
388.294678	722.816895	7452.042969	880.264343	2.339756
388.657471	721.256531	7490.457031	888.289063	2.467537
389.020294	730.172852	7509.851074	898.022705	2.475779
389.383057	731.807434	7521.812988	910.951355	2.638347
389.745819	731.584534	7523.001953	938.294739	3.043698
390.108521	728.240967	7537.490723	957.984924	3.373998
390.471191	718.061523	7584.747559	977.749512	3.781853
390.833801	719.250305	7693.972656	1002.715271	4.064176
391.196442	717.987244	7873.116699	1040.758179	4.511043
391.558960	722.148193	8064.074219	1079.098389	4.861806
391.921509	723.857117	8256.370117	1116.472656	5.212278
392.284027	725.491760	8436.777344	1149.463013	5.498062
392.646484	732.699219	8552.616211	1192.930054	5.885367
393.008911	735.002502	8574.459961	1225.994873	6.263091
393.371307	730.693054	8509.444336	1256.384766	6.758048
393.733673	725.714661	8463.303711	1290.638184	7.301028
394.096008	719.250305	8405.717773	1337.597656	8.044623
394.458344	729.281250	8420.801758	1393.473267	8.635380
394.820587	739.312073	8436.702148	1442.067261	9.129786
395.182831	744.513245	8500.379883	1505.373047	9.810120
395.545013	735.002502	8476.379883	1554.487305	10.585775
395.907196	731.436035	8379.489258	1604.567383	11.416387
396.269287	736.934387	8235.044922	1641.272827	12.060884
396.631409	737.305847	8102.117676	1689.495239	12.928903
396.993469	727.943787	7986.131348	1731.848022	13.831335
397.355530	714.494934	7893.178223	1782.670898	14.879832
397.717499	717.689941	7879.432129	1836.986328	15.628828
398.079468	729.355469	7869.921387	1897.617188	16.360912
398.441376	730.395691	7870.962402	1957.579590	17.186085
398.803284	730.395752	7843.990234	2031.436401	18.289495
399.165131	723.485596	7857.364746	2113.094971	19.479015
399.526978	725.491882	7883.741699	2186.729004	20.413328
399.888763	729.058289	7907.072754	2255.756348	21.269085
400.250519	726.829163	7913.908203	2319.285156	22.157207
400.612244	732.253357	7938.428223	2403.321533	23.189392
400.973938	734.779602	7947.419434	2475.989502	24.141092
401.335602	738.049011	7986.874512	2551.852539	25.022032
401.697205	731.733215	8039.257813	2618.873779	25.824623
402.058807	731.064514	8106.204590	2709.002930	26.818995
402.420349	727.423645	8202.425781	2805.299561	27.797665
402.781860	726.309082	8297.310547	2906.871094	28.801500
403.143341	719.919006	8426.299805	3008.443115	29.696484
403.504822	725.343079	8575.797852	3116.330322	30.456673
403.866241	729.504089	8759.844727	3238.260986	31.240976
404.227631	735.819824	8919.818359	3359.894531	32.063480
404.588959	734.482422	9088.782227	3481.305420	32.879154
404.950287	736.414246	9231.666992	3584.660156	33.527500
405.311554	730.544434	9344.831055	3690.244873	34.358044
405.672821	738.049011	9375.294922	3774.281250	35.152782
406.034027	740.426575	9354.563477	3847.246338	36.066525
406.395203	744.067444	9267.778320	3875.407227	36.736813
406.756348	730.618652	9186.045898	3916.496338	37.678493
407.117493	726.606262	9096.064453	3948.000732	38.489883
407.478516	722.519714	9084.176758	3986.489502	39.034962
407.839600	725.343201	9093.018555	4018.588623	39.356750
408.200592	728.463928	9117.538086	4062.278564	39.739960
408.561554	725.789001	9092.126953	4115.851074	40.520260
408.922485	725.045959	9102.380859	4171.875488	41.144703
409.283417	725.343201	9112.336914	4217.496582	41.637722
409.644257	727.200745	9221.413086	4285.186523	41.887180
410.005096	729.504150	9339.331055	4377.544922	42.370663
410.365906	730.692932	9469.063477	4467.451172	42.762646
410.726715	735.968445	9561.868164	4567.313965	43.410255
411.087433	736.860046	9650.584961	4626.235840	43.633564
411.448120	733.590759	9754.386719	4694.223145	43.905575
411.808807	728.538147	9780.094727	4735.832520	44.271881
412.169434	732.104736	9714.114258	4760.575684	44.850441
412.530029	727.795166	9637.286133	4763.398926	45.295559
412.890564	729.801331	9610.387695	4760.649414	45.389439
413.251099	734.259460	9630.895508	4787.695801	45.561451
413.611572	739.386414	9660.765625	4833.985840	45.896484
413.972076	736.191406	9711.959961	4884.363770	46.215233
414.332489	726.903503	9755.500977	4927.385254	46.524189
414.692871	723.336975	9881.816406	5012.685059	46.834721
415.053223	733.887939	10009.914063	5076.213379	46.812344
415.413574	737.305908	10238.023438	5181.871582	46.781364
415.773834	741.912659	10403.496094	5279.356934	46.963776
416.134094	744.736145	10580.929688	5387.467285	47.200485
416.494263	738.940613	10710.291992	5481.683594	47.563694
416.854462	737.900391	10954.226563	5603.391113	47.624660
417.214630	728.240967	11207.079102	5748.726563	47.910706
417.574738	731.436035	11493.145508	5914.496094	48.162052
417.934784	730.395813	11763.235352	6050.099121	48.216988
418.294861	732.922058	12116.916992	6236.302246	48.343136
418.654846	731.436035	12549.655273	6434.912598	48.260036
419.014832	733.070618	12967.385742	6674.018066	48.559704
419.374756	728.463867	13464.840820	6909.558594	48.531029
419.734680	734.110840	13974.929688	7161.072754	48.539009
420.094543	729.578430	14499.581055	7414.965332	48.550365
420.454376	734.630920	14956.320313	7627.843262	48.469715
420.814148	732.104675	15371.300781	7851.494141	48.632381
421.173920	733.888000	15842.159180	8077.449219	48.606228
421.533691	736.637207	16279.429688	8338.771484	48.910992
421.893341	734.928223	16630.806641	8511.674805	48.923035
422.253021	736.042786	16851.560547	8640.664063	49.049751
422.612640	735.819824	16893.986328	8680.043945	49.165382
422.972260	739.906494	16863.894531	8678.929688	49.237343
423.331757	736.265625	16766.039063	8654.335938	49.396023
423.691315	730.990173	16782.904297	8668.377930	49.448231
424.050781	724.600159	16890.791016	8753.602539	49.665394
424.410248	723.262695	17014.951172	8827.088867	49.742088
424.769653	719.473328	17164.968750	8921.825195	49.875977
425.128998	725.566101	17213.191406	8947.755859	49.868855
425.488373	725.491760	17146.541016	8915.657227	49.876019
425.847656	732.030457	16947.482422	8805.465820	49.788532
426.206940	727.943787	16749.169922	8711.845703	49.833275
426.566193	727.572266	16431.822266	8573.197266	49.958611
426.925385	722.296692	16107.714844	8418.350586	50.021740
427.284576	730.544373	15609.218750	8209.410156	50.265671
427.643677	735.596985	15275.450195	8032.718262	50.187035
428.002777	740.649597	14929.942383	7883.592285	50.340370
428.361847	739.237793	14609.327148	7716.039551	50.301056
428.720856	735.596985	14301.936523	7564.908203	50.340115
429.079865	739.460693	14064.687500	7438.593750	50.274063
429.438812	731.881836	13915.637695	7361.096191	50.283199
429.797760	729.504089	13796.828125	7331.820801	50.525394
430.156616	721.405090	13629.051758	7236.192871	50.472313
430.515503	715.832336	13550.140625	7194.211426	50.477039
430.874268	715.906677	13514.401367	7165.234375	50.391296
431.233093	724.748718	13564.706055	7210.335938	50.510975
431.591827	732.847717	13622.438477	7233.369629	50.432339
431.950562	738.569092	13654.461914	7247.264160	50.392918
432.309204	732.179016	13711.750000	7270.595215	50.374668
432.667877	731.361633	13791.105469	7333.307129	50.551872
433.026459	733.962219	13928.194336	7427.671875	50.732086
433.385010	742.135559	14052.575195	7486.073730	50.666531
433.743561	740.872375	14270.208008	7582.518066	50.568966
434.102051	733.219238	14407.296875	7642.703613	50.529800
434.460510	729.727051	14588.668945	7743.161621	50.605846
434.818939	731.138733	14607.617188	7759.285156	50.647911
435.177338	725.566101	14635.851563	7765.451660	50.609211
435.535675	721.256531	14537.475586	7763.594238	50.971527
435.894012	721.107910	14508.200195	7757.353027	51.035019
436.252289	731.881775	14550.999023	7793.240723	51.098480
436.610535	728.389587	14576.113281	7758.689941	50.768635
436.968719	729.652771	14675.976563	7805.203125	50.734158
437.326935	726.309082	14755.331055	7829.871582	50.634769
437.685028	732.550476	14895.020508	7922.750000	50.769390
438.043152	731.213074	14995.032227	7987.914063	50.874882
438.401215	727.795166	15188.442383	8111.925781	51.063625
438.759277	724.005676	15423.015625	8227.762695	51.049404
439.117249	729.949890	15819.421875	8411.885742	50.909245
439.475250	736.934387	16143.828125	8550.163086	50.712551
439.833130	740.575256	16532.058594	8743.350586	50.677795
440.191071	737.231628	16801.705078	8866.247070	50.602440
440.548889	745.033386	17086.580078	9023.174805	50.657024
440.906708	740.798096	17380.968750	9182.106445	50.728500
441.264496	742.878601	17580.767578	9314.588867	50.907272
441.622223	730.172852	17761.248047	9414.526367	50.991226
441.979950	732.476257	17829.308594	9440.382813	50.932865
442.337616	728.761047	17830.794922	9458.215820	51.043377
442.695251	722.742493	17711.763672	9397.436523	51.060589
443.052887	723.708496	17502.451172	9319.791016	51.231979
443.410461	723.559875	17338.912109	9252.992188	51.334652
443.768005	738.569092	17182.058594	9188.274414	51.386322
444.125458	737.305847	17098.617188	9128.756836	51.288376
444.482941	732.476135	17139.185547	9110.999023	51.067661
444.840393	729.206848	17255.470703	9143.916016	50.917191
445.197754	731.807434	17532.619141	9293.338867	50.959030
445.555084	742.358459	17810.955078	9423.665039	50.861282
445.912415	741.392578	18180.835938	9641.000000	51.031487
446.269714	740.203796	18433.464844	9803.277344	51.223305
446.626953	733.665100	18741.375000	9980.415039	51.348843
446.984161	730.024231	19037.099609	10153.838867	51.476349
447.341309	724.451599	19324.800781	10292.116211	51.438091
447.698456	722.222473	19500.898438	10402.157227	51.547482
448.055542	729.132629	19573.937500	10444.881836	51.556644
448.412598	735.522705	19520.439453	10397.922852	51.437016
448.769653	739.609314	19381.195313	10355.420898	51.582584
449.126617	730.024231	19071.501953	10226.655273	51.776802
449.483582	725.937561	18841.982422	10131.696289	51.919495
449.840515	723.188293	18478.566406	9973.654297	52.099514
450.197388	725.863220	18273.937500	9845.555664	51.969761
450.554230	727.200745	18019.748047	9753.792969	52.199318
450.911041	729.132629	17885.111328	9652.369141	52.012402
451.267822	728.538147	17751.291016	9582.375977	52.011791
451.624573	730.767273	17567.466797	9469.137695	51.900730
451.981262	729.578430	17467.083984	9422.921875	51.939301
452.337921	731.956116	17282.664063	9345.201172	52.041553
452.694580	732.847839	17233.177734	9342.378906	52.177933
453.051147	733.665039	17189.933594	9327.888672	52.224617
453.407715	727.720886	17121.128906	9308.792969	52.344650
453.764221	721.182190	17097.873047	9307.233398	52.428486
454.120728	719.919128	16866.716797	9199.270508	52.514137
454.477142	725.789001	16813.517578	9170.070313	52.488960
454.833557	725.194519	16633.705078	9067.755859	52.440872
455.189911	729.875549	16516.974609	9028.969727	52.568836
455.546265	731.435852	16326.239258	8927.621094	52.557156
455.902557	737.380188	16195.245117	8868.549805	52.602150
456.258820	738.494690	16178.601563	8868.475586	52.654953
456.615051	740.129395	16247.776367	8915.731445	52.719810
456.971252	739.014832	16252.604492	8928.066406	52.786312
457.327393	732.476257	16444.677734	9045.687500	52.909271
457.683502	734.556641	16679.623047	9164.869141	52.870979
458.039612	737.157288	17135.916016	9387.257813	52.748512
458.395630	736.711426	17543.021484	9571.157227	52.566238
458.751648	729.652649	17995.822266	9808.702148	52.582882
459.107605	719.176086	18619.445313	10137.120117	52.613422
459.463562	716.649719	19301.990234	10485.004883	52.559467
459.819458	718.210144	19972.794922	10828.729492	52.509674
460.175323	720.810730	20509.855469	11130.398438	52.602779
460.531158	727.572266	20996.390625	11411.411133	52.710712
460.886932	729.504150	21260.164063	11595.831055	52.927315
461.242676	732.699158	21373.773438	11667.682617	52.976814
461.598419	734.705322	21127.978516	11579.484375	53.178219
461.954102	734.333801	20717.679688	11379.460938	53.269993
462.309723	731.584656	20060.992188	11083.215820	53.553791
462.665344	728.612488	19427.486328	10734.885742	53.512707
463.020905	723.782715	18872.666016	10448.746094	53.584362
463.376373	726.531982	18488.892578	10243.967773	53.582039
463.731873	732.104675	18137.812500	10069.950195	53.648182
464.087341	734.705261	17875.376953	9922.013672	53.599464
464.442749	737.083008	17713.099609	9815.760742	53.479439
464.798126	725.566101	17639.093750	9776.678711	53.514042
465.153503	726.234863	17700.021484	9829.581055	53.631790
465.508820	722.593933	17747.205078	9842.732422	53.570320
465.864105	726.977844	17902.052734	9890.583984	53.354099
466.219330	735.002625	18157.060547	10002.038086	53.191391
466.574524	733.367920	18391.781250	10123.671875	53.177502
466.929657	730.172852	18562.083984	10238.989258	53.324722
467.284790	723.782776	18737.064453	10334.245117	53.352089
467.639893	724.600098	18890.128906	10445.178711	53.511120
467.994934	727.795227	19051.589844	10571.493164	53.720848
468.349945	725.640442	19092.232422	10644.311523	54.003872
468.704926	733.293518	19031.453125	10631.381836	54.093349
469.059875	729.429871	18827.417969	10508.782227	54.035580
469.414764	728.463867	18546.775391	10350.442383	54.000504
469.769653	723.336975	18345.416016	10235.050781	53.976120
470.124451	728.018005	18261.529297	10208.376953	54.069942
470.479248	730.841492	18150.373047	10162.679688	54.145187
470.834015	733.665039	18090.259766	10113.194336	54.040150
471.188721	731.510254	18167.388672	10145.218750	53.990448
471.543365	729.504089	18292.810547	10178.729492	53.800949
471.898010	730.841553	18401.439453	10259.199219	53.922100
472.252625	735.225403	18510.070313	10301.625977	53.819878
472.607178	736.042725	18762.552734	10452.683594	53.901951
472.961700	731.213074	19015.626953	10591.035156	53.924736
473.316193	727.349365	19339.513672	10765.870117	53.935268
473.670654	728.538269	19464.490234	10852.135742	54.033005
474.025055	733.219238	19654.111328	10958.239258	54.040894
474.379456	729.727051	19745.353516	11023.328125	54.132328
474.733795	726.903503	19897.080078	11106.918945	54.146690
475.088104	730.470032	20032.978516	11173.717773	54.103062
475.442383	735.968445	20061.214844	11201.803711	54.156284
475.796570	739.906494	20175.791016	11247.796875	54.064381
476.150787	737.157288	20340.445313	11336.440430	54.068909
476.504944	741.763977	20628.886719	11476.575195	53.978706
476.859070	741.466858	20929.218750	11621.317383	53.893326
477.213135	731.287354	21236.460938	11784.784180	53.905891
477.567200	725.417480	21652.037109	12006.206055	53.906410
477.921173	725.863281	22034.619141	12242.487305	54.046440
478.275146	733.442139	22511.494141	12499.575195	54.027477
478.629089	737.603027	22803.728516	12663.784180	54.047466
478.983002	734.110840	23195.974609	12880.004883	54.073406
479.336823	740.723816	23491.548828	13072.003906	54.201466
479.690643	734.408020	23901.849609	13301.301758	54.243771
480.044403	733.887939	24393.287109	13545.609375	54.150665
480.398163	721.776611	25084.375000	13910.288086	54.134258
480.751862	726.903503	25995.251953	14391.100586	54.076340
481.105499	733.442200	27115.515625	14981.360352	54.006058
481.459137	735.002502	28580.986328	15719.855469	53.813335
481.812744	728.761047	30372.203125	16648.341797	53.703552
482.166290	725.194519	32559.525391	17795.205078	53.621387
482.519806	723.411316	35216.296875	19238.609375	53.678307
482.873291	724.080017	38326.382813	20957.601563	53.809258
483.226715	724.154358	41898.636719	22966.822266	54.020519
483.580139	724.451599	45383.656250	25025.529297	54.414490
483.933502	727.423645	48725.792969	27131.265625	55.009872
484.286804	725.566101	51446.386719	29093.822266	55.930199
484.640106	728.463867	53510.515625	30771.357422	56.918770
484.993347	724.897400	54637.093750	31978.703125	57.971684
485.346558	726.234863	54899.828125	32365.595703	58.403660
485.699738	733.144958	54222.035156	32027.742188	58.506725
486.052887	733.665039	52984.156250	31010.984375	57.946480
486.405975	732.104736	51374.386719	29800.443359	57.399345
486.759064	729.429749	49756.000000	28507.875000	56.659981
487.112061	734.779602	48402.652344	27484.427734	56.116726
487.464996	732.996338	47607.984375	26862.515625	55.742989
487.817963	731.064514	47443.402344	26664.421875	55.517151
488.170868	727.349304	47511.464844	26679.062500	55.471203
488.523743	728.909729	47600.625000	26780.335938	55.580269
488.876587	728.909668	47485.832031	26772.978516	55.700989
489.229401	736.934387	47060.824219	26580.982422	55.789894
489.582153	741.392578	46267.636719	26154.037109	55.819771
489.934845	742.358582	45187.125000	25509.240234	55.725079
490.287537	746.965271	44062.261719	24906.123047	55.775120
490.640198	748.228333	43202.351563	24322.103516	55.527878
490.992798	750.457458	42621.675781	23932.537109	55.365192
491.345337	737.231628	42533.105469	23774.939453	55.119572
491.697876	732.179016	42586.234375	23823.531250	55.171124
492.050354	726.160461	42972.085938	24124.531250	55.386101
492.402832	725.640320	43217.808594	24313.781250	55.511738
492.755219	728.166687	43088.593750	24300.853516	55.647900
493.107605	729.206848	42354.332031	23940.484375	55.762661
493.459930	737.305847	41033.011719	23299.326172	55.991123
493.812225	743.027161	39304.656250	22383.771484	56.119892
494.164490	742.358459	37354.207031	21334.466797	56.244381
494.516724	740.575195	35390.757813	20187.232422	56.122810
494.868896	732.253235	33593.375000	19112.517578	55.933159
495.221039	736.191345	32156.953125	18212.414063	55.619984
495.573120	742.878601	31015.443359	17514.191406	55.401031
495.925201	745.924988	30403.335938	17143.048828	55.288452
496.277222	746.890930	30035.166016	16933.664063	55.267075
496.629211	734.705261	29984.787109	16872.365234	55.171333
496.981140	728.240967	29914.796875	16822.361328	55.142235
497.333069	733.813660	29997.271484	16882.322266	55.183189
497.684967	736.637207	30074.771484	16940.722656	55.232162
498.036804	740.649475	30179.537109	17008.783203	55.260696
498.388580	737.751709	30090.220703	16929.650391	55.163670
498.740326	737.825989	29938.052734	16847.548828	55.169853
499.092072	743.695984	29614.462891	16689.207031	55.230644
499.443756	732.699158	29314.056641	16530.720703	55.273869
499.795410	739.832214	28956.664063	16355.366211	55.341202
500.147003	735.968445	28661.158203	16166.786133	55.257698
500.498566	737.751709	28278.427734	15963.643555	55.285107
500.850098	725.566101	27869.314453	15767.260742	55.414951
501.201599	719.398926	27479.599609	15606.765625	55.632492
501.553009	721.033630	27133.349609	15468.786133	55.836651
501.904449	728.092346	26945.806641	15375.239258	55.867367
502.255859	735.374023	26756.333984	15274.410156	55.874325
502.607178	738.420410	26726.093750	15220.838867	55.728027
502.958405	734.333801	26630.390625	15149.582031	55.665802
503.309692	732.104675	26565.750000	15082.559570	55.549480
503.660919	730.841553	26566.492188	15117.186523	55.684082
504.012115	731.658875	26588.337891	15125.209961	55.666664
504.363251	729.801270	26711.009766	15200.256836	55.695850
504.714294	728.612488	26791.927734	15198.546875	55.518398
505.065369	722.891174	26865.486328	15215.117188	55.435299
505.416443	723.559875	26834.875000	15231.909180	55.563461
505.767395	721.405090	26776.771484	15229.010742	55.679913
506.118317	728.018066	26721.634766	15238.299805	55.822479
506.469238	726.606262	26764.062500	15240.379883	55.741901
506.820160	726.309082	26732.111328	15262.151367	55.894608
507.170929	722.593994	26765.326172	15254.348633	55.799656
507.521729	722.668274	26869.423828	15298.855469	55.747593
507.872498	725.343262	26991.130859	15345.889648	55.663845
508.223236	727.423645	27131.490234	15462.247070	55.805130
508.573883	728.463867	27269.541016	15572.585938	55.928860
508.924500	730.098572	27503.896484	15688.350586	55.868992
509.275116	734.408020	27736.687500	15823.209961	55.879734
509.625702	734.333740	27997.490234	15912.968750	55.674534
509.976196	728.761047	28262.302734	16055.406250	55.665363
510.326660	725.343262	28537.669922	16184.543945	55.583992
510.677124	724.897400	28750.771484	16353.210938	55.763874
511.027557	728.538147	28945.666016	16468.306641	55.780903
511.377869	727.795166	29146.951172	16595.140625	55.833275
511.728180	728.612488	29343.853516	16666.173828	55.696060
512.078430	731.213074	29488.076172	16765.962891	55.759731
512.428650	728.984070	29612.009766	16819.982422	55.710915
512.778931	731.287415	29687.130859	16900.599609	55.841274
513.129028	724.228577	29741.818359	16949.267578	55.914497
513.479126	728.240967	29770.201172	17008.783203	56.058685
513.829285	726.903503	29718.859375	16963.906250	56.005203
514.179382	732.624817	29631.775391	16901.044922	55.947735
514.529297	729.058289	29501.599609	16813.220703	55.901085
514.879272	732.847717	29476.929688	16824.587891	55.982796
515.229187	729.206848	29419.640625	16774.583984	55.925877
515.579163	725.566101	29464.669922	16786.619141	55.885712
515.928955	719.398926	29473.509766	16786.396484	55.877220
516.278748	725.640320	29679.775391	16897.849609	55.854576
516.628540	733.293518	29936.119141	17029.291016	55.802807
516.978333	738.717590	30419.755859	17274.492188	55.711578
517.327942	735.374023	30963.576172	17542.203125	55.599827
517.677612	731.807434	31612.759766	17930.138672	55.692360
518.027222	727.200684	32220.109375	18296.078125	55.786774
518.376831	727.200684	32940.179688	18730.228516	55.887497
518.726379	726.606262	33582.972656	19096.541016	55.909821
519.075867	725.714661	34108.886719	19436.626953	56.048935
519.425293	723.857178	34482.183594	19663.695313	56.104195
519.774658	719.770508	34644.535156	19786.146484	56.201935
520.124084	725.863281	34682.425781	19800.412109	56.173378
520.473389	734.779602	34437.902344	19711.992188	56.306988
520.822693	742.952881	34068.839844	19533.591797	56.384514
521.171997	737.231628	33614.402344	19305.705078	56.478313
521.521240	733.144958	33181.816406	19050.697266	56.450855
521.870361	730.915833	32823.750000	18815.380859	56.350475
522.219482	733.888000	32516.580078	18574.341797	56.132607
522.568604	734.333801	32276.287109	18427.445313	56.093899
522.917664	732.996338	32128.570313	18321.863281	56.023396
523.266724	729.355469	32162.826172	18357.677734	56.081375
523.615662	733.516418	32451.562500	18452.931641	55.865406
523.964600	737.231628	32914.988281	18684.310547	55.774796
524.313538	742.581360	33513.496094	18977.583984	55.643860
524.662354	735.374023	34154.359375	19370.273438	55.761414
525.011169	733.888000	35010.847656	19843.208984	55.749752
525.359985	731.213074	36017.871094	20417.199219	55.788754
525.708740	735.448425	37223.359375	21086.072266	55.773605
526.057434	735.225403	38586.890625	21841.583984	55.760715
526.406067	736.637207	40109.355469	22710.849609	55.810757
526.754700	727.497986	41800.855469	23687.333984	55.899582
527.103333	730.692932	43698.324219	24824.390625	56.074062
527.451782	733.219238	45820.925781	26094.000000	56.247662
527.800293	732.699036	48010.925781	27405.369141	56.416393
528.148743	726.383362	50109.675781	28823.216797	56.895424
528.497131	717.467041	51969.402344	30194.546875	57.514084
528.845642	721.925232	53491.500000	31558.671875	58.436604
529.193909	720.662109	54667.562500	32717.568359	59.311855
529.542175	723.262695	55447.957031	33604.519531	60.084862
529.890503	724.228699	55786.035156	34059.472656	60.541500
530.238770	732.030457	55511.488281	33958.570313	60.655109
530.586914	736.339905	54707.535156	33380.871094	60.485100
530.934998	738.346191	53440.300781	32362.921875	60.006458
531.283142	737.825989	51960.933594	31146.958984	59.366043
531.631226	736.414307	50174.250000	29747.763672	58.682484
531.979248	738.197510	48381.996094	28398.351563	58.056149
532.327148	735.968445	46744.878906	27185.062500	57.486897
532.675110	733.813721	45635.097656	26365.654297	57.084869
533.023071	727.349304	45070.988281	25959.439453	56.901260
533.370850	731.510254	44967.410156	25831.119141	56.740364
533.718689	729.504150	45187.574219	25966.275391	56.765331
534.066467	735.151123	45402.531250	26065.765625	56.709427
534.414246	726.086243	45507.667969	26144.822266	56.761585
534.761963	728.240906	45303.925781	26098.828125	56.915756
535.109619	728.315247	44947.574219	25959.734375	57.059799
535.457153	730.172852	44288.214844	25649.298828	57.209011
535.804749	731.510254	43521.484375	25147.015625	57.058941
536.152344	722.891174	42571.152344	24594.275391	57.042717
536.499817	725.863281	41648.234375	24041.388672	56.975010
536.847229	727.200745	40711.500000	23518.296875	57.000111
537.194641	730.767273	39908.878906	23078.500000	57.041370
537.542114	735.596863	39305.246094	22696.138672	56.937363
537.889404	730.470032	38823.097656	22383.843750	56.843998
538.236694	726.829285	38426.765625	22042.794922	56.541115
538.583984	720.364929	38014.308594	21815.650391	56.564907
538.931213	724.823059	37731.218750	21625.435547	56.478382
539.278381	727.720886	37543.750000	21573.349609	56.621071
539.625488	725.863281	37612.781250	21610.130859	56.617004
539.972595	728.612549	37967.207031	21804.580078	56.597107
540.319641	726.532043	38678.433594	22136.193359	56.412621
540.666687	730.172852	39658.187500	22593.005859	56.162205
541.013611	726.977844	40930.917969	23246.796875	56.013958
541.360596	734.259460	42329.441406	24003.197266	55.941422
541.707458	737.825989	43709.613281	24884.130859	56.191063
542.054260	739.683594	44887.238281	25676.271484	56.484642
542.401062	733.070740	45863.425781	26395.744141	56.863441
542.747864	727.423645	46392.019531	26792.744141	57.079929
543.094666	725.268860	46350.781250	26866.080078	57.294285
543.441284	724.823059	45664.371094	26546.650391	57.459030
543.787903	730.247131	44623.464844	25981.505859	57.528835
544.134460	728.092346	43323.613281	25237.515625	57.539909
544.481079	732.253357	41945.222656	24374.337891	57.365643
544.827637	724.005676	40409.535156	23426.609375	57.206249
545.174072	720.587830	38848.878906	22442.392578	56.970306
545.520508	719.919128	37439.656250	21606.859375	56.882050
545.866943	720.216309	36273.769531	20915.101563	56.801311
546.213318	727.052063	35412.007813	20409.619141	56.746693
546.559631	729.875671	34725.894531	19996.869141	56.674263
546.905823	735.894104	34178.136719	19666.146484	56.605808
547.252136	737.454590	33774.675781	19419.462891	56.548359
547.598389	733.962341	33350.406250	19177.904297	56.547985
547.944458	728.761047	32971.457031	18964.134766	56.556602
548.290588	729.281250	32352.666016	18656.818359	56.690762
548.636658	738.346130	31736.177734	18306.853516	56.676571
548.982727	740.352295	30950.500000	17888.529297	56.762970
549.328735	734.928223	30268.921875	17478.376953	56.692127
549.674622	725.491699	29484.732422	17058.640625	56.792698
550.020569	716.798340	28780.638672	16668.626953	56.841217
550.366455	718.953125	28042.070313	16268.432617	56.909611
550.712280	720.736389	27380.703125	15896.843750	56.924706
551.058044	723.782898	26874.849609	15563.596680	56.746494
551.403748	718.135803	26476.585938	15299.227539	56.607025
551.749512	717.244141	26206.939453	15135.539063	56.565193
552.095154	719.250305	26036.490234	15033.668945	56.540203
552.440735	726.234863	25965.306641	15012.046875	56.601971
552.786316	726.977844	25973.556641	14967.168945	56.404442
553.131897	734.110901	25998.968750	14975.639648	56.368923
553.477417	736.934387	26064.132813	14986.487305	56.261856
553.822815	738.420410	26090.806641	15043.924805	56.426655
554.168213	737.380188	26067.994141	15011.973633	56.353130
554.513672	736.934387	25955.875000	14982.549805	56.487762
554.859009	738.569031	25749.236328	14848.879883	56.417168
555.204285	739.312012	25528.708984	14768.335938	56.592838
555.549500	739.014893	25266.716797	14606.578125	56.538376
555.894714	732.476257	25037.193359	14503.370117	56.659348
556.239990	738.271790	24733.146484	14314.640625	56.580288
556.585022	734.036621	24432.591797	14169.898438	56.694855
556.930115	736.414307	24119.330078	13991.276367	56.686096
557.275146	738.271790	23832.447266	13862.137695	56.827602
557.620178	739.237793	23656.427734	13745.112305	56.751614
557.965149	743.547363	23502.619141	13632.989258	56.634300
558.310059	730.172852	23359.068359	13544.495117	56.628139
558.654968	732.327576	23182.818359	13407.108398	56.456589
558.999756	725.566101	23049.669922	13357.622070	56.584827
559.344604	732.773438	22992.009766	13327.008789	56.579819
559.689331	728.166687	22954.117188	13309.549805	56.606724
560.033997	730.990173	22914.515625	13270.020508	56.524063
560.378723	726.086182	22889.398438	13237.699219	56.451912
560.723389	729.652771	22884.791016	13252.485352	56.523380
561.067932	728.538147	22913.250000	13254.491211	56.462097
561.412476	726.754883	22924.765625	13258.875000	56.456047
561.757019	723.411316	22907.974609	13263.333008	56.525440
562.101501	722.371094	22913.173828	13259.171875	56.495480
562.445862	727.423645	22878.328125	13255.234375	56.556656
562.790222	730.990173	22912.728516	13228.632813	56.342033
563.134644	734.185242	22876.541016	13216.225586	56.371780
563.478943	734.333801	22882.115234	13224.250000	56.393532
563.823181	734.408142	22818.810547	13232.793945	56.593723
564.167358	729.206848	22833.150391	13278.565430	56.774296
564.511536	729.875549	22865.619141	13258.949219	56.601093
564.855774	732.030457	22934.130859	13286.143555	56.544712
565.199768	739.237793	23083.921875	13297.066406	56.200520
565.543823	734.631042	23260.021484	13384.743164	56.159348
565.887817	726.383484	23494.000000	13512.469727	56.159088
566.231812	723.931396	23678.865234	13646.958008	56.297382
566.575745	726.457703	23835.939453	13758.487305	56.392563
566.919617	734.631042	24013.599609	13865.629883	56.407135
567.263428	735.076843	24126.017578	13950.708008	56.498928
567.607239	732.030457	24263.626953	14022.335938	56.478558
567.950989	730.321472	24274.921875	14025.010742	56.465981
568.294678	728.463867	24284.953125	14001.679688	56.346325
568.638367	726.457703	24144.593750	13947.585938	56.456787
568.981995	723.262695	23982.615234	13842.745117	56.405193
569.325623	727.720886	23786.900391	13734.708008	56.406982
569.669128	733.887939	23668.091797	13620.655273	56.190170
570.012573	735.299744	23590.146484	13565.968750	56.139812
570.356140	730.841492	23560.130859	13555.862305	56.177925
570.699524	723.931335	23540.365234	13564.557617	56.277973
571.042908	722.148132	23603.076172	13617.163086	56.357044
571.386230	719.398926	23715.048828	13669.471680	56.315311
571.729492	721.182190	23881.787109	13737.385742	56.199753
572.072815	722.222473	24035.517578	13783.229492	56.023857
572.416016	724.748718	24171.640625	13866.522461	56.049107
572.759094	728.612488	24336.146484	13978.125000	56.124088
573.102234	735.299744	24435.193359	14067.659180	56.254932
573.445374	729.801270	24471.304688	14111.497070	56.364143
573.788391	719.696106	24429.623047	14106.371094	56.460209
574.131409	717.392822	24391.429688	14076.129883	56.427795
574.474365	727.869446	24327.453125	14010.745117	56.284367
574.817261	739.534973	24198.537109	13920.020508	56.185192
575.160156	739.163391	24027.568359	13820.156250	56.169556
575.502930	742.061279	23806.146484	13712.937500	56.238415
575.845703	741.763977	23596.240234	13592.418945	56.228176
576.188477	739.906494	23350.076172	13456.221680	56.241573
576.531250	731.213074	23117.435547	13312.594727	56.201450
576.873901	733.739319	22818.068359	13181.450195	56.364452
577.216431	733.813721	22542.703125	13050.828125	56.477039
577.559082	742.432800	22225.728516	12897.243164	56.577961
577.901611	736.117004	21909.421875	12718.098633	56.590038
578.244080	733.144958	21581.373047	12530.187500	56.585350
578.586487	730.767273	21248.423828	12355.575195	56.657581
578.928955	757.739197	20926.990234	12185.942383	56.661510
579.271301	760.042542	20605.185547	11985.325195	56.564381
579.613647	758.556458	20298.759766	11785.227539	56.430687
579.955872	732.179016	20011.580078	11591.299805	56.324993
580.298157	737.231628	19731.830078	11438.383789	56.337872
580.640320	736.488525	19518.732422	11296.911133	56.225563
580.982483	736.414307	19308.304688	11183.153320	56.250275
581.324524	735.671204	19104.046875	11091.463867	56.378384
581.666626	735.225403	18930.847656	11016.864258	56.506111
582.008728	734.259460	18824.447266	10977.632813	56.623920
582.350647	733.665039	18713.363281	10915.664063	56.630531
582.692566	739.014893	18645.748047	10846.785156	56.446762
583.034424	734.779602	18529.166016	10778.426758	56.442783
583.376343	733.070618	18448.474609	10725.746094	56.406704
583.718201	726.754883	18352.474609	10685.176758	56.499382
584.059937	737.603088	18278.617188	10616.817383	56.320656
584.401611	726.383362	18179.943359	10546.898438	56.266541
584.743347	719.919128	18104.080078	10497.562500	56.244556
585.085022	710.631165	18026.880859	10451.940430	56.255306
585.426514	717.912903	17995.525391	10422.590820	56.169086
585.768127	725.417480	17908.515625	10402.603516	56.318050
586.109619	729.949951	17854.943359	10374.368164	56.317787
586.451172	730.767273	17809.171875	10352.821289	56.340473
586.792542	731.287415	17811.328125	10322.951172	56.157150
587.133850	731.287415	17779.154297	10289.664063	56.067875
587.475220	732.996338	17761.544922	10276.734375	56.045517
587.816589	728.835449	17727.439453	10267.297852	56.113216
588.157776	735.894226	17751.291016	10281.712891	56.101063
588.498962	734.333801	17796.021484	10318.270508	56.172268
588.840210	729.949890	17842.164063	10343.831055	56.181393
589.181335	726.234802	17913.271484	10384.622070	56.195770
589.522400	731.287354	17955.251953	10395.619141	56.109798
589.863403	744.438965	17990.398438	10406.690430	56.026180
590.204407	745.033386	17984.826172	10389.526367	55.943207
590.545410	740.649597	18016.626953	10393.166992	55.872486
590.886353	730.098450	18041.517578	10403.198242	55.876987
591.227112	728.835449	18023.166016	10409.737305	55.977318
591.567932	722.965515	17930.437500	10376.598633	56.101398
591.908752	727.572266	17795.947266	10328.524414	56.249950
592.249512	724.674500	17705.001953	10293.899414	56.354767
592.590149	727.349365	17602.462891	10236.909180	56.352566
592.930786	723.708557	17576.160156	10197.528320	56.216270
593.271423	720.959290	17522.884766	10153.987305	56.142544
593.612000	722.816895	17516.273438	10142.469727	56.091206
593.952576	720.810730	17507.429688	10136.672852	56.091476
594.292969	725.714661	17557.287109	10136.525391	55.911655
594.633484	729.875671	17625.794922	10147.002930	55.736099
594.973877	734.110840	17683.527344	10187.720703	55.775429
595.314209	731.436035	17768.751953	10249.763672	55.867531
595.654480	733.442200	17905.097656	10343.162109	55.962685
595.994812	740.129395	18125.554688	10428.610352	55.727600
596.335022	741.689758	18360.500000	10535.605469	55.587837
596.675171	735.076843	18552.052734	10652.707031	55.663933
597.015320	724.080017	18740.333984	10745.881836	55.626446
597.355408	721.479431	18862.861328	10815.726563	55.642105
597.695496	726.160461	18967.552734	10856.370117	55.534191
598.035461	733.367859	18948.009766	10864.097656	55.618603
598.375366	736.637207	18895.775391	10852.506836	55.706768
598.715271	734.631042	18776.373047	10794.401367	55.758308
599.055176	732.179016	18564.089844	10693.945313	55.864830
599.395081	728.686768	18293.923828	10554.180664	55.937160
599.734802	723.336975	17974.943359	10382.096680	55.987598
600.074524	725.120300	17641.173828	10216.920898	56.111202
600.414246	728.463867	17280.582031	10005.827148	56.049404
600.753906	732.476257	16929.205078	9815.983398	56.082355
601.093506	730.841553	16657.628906	9628.146484	55.863777
601.433044	733.070618	16467.193359	9513.793945	55.806885
601.772583	733.442200	16340.057617	9424.630859	55.689133
602.112122	735.299744	16329.731445	9411.999023	55.639729
602.451538	739.609314	16396.232422	9427.379883	55.489429
602.790894	742.061218	16547.216797	9488.160156	55.336998
603.130310	742.878601	16697.900391	9565.583984	55.297356
603.469604	728.612488	16907.435547	9690.487305	55.392624
603.808838	722.222473	17206.281250	9825.048828	55.221996
604.148010	722.816895	17506.464844	9993.567383	55.236797
604.487305	724.005676	17809.025391	10145.145508	55.142693
604.826416	720.736328	17968.775391	10271.831055	55.374962
605.165527	718.358704	18147.398438	10354.380859	55.287170
605.504456	723.708496	18259.076172	10425.041992	55.324383
605.843445	731.287415	18349.576172	10446.070313	55.140331
606.182434	730.841553	18347.943359	10451.643555	55.178211
606.521423	739.832214	18218.953125	10383.359375	55.171696
606.860229	739.832214	18024.578125	10302.592773	55.324856
607.199036	736.191406	17760.281250	10158.147461	55.344845
607.537903	721.776611	17482.462891	10041.121094	55.602409
607.876648	724.080017	17208.435547	9896.378906	55.642448
608.215271	730.618652	16934.929688	9745.172852	55.630596
608.553955	736.488525	16701.468750	9585.497070	55.427620
608.892578	737.900391	16520.392578	9479.393555	55.387280
609.231140	736.860107	16416.740234	9420.545898	55.381073
609.569641	735.968506	16367.848633	9380.346680	55.299671
609.908081	736.191345	16364.430664	9355.603516	55.152805
610.246521	736.711426	16333.520508	9364.668945	55.318733
610.584961	735.745544	16345.780273	9364.668945	55.278053
610.923340	726.309082	16290.500000	9356.717773	55.450413
611.261597	726.829285	16223.627930	9298.464844	55.312298
611.599854	725.343079	16078.812500	9217.401367	55.310356
611.938110	725.194519	15924.335938	9132.993164	55.317589
612.276245	727.423645	15718.592773	9037.886719	55.435722
612.614319	731.436035	15442.186523	8910.605469	55.599949
612.952393	732.847717	15143.042969	8748.031250	55.621616
613.290466	731.510254	14830.227539	8577.357422	55.649372
613.628479	732.996338	14544.980469	8423.105469	55.677078
613.966370	734.928223	14291.534180	8277.545898	55.637951
614.304260	730.172852	14081.332031	8145.807129	55.542999
614.642151	732.699036	13899.291992	8032.569824	55.442368
614.979980	737.751709	13755.143555	7934.937012	55.288998
615.317749	735.819824	13616.717773	7850.603027	55.235146
615.655396	725.640381	13542.934570	7805.277832	55.235043
615.993164	719.473206	13475.914063	7791.903809	55.442039
616.330811	721.405090	13461.870117	7769.092285	55.317345
616.668396	730.024231	13450.723633	7754.083496	55.217556
617.005859	728.018066	13426.948242	7737.885254	55.200459
617.343445	732.773438	13409.858398	7732.907715	55.218800
617.680908	731.584656	13398.414063	7704.523438	55.048813
618.018311	737.083008	13404.953125	7702.814453	54.987392
618.355652	730.395752	13412.532227	7716.040527	55.082550
618.692993	730.841553	13403.468750	7736.027344	55.278084
619.030273	727.869446	13397.523438	7727.333984	55.245899
619.367554	735.225403	13366.835938	7705.489746	55.181122
619.704712	730.098572	13345.140625	7699.322266	55.245346
620.041870	736.488586	13318.167969	7698.356934	55.333378
620.379028	727.943665	13294.836914	7672.275879	55.258938
620.716064	729.355530	13211.692383	7643.892090	55.394569
621.053040	727.646484	13129.514648	7604.140625	55.447243
621.389954	730.544373	13046.815430	7575.979004	55.580414
621.726929	728.463867	13008.028320	7523.447754	55.335709
622.063843	726.754944	12960.995117	7495.732910	55.328144
622.400635	728.018066	12918.344727	7474.779297	55.345207
622.737427	731.807434	12891.225586	7441.863281	55.184021
623.074219	730.841614	12842.184570	7407.906738	55.130672
623.410889	725.268860	12796.414063	7381.900879	55.144989
623.747559	722.891174	12763.499023	7389.554688	55.368168
624.084167	722.148193	12758.446289	7366.743652	55.204647
624.420715	728.018127	12753.691406	7359.907715	55.147762
624.757324	728.463928	12795.003906	7357.307129	54.935741
625.093750	723.857178	12858.679688	7373.579590	54.798683
625.430176	724.080078	12948.585938	7386.136719	54.497555
625.766602	723.559875	12954.976563	7387.250488	54.480118
626.102905	728.315247	13048.078125	7434.507324	54.434425
626.439209	724.897400	13151.359375	7491.200684	54.450764
626.775452	730.098572	13300.781250	7572.858887	54.434277
627.111694	724.748718	13395.815430	7594.035156	54.212379
627.447876	728.612488	13459.046875	7636.907715	54.265984
627.783997	723.262634	13497.386719	7655.334473	54.266514
628.120056	725.194519	13500.210938	7722.132813	54.770485
628.456055	728.092285	13484.234375	7703.482910	54.682602
628.792053	729.504089	13452.210938	7693.006348	54.732868
629.128052	729.355469	13362.601563	7623.161621	54.568764
629.463928	726.977783	13255.382813	7602.505371	54.879509
629.799744	721.256531	13158.566406	7546.184082	54.874630
630.135559	728.538147	13049.563477	7484.438965	54.832294
630.471375	722.222412	12917.007813	7390.296875	54.679718
630.807068	728.984070	12716.390625	7294.149902	54.767193
631.142700	724.897400	12557.976563	7206.025879	54.771275
631.478333	732.104736	12436.714844	7136.553223	54.717312
631.813965	733.144958	12352.604492	7074.436035	54.574749
632.149475	730.767273	12258.461914	7015.662598	54.519970
632.484924	727.572266	12162.538086	6977.917480	54.659939
632.820435	725.789001	12097.002930	6927.242676	54.536427
633.155884	733.144958	12037.635742	6891.799316	54.479713
633.491150	734.185120	11973.734375	6839.937012	54.323818
633.826477	729.206970	11883.531250	6808.729004	54.503723
634.161804	726.829285	11835.531250	6759.541504	54.306187
634.497009	727.572266	11807.742188	6722.092285	54.101337
634.832153	733.367859	11752.907227	6671.270020	53.885216
635.167297	731.881836	11667.237305	6661.090332	54.220539
635.502380	731.064453	11547.312500	6612.496094	54.375896
635.837463	732.624817	11477.020508	6591.245605	54.527225
636.172424	729.355469	11372.848633	6538.490723	54.579216
636.507324	734.556702	11310.062500	6510.627441	54.617443
636.842224	733.070618	11234.051758	6461.438965	54.550789
637.177124	731.361633	11131.735352	6387.507813	54.384064
637.511963	725.566101	10999.105469	6323.533203	54.489182
637.846741	725.714661	10853.918945	6248.859375	54.532318
638.181396	728.835449	10736.519531	6205.243652	54.722034
638.516113	722.148132	10631.009766	6133.095215	54.607155
638.850769	714.866516	10539.618164	6099.808105	54.809948
639.185303	713.900574	10451.867188	6040.439941	54.698681
639.519836	718.730225	10367.385742	5985.826660	54.588921
639.854370	729.652649	10243.670898	5922.744141	54.583572
640.188843	737.900330	10157.924805	5858.324219	54.356800
640.523254	741.243958	10083.696289	5828.899902	54.457390
640.857605	740.352356	10023.510742	5757.123535	54.041641
641.191895	736.934387	9956.563477	5724.355469	54.095680
641.526184	733.813660	9878.844727	5672.715332	54.006397
641.860413	734.036621	9809.371094	5672.195313	54.412968
642.194580	730.692932	9764.567383	5651.390625	54.469410
642.528748	737.157227	9704.901367	5627.019531	54.527229
642.862793	737.008606	9670.127930	5587.119141	54.293583
643.196838	743.398682	9619.454102	5541.794434	54.059998
643.530823	733.590759	9581.114258	5522.772949	54.130199
643.864746	733.219299	9538.091797	5496.395020	54.097046
644.198669	725.268860	9492.990234	5487.255859	54.312706
644.532532	727.423645	9454.128906	5467.714355	54.319363
644.866333	726.457703	9422.922852	5440.593750	54.207500
645.200073	721.553711	9384.209961	5417.560059	54.209774
645.533813	720.959290	9344.086914	5398.092773	54.239407
645.867554	713.454773	9329.449219	5396.903809	54.357620
646.201172	718.210144	9315.406250	5387.913086	54.316582
646.534729	723.188416	9320.235352	5392.668457	54.314930
646.868225	722.742615	9323.430664	5403.962402	54.428429
647.201782	730.618652	9337.028320	5400.841797	54.264473
647.535217	726.234802	9330.564453	5380.779785	54.095379
647.868591	727.275085	9321.796875	5356.557129	53.863174
648.201965	727.052063	9303.666992	5361.089355	54.031071
648.535278	726.903564	9323.952148	5371.566406	54.026249
648.868591	726.383362	9308.125000	5368.966309	54.098381
649.201782	723.336914	9288.434570	5354.254395	54.067307
649.534912	730.470032	9247.567383	5333.746582	54.047478
649.868103	733.442139	9226.986328	5321.486816	54.018028
650.201172	738.866211	9209.450195	5316.359863	54.039883
650.534180	737.900391	9183.519531	5291.616699	53.918087
650.867188	738.197571	9144.064453	5255.580078	53.740826
651.200134	733.813660	9125.265625	5228.459473	53.562195
651.533020	736.414246	9099.557617	5207.208984	53.458305
651.865845	739.757874	9063.148438	5209.661133	53.702915
652.198608	743.695984	9023.173828	5185.141113	53.644028
652.531433	735.448303	8975.842773	5184.323730	53.988621
652.864136	734.333801	8936.314453	5159.506836	53.952492
653.196777	801.057678	8952.661133	5218.280273	54.188389
653.529358	804.549988	8916.104492	5178.379395	53.920979
653.861938	807.893555	8859.262695	5141.525879	53.824787
654.194519	735.225403	8738.075195	5030.889160	53.676674
654.526978	731.956116	8675.734375	5015.582520	53.924294
654.859375	734.779602	8629.369141	4992.697266	53.934628
655.191833	735.448303	8598.831055	4976.350098	53.932281
655.524170	737.157288	8563.165039	4938.308105	53.681915
655.856445	726.457703	8525.047852	4917.205566	53.737251
656.188660	730.172852	8502.237305	4904.425781	53.708420
656.520874	734.631042	8484.329102	4884.586426	53.549900
656.853088	738.866211	8477.866211	4893.205566	53.680569
657.185181	735.745544	8459.809570	4871.212402	53.540039
657.517212	736.042786	8477.197266	4886.592285	53.616673
657.849243	741.838379	8509.519531	4888.821777	53.387661
658.181274	735.448425	8573.346680	4914.084473	53.313221
658.513123	733.293518	8623.945313	4931.768555	53.208218
658.844971	726.532043	8716.081055	4965.056641	53.050861
659.176819	735.522644	8779.014648	5012.312988	53.170818
659.508667	739.609192	8898.270508	5073.390137	53.118774
659.840393	739.832214	8970.641602	5120.423340	53.221878
660.172058	732.253235	9042.416992	5151.927734	53.183960
660.503662	723.411316	9053.711914	5165.450684	53.323879
660.835266	729.949951	9072.288086	5181.351563	53.359158
661.166931	735.745605	9020.202148	5153.339844	53.323883
661.498413	743.101501	8967.670898	5132.832031	53.373379
661.829773	738.494690	8860.452148	5056.300293	53.162132
662.161194	733.070618	8738.000977	4992.102539	53.205109
662.492615	731.213074	8572.454102	4907.917480	53.265862
662.823975	729.652771	8420.504883	4831.236816	53.330685
663.155212	734.853943	8300.356445	4753.070801	53.112358
663.486450	733.962341	8177.088379	4676.464355	52.968361
663.817627	747.336731	8043.714844	4614.421875	53.000069
664.148743	746.073547	7901.574219	4569.319824	53.430874
664.479858	744.290344	7786.404785	4502.001953	53.360561
664.810913	731.510254	7697.910156	4450.881836	53.390152
665.141907	733.888000	7643.298340	4399.835449	53.057316
665.472778	739.460754	7584.450684	4372.046387	53.069263
665.803711	743.770264	7556.587402	4349.235352	52.921791
666.134583	743.027161	7521.589844	4325.161621	52.845047
666.465454	736.339905	7489.417480	4314.312988	52.982853
666.796143	738.048889	7441.120605	4300.641113	53.148651
667.126831	735.299622	7408.724609	4289.570313	53.260071
667.457458	735.894104	7403.077637	4270.177246	53.010139
667.788147	736.191345	7386.804688	4265.050293	53.060654
668.118774	737.305908	7347.424316	4255.093750	53.218231
668.449219	740.352295	7323.870605	4253.607910	53.364407
668.779663	730.024231	7317.554688	4235.403809	53.212349
669.110107	724.377258	7317.777832	4227.676270	53.133419
669.440552	719.324646	7316.514160	4212.740723	52.953094
669.770874	722.816895	7304.700684	4203.824707	52.887714
670.101135	729.058350	7302.619629	4181.385254	52.518364
670.431396	724.005676	7261.529785	4170.686035	52.721497
670.761597	722.371094	7201.048340	4136.283691	52.694592
671.091797	719.919128	7122.955566	4132.197266	53.291561
671.421875	730.990173	7095.166504	4103.218750	52.987667
671.751892	739.014832	7073.024902	4095.268799	52.987820
672.081909	734.259460	7060.541504	4075.504150	52.815296
672.411865	730.247131	7014.994629	4059.305908	52.970448
672.741821	722.073914	6956.072266	4036.197998	53.162090
673.071716	732.773438	6935.490234	4015.096436	52.917507
673.401550	733.516418	6879.540527	3990.353516	52.990963
673.731262	737.305847	6859.923828	3985.672607	53.055191
674.060974	728.983948	6811.775879	3963.901611	53.181461
674.390625	731.213074	6788.965332	3952.162109	53.170692
674.720276	732.030334	6741.337891	3904.013672	52.784508
675.049927	737.305969	6688.879395	3879.865234	52.802162
675.379395	731.956116	6656.929688	3860.249756	52.798439
675.708923	731.138733	6616.954590	3849.030029	52.972969
676.038330	725.194519	6568.731934	3832.757568	53.179482
676.367737	726.531921	6512.484863	3812.769775	53.340179
676.697083	719.473206	6492.869141	3799.098389	53.341660
677.026428	720.364807	6489.822266	3780.522461	53.040649
677.355652	720.364929	6499.853027	3775.395752	52.859882
677.684875	731.584656	6512.930176	3777.773438	52.689960
678.013977	743.101501	6513.525391	3761.501221	52.308109
678.343079	744.364685	6494.355469	3755.780029	52.372524
678.672180	735.596924	6493.314941	3753.327881	52.411930
679.001221	725.937561	6530.466309	3772.349365	52.483360
679.330139	725.268860	6598.750000	3793.005127	52.230293
679.659058	728.463867	6636.570313	3808.162842	52.126667
679.987976	730.618652	6681.374512	3836.249268	52.188843
680.316772	732.922058	6713.027344	3850.292725	52.129025
680.645630	731.064453	6768.383301	3862.701416	51.871319
680.974304	728.686829	6795.207031	3877.041748	51.897217
681.302979	731.064453	6815.565918	3892.274170	51.955116
681.631653	735.894226	6815.342285	3917.536377	52.334389
681.960266	737.157288	6840.457031	3932.694336	52.357533
682.288757	731.584534	6848.704590	3928.162109	52.256252
682.617249	728.463867	6854.054199	3915.307373	52.025085
682.945679	730.247070	6808.804199	3907.431396	52.268726
683.274109	732.922058	6760.433594	3899.183594	52.530159
683.602478	732.550537	6696.606934	3871.468750	52.630589
683.930725	731.361755	6617.251465	3819.010986	52.458496
684.259033	730.098572	6548.596191	3765.958984	52.176018
684.587280	728.463867	6458.095215	3725.910156	52.314819
684.915344	733.516418	6406.603516	3691.136475	52.134228
685.243469	735.151123	6333.786621	3657.551514	52.198437
685.571533	737.454590	6271.669922	3621.885986	52.119972
685.899536	730.024231	6205.094238	3582.580078	52.100815
686.227539	730.470032	6146.915527	3567.050781	52.369785
686.555420	730.990173	6131.237793	3550.109619	52.203522
686.883301	731.881775	6119.126465	3565.193115	52.592957
687.211121	730.841553	6120.761230	3547.880859	52.264957
687.538940	732.699158	6127.521973	3563.855469	52.479134
687.866638	733.516418	6142.828613	3543.793945	51.952587
688.194336	732.922058	6157.688965	3545.651367	51.849770
688.521973	733.813660	6135.026855	3526.778564	51.709953
688.849609	730.321472	6101.962402	3519.496826	51.924080
689.177063	729.429871	6056.117188	3506.196533	52.129333
689.504578	728.315247	5996.898438	3487.695313	52.374237
689.832031	730.692932	5942.730957	3463.175537	52.426376
690.159485	734.110840	5860.924316	3416.290283	52.316696
690.486816	728.983948	5797.692871	3375.869385	52.220112
690.814087	729.875671	5715.811035	3339.461670	52.338943
691.141296	729.281250	5646.115234	3324.155029	52.775299
691.468506	730.692871	5569.138184	3280.093750	52.690498
691.795715	731.287354	5477.150879	3222.137451	52.484657
692.122803	723.188293	5426.401855	3164.701904	51.911606
692.449829	724.302917	5351.579590	3133.345703	52.061779
692.776855	727.126404	5293.325684	3094.485596	51.845287
693.103821	731.956116	5222.218262	3070.857178	52.088299
693.430664	730.321472	5187.519043	3030.362305	51.602844
693.757568	715.758118	5141.524902	3017.656250	52.011288
694.084351	718.433044	5102.367676	2995.216797	51.934711
694.411133	715.832336	5063.507324	2982.957031	52.145683
694.737854	733.442139	5029.922363	2964.307373	51.923084
695.064575	732.030334	5000.647461	2956.802734	52.119278
695.391174	740.798096	4969.588867	2935.403564	51.896759
695.717773	731.436035	4964.684570	2929.830811	51.931625
696.044250	732.624817	4979.173828	2916.976563	51.438282
696.370789	727.646545	4996.263184	2924.926514	51.475224
696.697205	724.897278	5021.006348	2919.874023	51.092205
697.023621	723.411194	5030.071289	2929.087646	51.215477
697.349915	720.513428	5075.098633	2960.220459	51.433308
697.676208	726.606262	5149.698730	3010.226318	51.629494
698.002380	725.789001	5251.270996	3054.807861	51.464546
698.328674	726.680603	5366.588379	3105.407959	51.266693
698.654724	729.355469	5492.976563	3155.710938	50.935108
698.980896	728.018066	5590.982422	3207.425537	50.985516
699.306946	736.562927	5662.461426	3230.533936	50.629768
699.632935	728.761047	5681.037598	3251.709961	50.945236
699.958862	728.315247	5703.253906	3245.840088	50.604141
700.284729	717.838623	5687.427734	3252.601563	51.005486
700.610596	721.702332	5653.174316	3240.193115	51.069756
700.936340	725.640381	5583.701172	3228.973389	51.529472
701.262146	728.835449	5480.568848	3176.961670	51.520699
701.587830	733.442139	5373.721191	3106.745361	51.145699
701.913513	738.420410	5235.221191	3033.483154	51.037678
702.239075	737.083008	5101.327148	2971.588623	51.200291
702.564697	728.092346	4960.449707	2911.552002	51.589680
702.890137	722.816895	4831.608887	2843.936768	51.623928
703.215698	727.423645	4738.433105	2783.974609	51.272655
703.541016	738.643372	4636.043945	2732.408203	51.156273
703.866455	736.488586	4559.363281	2684.928711	50.967930
704.191711	744.884766	4485.283691	2653.052979	51.015099
704.517029	735.596924	4415.959473	2633.585693	51.570702
704.842163	739.683594	4380.442871	2616.718994	51.556152
705.167419	728.315247	4325.756348	2583.431396	51.567661
705.492493	736.340027	4305.471680	2559.357422	51.077335
705.817566	734.333801	4259.775391	2541.227295	51.252972
706.142578	735.151123	4238.301758	2527.406982	51.161255
706.467590	734.631042	4205.607910	2503.184570	50.952614
706.792480	735.151062	4190.079590	2489.289795	50.772068
707.117371	742.729980	4191.268066	2489.141357	50.642078
707.442200	733.219238	4205.683105	2492.336182	50.659042
707.766907	734.185242	4216.456543	2484.831543	50.273117
708.091675	731.807617	4216.085449	2479.258789	50.152462
708.416321	736.562927	4211.032715	2475.395264	50.045975
708.741028	732.476257	4218.462891	2486.986328	50.330372
709.065552	729.206970	4241.348145	2511.431885	50.744682
709.390137	733.144958	4273.818359	2511.134766	50.216148
709.714600	734.631042	4283.106445	2521.908691	50.367481
710.039063	735.596924	4304.728516	2524.880859	50.132195
710.363403	729.058289	4325.384277	2553.635742	50.734486
710.687744	725.937561	4378.956543	2571.914307	50.532909
711.012085	721.256531	4427.847656	2587.518066	50.349808
711.336304	723.931396	4490.931152	2614.415527	50.185406
711.660461	724.897278	4521.320801	2630.762207	50.201591
711.984619	726.754883	4523.104004	2641.759033	50.443310
712.308716	727.795105	4500.664551	2639.381104	50.666634
712.632751	731.064453	4487.661621	2638.341064	50.771389
712.956726	733.739441	4452.293457	2626.527100	50.901173
713.280701	739.312073	4410.089355	2608.991455	50.934155
713.604553	737.528809	4348.046387	2582.614014	51.103065
713.928467	730.172852	4312.009766	2563.443848	51.182426
714.252258	722.816895	4271.960449	2540.187012	51.205879
714.575989	720.959290	4228.419434	2517.301758	51.214909
714.899719	727.126465	4174.921387	2489.364014	51.112019
715.223267	730.024231	4140.519043	2465.512939	50.886715
715.546936	734.705322	4120.234863	2452.212646	50.730831
715.870422	735.968445	4105.745605	2430.813477	50.295464
716.193970	735.002502	4083.751953	2421.451416	50.360558
716.517395	738.271790	4048.383789	2401.018311	50.232334
716.840820	735.968445	4015.616211	2388.535400	50.388550
717.164124	741.243958	3964.198486	2356.585205	50.119892
717.487488	738.346191	3932.322998	2332.213623	49.902287
717.810730	744.810486	3903.641846	2318.170654	49.808296
718.133972	735.522644	3874.738281	2308.362549	50.102959
718.457092	730.915833	3830.304932	2295.136719	50.468685
718.780212	724.377197	3763.061279	2253.898682	50.334995
719.103210	728.538147	3703.990479	2225.812256	50.320892
719.426208	732.550537	3652.795898	2202.704346	50.343502
719.749207	732.401917	3608.660156	2188.066650	50.609669
720.072083	726.754944	3566.456299	2156.562256	50.350624
720.394958	724.600159	3530.716797	2134.940186	50.259495
720.717773	723.411316	3480.710938	2104.476074	50.087582
721.040527	726.457703	3445.120117	2099.423584	50.501522
721.363281	729.058289	3402.618408	2077.504150	50.436340
721.685913	734.259521	3378.544189	2071.411133	50.567612
722.008545	745.033447	3355.882568	2045.108032	49.795086
722.331055	740.129456	3315.535889	2020.959839	49.733131
722.653503	737.677490	3297.628906	2009.517090	49.682178
722.976013	726.011963	3269.616943	2010.854492	50.512661
723.298401	726.457703	3283.214111	2030.247437	50.993900
723.620789	725.863281	3269.022461	2020.290894	50.898411
723.943115	724.080078	3260.923828	2012.117554	50.773228
724.265381	723.114075	3234.694580	1996.885376	50.715923
724.587585	720.216309	3229.493408	2000.303345	51.014175
724.909790	727.869446	3236.998047	1998.594604	50.644077
725.231873	734.259460	3247.251953	1993.467651	50.107922
725.553894	743.250183	3262.707031	1998.371582	49.817142
725.875916	778.766846	3315.907471	2039.089478	49.674923
726.197937	782.110413	3316.650391	2046.519897	49.887135
726.519775	777.503662	3319.696533	2041.764282	49.731106
726.841675	741.243958	3276.155518	2008.328125	49.985340
727.163513	741.095398	3287.449463	2013.306641	49.962070
727.485291	733.367859	3302.012939	2019.250854	50.060753
727.806946	726.829285	3330.916748	2023.485962	49.793133
728.128662	723.336975	3367.324951	2032.848267	49.527882
728.450256	724.971680	3376.984131	2043.547852	49.719833
728.771790	725.417480	3388.278564	2053.504395	49.874435
729.093323	724.600159	3395.114258	2048.526123	49.575699
729.414795	726.903564	3407.522705	2050.458008	49.374954
729.736145	731.956116	3391.027588	2046.222656	49.425770
730.057495	729.058350	3375.052002	2044.216675	49.703758
730.378845	728.538269	3375.275146	2041.170044	49.594345
730.700134	726.309082	3377.132813	2043.176147	49.677654
731.021301	723.559875	3386.272217	2051.349365	49.866051
731.342468	729.206848	3382.557373	2054.470459	49.946800
731.663574	729.652649	3399.200928	2051.200928	49.504566
731.984680	731.510254	3401.355713	2055.436279	49.588116
732.305664	725.566101	3421.937500	2064.352539	49.651409
732.626648	723.114075	3427.584717	2067.250244	49.700527
732.947571	724.302917	3430.482422	2060.860352	49.389088
733.268433	725.343201	3418.222412	2046.519897	49.061867
733.589233	723.708496	3403.510498	2045.702515	49.331779
733.909973	720.587830	3392.067627	2029.058594	48.979248
734.230713	722.593933	3364.947266	2023.040161	49.215458
734.551331	727.497864	3326.607422	1999.857788	48.953682
734.871948	732.327637	3286.037842	1995.845337	49.477726
735.192505	732.179016	3237.369873	1967.090332	49.294102
735.513062	731.510315	3201.258545	1949.109009	49.300514
735.833435	732.550537	3148.206299	1913.666504	48.894218
736.153931	731.361755	3111.203369	1895.239380	48.905678
736.474304	728.092346	3060.305908	1877.778320	49.295914
736.794617	716.278259	3017.804932	1868.044556	50.043583
737.114807	716.946960	2986.597656	1853.778442	50.088394
737.434998	726.234802	2989.421143	1849.246094	49.620804
737.755188	739.906494	3001.904297	1840.181274	48.641727
738.075256	737.157288	3006.585205	1845.307983	48.829514
738.395325	735.225403	3008.219727	1846.868530	48.906548
738.715271	731.138733	3026.795898	1864.255249	49.359131
739.035278	729.727051	3055.922607	1873.245972	49.158333
739.355164	728.315247	3078.287354	1873.394531	48.727356
739.675049	725.417480	3079.327393	1877.481079	48.942554
739.994873	734.631042	3077.916016	1880.676147	48.907631
740.314636	733.219238	3065.135986	1876.886719	49.044094
740.634277	732.178955	3046.931641	1865.592651	48.964787
740.953979	729.652649	3016.913330	1857.047852	49.290195
741.273499	721.182190	2984.888672	1838.472168	49.356663
741.593140	720.587830	2941.644775	1822.422852	49.608589
741.912598	723.262695	2904.939209	1805.481812	49.604931
742.232117	726.457703	2861.100586	1782.967896	49.493538
742.551453	738.866211	2839.850342	1759.116821	48.560604
742.870850	731.807434	2821.199951	1735.934448	48.058323
743.190063	744.141785	2797.125977	1736.083008	48.317043
743.509338	741.169617	2759.305908	1714.386719	48.223557
743.828552	747.856934	2713.312256	1687.191895	47.792233
744.147705	730.767273	2698.006104	1667.278687	47.605377
744.466797	726.680664	2672.594482	1669.805054	48.466915
744.785828	727.572266	2651.269775	1659.848267	48.462711
745.104858	731.361633	2620.582764	1650.783569	48.666718
745.423706	731.287415	2606.316650	1631.984985	48.036453
745.742615	728.018066	2599.034912	1633.991211	48.421432
746.061401	737.454529	2585.511963	1623.663086	47.953518
746.380249	736.414307	2584.620361	1629.161499	48.303444
746.698975	736.265625	2578.750244	1623.886108	48.175190
747.017639	737.677429	2571.245850	1626.709351	48.486435
747.336304	738.643372	2564.409912	1623.365845	48.457588
747.654907	744.884827	2549.177979	1620.022095	48.503052
747.973389	743.398743	2549.103760	1622.845703	48.703800
748.291931	735.448425	2540.113037	1616.455688	48.818340
748.610352	731.658936	2549.549072	1626.040894	49.198902
748.928711	727.423645	2554.155762	1628.418457	49.322765
749.247070	733.293518	2560.843262	1632.950806	49.227512
749.565308	724.302917	2562.329346	1625.149048	49.011600
749.883545	729.206848	2551.852783	1613.186401	48.499794
750.201782	726.086182	2543.976563	1606.127563	48.410034
750.519836	728.612488	2530.750732	1606.796387	48.730110
750.837952	727.943787	2518.639404	1601.892456	48.804985
751.155884	729.355530	2506.156494	1586.511719	48.241539
751.473877	730.470032	2492.410645	1571.428223	47.729088
751.791809	731.287415	2487.803711	1564.443848	47.432320
752.109619	732.253357	2479.333252	1562.660522	47.531151
752.427490	728.612488	2463.358154	1562.437622	48.066132
752.745300	727.349304	2453.104248	1565.186890	48.549049
753.062988	726.160461	2453.921631	1566.524292	48.638885
753.380615	730.767273	2458.082764	1556.121948	47.782509
753.698303	729.949890	2453.847412	1551.292114	47.644493
754.015808	735.894104	2434.528564	1547.799927	47.797558
754.333374	738.643372	2423.606201	1544.753540	47.841419
754.650757	736.414246	2414.689697	1533.905273	47.518486
754.968262	735.968445	2426.652588	1539.478027	47.525707
755.285583	727.943787	2426.875244	1543.936401	48.029758
755.602905	725.491760	2424.720947	1538.140625	47.824558
755.920105	720.439209	2411.940674	1534.351196	48.117722
756.237305	727.423645	2412.832275	1537.174805	48.044796
756.554443	727.349304	2395.742676	1541.261353	48.784184
756.871582	733.888000	2382.293945	1527.738281	48.158661
757.188599	737.825989	2368.473633	1522.016968	48.090767
757.505615	740.500916	2394.405273	1520.976563	47.189892
757.822510	739.460693	2415.656006	1531.304688	47.240555
758.139465	735.819824	2439.061035	1540.815430	47.262573
758.456238	738.643311	2438.243652	1551.143555	47.805370
758.773010	735.151123	2450.801025	1557.682251	47.942829
759.089783	732.253357	2455.927979	1561.025757	48.081722
759.406433	730.395752	2475.097900	1561.174438	47.617222
759.723145	733.293640	2480.001953	1561.546021	47.417900
760.039673	731.287415	2491.593018	1559.317017	47.038967
760.356201	732.624817	2484.534424	1568.604858	47.718216
760.672668	735.002502	2485.797607	1573.211548	47.875904
760.989136	735.596924	2488.323975	1574.623413	47.869774
761.305481	731.733154	2497.686279	1587.403320	48.453732
761.621826	728.092285	2497.611572	1594.164917	48.943951
761.938049	734.259460	2508.905762	1604.270020	49.024448
762.254333	733.145020	2542.564697	1603.452759	48.098721
762.570496	735.299744	2598.960449	1618.015991	47.364643
762.886597	730.024231	2685.671631	1645.507935	46.812309
763.202637	736.860046	2799.652100	1694.993652	46.448387
763.518677	732.401917	2957.470947	1755.401733	45.976093
763.834656	730.024231	3104.144531	1832.082031	46.419628
764.150574	725.863281	3232.911377	1888.329468	46.367924
764.466370	726.680603	3284.031494	1924.588867	46.841763
764.782288	731.138733	3293.988281	1930.607422	46.802151
765.097961	735.522644	3266.793213	1921.691284	46.860607
765.413696	734.259521	3210.546631	1888.849487	46.625851
765.729309	733.813721	3132.156982	1846.348267	46.387627
766.044861	733.590820	3014.015625	1808.379761	47.131084
766.360474	734.482422	2877.967041	1758.076782	47.753754
766.675903	734.482422	2734.563232	1699.972046	48.272530
766.991394	723.708496	2618.650879	1631.836304	47.923767
767.306763	727.200684	2533.053955	1596.319702	48.127888
767.622131	727.720886	2467.147705	1549.806152	47.261848
767.937378	736.339905	2402.578369	1521.125366	47.099228
768.252625	736.711426	2339.718262	1485.905762	46.736816
768.567810	737.528809	2283.322510	1471.565308	47.486057
768.882996	733.813660	2235.768799	1441.472778	47.115864
769.197998	733.516418	2213.626709	1421.039551	46.450802
769.513062	724.674500	2189.032227	1402.315308	46.275635
769.828064	727.275085	2166.295898	1394.290649	46.352047
770.142944	725.566101	2135.162842	1382.996582	46.639618
770.457825	727.274963	2105.516113	1365.386841	46.299000
770.772705	727.795166	2072.228516	1352.606689	46.473969
771.087402	735.225403	2040.724121	1347.182617	46.875359
771.402100	739.163513	2017.616089	1339.455078	46.954540
771.716736	741.689758	2010.185913	1334.031128	46.696350
772.031372	734.631042	1997.628540	1316.792847	46.093658
772.345947	733.813660	1981.727905	1313.672119	46.466209
772.660461	727.869446	1961.591797	1303.269653	46.639359
772.974854	731.658875	1954.904663	1298.142700	46.309891
773.289246	734.110901	1947.697266	1294.576294	46.182568
773.603638	735.671204	1937.146118	1292.050049	46.307991
773.917908	731.361633	1926.520874	1286.997437	46.490528
774.232178	739.163513	1913.369263	1283.579590	46.364620
774.546265	732.030457	1903.189819	1271.765503	46.085533
774.860474	729.429749	1874.286011	1259.431152	46.294147
775.174561	723.262695	1857.939453	1248.731567	46.310005
775.488586	724.600098	1841.369995	1240.261108	46.174328
775.802551	726.977844	1834.905640	1246.353882	46.878151
776.116516	723.188416	1828.515625	1244.347656	47.149773
776.430359	728.835388	1817.295898	1245.387817	47.457161
776.744202	732.773438	1811.277344	1239.815063	47.013424
777.057922	735.819824	1804.292969	1236.991699	46.905426
777.371704	738.048889	1801.618164	1235.505737	46.772396
777.685303	725.194519	1788.540649	1235.951538	48.032993
777.998962	722.445374	1781.407715	1226.960938	47.642445
778.312500	723.114075	1785.568726	1221.016602	46.863419
778.626038	733.887939	1793.741821	1212.248901	45.134613
778.939453	731.881775	1786.311890	1221.388062	46.423775
779.252869	730.024231	1766.473022	1215.889648	46.877903
779.566223	723.336914	1767.810547	1203.555420	45.977081
779.879578	726.606262	1774.869141	1190.923950	44.294010
780.192749	724.377258	1777.915527	1200.806274	45.221802
780.505920	729.950012	1768.553345	1216.409790	46.837883
780.819031	729.429871	1760.602905	1216.929810	47.276245
781.132141	728.389465	1753.766968	1206.527466	46.630440
781.445190	725.566101	1736.306030	1202.440796	47.180752
781.758118	722.965515	1725.829468	1195.456421	47.114159
782.071045	724.971680	1720.999634	1188.100464	46.497570
782.383911	720.959290	1714.683960	1174.354492	45.625839
782.696838	727.943787	1703.538452	1162.466064	44.539223
783.009583	735.076843	1694.399292	1157.487671	44.032204
783.322266	740.278015	1682.362183	1152.063599	43.710064
783.634888	737.825989	1662.969116	1155.110107	45.104816
783.947510	724.154297	1648.182983	1162.911987	47.483124
784.260132	724.748718	1638.969360	1151.023438	46.627117
784.572571	719.696228	1623.440063	1147.308350	47.315632
784.885010	723.336975	1612.963501	1141.141235	46.964008
785.197449	722.816833	1603.972778	1140.175293	47.364880
785.509766	725.788879	1614.449585	1132.967896	45.819401
785.822083	726.977783	1607.910767	1120.485107	44.669384
786.134277	728.389587	1607.093628	1117.067139	44.233044
786.446533	733.070618	1595.205078	1120.410767	44.928043
786.758606	732.476257	1590.301147	1119.221802	45.084438
787.070740	730.618652	1594.313477	1129.624146	46.197510
787.382690	730.618652	1614.598022	1129.772827	45.154240
787.694641	737.231628	1635.700073	1143.964600	45.269588
788.006653	743.101563	1661.706055	1155.109985	44.851559
788.318481	742.209961	1675.377808	1174.280273	46.301456
788.630310	735.151123	1701.309448	1181.338989	46.181652
788.942017	733.219238	1717.433105	1183.642212	45.764748
789.253784	731.584534	1740.838501	1183.270874	44.754478
789.565430	736.414246	1741.284302	1180.670288	44.210297
789.877014	732.179016	1727.612671	1181.784790	45.166824
790.188538	730.024231	1703.389771	1176.509155	45.870220
790.500061	723.857117	1678.498413	1172.273926	46.972282
790.811462	721.850891	1662.820679	1156.001831	46.138668
791.122925	720.587708	1641.049805	1142.924438	45.883121
791.434204	723.634216	1619.873535	1129.624146	45.299278
791.745483	730.172852	1605.235962	1123.605591	44.960499
792.056702	733.293518	1584.282593	1112.608887	44.573471
792.367920	737.677429	1574.400391	1109.191040	44.401031
792.678955	732.773438	1548.171509	1096.633911	44.623661
792.990112	731.436035	1549.731812	1091.878540	44.047947
793.301086	727.720886	1539.403809	1083.853760	43.875862
793.612122	730.915955	1535.540039	1090.912598	44.740974
793.922974	731.287415	1523.280151	1086.528687	44.854107
794.233826	730.247070	1511.911743	1072.411255	43.773781
794.544556	729.652649	1507.305054	1073.228516	44.181160
794.855286	727.720886	1504.333008	1067.878784	43.800232
795.166016	731.287415	1510.871582	1080.435913	44.786503
795.476624	731.807556	1526.252319	1076.052124	43.331467
795.787292	734.631042	1536.060181	1086.751587	43.936581
796.097778	726.829163	1553.744263	1089.129395	43.813473
796.408264	725.194519	1558.202515	1101.240723	45.143169
796.718689	719.324707	1561.694702	1108.299438	46.176231
797.029053	731.064514	1553.521118	1111.345825	46.237251
797.339355	734.036621	1551.515137	1109.636841	45.946190
797.649658	740.129456	1558.796875	1110.454102	45.235054
797.959839	732.476257	1556.047485	1114.838013	46.427284
798.270020	732.178955	1550.400757	1110.231201	46.204128
798.580078	735.894104	1535.317017	1097.005371	45.171494
798.890137	735.968445	1532.345093	1084.374023	43.748844
799.200195	725.789001	1520.753784	1077.017944	44.181698
799.510071	725.566101	1501.955200	1084.968262	46.291500
799.820007	720.439209	1484.494141	1070.702271	45.842655
800.129883	729.652771	1479.367065	1061.711548	44.291374
800.439575	716.946960	1469.113403	1044.473389	43.544407
800.749329	723.114075	1458.562378	1057.179199	45.423332
801.058960	722.296692	1449.794556	1053.612671	45.541847
801.368591	729.132629	1452.246704	1056.659058	45.293880
801.678162	727.869446	1456.110352	1046.999634	43.822063
801.987671	722.445313	1443.553223	1049.526001	45.358078
802.297119	721.925293	1422.079712	1044.399048	46.057518
802.606506	726.977844	1409.374023	1045.959473	46.744347
802.915894	724.005676	1406.253296	1044.696289	47.005016
803.225159	730.321472	1412.940430	1047.668457	46.489624
803.534424	725.417480	1413.609253	1039.866577	45.692074
803.843628	732.401855	1412.048828	1039.420776	45.173294
804.152771	739.609192	1409.671265	1029.389771	43.246826
804.461792	738.346130	1408.407837	1032.584961	43.912201
804.770874	741.169678	1407.813599	1027.755249	42.989304
805.079773	727.423645	1419.182007	1035.557007	44.543495
805.388733	736.860046	1425.274780	1030.281616	42.622791
805.697571	730.470032	1438.129028	1038.454834	43.521641
806.006470	730.767334	1442.141602	1037.117310	43.064529
806.315125	724.971680	1454.847290	1047.148315	44.141308
806.623901	731.733215	1455.293091	1041.129761	42.760323
806.932495	735.374023	1461.683228	1047.073975	42.915600
807.241150	726.011902	1450.091919	1046.331055	44.238087
807.549622	725.491760	1441.250000	1052.349487	45.665939
807.858154	727.572205	1424.754761	1047.148315	45.838226
808.166565	734.779602	1409.968384	1046.702393	46.197865
808.474915	732.624817	1413.832153	1036.820190	44.655327
808.783264	725.640381	1414.203735	1031.024536	44.350918
809.091492	728.240967	1421.262329	1022.108215	42.403778
809.399719	729.801331	1400.234741	1024.857422	44.009754
809.707825	733.145020	1393.918945	1021.959656	43.708542
810.015930	730.321472	1376.086304	1021.365234	45.069622
810.323975	728.315247	1369.101929	1009.848328	43.935539
810.632080	730.915833	1354.464355	1008.287903	44.482838
810.939880	732.253235	1349.783203	1005.538757	44.254616
811.247864	728.315247	1344.061890	1006.430359	45.167133
811.555664	722.816833	1336.334473	1004.795654	45.960995
811.863464	719.993347	1326.823608	1004.052673	46.810345
812.171143	716.426819	1325.932007	1002.640930	46.958439
812.478882	718.210144	1319.913574	999.000000	46.665821
812.786438	722.816895	1317.535767	994.839050	45.739620
813.094055	737.157288	1320.805176	992.758606	43.793755
813.401489	741.764099	1317.610107	990.975403	43.277420
813.708984	743.844543	1318.798950	987.483215	42.375301
814.016357	742.804382	1313.077759	979.086975	41.433216
814.323730	738.717712	1307.579346	977.749512	42.019321
814.630981	730.693054	1306.316162	977.006531	42.790756
814.938232	726.977844	1298.811523	981.241699	44.464653
815.245361	728.538147	1302.823853	981.241699	44.003105
815.552490	731.138733	1301.412109	982.579163	44.091209
815.859619	729.058350	1308.322266	985.031189	44.189331
816.166565	730.395752	1304.904419	982.059082	43.804966
816.473572	736.191345	1305.127319	978.195313	42.536240
816.780457	742.952881	1301.412109	975.891846	41.711006
817.087341	738.791931	1308.916870	977.229431	41.821972
817.394043	734.259460	1314.712402	981.093201	42.524334
817.700806	728.315247	1325.337646	987.780457	43.459877
818.007507	726.011902	1326.675171	1003.383972	46.177631
818.314209	726.680603	1329.052734	1006.207458	46.404346
818.620667	725.937561	1338.860718	1013.340515	46.890537
818.927246	725.640381	1356.619141	1010.294128	45.113049
819.233704	732.327637	1381.139038	1023.891418	44.938141
819.540161	731.510254	1404.990234	1037.191650	45.388344
819.846497	729.281189	1458.785278	1059.333862	45.243431
820.152832	730.692932	1510.276978	1071.148071	43.671383
820.458984	735.225403	1570.313843	1094.553467	43.028744
820.765259	736.191345	1639.860962	1113.872192	41.794128
821.071350	727.275085	1732.144897	1162.763306	43.337776
821.377502	726.160461	1901.257935	1221.388062	42.143536
821.683472	722.222473	2209.242920	1363.306274	43.111969
821.989441	721.479431	2762.203857	1597.062622	42.905510
822.295349	722.073914	3515.633057	1907.796509	42.444874
822.601196	733.590759	4360.826660	2246.914307	41.721123
822.907043	730.915833	5079.779785	2537.586426	41.543510
823.212769	720.736389	5487.181641	2719.107910	41.925827
823.518494	721.033630	5530.574707	2759.082764	42.375126
823.824097	719.324646	5268.434082	2663.157959	42.729973
824.129700	722.222412	4872.549316	2509.946045	43.074284
824.435242	720.439209	4441.668457	2336.374756	43.424778
824.740723	725.045959	4063.838867	2195.793945	44.050293
825.046082	729.206970	3739.433350	2069.776611	44.533848
825.351501	727.795166	3433.231689	1932.762329	44.538734
825.656799	725.863281	3123.240479	1789.581055	44.370064
825.962036	728.612488	2824.469482	1657.173462	44.304596
826.267212	730.321472	2594.056641	1554.932983	44.245102
826.572449	733.293640	2475.840820	1491.032715	43.484566
826.877502	732.773438	2491.370361	1478.847046	42.424366
827.182495	734.482422	2605.722168	1520.233765	41.990952
827.487488	737.825989	2756.630859	1592.901733	42.355541
827.792419	737.008606	2870.537109	1646.622559	42.634251
828.097290	735.522644	2899.217773	1659.699829	42.712914
828.402100	737.008606	2829.967529	1631.613403	42.743542
828.706848	742.358459	2685.300293	1564.889648	42.334316
829.011597	736.414246	2495.233887	1498.685913	43.339958
829.316223	725.120300	2328.126953	1415.244019	43.051834
829.620789	717.095520	2177.441162	1360.111328	44.031754
829.925354	726.606262	2053.950195	1305.424438	43.607246
830.229797	725.120178	1919.165039	1260.991577	44.878662
830.534302	728.240906	1793.370483	1206.527588	44.904083
830.838562	719.473145	1672.479980	1145.450684	44.698265
831.142944	722.222412	1570.982422	1095.147827	43.937675
831.447144	722.668152	1489.843750	1057.847900	43.690094
831.751404	725.640320	1435.751587	1040.758179	44.375843
832.055542	732.847717	1400.457642	1027.903809	44.195881
832.359619	727.349304	1393.399048	1022.108215	44.254791
832.663635	722.965515	1400.383423	1018.764648	43.665680
832.967651	716.872559	1439.912476	1030.727417	43.407681
833.271545	724.822998	1508.122192	1059.408203	42.714867
833.575439	731.733154	1621.359497	1108.522339	42.353645
833.879211	732.996338	1760.900024	1174.057373	42.908791
834.183044	726.160461	1896.205444	1236.397339	43.608315
834.486694	723.114075	1999.486328	1275.703491	43.293747
834.790344	732.773438	2028.092773	1285.585571	42.677673
835.093933	742.061279	2003.498535	1276.372070	42.357304
835.397522	744.141785	1932.613892	1246.056641	42.231941
835.700928	738.717590	1853.853027	1213.140503	42.543968
836.004395	735.225403	1773.754517	1182.602051	43.077915
836.307739	732.104736	1708.516724	1166.032593	44.441063
836.611023	729.949951	1646.325317	1136.905884	44.409306
836.914307	723.114075	1574.474609	1104.807129	44.833305
837.217529	724.600098	1496.679688	1070.404907	44.788750
837.520691	733.219238	1420.519409	1038.603394	44.432426
837.823730	737.380188	1356.247559	1010.665710	44.158981
838.126831	729.429871	1298.811523	974.331543	43.011868
838.429749	715.832458	1248.211304	954.641296	44.856937
838.732727	714.346375	1214.700806	932.870605	43.673889
839.035522	720.587830	1198.948608	935.248352	44.874191
839.338379	721.999512	1196.050903	937.848938	45.532917
839.641113	724.005676	1200.211792	935.917175	44.499954
839.943848	728.538147	1220.422241	941.786926	43.353462
840.246460	724.005676	1252.000732	954.195496	43.596966
840.549072	720.439209	1287.071655	972.028137	44.400726
840.851563	723.114075	1303.195313	973.365540	43.140762
841.154053	735.671204	1308.099487	970.096375	40.952759
841.456482	736.711426	1282.242065	962.294617	41.351151
841.758850	732.773438	1260.248535	957.390625	42.583469
842.061157	734.036560	1228.669800	943.570313	42.361439
842.363403	731.510254	1212.620483	935.471375	42.393845
842.665588	726.829285	1185.648438	926.629211	43.546555
842.967712	718.507324	1161.500122	920.907959	45.689373
843.269775	719.101746	1142.924438	912.883118	45.722275
843.571777	724.005676	1120.410767	905.750183	45.848175
843.873840	725.120178	1101.537964	896.016418	45.400681
844.175659	725.640381	1079.990112	884.573914	44.852165
844.477600	724.674377	1067.507202	873.799988	43.498055
844.779297	724.674377	1061.488647	867.558533	42.422237
845.081116	727.943665	1055.024292	867.038513	42.526165
845.382751	728.686707	1048.337036	864.883728	42.608128
845.684387	734.259460	1040.015137	862.728943	42.017040
845.985962	730.024231	1022.851318	859.533875	44.227345
846.287537	730.024231	1005.092957	857.750671	46.434376
846.588989	728.835449	999.371582	850.691895	45.042576
846.890381	735.819824	1004.795715	845.044861	40.607742
847.191711	738.569031	1008.139343	842.741455	38.643879
847.493042	740.872375	1000.411804	839.843689	38.133442
847.794250	735.596924	991.198303	834.493835	38.691853
848.095459	734.036621	987.111633	832.636230	38.960625
848.396606	723.188293	980.424377	838.283264	44.742935
848.697693	719.473206	975.669128	841.255432	47.534801
848.998657	716.798340	977.303711	838.654785	46.776943
849.299622	722.073914	989.563721	831.596008	40.944401
849.600464	721.925293	986.963074	833.230652	41.996037
849.901367	716.055359	981.316101	834.642517	44.705883
850.202087	716.649719	960.511230	833.973816	48.110954
850.502808	718.210144	961.997314	837.243103	48.826588
850.803467	723.411316	962.888977	843.707336	50.232670
851.104065	722.891174	965.712402	844.821960	50.214222
851.404663	722.445374	958.728027	847.125305	52.767281
851.705139	721.702332	952.338074	834.196716	48.775780
852.005615	722.816895	955.978821	836.277161	48.661575
852.306030	727.943787	956.127441	827.137939	43.471191
852.606384	733.590637	959.025208	831.744629	43.539902
852.906616	730.098572	950.629089	833.527893	46.900230
853.206909	728.761047	951.223450	835.757019	48.096203
853.506958	730.544373	950.926270	831.744629	45.920403
853.807129	737.900330	955.533020	834.642395	44.451992
854.107178	741.689758	958.356506	835.088318	43.107010
854.407166	745.181946	959.248108	838.729187	43.700153
854.707092	739.460693	964.597961	830.853027	40.594051
855.007019	742.730042	960.511230	832.190430	41.078106
855.306763	734.928223	953.006653	831.893311	44.463402
855.606567	736.191345	948.845703	830.630188	44.409550
855.906250	724.897278	940.003723	823.348450	45.768581
856.205933	723.262695	937.700378	813.837708	42.238384
856.505493	718.953125	928.189636	810.122559	43.572430
856.805054	729.281250	944.090332	813.168945	39.052212
857.104492	730.841614	956.498840	817.998718	38.623672
857.403931	735.151123	964.597900	817.627136	35.945595
857.703308	728.538147	960.659851	818.147278	38.604374
858.002563	728.463867	951.372070	816.884094	39.666656
858.301819	733.887939	955.012878	818.072937	38.071236
858.601013	745.033386	951.817871	817.775696	35.177837
858.900208	747.856873	955.532959	822.308167	35.849720
859.199219	746.519470	952.709412	817.775696	34.558537
859.498291	740.129395	948.325623	815.472412	36.188465
859.797302	734.556702	937.328796	813.391907	38.878723
860.096191	734.928223	937.700378	827.138000	45.474575
860.395020	729.429749	938.591980	836.722961	51.296646
860.693787	735.671204	945.427734	833.750916	46.758835
860.992554	726.160461	943.050110	827.806641	46.865391
861.291260	725.566101	935.174072	822.456787	46.224716
861.589844	722.742493	937.551758	827.063538	48.564499
861.888428	726.160400	937.551758	828.029480	48.189804
862.186890	728.761047	944.164734	825.131653	44.739532
862.485413	730.172852	936.437256	825.948975	46.433666
862.783813	730.841553	930.418701	825.503174	47.431091
863.082153	735.002502	931.904724	827.212158	46.830173
863.380371	739.237793	938.814880	830.407227	45.681313
863.678589	743.993164	946.319519	826.840637	40.947445
863.976746	738.717590	948.845764	823.719971	40.452633
864.274902	728.463867	948.994385	816.661194	39.993252
864.572937	724.451477	956.573242	819.559021	40.973125
864.870911	729.875671	958.802246	823.571350	40.928268
865.168884	737.751709	959.173828	830.258606	41.778526
865.466736	738.346191	943.198730	833.230713	46.318451
865.764587	738.791992	939.483582	833.602234	47.241760
866.062317	735.522644	942.975830	823.720032	42.514359
866.360107	731.658875	951.669250	821.639465	40.898338
866.657715	726.531921	953.824036	811.608643	37.430565
866.955322	725.788879	950.183167	819.038879	41.556316
867.252808	733.144958	948.325623	814.729309	37.914349
867.550293	731.807434	945.725037	817.775696	40.187557
867.847717	728.761047	942.752930	813.094727	39.409756
868.145081	726.011902	941.341125	822.308167	44.720482
868.442383	724.600159	944.610535	828.995422	47.450153
868.739624	722.519714	947.211121	830.778748	48.181210
869.036804	721.330811	949.960266	818.518799	42.508953
869.333984	725.937561	948.771484	815.695313	40.280109
869.631042	728.909668	949.291565	823.051208	42.717457
869.928101	731.138733	942.530029	834.345276	48.822514
870.224976	732.624756	946.839600	836.648682	48.560558
870.521851	732.104675	945.279236	836.797302	49.111221
870.818726	731.956116	945.353516	830.407227	46.135105
871.115479	728.612488	941.638367	830.332825	47.750225
871.412231	729.875671	943.867432	830.035645	46.805527
871.708862	729.058289	945.056335	834.939636	49.019585
872.005493	734.259521	950.554688	833.602234	45.929234
872.302063	736.265625	951.743469	832.116211	44.482803
872.598572	732.179016	955.978821	831.447449	44.355907
872.895020	731.584534	949.440186	830.481445	45.395615
873.191406	733.590820	951.372070	831.001648	44.728748
873.487671	735.448425	953.972656	829.367004	42.978565
873.783997	738.271912	959.694031	831.224548	41.979832
874.080200	737.603088	954.418457	828.995422	42.152149
874.376343	741.318298	958.430725	828.549622	40.177952
874.672424	738.643311	962.294495	830.630066	41.129562
874.968445	734.408020	968.164368	829.292664	40.591259
875.264465	734.779541	964.746521	839.174988	45.395844
875.560364	732.253357	965.266602	837.540222	45.184929
875.856201	723.336975	964.969421	837.540283	47.263233
876.152039	723.559875	971.582336	827.880859	42.061104
876.447754	723.559875	971.136536	827.955261	42.166893
876.743469	738.271790	975.594727	829.441223	38.415771
877.039063	740.649597	967.347168	833.082214	40.773537
877.334595	741.243958	966.826965	834.939758	41.534954
877.630127	731.658936	967.347168	837.911804	45.081959
877.925537	731.584656	968.313049	838.283264	45.072163
878.221008	737.231628	971.136536	837.837463	43.011425
878.516296	739.980774	974.480164	834.419617	40.272533
878.811646	730.544250	990.306641	839.917969	42.105293
879.106812	727.274963	1008.956604	853.738281	44.895832
879.401978	729.652649	1023.445618	862.654724	45.270679
879.697083	739.014832	1041.352661	865.478210	41.828499
879.992126	735.968445	1061.860229	873.428528	42.179672
880.287109	730.395752	1097.822632	886.877258	42.588474
880.582031	720.885071	1159.345337	911.620117	43.501102
880.876892	723.857117	1284.842651	954.641357	41.139072
881.171753	727.720886	1501.955078	1040.981079	40.460651
881.466492	735.225403	1829.853149	1170.862305	39.797722
881.761230	740.129395	2233.837158	1335.963013	39.889572
882.055786	737.083008	2622.142822	1486.723145	39.767445
882.350403	738.197510	2878.784912	1597.731445	40.154114
882.644958	726.680664	2955.093750	1638.820801	40.932274
882.939453	728.761169	2904.939209	1642.238770	41.976234
883.233826	723.708557	2787.094971	1600.406250	42.488293
883.528137	724.971680	2654.316162	1555.155884	43.029339
883.822449	728.761047	2529.115967	1501.286621	42.909626
884.116577	732.996338	2414.615479	1451.355103	42.718281
884.410828	737.231628	2298.406006	1397.411255	42.287373
884.704956	739.089172	2149.206299	1333.436646	42.148800
884.999023	737.528809	1969.913696	1264.483765	42.758961
885.292969	732.401917	1764.838257	1176.955078	43.058655
885.586914	725.714661	1573.285767	1095.444946	43.622334
885.880798	723.857117	1439.095093	1033.253540	43.257828
886.174622	726.309082	1341.758545	993.427429	43.402157
886.468384	735.374023	1286.328613	967.421387	42.117329
886.762085	736.191406	1219.901978	932.870605	40.660511
887.055664	733.665039	1177.846680	908.945129	39.461353
887.349304	728.538269	1149.017212	901.217590	41.067295
887.642822	728.686829	1127.989624	903.892578	43.877918
887.936340	734.408020	1114.020752	901.589172	44.039921
888.229736	730.172852	1076.943726	889.552246	45.961010
888.523071	723.114075	1059.333984	876.697937	45.679585
888.816284	718.061523	1041.204102	862.803223	44.791901
889.109619	727.869446	1032.139038	854.778503	41.709412
889.402710	740.872375	1012.968994	855.893066	42.272003
889.695862	740.872375	992.238586	854.852783	45.344364
889.988892	731.361633	978.864075	846.010742	46.322414
890.281921	718.210083	973.217102	834.122375	45.454552
>>>>>End Processed Spectral Data<<<<<
