Jaz Data File
++++++++++++++++++++++++++++++++++++
Date: Fri Jun 04 16:18:13 2021
User: jaz
Dark Spectrum Present: Yes
Reference Spectrum Present: Yes
Processed Spectrum Present: Yes
Spectrometers: JAZA3586
Integration Time (usec): 40000 (JAZA3586)
Spectra Averaged: 10 (JAZA3586)
Boxcar Smoothing: 1 (JAZA3586)
Correct for Electrical Dark: No (JAZA3586)
Strobe/Lamp Enabled: Yes (JAZA3586)
Correct for Detector Non-linearity: No (JAZA3586)
Correct for Stray Light: No (JAZA3586)
Number of Pixels in Processed Spectrum: 2048
>>>>>Begin Processed Spectral Data<<<<<
W	D	R	S	P
191.335022	0.000000	0.000000	0.000000	0.000000
191.713211	302.709259	311.922791	302.114868	-6.451282
192.091385	614.260559	623.697021	613.889099	-3.936432
192.469528	925.737549	936.511475	920.833679	-45.516090
192.847641	941.043945	939.334961	929.898621	652.160706
193.225739	943.644531	952.486572	931.904724	-132.772598
193.603790	944.016113	964.152100	947.136780	15.497957
193.981842	948.622864	970.021973	953.303894	21.874884
194.359863	958.876648	966.455505	957.613464	-16.667204
194.737854	973.662903	971.953857	959.916931	804.307007
195.115829	975.297607	974.554504	969.501953	779.926086
195.493774	979.532715	978.195313	973.960022	416.680359
195.871704	981.613220	970.690735	979.161316	22.448227
196.249603	985.922791	974.554504	976.634949	81.699577
196.627457	980.721680	972.399658	974.034424	80.356148
197.005310	977.675293	975.000305	972.622620	188.885849
197.383133	973.142761	974.108704	974.480225	138.462021
197.760910	981.613220	970.913757	986.665833	-47.223045
198.138687	975.669006	967.867249	985.551331	-126.667915
198.516449	972.771179	966.158203	979.829895	-106.740379
198.894180	962.220215	971.582336	967.124207	52.381199
199.271866	966.083984	966.381104	960.139832	-2000.595703
199.649536	964.152161	962.591736	963.854980	19.044825
200.027191	959.545410	962.071594	966.232666	264.717682
200.404816	956.053040	967.272888	970.765137	131.125626
200.782410	950.777649	981.687683	975.520447	80.047783
201.159988	955.755920	997.811279	982.207703	62.897530
201.537537	953.303955	1012.523193	986.145752	55.457985
201.915070	964.523621	1007.321960	984.213867	46.007034
202.292557	958.282227	998.182678	986.368652	70.391251
202.670029	960.659912	993.501648	987.185974	80.769363
203.047485	948.771484	991.049622	993.724548	106.326973
203.424911	953.303955	989.563660	993.204407	110.040749
203.802292	955.904541	989.340637	992.758728	110.222755
204.179688	961.254333	992.015625	992.238586	100.724815
204.557037	959.768250	994.764832	984.585388	70.913033
204.934357	958.653748	996.176575	990.752441	85.544441
205.311661	961.848694	999.074402	983.619446	58.483112
205.688934	962.294617	996.993958	988.820618	76.445259
206.066177	960.362732	998.405701	982.133301	57.226261
206.443390	955.681641	1001.600647	980.795898	54.692513
206.820587	951.743591	1001.600647	979.830017	56.333904
207.197769	950.331848	991.272644	978.343933	68.420959
207.574921	950.480286	994.319031	979.458496	66.101822
207.952042	943.793152	992.387024	978.864075	72.171494
208.329147	939.112061	993.353027	973.885742	64.109627
208.706223	954.492676	992.535706	986.219971	83.398445
209.083267	968.535889	993.724609	988.151855	77.875992
209.460297	972.102356	994.021790	993.650208	98.304779
209.837280	954.715576	986.740051	983.693665	90.487320
210.214264	943.644531	987.334473	982.207581	88.265282
210.591217	945.204895	989.563660	980.052795	78.559219
210.968124	945.873596	985.402649	979.384094	84.774353
211.345016	956.870422	987.260254	979.755676	75.305626
211.721893	954.938660	991.495605	979.904297	68.292458
212.098724	953.824036	997.439758	978.418274	56.388470
212.475555	952.560852	995.210632	975.223145	53.135777
212.852356	950.480408	987.928955	981.241699	82.142815
213.229126	952.858093	983.990906	972.102539	61.814030
213.605865	942.678528	983.247864	970.765137	69.231125
213.982590	943.124451	986.219971	965.117981	51.034378
214.359283	946.319519	983.247864	976.634949	82.092575
214.735931	942.381409	982.727783	975.966125	83.240974
215.112579	937.700378	985.105469	973.365540	75.234879
215.489197	934.876770	988.895020	967.644348	60.660198
215.865799	950.108887	995.507813	971.582458	47.299736
216.242355	955.755859	994.913391	968.238770	31.878695
216.618896	955.012878	990.455261	977.526611	63.522064
216.995407	939.557922	978.715393	978.492493	99.430756
217.371902	937.105957	977.898132	980.944519	107.468063
217.748367	939.409363	982.579163	972.251160	76.075859
218.124802	948.622864	984.511047	970.319153	60.455246
218.501236	951.966492	989.637939	971.359375	51.478996
218.877609	951.297852	990.009460	974.034363	58.733055
219.253983	951.817932	995.804993	984.511047	74.324394
219.630295	947.285339	992.387146	987.408875	88.962143
220.006592	949.068604	994.839111	987.557434	84.090897
220.382889	951.743591	992.164246	974.628845	56.617722
220.759140	955.087158	987.706116	976.560730	65.831573
221.135391	945.427795	989.712219	976.560730	70.302223
221.511581	942.158447	992.015625	986.517151	88.971550
221.887772	938.889160	997.216797	989.192078	86.241997
222.263931	945.873718	998.108459	989.637939	83.783745
222.640060	939.780823	1005.538757	986.665833	71.299393
223.016159	939.037842	1010.888489	986.071472	65.460274
223.392212	940.895447	1009.328125	988.894836	70.141037
223.768265	952.858093	1001.303467	988.746277	74.079689
224.144302	959.916809	992.758728	982.356262	68.325645
224.520294	958.802246	991.569824	980.795898	67.120163
224.896286	952.635193	994.467590	984.213806	75.488411
225.272217	952.040710	993.724609	990.381042	91.978760
225.648148	951.372009	997.439758	990.678223	85.322624
226.024048	950.926208	997.291199	988.672058	81.410240
226.399902	953.824036	999.817383	984.808289	67.366814
226.775772	953.303894	991.123962	982.802063	77.996078
227.151581	948.399902	991.346863	975.817627	63.840897
227.527374	942.158447	984.213806	976.486328	81.625465
227.903137	933.019226	987.185852	978.046692	83.127693
228.278870	942.530029	990.529541	977.155090	72.136276
228.654572	943.718811	999.074402	975.371826	57.181244
229.030273	953.972595	997.737000	974.851746	47.708065
229.405930	950.406067	990.232422	977.600891	68.283485
229.781555	946.542419	990.604004	983.693665	84.316635
230.157181	940.598145	997.142578	979.235535	68.331024
230.532761	937.328857	994.541992	976.783508	68.960831
230.908325	939.483643	988.895020	971.285156	64.360710
231.283859	943.124451	983.545166	971.953918	71.323494
231.659332	947.582581	991.495422	971.508118	54.484146
232.034821	944.387512	996.102234	971.805359	53.017490
232.410263	942.307129	995.656433	981.836182	74.094788
232.785690	948.028503	986.517151	989.860840	108.687469
233.161087	957.464844	984.213806	988.226135	114.999947
233.536469	955.978821	984.065247	978.938416	81.746231
233.911804	957.019104	987.111633	969.947754	42.962990
234.287140	958.579407	999.148682	974.331604	38.827900
234.662430	965.861084	1005.687256	977.155090	28.358252
235.037704	955.384338	1002.566650	977.452332	46.771751
235.412933	951.074768	990.901123	978.418213	68.656662
235.788162	940.449524	984.956848	969.576172	65.442368
236.163345	944.090393	994.096130	974.034424	59.881191
236.538513	943.495911	1003.978333	971.582458	46.437538
236.913635	949.737488	1009.551086	977.080811	45.714226
237.288742	943.718933	1006.281738	973.960144	48.337364
237.663834	935.396973	1004.869934	974.108704	55.722012
238.038879	934.728271	1003.532532	978.195313	63.174927
238.413910	935.025452	1013.266174	980.573059	58.214706
238.788910	941.861328	1008.956543	974.480164	48.615742
239.163879	935.248352	1011.185730	968.833191	44.227020
239.538834	939.260681	999.445862	964.300598	41.604790
239.913757	935.917053	1003.978333	968.312988	47.598186
240.288651	949.663086	1002.640930	971.805359	41.795345
240.663528	954.864258	1010.442688	980.275818	45.721981
241.038361	959.991150	1009.551086	983.173523	46.776440
241.413177	955.161438	1004.795715	980.721497	51.496788
241.787979	953.452454	1000.709167	981.613281	59.591167
242.162735	954.789856	996.845398	976.783508	52.296680
242.537476	952.932373	1002.417969	979.012695	52.702854
242.912170	953.601074	1010.888489	979.607117	45.395733
243.286865	954.195557	1017.352783	977.898132	37.529476
243.661514	955.755859	1018.393066	973.737122	28.706999
244.036148	951.594910	1016.758484	970.913635	29.646509
244.410751	952.560852	1018.838928	976.263428	35.762318
244.785339	947.805481	1021.885315	980.944519	44.734222
245.159882	951.669250	1014.529297	976.337708	39.243462
245.534378	944.684875	1009.179504	977.377930	50.691128
245.908890	950.183167	1006.058838	978.269592	50.265930
246.283356	946.913879	1007.842102	978.269592	51.463364
246.657791	945.650696	1010.591309	977.823914	49.542522
247.032196	938.740540	1018.170105	975.371826	46.117950
247.406586	931.013123	1030.132935	977.823792	47.226349
247.780960	936.139954	1043.581665	976.114807	37.206085
248.155289	939.929382	1048.634277	981.538879	38.277481
248.529602	944.090332	1046.405151	986.294250	41.249077
248.903870	940.895325	1037.711792	989.192139	49.884918
249.278122	938.146179	1027.755249	990.306641	58.208908
249.652344	946.096497	1018.467468	987.260254	56.878822
250.026550	953.675476	1008.882385	988.894958	63.795425
250.400711	960.139709	1010.591309	999.074402	77.172363
250.774857	949.068665	1017.947266	1000.560486	74.757355
251.148987	933.465088	1023.371399	995.953613	69.504051
251.523071	925.737610	1020.919434	979.086914	56.049885
251.897125	937.626038	1020.845032	981.984680	53.303509
252.271164	945.650696	1019.284668	977.303711	42.986973
252.645187	950.703308	1023.222839	982.281982	43.545063
253.019165	939.632263	1026.120605	978.269531	44.673382
253.393112	942.678650	1034.814087	987.260254	48.387032
253.767044	951.223450	1036.968750	993.724609	49.566750
254.140930	957.093445	1030.950317	994.913391	51.207077
254.514801	951.297791	1028.646851	996.919617	58.981747
254.888657	942.158508	1032.510620	988.077637	50.822418
255.262466	941.564148	1041.129761	986.963074	45.596992
255.636276	942.009827	1040.832520	981.687561	40.150429
256.010010	945.204895	1040.758179	982.504883	39.035801
256.383759	944.238953	1037.043091	981.390320	40.032017
256.757446	952.337891	1043.730347	978.715393	28.861794
257.131134	948.325623	1045.142090	981.241699	33.998428
257.504791	948.399902	1056.436035	976.263428	25.790932
257.878418	945.130615	1054.652832	980.944519	32.700127
258.252014	952.040710	1057.253418	978.418213	25.070642
258.625580	957.687805	1056.956177	984.362488	26.871281
258.999115	954.344177	1066.244141	984.065247	26.560392
259.372650	953.303894	1078.132446	985.031067	25.416599
259.746124	949.514465	1091.729858	976.783508	19.174467
260.119598	957.093323	1097.896973	980.350098	16.517168
260.493042	952.115051	1107.407715	976.337830	15.598147
260.866425	953.006653	1109.711182	981.167419	17.970613
261.239838	949.811707	1114.020752	976.634949	16.334814
261.613159	944.610535	1108.299438	979.755676	21.470694
261.986511	936.808777	1103.023926	983.173645	27.894489
262.359802	935.248352	1095.593628	982.504883	29.471733
262.733063	943.867493	1088.311890	978.938416	24.279877
263.106293	951.520691	1089.203613	974.777344	16.891459
263.479523	948.919983	1095.370605	974.331543	17.351624
263.852692	940.523743	1094.776245	981.241699	26.396950
264.225861	938.220398	1090.466797	989.266418	33.528557
264.598969	947.731140	1081.773438	994.764832	35.088696
264.972076	949.811707	1083.630981	999.966064	37.479172
265.345154	948.771484	1081.104614	996.696716	36.215595
265.718201	944.164734	1089.277954	992.535706	33.333263
266.091217	949.143005	1100.348999	986.814453	24.913992
266.464203	948.399963	1106.739136	986.294373	23.932428
266.837158	945.502136	1116.695557	991.792725	27.039934
267.210114	938.666260	1120.113525	992.981628	29.934521
267.583038	943.793152	1134.676758	989.266418	23.822510
267.955902	948.622803	1136.757324	982.504883	18.009497
268.328766	956.647461	1131.779053	976.412048	11.285563
268.701569	952.263611	1130.292969	984.065247	17.863142
269.074371	947.879700	1143.964722	983.990967	18.416128
269.447144	949.440186	1153.698364	991.124023	20.407427
269.819885	950.554749	1159.494019	981.167480	14.651498
270.192596	948.177063	1156.893433	986.814453	18.511911
270.565277	940.449524	1168.410278	979.161316	16.981779
270.937927	942.307129	1185.128418	996.845398	22.460251
271.310577	942.604309	1205.561646	997.737000	20.966402
271.683136	948.548523	1221.165161	1007.693542	21.695309
272.055725	949.960266	1232.161987	995.804993	16.245375
272.428284	952.263672	1236.917480	993.501709	14.487084
272.800812	951.817871	1244.273315	989.117859	12.754075
273.173279	947.582703	1239.740845	992.015625	15.208518
273.545776	953.675476	1235.802856	991.346924	13.352638
273.918152	952.189453	1229.338501	992.164307	14.423594
274.290558	944.684814	1225.028931	993.798889	17.519211
274.662964	938.666321	1226.812134	994.319031	19.314079
275.035278	939.112122	1221.759644	990.306641	18.112495
275.407593	940.821045	1228.149658	979.309875	13.395405
275.779907	948.697205	1232.607910	983.693665	12.326572
276.152161	947.434021	1244.942017	989.860840	14.260733
276.524384	959.248108	1255.270142	998.257019	13.177705
276.896606	948.177063	1259.431152	991.421143	13.893497
277.268799	948.994324	1266.861450	994.021729	14.165481
277.640930	946.690918	1262.254517	996.919617	15.917140
278.013031	942.827148	1269.313354	1002.269348	18.206650
278.385162	942.752869	1267.752930	994.839111	16.026533
278.757233	945.799316	1281.870483	988.894958	12.823368
279.129272	952.040771	1280.607300	988.894958	11.216659
279.501282	953.452454	1287.889038	986.963074	10.020022
279.873230	943.644531	1300.297729	990.529602	13.145844
280.245178	944.981995	1317.164429	992.981506	12.896770
280.617126	941.489746	1335.071289	999.445862	14.725313
280.988983	945.576416	1340.049683	996.622375	12.940284
281.360870	949.365906	1364.792358	988.746338	9.479520
281.732697	946.616699	1386.340210	987.037354	9.192288
282.104492	947.582703	1414.203735	992.387207	9.601904
282.476288	945.947937	1431.070435	994.690613	10.047499
282.848053	946.542297	1431.962036	1002.863831	11.602646
283.219757	947.582520	1432.853638	1003.309570	11.483694
283.591461	944.238953	1426.835083	1011.185730	13.872216
283.963135	951.372009	1433.596680	998.331299	9.738052
284.334747	951.669189	1433.893921	991.495422	8.258853
284.706360	948.028381	1443.553223	987.334656	7.932251
285.077942	947.359680	1460.717163	986.071472	7.540904
285.449524	943.273132	1486.203125	987.780457	8.197618
285.821014	947.434021	1500.171875	982.059082	6.264283
286.192535	944.238953	1528.555664	989.043518	7.667856
286.563995	944.907715	1542.004395	981.316101	6.097569
286.935425	949.960266	1561.694702	986.145752	5.915228
287.306824	950.703308	1560.654297	985.179871	5.652349
287.678223	949.365906	1551.515015	1002.566650	8.835145
288.049561	940.523865	1535.465820	1001.080566	10.178590
288.420898	934.059570	1525.880737	997.142517	10.659123
288.792145	936.214294	1527.812500	990.826843	9.231359
289.163452	940.077942	1538.512207	994.764832	9.138329
289.534668	941.861267	1550.549194	1001.229187	9.753425
289.905914	935.471252	1582.127808	1004.721436	10.708959
290.277039	933.910889	1609.248413	998.554382	9.572027
290.648193	939.780823	1636.294434	999.371582	8.555577
291.019318	945.873718	1641.569946	994.170410	6.942210
291.390381	950.108887	1657.990845	993.798889	6.171933
291.761475	951.743591	1652.864136	987.706055	5.129284
292.132507	954.418457	1653.458496	988.226257	4.836318
292.503510	957.390564	1632.876587	988.449158	4.597962
292.874481	956.721863	1629.161499	1000.560547	6.519349
293.245422	957.687805	1626.560913	998.554382	6.109766
293.616364	952.189453	1642.907593	1000.411865	6.981489
293.987213	954.567078	1657.025024	990.158020	5.066629
294.358093	941.935608	1692.690308	997.811218	7.442592
294.728943	944.684814	1731.104858	1003.309570	7.454637
295.099731	941.043945	1775.017700	1000.931946	7.181041
295.470490	947.433899	1808.602539	990.752441	5.030204
295.841248	939.780762	1822.497070	988.969238	5.572399
296.211975	939.855164	1834.905640	996.325195	6.309145
296.582642	943.198730	1861.654785	1001.080566	6.302080
296.953308	946.839600	1899.697754	1009.551086	6.581409
297.323883	950.703369	1949.629272	1005.464417	5.481993
297.694519	953.601135	1959.585571	1020.027771	6.603148
298.065063	954.195557	1963.598022	1006.578918	5.189542
298.435608	946.988098	1941.455688	1011.260010	6.462947
298.806122	939.483582	1913.815063	1001.600586	6.375346
299.176575	938.369080	1872.205688	1005.390076	7.176951
299.547028	936.288574	1846.274048	1002.938049	7.324235
299.917450	940.821045	1821.456909	993.575928	5.990544
300.287872	943.495911	1814.100952	990.083740	5.351202
300.658234	949.440186	1806.819214	981.910461	3.787155
301.028564	955.904541	1813.432129	979.755676	2.781384
301.398865	950.703308	1820.639648	981.761902	3.570215
301.769135	945.502136	1812.466309	981.836182	4.190951
302.139374	942.901550	1813.580933	984.659668	4.796039
302.509583	942.307129	1814.249512	980.870178	4.422660
302.879791	951.743469	1815.661255	988.300537	4.231545
303.249939	952.189392	1817.147339	988.226257	4.166314
303.620087	951.817871	1814.843750	990.306641	4.459747
303.990173	943.570313	1811.500366	989.786438	5.324868
304.360260	938.517761	1808.676758	1002.046570	7.300828
304.730286	946.022278	1810.608765	1002.269348	6.505661
305.100281	949.960266	1819.599121	1003.235352	6.126116
305.470276	947.433899	1824.503296	1000.634705	6.065746
305.840179	944.981934	1834.682617	1007.470520	7.023551
306.210144	935.768372	1849.171753	1007.544922	7.858144
306.579987	937.774597	1861.060181	1003.086731	7.073882
306.949890	943.347351	1866.855835	1001.749329	6.323925
307.319702	951.149231	1870.125122	1009.253906	6.322764
307.689484	954.864441	1895.759766	1013.563477	6.238636
308.059265	950.851990	1914.261108	1012.151672	6.362788
308.429016	948.622803	1952.898438	1002.863831	5.401010
308.798737	941.712646	1978.087036	997.216797	5.355608
309.168396	942.009949	2013.306519	998.405701	5.264252
309.538055	936.808777	2036.563477	1004.349915	6.141473
309.907684	941.638367	2059.820068	1008.065002	5.940594
310.277313	935.619812	2080.922119	1002.120850	5.806418
310.646851	946.765320	2104.996094	996.250916	4.272516
311.016388	944.610535	2121.194092	997.513977	4.496361
311.385895	946.988220	2124.834961	1000.263184	4.523081
311.755371	943.495911	2118.816406	1000.411804	4.842585
312.124817	941.638367	2125.503418	1001.674988	5.071239
312.494232	946.839539	2122.085449	1000.931946	4.602646
312.863617	943.198730	2120.896729	1001.080566	4.914828
313.232971	947.359680	2105.293213	1004.275574	4.915298
313.602295	947.136719	2111.757568	1010.888489	5.474037
313.971619	957.167664	2120.822510	1014.529297	4.929437
314.340820	957.241943	2122.383057	1013.934875	4.865757
314.710083	951.297791	2133.454346	1011.111389	5.059702
315.079285	946.319397	2145.937012	1015.643860	5.778880
315.448486	945.576416	2182.270752	1012.820374	5.437395
315.817596	948.474182	2189.180908	1018.393066	5.635407
316.186707	943.941711	2180.710205	1009.773987	5.322926
316.555786	950.257507	2142.741943	1013.414856	5.296283
316.924866	949.960266	2113.243896	1013.340515	5.448391
317.293884	952.337952	2093.702148	1022.554016	6.151942
317.662872	943.198730	2086.494873	1014.677917	6.252028
318.031830	938.517578	2089.095459	1008.585205	6.089777
318.400757	938.889160	2103.064453	1004.275574	5.616544
318.769684	944.016113	2119.039307	1011.334290	5.729094
319.138550	945.799316	2142.593018	1014.900879	5.773891
319.507416	944.833435	2152.921143	1020.993652	6.304196
319.876190	942.901550	2158.419922	1023.222717	6.607977
320.244995	947.136780	2165.032959	1034.516724	7.174663
320.613770	954.567078	2154.853271	1034.516724	6.660882
320.982483	956.721863	2146.754150	1037.711792	6.805692
321.351166	954.418457	2119.410889	1033.476685	6.786158
321.719818	949.068604	2111.237549	1041.129761	7.921495
322.088440	949.142883	2119.262451	1045.513672	8.235977
322.457062	948.102722	2138.729736	1053.538208	8.855459
322.825623	949.068665	2164.884033	1054.504272	8.672008
323.194183	948.474304	2192.450439	1058.516602	8.846014
323.562653	948.399963	2229.676025	1061.414429	8.820461
323.931183	944.759094	2267.793213	1066.912720	9.232840
324.299591	943.570251	2310.517334	1071.742432	9.376529
324.668060	950.108826	2355.990723	1072.411133	8.699330
325.036407	949.068665	2393.885010	1079.246948	9.010022
325.404755	949.514465	2418.033447	1080.881714	8.945560
325.773102	945.650818	2418.702148	1095.444946	10.168969
326.141388	943.793213	2432.893799	1105.624512	10.867722
326.509674	948.325684	2451.395508	1116.026978	11.157252
326.877899	954.715637	2471.085693	1117.513062	10.735995
327.246124	958.282227	2471.159912	1114.615112	10.333478
327.614288	948.325623	2467.964844	1118.850464	11.221403
327.982422	935.916992	2456.968018	1128.584106	12.666710
328.350525	941.861267	2445.079834	1147.382568	13.672084
328.718628	951.372070	2432.151123	1157.859253	13.944496
329.086700	960.734131	2433.488525	1165.215210	13.884262
329.454712	961.848694	2449.983643	1170.044922	13.990413
329.822693	954.046936	2467.741943	1180.670288	14.971533
330.190674	956.498962	2483.642822	1198.205688	15.827372
330.558563	955.681641	2485.500244	1212.174683	16.766239
330.926483	958.802307	2488.249268	1222.725708	17.256132
331.294312	952.783875	2499.840576	1232.087769	18.053890
331.662231	948.102722	2542.936279	1247.394043	18.766306
332.029999	951.000488	2581.202148	1269.313354	19.525982
332.397766	947.805481	2624.074951	1283.728149	20.039896
332.765503	943.495911	2658.328369	1301.412109	20.871788
333.133240	936.882996	2701.795654	1321.622437	21.799349
333.500916	939.186340	2737.386719	1348.891602	22.784182
333.868561	947.656921	2759.008789	1361.523071	22.848469
334.236176	951.892151	2761.535156	1378.612671	23.580370
334.603790	943.421692	2767.850830	1397.485474	24.887991
334.971344	937.923279	2775.949951	1417.547241	26.094505
335.338867	937.700378	2785.311768	1432.407837	26.775515
335.706360	949.514465	2788.878174	1447.268433	27.061203
336.073853	957.539124	2792.444580	1469.559204	27.904438
336.441284	959.025208	2797.274414	1500.692017	29.466450
336.808655	954.195496	2797.943115	1517.633179	30.559372
337.176086	950.406067	2765.250000	1530.561890	31.967257
337.543396	946.393738	2725.498291	1534.796997	33.073002
337.910706	944.907715	2670.217041	1538.809448	34.422913
338.277954	945.130615	2679.356201	1566.747192	35.844044
338.645264	942.827209	2740.804688	1590.970093	36.048443
339.012421	943.793213	2856.791016	1630.647461	35.904602
339.379669	941.266907	2965.124268	1666.833008	35.850655
339.746796	948.994385	3041.878906	1713.495117	36.528568
340.113953	955.681641	3098.572021	1748.714722	37.007637
340.481018	954.269836	3119.079346	1782.968140	38.280426
340.848114	954.344177	3121.011475	1805.184692	39.269550
341.215118	947.285400	3117.147705	1840.998657	41.187557
341.582153	950.554688	3129.705078	1871.462769	42.259960
341.949066	953.452454	3151.326904	1919.982422	43.975666
342.316010	952.783752	3168.342041	1961.071655	45.509426
342.682922	946.170837	3174.434814	1993.839233	47.017250
343.049835	938.443359	3194.348389	2026.755371	48.242813
343.416656	942.975830	3227.412842	2071.262695	49.390148
343.783478	951.149170	3273.703857	2136.351807	51.030128
344.150269	946.245178	3347.486328	2229.230225	53.430080
344.516998	947.879883	3430.259033	2319.210938	55.242611
344.883728	944.239014	3518.233643	2410.751953	56.974205
345.250427	956.201660	3579.979492	2461.797852	57.382763
345.617065	949.885986	3607.100342	2503.258789	58.458694
345.983704	951.966492	3631.619873	2519.085205	58.482143
346.350281	944.907715	3630.579346	2526.366943	58.885056
346.716827	950.108887	3612.672607	2531.865234	59.407269
347.083405	950.331848	3569.428467	2545.165283	60.892502
347.449860	961.031311	3534.357422	2566.936035	62.405800
347.816376	968.164368	3512.141357	2571.319824	63.017689
348.182770	961.923035	3484.128906	2578.601563	64.097801
348.549194	959.322449	3458.494385	2580.236328	64.858040
348.915558	950.777527	3444.525635	2617.387695	66.831535
349.281921	958.133606	3457.305908	2663.604004	68.241409
349.648193	953.526855	3492.227783	2731.516846	70.035423
350.014526	947.805603	3540.970703	2773.348877	70.398262
350.380737	946.839600	3586.518311	2826.549805	71.209808
350.746948	942.827209	3636.300781	2869.571045	71.533798
351.113159	950.628967	3664.684326	2943.948242	73.444313
351.479309	952.040771	3710.306396	2987.341064	73.789131
351.845428	950.108887	3742.553711	3049.829346	75.192909
352.211517	954.344177	3781.414063	3099.538086	75.880470
352.577576	946.839600	3805.859619	3168.044922	77.691139
352.943604	952.189392	3835.506592	3234.620361	79.159897
353.309601	944.238953	3893.759766	3309.888916	80.204552
353.675537	941.564026	3969.622803	3402.024170	81.255363
354.041473	937.477356	4057.745850	3502.778564	82.214119
354.407379	931.310303	4133.534668	3592.685303	83.110199
354.773254	932.276184	4219.130859	3696.114502	84.087631
355.139038	924.177246	4282.140137	3790.404541	85.356133
355.504913	930.641541	4361.421387	3905.573975	86.713005
355.870636	927.595032	4415.885254	4003.430664	88.176025
356.236389	929.081238	4489.593262	4133.237793	89.991455
356.602081	926.034729	4584.774902	4272.704102	91.470543
356.967804	935.768494	4699.572754	4422.795410	92.646339
357.333405	946.393738	4820.388672	4567.908203	93.482681
357.699036	945.576355	4950.641113	4708.935059	93.964989
358.064606	946.542419	5091.371094	4845.057617	94.057327
358.430176	943.793152	5201.190430	4939.941895	93.863647
358.795654	955.012878	5261.301270	5006.962891	94.093788
359.161163	958.133545	5258.329590	5032.002930	94.736824
359.526581	961.774414	5234.105957	5051.173340	95.718201
359.892029	954.864258	5239.010254	5126.590332	97.375908
360.257416	952.783875	5312.867676	5268.137207	98.974091
360.622772	943.793152	5459.615234	5485.546875	100.574242
360.988098	943.941833	5642.623535	5731.786621	101.897621
361.353394	940.003723	5837.742188	6011.312988	103.543900
361.718658	950.034668	6058.570313	6271.595703	104.169991
362.083893	952.337891	6243.212402	6444.052246	103.795967
362.449097	958.505066	6395.830078	6520.732910	102.297134
362.814209	951.074768	6419.011719	6462.479004	100.794945
363.179382	952.486572	6309.415527	6289.279785	99.624115
363.544434	952.635071	6061.912598	6010.867188	99.000931
363.909546	956.201660	5772.058594	5715.291016	98.821236
364.274536	951.372070	5514.451172	5468.753906	98.998543
364.639587	949.514465	5350.687500	5294.068359	98.713547
365.004517	953.229553	5254.688477	5203.716309	98.815002
365.369507	959.173828	5193.239746	5146.206543	98.889175
365.734344	948.771484	5130.825684	5122.058105	99.790352
366.099274	946.765320	5087.804688	5093.748535	100.143532
366.464081	938.740540	5070.492188	5077.104980	100.160049
366.828918	939.037781	5086.020996	5074.875488	99.731239
367.193665	936.957275	5094.194336	5095.308594	100.026802
367.558411	944.461914	5116.856934	5111.878418	99.880676
367.923126	939.186340	5109.946777	5115.965332	100.144302
368.287781	934.059570	5110.466797	5092.337402	99.565910
368.652435	934.802551	5068.411621	5069.674805	100.030556
369.017059	951.149109	5059.346191	5032.151855	99.338043
369.381653	963.260498	5061.798340	5004.808594	98.609505
369.746185	962.443115	5071.978027	5007.558105	98.432419
370.110687	952.486572	5070.046387	5051.098633	99.539841
370.475220	948.399902	5083.271973	5117.079590	100.817619
370.839661	946.913879	5150.144531	5182.020020	100.758354
371.204041	948.622864	5206.391113	5229.128418	100.534019
371.568451	947.508362	5248.298340	5279.729004	100.730812
371.932770	949.514465	5290.651367	5319.331543	100.660660
372.297150	955.756042	5339.096191	5335.158203	99.910164
372.661377	959.545410	5383.975098	5337.758789	98.955429
373.025696	955.235840	5397.869629	5333.746582	98.556641
373.389862	950.406067	5389.250977	5339.542480	98.880150
373.754059	949.217285	5388.062012	5355.071289	99.256775
374.118225	953.006653	5400.841309	5384.940918	99.642517
374.482361	955.161438	5432.494141	5434.649902	100.048149
374.846436	951.669250	5499.367188	5472.989746	99.419983
375.210510	946.690979	5579.094238	5565.496582	99.706467
375.574524	949.663086	5670.337891	5658.375000	99.746582
375.938538	944.981995	5769.755371	5800.961426	100.646790
376.302460	947.582520	5873.332520	5932.403809	101.199234
376.666412	943.941711	6041.628906	6097.578125	101.097542
377.030304	954.121277	6178.048340	6234.369629	101.078140
377.394196	951.669250	6318.777832	6346.716309	100.520554
377.757996	952.040771	6432.238281	6417.451660	99.730186
378.121796	944.016052	6495.767090	6430.083496	98.816887
378.485565	941.712646	6507.506348	6375.842285	97.634407
378.849304	937.997498	6431.420410	6267.955078	97.024345
379.212982	940.895325	6341.514160	6125.813965	96.006012
379.576630	945.725037	6188.896484	5973.492676	95.891724
379.940277	947.954102	6082.718262	5853.271484	95.531502
380.303864	951.892273	6000.613281	5763.067871	95.294937
380.667450	953.229675	6006.334473	5752.591309	94.978470
381.030945	953.452576	5999.053223	5751.773438	95.099098
381.394501	946.839600	6022.904297	5800.515625	95.618874
381.757935	943.570251	6040.959473	5827.190918	95.806313
382.121399	939.334961	6043.857910	5861.666504	96.430786
382.484741	943.198730	6083.238281	5914.570801	96.718559
382.848145	945.947998	6108.724121	5972.155762	97.354752
383.211487	952.560852	6170.989746	6080.638184	98.268608
383.574768	946.542297	6239.050781	6188.599609	99.046745
383.938019	943.198730	6301.762207	6281.700684	99.625618
384.301270	943.941833	6397.092285	6369.601074	99.495865
384.664459	947.062500	6466.342285	6457.872559	99.846542
385.027649	945.427917	6535.369629	6531.283203	99.926895
385.390778	943.198730	6597.709473	6603.876953	100.109070
385.753876	953.080994	6623.195313	6638.576660	100.271271
386.116943	954.715637	6684.718750	6699.579590	100.259354
386.479980	955.755859	6687.839355	6754.414551	101.161446
386.842987	946.170837	6740.371094	6860.146973	102.067169
387.205994	954.715637	6789.039551	6949.682129	102.753403
387.568909	947.434021	6841.125488	7002.139160	102.731964
387.931793	947.136780	6881.397949	7035.056152	102.589340
388.294678	946.913879	6906.883301	7092.566406	103.115501
388.657471	955.384460	6945.744141	7147.476074	103.367607
389.020294	957.167664	6928.877441	7163.599609	103.930573
389.383057	949.737366	6937.125000	7171.847656	103.920288
389.745819	948.251282	6941.880371	7217.544434	104.599281
390.108521	945.799316	6984.604004	7304.255371	105.293289
390.471191	941.266907	7024.653809	7435.176270	106.748253
390.833801	939.186462	7132.467285	7590.765625	107.399925
391.196442	945.353516	7272.898926	7797.625000	108.292725
391.558960	947.434021	7422.693359	8002.328613	108.951538
391.921509	950.628967	7554.580078	8183.256348	109.519699
392.284027	952.189270	7704.894531	8312.839844	109.002991
392.646484	959.471008	7816.720215	8412.256836	108.684776
393.008911	953.526855	7850.306152	8419.538086	108.253593
393.371307	952.783875	7819.767090	8388.703125	108.285095
393.733673	953.898376	7763.593750	8325.544922	108.252220
394.096008	964.597900	7730.975098	8302.065430	108.440125
394.458344	954.789978	7739.892090	8350.957031	109.005981
394.820587	943.273010	7779.792480	8378.968750	108.764343
395.182831	937.105957	7847.704590	8395.835938	107.931747
395.545013	937.105957	7832.844238	8294.635742	106.696770
395.907196	936.734375	7763.297363	8166.389160	105.904755
396.269287	933.762390	7642.703613	8015.628906	105.558632
396.631409	942.530029	7538.902344	7905.661621	105.560020
396.993469	946.913879	7441.565918	7813.822754	105.731743
397.355530	948.920105	7355.968750	7757.947266	106.274002
397.717499	945.947937	7345.566895	7729.935059	106.006111
398.079468	947.731201	7328.402344	7743.309082	106.502563
398.441376	947.062439	7329.740234	7753.117188	106.633217
398.803284	944.164612	7314.433594	7776.671875	107.256180
399.165131	943.198792	7358.271973	7799.854004	106.883507
399.526978	943.793213	7392.525879	7825.637207	106.716225
399.888763	944.016113	7431.757813	7848.745605	106.427315
400.250519	943.273010	7435.770996	7864.199707	106.598824
400.612244	942.901550	7463.634277	7890.577637	106.547478
400.973938	948.177063	7456.872559	7914.279785	107.027634
401.335602	944.164734	7489.787598	7928.249512	106.698555
401.697205	949.588806	7527.459473	7987.394043	106.992149
402.058807	943.867493	7578.876953	8052.631348	107.140221
402.420349	946.616699	7651.991699	8183.182129	107.921860
402.781860	949.960266	7717.675781	8309.868164	108.750252
403.143341	951.223450	7818.429688	8457.507813	109.306229
403.504822	953.749756	7945.264160	8617.555664	109.615814
403.866241	945.873718	8114.302246	8803.312500	109.611732
404.227631	939.186462	8274.796875	8968.116211	109.451424
404.588959	942.307129	8437.965820	9139.680664	109.361610
404.950287	938.220398	8552.466797	9262.354492	109.323143
405.311554	946.765320	8614.434570	9337.624023	109.431664
405.672821	942.009949	8642.819336	9337.698242	109.023453
406.034027	944.684753	8643.487305	9294.899414	108.461212
406.395203	943.272949	8616.960938	9230.626953	107.997009
406.756348	947.285339	8549.567383	9142.132813	107.794571
407.117493	945.725037	8518.659180	9054.009766	107.069260
407.478516	946.690918	8511.897461	9005.861328	106.529419
407.839600	943.941833	8520.961914	8994.195313	106.245644
408.200592	948.994385	8495.178711	9023.024414	106.994865
408.561554	951.297791	8477.569336	9024.659180	107.269066
408.922485	954.864258	8491.686523	9063.446289	107.586220
409.283417	953.006653	8536.491211	9074.293945	107.091766
409.644257	950.183289	8635.239258	9193.996094	107.270683
410.005096	947.359680	8742.085938	9317.784180	107.385750
410.365906	951.817871	8844.030273	9445.361328	107.619293
410.726715	950.628967	8932.672852	9523.602539	107.403236
411.087433	946.616699	8998.059570	9537.273438	106.697105
411.448120	940.746765	9077.712891	9596.493164	106.375595
411.808807	946.245117	9085.663086	9584.307617	106.126289
412.169434	947.805481	9037.069336	9527.762695	106.065987
412.530029	951.446350	8993.006836	9466.983398	105.894089
412.890564	942.232849	8954.370117	9471.441406	106.453606
413.251099	947.285461	8978.443359	9540.023438	106.992523
413.611572	946.616699	8986.989258	9585.645508	107.445633
413.972076	955.384460	9047.025391	9636.915039	107.290108
414.332489	949.663086	9100.002930	9708.765625	107.469170
414.692871	946.988220	9206.181641	9839.760742	107.671196
415.053223	950.851868	9312.954102	9990.817383	108.106377
415.413574	950.926208	9491.579102	10174.642578	107.997787
415.773834	949.663086	9645.087891	10338.405273	107.973358
416.134094	940.523865	9788.491211	10489.463867	107.922417
416.494263	940.746765	9908.788086	10647.133789	108.233078
416.854462	945.799316	10135.633789	10924.282227	108.581749
417.214630	948.845764	10373.032227	11221.715820	109.005379
417.574738	950.034485	10659.914063	11554.815430	109.216400
417.934784	947.136719	10893.077148	11858.268555	109.704376
418.294861	948.102722	11212.281250	12229.707031	109.912392
418.654846	948.845764	11562.915039	12673.815430	110.466301
419.014832	947.508301	11937.473633	13123.791992	110.794563
419.374756	945.056335	12356.765625	13635.960938	111.209496
419.734680	951.520691	12767.065430	14149.168945	111.697334
420.094543	954.567078	13224.622070	14676.049805	111.829025
420.454376	956.647522	13616.866211	15127.067383	111.928711
420.814148	953.452454	14035.338867	15587.893555	111.867973
421.173920	951.000488	14444.598633	16048.942383	111.889664
421.533691	947.656921	14868.418945	16498.697266	111.711128
421.893341	945.947937	15194.163086	16753.705078	110.945526
422.253021	946.022278	15399.238281	16911.521484	110.463303
422.612640	941.935608	15485.058594	16902.531250	109.746689
422.972260	944.090393	15473.690430	16883.138672	109.700531
423.331757	945.056335	15398.199219	16816.341797	109.812004
423.691315	947.656921	15374.496094	16825.109375	110.054962
424.050781	936.585754	15464.179688	16971.857422	110.378029
424.410248	933.687988	15586.481445	17059.013672	110.049507
424.769653	934.728271	15726.691406	17152.115234	109.636475
425.128998	934.059570	15811.916992	17118.380859	108.781265
425.488373	932.350586	15787.840820	16987.310547	108.074249
425.847656	925.811829	15621.403320	16765.072266	107.782394
426.206940	931.979004	15389.875977	16485.248047	107.576294
426.566193	939.483582	15095.637695	16161.137695	107.526764
426.925385	950.257507	14787.875000	15821.351563	107.468605
427.284576	954.418457	14389.390625	15377.987305	107.358376
427.643677	950.703308	14092.625000	15040.132813	107.209808
428.002777	947.656921	13811.539063	14703.393555	106.933014
428.361847	946.393738	13493.671875	14368.437500	106.971756
428.720856	953.081055	13221.796875	14069.073242	106.905991
429.079865	951.372070	13022.741211	13876.108398	107.069351
429.438812	948.325623	12915.668945	13774.460938	107.176132
429.797760	943.347351	12826.135742	13677.718750	107.166527
430.156616	946.765320	12676.786133	13511.429688	107.115448
430.515503	953.378235	12606.645508	13386.156250	106.689201
430.874268	948.622864	12566.448242	13379.468750	106.998047
431.233093	946.393738	12602.484375	13357.995117	106.481682
431.591827	945.576355	12668.984375	13397.968750	106.218193
431.950562	944.164612	12680.799805	13399.976563	106.127625
432.309204	942.009949	12741.281250	13527.034180	106.659332
432.667877	936.808655	12810.977539	13675.936523	107.284378
433.026459	942.009827	12943.608398	13793.706055	107.083206
433.385010	939.929382	13067.620117	13876.924805	106.673195
433.743561	944.387512	13212.213867	14029.023438	106.658142
434.102051	939.334961	13384.372070	14177.479492	106.372879
434.460510	944.759094	13551.702148	14339.458008	106.248589
434.818939	940.598145	13626.078125	14365.093750	105.825684
435.177338	941.564148	13665.383789	14381.067383	105.624756
435.535675	933.539368	13593.756836	14319.026367	105.728729
435.894012	937.254578	13530.674805	14278.085938	105.934937
436.252289	940.375244	13512.618164	14259.286133	105.939018
436.610535	949.960266	13513.807617	14251.336914	105.870247
436.968719	954.492737	13642.872070	14382.628906	105.830193
437.326935	957.019043	13723.936523	14566.230469	106.597466
437.685028	958.059326	13881.829102	14749.832031	106.716331
438.043152	948.251282	13963.859375	14886.997070	107.092545
438.401215	948.994324	14159.573242	15100.988281	107.126221
438.759277	944.164612	14377.726563	15347.301758	107.217560
439.117249	949.142883	14734.081055	15724.015625	107.181274
439.475250	944.907715	14993.100586	16019.963867	107.309578
439.833130	943.495911	15298.856445	16420.677734	107.814651
440.191071	935.991394	15519.385742	16693.443359	108.050644
440.548889	939.632141	15789.625000	16981.367188	108.025200
440.906708	946.096497	16079.332031	17249.080078	107.729660
441.264496	950.331848	16271.403320	17421.386719	107.505898
441.622223	944.313293	16439.550781	17531.503906	107.047028
441.979950	946.616699	16507.685547	17528.603516	106.560722
442.337616	955.384338	16551.748047	17488.408203	106.005630
442.695251	962.517395	16432.267578	17315.134766	105.707054
443.052887	957.910706	16267.168945	17136.955078	105.681442
443.410461	950.183289	16080.000977	17015.250000	106.181496
443.768005	940.300964	15958.518555	16969.255859	106.730072
444.125458	943.867432	15855.756836	16922.667969	107.154770
444.482941	942.752869	15877.303711	16978.320313	107.372276
444.840393	952.189270	15967.877930	17114.888672	107.638748
445.197754	949.514465	16204.977539	17428.076172	108.017456
445.555084	945.947937	16466.226563	17701.806641	107.961075
445.912415	939.260742	16826.373047	18097.466797	108.000793
446.269714	941.712708	17074.392578	18365.255859	108.001541
446.626953	943.793213	17416.185547	18685.945313	107.708412
446.984161	949.068665	17712.208984	18925.275391	107.236511
447.341309	944.684814	17997.232422	19087.404297	106.393013
447.698456	951.669250	18149.404297	19169.359375	105.930756
448.055542	951.966492	18241.912109	19176.939453	105.407928
448.412598	950.628967	18153.046875	19061.099609	105.278633
448.769653	951.669250	18037.582031	18893.548828	105.009781
449.126617	949.440186	17746.537109	18556.509766	104.822098
449.483582	957.985046	17557.658203	18326.841797	104.633728
449.840515	952.635193	17210.294922	17985.048828	104.765472
450.197388	955.384460	17009.898438	17761.695313	104.682777
450.554230	948.474182	16810.841797	17570.140625	104.786797
450.911041	949.663147	16721.826172	17422.056641	104.439651
451.267822	946.839600	16587.785156	17292.398438	104.504929
451.624573	938.369080	16393.259766	17154.789063	104.927429
451.981262	940.969543	16257.584961	17095.419922	105.470108
452.337921	942.084167	16155.120117	17016.289063	105.660728
452.694580	952.486572	16144.643555	16925.789063	105.141769
453.051147	948.845703	16145.164063	16883.509766	104.858711
453.407715	951.074890	16051.691406	16734.906250	104.524414
453.764221	950.034668	16058.082031	16701.244141	104.257080
454.120728	948.399963	15855.829102	16457.904297	104.038757
454.477142	940.523926	15787.397461	16384.046875	104.018692
454.833557	941.192566	15575.188477	16195.540039	104.239113
455.189911	945.576477	15425.765625	16082.453125	104.535072
455.546265	955.755859	15260.442383	15947.964844	104.806274
455.902557	953.303955	15189.036133	15854.268555	104.672974
456.258820	956.350281	15220.614258	15869.277344	104.547470
456.615051	948.548523	15312.081055	15955.692383	104.480873
456.971252	944.536194	15321.071289	16011.344727	104.801392
457.327393	936.214294	15494.198242	16241.683594	105.134537
457.683502	947.656921	15707.372070	16535.105469	105.608055
458.039612	947.805481	16110.390625	17046.083984	106.171066
458.395630	955.904480	16523.439453	17545.326172	106.564217
458.751648	948.028503	16916.873047	18102.818359	107.426613
459.107605	952.486572	17511.666016	18786.476563	107.698509
459.463562	940.523865	18073.244141	19472.216797	108.165504
459.819458	945.576416	18680.447266	20070.947266	107.840485
460.175323	941.935547	19184.369141	20527.908203	107.364914
460.531158	948.845703	19727.892578	20858.333984	106.019699
460.886932	939.409363	20034.318359	20919.041016	104.633293
461.242676	947.136780	20179.580078	20757.951172	103.007271
461.598419	940.895325	19945.525391	20380.494141	102.288750
461.954102	947.656921	19559.001953	19855.023438	101.590546
462.309723	941.266907	18958.265625	19211.414063	101.405052
462.665344	943.421631	18339.470703	18563.568359	101.288208
463.020905	944.536194	17866.384766	18123.623047	101.520157
463.376373	949.217224	17502.748047	17826.189453	101.953911
463.731873	955.310059	17252.867188	17573.857422	101.969559
464.087341	956.647522	16995.037109	17318.181641	102.014816
464.442749	954.492859	16850.150391	17195.953125	102.175453
464.798126	953.526855	16737.728516	17157.166016	102.657326
465.153503	952.635254	16815.226563	17286.158203	102.968819
465.508820	954.418457	16892.128906	17363.802734	102.959480
465.864105	949.365906	17031.818359	17483.875000	102.810875
466.219330	939.632141	17295.964844	17692.964844	102.427185
466.574524	937.551697	17458.835938	17827.675781	102.232513
466.929657	937.254456	17687.093750	17977.693359	101.734940
467.284790	940.375244	17880.429688	18130.458984	101.475967
467.639893	937.477356	18091.300781	18225.193359	100.780540
467.994934	941.192566	18293.701172	18313.021484	100.111343
468.349945	943.495911	18329.070313	18211.818359	99.325577
468.704926	951.223450	18290.208984	18157.951172	99.237221
469.059875	952.560852	18064.998047	17946.855469	99.309608
469.414764	953.155334	17806.126953	17780.712891	99.849205
469.769653	946.988220	17605.880859	17597.857422	99.951836
470.124451	950.257507	17494.279297	17546.884766	100.317970
470.479248	950.851868	17376.953125	17448.656250	100.436516
470.834015	951.000488	17306.812500	17398.427734	100.560135
471.188721	945.353516	17371.974609	17462.626953	100.551865
471.543365	934.505371	17460.693359	17556.248047	100.578201
471.898010	933.762268	17566.648438	17734.054688	101.006477
472.252625	936.585876	17694.003906	17896.478516	101.208267
472.607178	947.508301	17934.521484	18174.669922	101.413719
472.961700	953.898376	18177.863281	18350.318359	101.001251
473.316193	955.607239	18435.396484	18626.205078	101.091599
473.670654	953.898254	18619.962891	18734.835938	100.650246
474.025055	950.703308	18859.144531	18942.958984	100.468018
474.379456	954.269775	19022.017578	19076.183594	100.299797
474.733795	953.601074	19158.289063	19261.048828	100.564468
475.088104	957.687744	19194.250000	19424.736328	101.263870
475.442383	952.486511	19184.517578	19441.083984	101.407227
475.796570	959.248047	19229.617188	19547.931641	101.742241
476.150787	954.864258	19403.486328	19774.779297	102.012581
476.504944	953.303955	19657.453125	20060.470703	102.154694
476.859070	951.594971	19943.220703	20393.570313	102.371307
477.213135	954.121277	20230.103516	20682.683594	102.347893
477.567200	956.350281	20645.455078	21171.298828	102.670738
477.921173	952.486572	21045.279297	21551.208984	102.517967
478.275146	942.158508	21492.656250	21997.320313	102.455727
478.629089	933.316467	21749.224609	22258.718750	102.447617
478.983002	930.047180	22141.990234	22674.587891	102.510841
479.336823	928.263916	22489.724609	23025.744141	102.486008
479.690643	939.260742	22932.197266	23511.833984	102.635559
480.044403	939.557922	23420.515625	24024.150391	102.685097
480.398163	950.183105	24027.718750	24780.255859	103.260910
480.751862	942.529968	24813.841797	25755.406250	103.944336
481.105499	946.468018	25780.294922	27062.166016	105.161797
481.459137	946.245117	27024.123047	28762.732422	106.666992
481.812744	950.183289	28631.289063	30862.750000	108.061317
482.166290	951.074890	30475.853516	33410.371094	109.939171
482.519806	954.567078	32802.863281	36461.160156	111.486633
482.873291	955.830261	35543.300781	39954.207031	112.752899
483.226715	951.669250	38880.164063	43750.332031	112.840393
483.580139	944.016113	42332.191406	47269.457031	111.929169
483.933502	948.102722	45887.355469	50354.730469	109.940918
484.286804	950.257507	49061.792969	52605.812500	107.366257
484.640106	956.276062	51666.472656	54066.968750	104.733757
484.993347	950.777588	53177.718750	54607.375000	102.737389
485.346558	954.418396	53527.015625	54283.265625	101.438484
485.699738	954.492676	52732.488281	53136.777344	100.780815
486.052887	962.814636	51050.203125	51496.171875	100.890381
486.405975	963.854797	48983.625000	49752.433594	101.601028
486.759064	963.706299	46930.343750	48274.328125	102.923828
487.112061	952.263672	45391.312500	47326.078125	104.353752
487.464996	941.415527	44630.671875	46931.011719	105.265228
487.817963	941.415466	44683.203125	47065.574219	105.446442
488.170868	945.204895	45071.886719	47111.718750	104.622673
488.523743	950.034485	45374.886719	47054.281250	103.780304
488.876587	940.152344	45339.000000	46574.136719	102.781914
489.229401	938.889160	44931.230469	45845.671875	102.078636
489.582153	935.619934	44037.812500	44747.777344	101.647163
489.934845	937.254578	42837.972656	43515.238281	101.616356
490.287537	929.972839	41565.835938	42455.089844	102.188347
490.640198	935.248291	40603.988281	41821.656250	103.069588
490.992798	940.226563	39983.632813	41528.085938	103.955734
491.345337	954.344177	39919.953125	41631.218750	104.391731
491.697876	954.715637	40192.125000	41820.691406	104.150543
492.050354	957.242004	40799.769531	42161.144531	103.416885
492.402832	952.412292	41309.488281	42140.343750	102.058762
492.755219	953.675476	41423.621094	41623.046875	100.492775
493.107605	949.217224	40857.656250	40443.195313	98.961472
493.459930	948.548584	39687.910156	38813.589844	97.743073
493.812225	948.771423	37975.078125	36832.605469	96.914429
494.164490	953.601074	35979.683594	34720.394531	96.404709
494.516724	956.870422	33902.027344	32789.269531	96.622391
494.868896	959.396729	32045.054688	31198.896484	97.277977
495.221039	958.802429	30596.671875	30096.462891	98.312263
495.573120	956.870422	29523.587891	29285.673828	99.167160
495.925201	952.040833	28945.884766	28937.640625	99.970551
496.277222	950.777649	28695.187500	28765.851563	100.254700
496.629211	953.898254	28679.734375	28800.031250	100.433884
496.981140	960.214050	28727.585938	28773.728516	100.166176
497.333069	964.375000	28846.916016	28900.193359	100.191078
497.684967	956.424622	28975.982422	28936.078125	99.857582
498.036804	952.783752	29081.640625	28973.232422	99.614601
498.388580	945.502136	29005.109375	28769.271484	99.159508
498.740326	944.461914	28870.544922	28532.619141	98.789925
499.092072	944.164734	28612.568359	28130.937500	98.259277
499.443756	940.523865	28332.744141	27780.228516	97.982948
499.795410	945.799316	28000.240234	27360.712891	97.636147
500.147003	945.799316	27644.994141	26979.615234	97.507866
500.498566	953.452454	27297.406250	26580.087891	97.277107
500.850098	950.926208	26923.664063	26215.484375	97.273376
501.201599	949.440125	26620.062500	25914.187500	97.250259
501.553009	944.164612	26339.794922	25613.632813	97.140602
501.904449	944.833313	26141.181641	25412.345703	97.107376
502.255859	944.833435	25943.318359	25248.880859	97.222084
502.607178	948.474304	25851.255859	25225.400391	97.486801
502.958405	952.263672	25763.130859	25177.998047	97.641624
503.309692	957.167664	25737.794922	25156.076172	97.652527
503.660919	959.471008	25764.617188	25186.244141	97.668335
504.012115	955.904602	25842.337891	25251.033203	97.623985
504.363251	948.028503	25954.906250	25376.015625	97.685074
504.714294	945.353516	26047.638672	25395.333984	97.401413
505.065369	941.118347	26092.515625	25409.302734	97.283600
505.416443	944.164734	26100.833984	25386.859375	97.161888
505.767395	947.136902	26075.203125	25416.134766	97.377159
506.118317	949.440186	26057.593750	25379.132813	97.297844
506.469238	952.635193	26060.640625	25377.945313	97.280968
506.820160	957.390564	26068.515625	25361.671875	97.185135
507.170929	965.266663	26096.898438	25385.302734	97.168526
507.521729	961.551453	26122.087891	25476.250000	97.433128
507.872498	956.053040	26222.767578	25574.625000	97.434799
508.223236	942.455750	26382.146484	25826.585938	97.816170
508.573883	939.483582	26578.453125	26024.453125	97.839226
508.924500	938.369080	26749.130859	26313.564453	98.312462
509.275116	947.805481	26940.681641	26506.603516	98.330009
509.625702	946.022217	27187.958984	26759.828125	98.368523
509.976196	943.495911	27445.791016	26972.630859	98.214645
510.326660	933.539368	27674.718750	27210.250000	98.263092
510.677124	933.019226	27886.181641	27435.015625	98.326111
511.027557	936.139954	28084.943359	27628.576172	98.319016
511.377869	950.554688	28321.671875	27860.845703	98.316376
511.728180	950.926270	28489.966797	27999.642578	98.219528
512.078430	954.641357	28638.349609	28095.716797	98.039886
512.428650	944.981995	28742.000000	28151.814453	97.876801
512.778931	951.669250	28852.265625	28207.021484	97.687347
513.129028	942.530090	28886.224609	28255.617188	97.743294
513.479126	952.189392	28953.689453	28237.634766	97.442802
513.829285	945.204895	28896.998047	28164.818359	97.380562
514.179382	950.183167	28854.201172	28061.906250	97.160645
514.529297	943.793152	28750.919922	27971.109375	97.195648
514.879272	948.176941	28759.240234	28000.609375	97.272194
515.229187	951.074768	28657.593750	27945.476563	97.429787
515.579163	950.926270	28612.267578	28004.250000	97.801926
515.928955	956.721924	28603.873047	28063.615234	98.045883
516.278748	952.783875	28774.322266	28345.148438	98.457405
516.628540	954.195557	29044.859375	28722.162109	98.851227
516.978333	943.124451	29434.501953	29210.626953	99.214233
517.327942	944.461914	30004.478516	29839.228516	99.431351
517.677612	943.050110	30565.687500	30484.400391	99.725594
518.027222	946.839600	31223.265625	31156.765625	99.780357
518.376831	946.839600	31946.232422	31834.703125	99.640221
518.726379	945.353516	32654.187500	32443.539063	99.335678
519.075867	942.455750	33199.125000	32885.714844	99.028389
519.425293	939.780762	33600.957031	33105.207031	98.482140
519.774658	944.313293	33800.679688	33124.152344	97.940956
520.124084	946.839600	33851.949219	32973.988281	97.331841
520.473389	938.666321	33597.238281	32639.328125	97.066895
520.822693	929.750000	33241.105469	32215.654297	96.826347
521.171997	932.647766	32722.916016	31714.927734	96.829254
521.521240	942.678528	32236.603516	31250.240234	96.848068
521.870361	943.347351	31778.828125	30893.585938	97.129143
522.219482	945.427795	31468.318359	30662.951172	97.361435
522.568604	949.960266	31246.521484	30537.453125	97.659576
522.917664	955.458679	31108.990234	30526.458984	98.068115
523.266724	951.074890	31152.083984	30701.365234	98.507607
523.615662	944.461914	31325.876953	31065.892578	99.144264
523.964600	947.805481	31750.072266	31553.468750	99.361725
524.313538	952.189392	32254.439453	32224.197266	99.903389
524.662354	955.161560	32878.062500	33059.730469	100.569084
525.011169	951.297791	33664.183594	34091.500000	101.306267
525.359985	955.532959	34621.277344	35248.468750	101.862999
525.708740	954.567078	35818.000000	36541.781250	102.076050
526.057434	958.950867	37087.613281	37975.453125	102.457436
526.406067	950.108887	38487.324219	39626.234375	103.034081
526.754700	947.582520	39940.164063	41398.281250	103.739471
527.103333	942.827209	41657.003906	43476.972656	104.470108
527.451782	939.334961	43560.121094	45750.417969	105.139038
527.800293	946.839539	45647.359375	48062.343750	105.402588
528.148743	951.520691	47847.015625	50211.550781	105.042137
528.497131	960.511230	49981.878906	52011.457031	104.140190
528.845642	956.870361	51902.082031	53453.824219	103.045906
529.193909	955.384277	53440.371094	54425.031250	101.876083
529.542175	955.087158	54534.558594	54840.753906	100.571480
529.890503	957.762024	55058.464844	54725.140625	99.383881
530.238770	946.170837	54906.144531	53964.652344	98.255203
530.586914	948.994324	54069.644531	52693.035156	97.408524
530.934998	940.375244	52576.234375	50857.613281	96.671654
531.283142	950.777649	50671.855469	48867.265625	96.370575
531.631226	947.582581	48418.996094	46818.292969	96.628067
531.979248	952.337891	46309.765625	45192.480469	97.536697
532.327148	953.006653	44541.878906	43966.777344	98.680626
532.675110	946.245117	43502.386719	43331.121094	99.597557
533.023071	949.960266	43144.546875	43144.839844	100.000694
533.370850	944.981995	43242.769531	43281.707031	100.092056
533.718689	948.474304	43675.582031	43637.542969	99.910973
534.066467	948.177063	44087.890625	43846.781250	99.441093
534.414246	948.399963	44314.066406	43770.917969	98.747513
534.761963	955.161438	44296.683594	43328.371094	97.765854
535.109619	956.573242	43916.550781	42717.300781	97.208450
535.457153	968.461670	43193.656250	41829.605469	96.769585
535.804749	956.647522	42148.441406	40862.332031	96.877754
536.152344	950.703308	41133.984375	39891.566406	96.908119
536.499817	943.644531	40159.066406	39076.542969	97.239548
536.847229	946.839539	39373.535156	38374.531250	97.400238
537.194641	946.690979	38704.285156	37741.695313	97.450607
537.542114	948.177063	38279.351563	37236.511719	97.206520
537.889404	952.560852	37919.281250	36740.765625	96.811958
538.236694	951.966492	37522.281250	36260.843750	96.550652
538.583984	948.920105	37117.703125	35877.812500	96.571930
538.931213	947.136719	36748.937500	35678.605469	97.010399
539.278381	948.697083	36484.644531	35661.218750	97.682838
539.625488	954.046875	36365.832031	35883.457031	98.637810
539.972595	958.430847	36510.722656	36408.632813	99.712845
540.319641	954.195496	37004.535156	37355.250000	100.972847
540.666687	950.554688	37895.429688	38546.097656	101.761185
541.013611	945.725098	39217.050781	40041.589844	102.154457
541.360596	945.353516	40693.519531	41447.769531	101.897575
541.707458	942.381409	42364.214844	42821.921875	101.104988
542.054260	937.254578	43726.480469	43790.980469	100.150742
542.401062	941.935547	44901.425781	44474.488281	99.028793
542.747864	943.496033	45498.453125	44578.878906	97.936089
543.094666	948.474182	45549.792969	44173.933594	96.915207
543.441284	954.121277	44937.093750	43182.292969	96.010269
543.787903	958.282227	43882.449219	41852.125000	95.269974
544.134460	954.864319	42526.941406	40288.128906	94.614624
544.481079	946.245178	41031.968750	38729.253906	94.255524
544.827637	930.567322	39371.972656	37179.222656	94.295868
545.174072	931.756165	37749.199219	35703.421875	94.443459
545.520508	932.721985	36336.410156	34503.730469	94.823479
545.866943	940.226624	35239.328125	33535.195313	95.031555
546.213318	953.155273	34420.511719	32802.496094	95.165390
546.559631	949.663086	33790.128906	32215.876953	95.206367
546.905823	946.245117	33215.542969	31760.400391	95.490631
547.252136	941.043945	32778.718750	31394.162109	95.651192
547.598389	944.090332	32419.095703	30937.943359	95.294197
547.944458	951.892090	32148.335938	30487.890625	94.677452
548.290588	948.622803	31729.490234	29871.400391	93.963493
548.636658	950.480408	31149.185547	29163.966797	93.426147
548.982727	950.108887	30421.166016	28369.595703	93.038696
549.328735	950.926270	29727.851563	27611.189453	92.644585
549.674622	954.121277	28984.447266	26879.755859	92.491379
550.020569	956.276062	28310.599609	26210.806641	92.323723
550.366455	950.777649	27559.173828	25529.154297	92.370758
550.712280	947.731201	26934.734375	24997.218750	92.544289
551.058044	949.663086	26397.822266	24593.234375	92.908760
551.403748	954.715637	25999.634766	24346.177734	93.398033
551.749512	959.025146	25746.265625	24176.470703	93.666924
552.095154	957.836365	25609.322266	24049.710938	93.673355
552.440735	956.647522	25631.615234	24049.859375	93.589630
552.786316	955.978821	25666.240234	24079.359375	93.578049
553.131897	951.743469	25736.158203	24101.648438	93.405090
553.477417	949.885925	25774.275391	24063.751953	93.109505
553.822815	947.656921	25806.375000	23992.052734	92.701462
554.168213	949.440186	25761.275391	23896.203125	92.483131
554.513672	950.554749	25680.507813	23772.041016	92.282776
554.859009	948.697083	25507.603516	23570.234375	92.111336
555.204285	945.725037	25291.310547	23347.177734	92.014435
555.549500	945.204834	24993.654297	23068.468750	91.994553
555.894714	948.399902	24722.076172	22796.818359	91.901726
556.239990	947.210999	24428.134766	22485.638672	91.727341
556.585022	941.564026	24184.123047	22254.779297	91.699089
556.930115	937.403137	23892.708984	22009.062500	91.794289
557.275146	944.313293	23670.171875	21841.509766	91.953384
557.620178	949.811707	23514.287109	21684.656250	91.891541
557.965149	951.966492	23388.564453	21553.658203	91.821815
558.310059	948.845764	23224.281250	21388.412109	91.758324
558.654968	946.542419	23088.380859	21252.138672	91.706909
558.999756	951.000488	22981.755859	21139.271484	91.636765
559.344604	952.932434	22973.880859	21070.617188	91.357033
559.689331	949.440186	22845.115234	21028.486328	91.703255
560.033997	945.947937	22767.912109	20983.164063	91.821320
560.378723	937.774658	22696.880859	21007.310547	92.235115
560.723389	940.969727	22733.585938	21001.142578	92.050308
561.067932	935.545593	22804.396484	21056.052734	92.005325
561.412476	938.294861	22819.257813	21051.892578	91.922821
561.757019	940.375244	22821.783203	21057.169922	91.935562
562.101501	941.786926	22823.197266	21066.603516	91.972206
562.445862	943.421631	22813.091797	21057.167969	91.970963
562.790222	937.700378	22787.009766	20999.435547	91.818626
563.134644	937.031677	22736.039063	20948.462891	91.799736
563.478943	937.031677	22742.281250	20932.861328	91.701904
563.823181	936.214294	22748.298828	21001.441406	91.991333
564.167358	941.043945	22772.669922	21056.871094	92.140770
564.511536	939.483582	22787.974609	21136.150391	92.439644
564.855774	940.152344	22822.898438	21150.863281	92.359116
565.199768	936.957336	22920.904297	21286.763672	92.566666
565.543823	937.180176	23095.367188	21494.439453	92.775009
565.887817	940.152344	23317.458984	21786.523438	93.158539
566.231812	938.294739	23546.234375	21994.201172	93.135010
566.575745	938.889099	23741.726563	22124.822266	92.909195
566.919617	937.700378	23958.244141	22249.357422	92.576691
567.263428	947.136780	24106.255859	22340.970703	92.377579
567.607239	953.081055	24229.373047	22376.414063	92.039276
567.950989	962.443176	24229.593750	22371.287109	92.013176
568.294678	951.594971	24225.062500	22331.458984	91.863678
568.638367	949.143005	24105.734375	22214.505859	91.832870
568.981995	942.307129	23980.236328	22011.068359	91.452499
569.325623	950.183167	23763.943359	21812.677734	91.446976
569.669128	945.056335	23585.095703	21674.994141	91.563171
570.012573	949.440186	23441.318359	21620.455078	91.904350
570.356140	944.759094	23399.859375	21637.250000	92.150513
570.699524	947.805481	23370.507813	21639.703125	92.281013
571.042908	942.975769	23424.005859	21725.671875	92.445480
571.386230	948.325623	23544.228516	21859.117188	92.542404
571.729492	947.136780	23718.914063	22075.486328	92.783051
572.072815	949.960266	23831.187500	22262.728516	93.145218
572.416016	941.935547	23947.099609	22351.818359	93.065552
572.759094	940.672424	24061.228516	22446.406250	93.015640
573.102234	936.734436	24205.150391	22455.916016	92.482368
573.445374	939.037781	24295.802734	22473.601563	92.198402
573.788391	940.375183	24289.412109	22421.291016	91.999153
574.131409	936.660095	24264.521484	22345.650391	91.774338
574.474365	928.263916	24164.359375	22252.775391	91.773216
574.817261	933.910889	24048.593750	22110.039063	91.613319
575.160156	935.694153	23862.765625	21921.458984	91.532692
575.502930	949.811707	23641.787109	21700.035156	91.443001
575.845703	943.793152	23454.843750	21465.015625	91.160660
576.188477	954.121277	23252.515625	21283.494141	91.169670
576.531250	947.211121	23035.031250	21047.806641	91.003075
576.873901	943.793213	22822.750000	20827.945313	90.882545
577.216431	940.449524	22540.992188	20571.601563	90.882683
577.559082	943.273010	22290.296875	20290.515625	90.632034
577.901611	954.492737	21955.265625	19972.794922	90.560013
578.244080	952.189392	21652.185547	19612.128906	90.144653
578.586487	951.966492	21317.228516	19262.236328	89.909325
578.928955	954.195557	21005.156250	18923.714844	89.619247
579.271301	955.681641	20676.441406	18632.968750	89.637962
579.613647	957.762146	20351.812500	18324.314453	89.545776
579.955872	956.201721	20060.843750	18064.478516	89.550369
580.298157	954.121277	19811.408203	17765.410156	89.150093
580.640320	952.189392	19562.568359	17568.134766	89.283218
580.982483	941.192566	19365.146484	17362.689453	89.131233
581.324524	940.598145	19211.712891	17228.275391	89.144409
581.666626	937.328857	19106.128906	17079.076172	88.843216
582.008728	940.746765	19018.005859	16949.714844	88.558601
582.350647	940.746765	18926.537109	16862.185547	88.522316
582.692566	947.954102	18849.039063	16803.115234	88.570946
583.034424	947.433899	18751.482422	16747.388672	88.743607
583.376343	947.434021	18661.572266	16653.988281	88.666771
583.718201	947.062500	18603.021484	16589.046875	88.593231
584.059937	945.725037	18481.390625	16529.607422	88.869637
584.401611	944.907715	18379.744141	16463.625000	89.009827
584.743347	943.124512	18270.220703	16365.916992	89.009682
585.085022	942.084167	18195.029297	16280.915039	88.905579
585.426514	947.433899	18150.148438	16235.666992	88.871048
585.768127	947.731201	18082.013672	16178.007813	88.887733
586.109619	950.777649	18065.591797	16153.190430	88.826050
586.451172	948.028503	18004.144531	16082.973633	88.736183
586.792542	945.056335	17956.664063	16059.791992	88.849541
587.133850	946.170898	17883.103516	16004.510742	88.908302
587.475220	942.381409	17891.126953	16005.698242	88.875694
587.816589	944.164734	17869.802734	16007.406250	88.996590
588.157776	947.508301	17926.720703	16043.815430	88.910522
588.498962	955.830261	17911.267578	16109.648438	89.374390
588.840210	957.836426	17949.162109	16144.644531	89.379768
589.181335	952.932373	17969.890625	16180.086914	89.482231
589.522400	950.331848	18052.812500	16191.975586	89.119492
589.863403	949.068665	18114.185547	16256.915039	89.179970
590.204407	955.087219	18110.769531	16251.862305	89.164490
590.545410	952.858093	18122.435547	16282.920898	89.286194
590.886353	948.994324	18144.947266	16276.902344	89.136719
591.227112	941.564026	18158.320313	16277.719727	89.076920
591.567932	940.746765	18107.498047	16204.606445	88.915245
591.908752	940.821106	18018.335938	16133.348633	88.962166
592.249512	944.833435	18020.119141	16109.870117	88.812790
592.590149	949.811707	17921.371094	16029.918945	88.855171
592.930786	957.242004	17888.378906	15996.409180	88.825500
593.271423	961.180115	17790.597656	15909.252930	88.821098
593.612000	957.687805	17751.810547	15909.031250	89.027237
593.952576	951.966492	17734.126953	15899.222656	89.066338
594.292969	952.115051	17750.621094	15948.187500	89.270271
594.633484	949.960266	17833.914063	16035.940430	89.350998
594.973877	948.474182	17917.208984	16146.351563	89.563995
595.314209	937.848938	18010.162109	16304.171875	90.007278
595.654480	939.632141	18158.767578	16474.548828	90.218918
595.994812	940.523865	18318.220703	16686.832031	90.612167
596.335022	938.591980	18531.916016	16894.582031	90.693436
596.675171	935.545593	18716.855469	17079.298828	90.790565
597.015320	936.362976	18891.691406	17217.054688	90.673317
597.355408	953.303894	18983.529297	17279.916016	90.551353
597.695496	956.498840	19072.097656	17292.250000	90.175049
598.035461	951.669189	19074.994141	17198.107422	89.643814
598.375366	949.663086	19022.759766	17078.333984	89.241318
598.715271	948.622803	18924.310547	16913.974609	88.816360
599.055176	953.006653	18742.712891	16656.292969	88.271751
599.395081	947.211121	18524.486328	16363.019531	87.703064
599.734802	952.189392	18162.705078	16030.067383	87.608521
600.074524	950.406067	17821.728516	15748.981445	87.714378
600.414246	947.879822	17416.037109	15456.227539	88.099396
600.753906	945.204895	17094.900391	15175.438477	88.114563
601.093506	949.365906	16788.773438	14940.122070	88.328781
601.433044	942.752930	16608.738281	14804.445313	88.482735
601.772583	937.477356	16475.068359	14749.090820	88.891602
602.112122	935.842773	16447.501953	14782.007813	89.262955
602.451538	946.765320	16503.525391	14895.465820	89.663277
602.790894	945.650696	16638.087891	15067.105469	89.988922
603.130310	942.604309	16828.822266	15252.416992	90.076897
603.469604	942.381348	17032.859375	15462.469727	90.240250
603.808838	943.867432	17284.595703	15722.827148	90.442482
604.148010	954.864197	17546.363281	16032.596680	90.876244
604.487305	955.087158	17821.580078	16284.481445	90.886681
604.826416	957.613464	18046.943359	16505.533203	90.980278
605.165527	953.229492	18262.419922	16616.169922	90.489151
605.504456	948.622803	18460.882813	16718.111328	90.048279
605.843445	948.251282	18544.992188	16681.406250	89.409485
606.182434	940.820984	18545.513672	16633.554688	89.139488
606.521423	942.752930	18385.615234	16424.541016	88.757149
606.860229	936.734375	18197.404297	16206.016602	88.462860
607.199036	940.895325	17895.511719	15911.036133	88.295364
607.537903	937.254456	17598.302734	15666.432617	88.404861
607.876648	945.353516	17307.705078	15402.954102	88.358940
608.215271	944.981934	17017.253906	15193.569336	88.653229
608.553955	939.706543	16775.025391	14997.929688	88.777641
608.892578	935.545593	16554.421875	14868.569336	89.206314
609.231140	936.734375	16473.804688	14797.832031	89.213074
609.569641	941.192566	16426.919922	14794.265625	89.457039
609.908081	942.604309	16474.697266	14809.721680	89.280418
610.246521	945.947998	16495.576172	14802.661133	89.112823
610.584961	948.102722	16557.767578	14792.333008	88.690117
610.923340	954.715637	16542.757813	14704.879883	88.209694
611.261597	951.817810	16465.333984	14599.221680	87.971054
611.599854	946.913818	16349.867188	14422.454102	87.486732
611.938110	941.638367	16186.178711	14285.812500	87.534119
612.276245	940.895325	15975.828125	14050.272461	87.192787
612.614319	946.393799	15678.096680	13802.473633	87.268120
612.952393	948.251282	15374.497070	13473.460938	86.822380
613.290466	947.211121	15107.971680	13196.609375	86.502403
613.628479	948.845764	14852.519531	12906.604492	86.004311
613.966370	947.136719	14593.796875	12714.235352	86.226952
614.304260	947.285339	14358.480469	12552.627930	86.534737
614.642151	943.124329	14145.083008	12414.647461	86.892586
614.979980	941.861267	14020.700195	12284.393555	86.724304
615.317749	939.483582	13909.542969	12158.227539	86.497246
615.655396	946.690979	13849.878906	12076.049805	86.252785
615.993164	946.765320	13789.247070	12015.937500	86.191849
616.330811	951.817871	13757.223633	11992.979492	86.222664
616.668396	950.331848	13714.424805	11972.026367	86.349220
617.005859	940.598145	13664.938477	11955.679688	86.567024
617.343445	937.328857	13645.916992	11915.557617	86.384331
617.680908	936.882996	13673.632813	11911.617188	86.165894
618.018311	951.594971	13731.737305	11896.906250	85.643112
618.355652	948.622864	13752.840820	11931.233398	85.773376
618.692993	948.622864	13741.768555	11919.196289	85.753525
619.030273	940.375305	13736.492188	11929.895508	85.881683
619.367554	937.551758	13728.096680	11878.999023	85.543243
619.704712	935.991394	13723.266602	11875.953125	85.553505
620.041870	939.780823	13706.028320	11876.175781	85.666481
620.379028	953.378235	13683.069336	11848.088867	85.585037
620.716064	957.687805	13619.019531	11802.540039	85.653328
621.053040	961.625793	13535.875000	11701.562500	85.412148
621.389954	956.127441	13463.578125	11654.307617	85.534454
621.726929	948.697083	13411.640625	11592.338867	85.402313
622.063843	941.043945	13343.059570	11564.996094	85.663109
622.400635	933.390808	13257.539063	11523.609375	85.930634
622.737427	927.966614	13187.098633	11502.059570	86.254822
623.074219	927.372253	13156.858398	11457.479492	86.104248
623.410889	934.133728	13116.808594	11417.058594	86.047806
623.747559	936.214294	13112.573242	11418.395508	86.086334
624.084167	940.821045	13071.409180	11402.941406	86.245781
624.420715	946.022278	13074.231445	11407.918945	86.260849
624.757324	952.709473	13057.811523	11371.660156	86.070747
625.093750	955.087219	13109.450195	11434.593750	86.220123
625.430176	945.204895	13166.367188	11540.327148	86.694885
625.766602	952.115051	13220.979492	11628.078125	87.016716
626.102905	952.263672	13288.743164	11708.028320	87.186661
626.439209	958.059326	13351.528320	11792.807617	87.423050
626.775452	950.480469	13482.898438	11916.223633	87.499023
627.111694	951.000549	13563.664063	11991.270508	87.533218
627.447876	945.130615	13676.010742	12040.012695	87.149368
627.783997	944.833313	13727.799805	12082.885742	87.131989
628.120056	938.443359	13782.709961	12099.231445	86.893150
628.456055	939.409241	13767.921875	12049.747070	86.606590
628.792053	937.923157	13732.331055	11966.824219	86.200951
629.128052	941.118225	13662.041992	11875.803711	85.958267
629.463928	948.251282	13597.621094	11803.729492	85.818329
629.799744	956.276062	13477.473633	11693.911133	85.755653
630.135559	960.288391	13373.821289	11567.448242	85.448357
630.471375	959.025208	13196.980469	11416.613281	85.452087
630.807068	963.483398	13051.941406	11272.540039	85.280159
631.142700	963.854980	12927.039063	11175.799805	85.361435
631.478333	962.368896	12814.768555	11040.122070	85.027115
631.813965	954.492737	12736.972656	10931.862305	84.679710
632.149475	950.034485	12588.960938	10813.721680	84.747398
632.484924	947.656921	12496.975586	10764.754883	85.001534
632.820435	946.690918	12396.370117	10716.012695	85.323982
633.155884	946.393738	12327.118164	10671.208008	85.449867
633.491150	955.607239	12256.160156	10636.508789	85.667503
633.826477	955.532959	12204.221680	10599.506836	85.734207
634.161804	952.709534	12157.635742	10550.317383	85.655251
634.497009	946.690979	12105.696289	10482.627930	85.455078
634.832153	945.279236	12012.817383	10413.154297	85.546349
635.167297	958.430847	11948.398438	10360.399414	85.550468
635.502380	959.693909	11872.831055	10330.084961	85.863403
635.837463	958.802307	11815.321289	10253.626953	85.615143
636.172424	945.576355	11739.903320	10168.104492	85.438660
636.507324	943.050110	11657.578125	10031.758789	84.826027
636.842224	943.050110	11577.627930	9953.815430	84.730827
637.177124	949.885925	11461.268555	9843.624023	84.610542
637.511963	946.468018	11349.368164	9732.393555	84.456505
637.846741	947.508301	11214.362305	9622.722656	84.497307
638.181396	942.009949	11091.166992	9520.036133	84.519592
638.516113	950.331787	10994.351563	9466.092773	84.784393
638.850769	948.325623	10873.459961	9371.875977	84.870895
639.185303	945.502136	10778.278320	9308.422852	85.051468
639.519836	941.638428	10681.610352	9209.525391	84.886147
639.854370	942.752930	10618.006836	9134.851563	84.670631
640.188843	946.690918	10537.686523	9045.242188	84.439102
640.523254	942.604309	10471.036133	8991.001953	84.467178
640.857605	946.245117	10387.297852	8917.515625	84.432007
641.191895	950.108887	10299.843750	8849.305664	84.485786
641.526184	948.845703	10218.407227	8760.735352	84.274643
641.860413	950.406067	10164.687500	8707.610352	84.186752
642.194580	946.616699	10111.708008	8670.012695	84.269707
642.528748	947.954102	10060.959961	8627.066406	84.265419
642.862793	940.226624	10008.576172	8571.785156	84.155983
643.196838	941.192566	9970.831055	8515.760742	83.885620
643.530823	944.759094	9919.190430	8455.204102	83.687134
643.864746	943.793152	9851.278320	8413.891602	83.863159
644.198669	948.474182	9807.291016	8386.399414	83.960709
644.532532	950.851868	9773.409180	8351.328125	83.881302
644.866333	950.406067	9759.290039	8317.297852	83.630249
645.200073	953.378174	9736.331055	8268.926758	83.292587
645.533813	950.257507	9706.536133	8271.230469	83.608276
645.867554	953.749695	9677.707031	8251.093750	83.647179
646.201172	944.907715	9670.796875	8249.013672	83.706154
646.534729	942.901550	9695.391602	8271.825195	83.735298
646.868225	945.353516	9742.870117	8290.771484	83.494225
647.201782	949.514404	9749.780273	8286.907227	83.376945
647.535217	951.892090	9739.377930	8270.859375	83.288521
647.868591	953.378235	9724.740234	8276.357422	83.487366
648.201965	949.068665	9748.887695	8296.047852	83.490112
648.535278	939.409363	9760.777344	8270.190430	83.102539
648.868591	934.282410	9755.426758	8269.075195	83.150131
649.201782	938.443359	9705.198242	8240.320313	83.290535
649.534912	948.697205	9663.143555	8241.508789	83.686462
649.868103	952.263672	9604.295898	8196.258789	83.725937
650.201172	952.189270	9581.782227	8165.572266	83.588913
650.534180	952.189270	9571.454102	8134.142090	83.324425
650.867188	956.647461	9536.308594	8112.074219	83.399879
651.200134	962.220154	9506.215820	8097.361816	83.510590
651.533020	962.814636	9453.015625	8058.873047	83.579391
651.865845	967.421387	9424.409180	8023.728027	83.437584
652.198608	962.443176	9382.055664	7987.393066	83.435547
652.531433	954.269958	9328.410156	7979.666016	83.893936
652.864136	945.947998	9290.812500	7944.446777	83.865944
653.196777	1017.947266	9312.360352	8004.409668	84.230942
653.529358	1023.965759	9260.719727	7952.620605	84.118752
653.861938	1016.535461	9207.295898	7943.406738	84.569328
654.194519	936.883057	9059.209961	7798.739746	84.481407
654.526978	939.186462	9004.969727	7758.244629	84.543037
654.859375	939.632263	8926.133789	7668.710449	84.255646
655.191833	943.124451	8890.246094	7619.447266	84.009323
655.524170	940.746765	8861.045898	7560.748535	83.582726
655.856445	946.245117	8843.807617	7534.295410	83.418777
656.188660	953.303894	8822.483398	7518.023438	83.423180
656.520874	949.365906	8762.148438	7498.927246	83.831352
656.853088	951.743591	8755.684570	7518.468750	84.146271
657.185181	945.130615	8742.383789	7528.054688	84.426193
657.517212	943.050110	8774.928711	7556.290527	84.440025
657.849243	943.718750	8806.433594	7589.651855	84.524658
658.181274	944.610413	8839.793945	7677.254395	85.275330
658.513123	951.297668	8901.094727	7788.484863	86.004547
658.844971	942.529968	8974.431641	7892.880371	86.534309
659.176819	940.895325	9073.774414	7962.205078	86.332397
659.508667	944.907715	9156.993164	8029.746094	86.273308
659.840393	948.102722	9224.237305	8067.937988	86.028511
660.172058	950.777649	9304.855469	8107.244141	85.664345
660.503662	943.273010	9348.396484	8115.194824	85.327980
660.835266	949.885925	9395.727539	8120.767090	84.904282
661.166931	950.406067	9345.127930	8050.699219	84.580444
661.498413	950.851868	9319.938477	7975.134277	83.931282
661.829773	950.777649	9207.742188	7855.654785	83.624878
662.161194	953.749756	9100.002930	7763.296875	83.591156
662.492615	956.201721	8936.090820	7632.300781	83.661552
662.823975	952.263672	8771.807617	7509.032715	83.851044
663.155212	948.474304	8624.911133	7368.675293	83.635170
663.486450	944.981995	8474.597656	7234.037598	83.524261
663.817627	941.415466	8340.703125	7110.621582	83.375679
664.148743	941.192566	8202.722656	6990.474121	83.305878
664.479858	947.731262	8120.470215	6905.992188	83.068138
664.810913	946.690918	8048.470703	6832.580566	82.879082
665.141907	953.675354	8012.359375	6787.702637	82.650352
665.472778	953.229675	7932.410156	6734.650391	82.838104
665.803711	958.876648	7875.270996	6709.906738	83.150696
666.134583	955.532959	7811.371094	6686.427246	83.591454
666.465454	956.870361	7798.367676	6649.201660	83.203003
666.796143	958.059265	7743.606934	6603.951172	83.204659
667.126831	958.579407	7720.349609	6580.248535	83.139015
667.457458	958.356506	7696.275391	6584.484375	83.499489
667.788147	959.322449	7695.830078	6564.720215	83.209251
668.118774	959.842529	7683.718750	6549.636230	83.133507
668.449219	957.316223	7662.097168	6521.772949	82.992371
668.779663	951.520691	7665.737793	6507.432129	82.748466
669.110107	950.480469	7649.167969	6492.645996	82.735092
669.440552	949.440247	7620.264160	6488.484863	83.033890
669.770874	949.960266	7575.831543	6493.091309	83.658897
670.101135	947.285400	7552.871582	6472.063965	83.637978
670.431396	948.622864	7532.884277	6443.382813	83.452942
670.761597	951.669250	7509.850098	6396.943848	83.030258
671.091797	951.149109	7482.357910	6369.749512	82.964737
671.421875	957.316223	7440.377441	6334.307129	82.939072
671.751892	951.743591	7409.021484	6301.464844	82.847931
672.081909	948.994324	7368.303223	6264.313965	82.802055
672.411865	940.746765	7337.542480	6209.255371	82.361687
672.741821	943.050110	7292.367188	6181.466309	82.503616
673.071716	948.548584	7267.847168	6144.537598	82.224144
673.401550	953.378235	7224.230469	6126.333496	82.492058
673.731262	950.257507	7217.617676	6095.200684	82.091072
674.060974	952.263672	7177.494141	6065.256348	82.133385
674.390625	948.474304	7135.364746	6047.795410	82.421394
674.720276	950.703308	7074.584473	6023.350098	82.833855
675.049927	943.867432	7014.325684	6002.916504	83.338829
675.379395	946.096497	6985.050293	5952.464844	82.901253
675.708923	948.474182	6942.994629	5902.087891	82.635696
676.038330	947.285400	6909.707031	5852.082031	82.261826
676.367737	945.130615	6860.295410	5820.207031	82.416573
676.697083	951.297791	6811.330078	5790.560059	82.580811
677.026428	951.594910	6774.996094	5774.436035	82.818291
677.355652	948.845703	6762.811035	5765.445313	82.845345
677.684875	947.359619	6770.687012	5787.959473	83.124298
678.013977	943.793152	6776.853516	5796.429688	83.191948
678.343079	943.644531	6783.318359	5821.395996	83.527809
678.672180	944.016113	6787.851074	5823.996094	83.506462
679.001221	950.480469	6793.498047	5846.212402	83.787735
679.330139	953.452454	6811.627441	5866.720215	83.870277
679.659058	948.622864	6849.150391	5902.311035	83.953308
679.987976	946.096619	6897.447266	5942.435059	83.953018
680.316772	939.112122	6932.518066	5962.793457	83.820145
680.645630	939.186462	6972.418457	5981.592285	83.577194
680.974304	943.718811	7034.461426	6001.802246	83.045433
681.302979	943.050110	7084.170410	6050.693359	83.171196
681.631653	947.136902	7111.811035	6070.978027	83.116173
681.960266	944.982117	7099.699707	6059.980957	83.106964
682.288757	950.108887	7106.535156	6043.114746	82.726662
682.617249	946.542297	7099.773438	6044.674316	82.852928
682.945679	946.096497	7097.173340	6037.095703	82.765984
683.274109	943.347351	7089.593750	5998.235840	82.243507
683.602478	936.660156	7043.154785	5935.301270	81.857780
683.930725	933.613708	6979.849121	5854.385254	81.385712
684.259033	938.071838	6881.324219	5773.692871	81.363213
684.587280	948.994324	6821.361816	5690.325684	80.739693
684.915344	956.647522	6747.132813	5632.963379	80.758621
685.243469	960.214050	6683.380859	5584.369629	80.797150
685.571533	957.019043	6599.567871	5532.283203	81.085060
685.899536	949.811707	6538.861816	5492.160156	81.272278
686.227539	950.034485	6481.723145	5460.804199	81.544174
686.555420	943.421570	6466.045410	5439.999512	81.421043
686.883301	944.684753	6453.488281	5405.894531	80.983284
687.211121	944.238953	6445.314941	5383.157715	80.691826
687.538940	947.434021	6427.556641	5386.873047	81.009850
687.866638	944.684814	6436.695801	5386.353027	80.875076
688.194336	943.941833	6449.327637	5388.730469	80.735283
688.521973	943.124512	6455.717285	5368.892090	80.284683
688.849609	951.000549	6430.380371	5363.244629	80.524513
689.177063	942.604309	6409.724121	5340.582520	80.444153
689.504578	937.923279	6358.083496	5313.981934	80.736702
689.832031	930.790222	6296.338379	5259.220703	80.670799
690.159485	939.483582	6220.623535	5197.549316	80.627777
690.486816	950.406067	6162.519531	5123.098145	80.057579
690.814087	953.452576	6101.813965	5066.256836	79.885696
691.141296	953.452454	6014.805176	4998.270020	79.915749
691.468506	952.412292	5915.833496	4934.221191	80.223068
691.795715	951.594910	5825.630371	4876.858887	80.534164
692.122803	951.223450	5764.553223	4820.463379	80.385933
692.449829	952.709534	5703.699219	4766.444824	80.272438
692.776855	951.892273	5628.802734	4704.625488	80.239571
693.103821	947.285400	5573.669922	4658.706543	80.222923
693.430664	940.895447	5522.400879	4610.409180	80.094063
693.757568	941.043945	5477.225098	4570.211426	80.004906
694.084351	942.901550	5414.513672	4541.976563	80.487190
694.411133	945.650696	5364.135742	4532.168945	81.170776
694.737854	940.821106	5336.866699	4515.005371	81.304535
695.064575	941.638367	5308.706543	4492.937012	81.319969
695.391174	940.449524	5285.895020	4474.881348	81.336472
695.717773	952.115051	5267.170898	4464.256348	81.392723
696.044250	951.297791	5265.462402	4463.810547	81.418144
696.370789	950.777649	5273.264160	4450.510254	80.965729
696.697205	948.622864	5280.694336	4487.884277	81.699059
697.023621	950.331787	5312.644043	4526.001465	81.967300
697.349915	945.947937	5359.975098	4589.976074	82.555634
697.676208	941.118164	5439.255859	4662.941406	82.741425
698.002380	944.610413	5522.697754	4754.928223	83.229469
698.328674	948.325684	5634.003906	4863.187500	83.549522
698.654724	953.824036	5729.408203	4943.434082	83.541824
698.980896	950.703369	5843.017090	5027.470703	83.330048
699.306946	953.081055	5922.595215	5101.624512	83.479858
699.632935	949.588867	5982.781250	5157.649414	83.606194
699.958862	949.663086	6011.833496	5164.633301	83.264091
700.284729	948.102722	6007.300781	5136.547363	82.788704
700.610596	942.752930	5979.064941	5065.439453	81.859238
700.936340	939.483582	5903.648438	4996.412598	81.724297
701.262146	944.164612	5799.625000	4892.388184	81.315125
701.587830	952.932373	5669.595215	4791.039551	81.373360
701.913513	952.783752	5522.252441	4677.133301	81.505089
702.239075	954.864258	5372.532715	4562.707031	81.668480
702.564697	952.337952	5240.199219	4451.699219	81.610878
702.890137	954.864258	5114.181641	4340.913574	81.408775
703.215698	951.223389	5018.628418	4247.960938	81.052597
703.541016	946.616638	4912.895996	4160.655273	81.034096
703.866455	945.576355	4826.109863	4086.055420	80.929054
704.191711	938.146057	4755.448242	4031.962891	81.047211
704.517029	944.461914	4703.584473	3995.702881	81.168968
704.842163	944.164551	4664.056152	3967.914063	81.285957
705.167419	945.724915	4625.195801	3934.848877	81.237877
705.492493	941.118164	4579.796387	3900.818359	81.339981
705.817566	934.208008	4543.016602	3863.369873	81.167007
706.142578	936.214294	4512.552734	3839.147461	81.170540
706.467590	938.369141	4505.939941	3817.079346	80.691048
706.792480	943.570251	4490.336426	3791.445068	80.294968
707.117371	947.285339	4477.630859	3788.695557	80.485329
707.442200	951.297668	4467.079590	3785.872314	80.624306
707.766907	960.882751	4456.156738	3805.636719	81.388580
708.091675	959.173828	4443.228027	3802.070313	81.597366
708.416321	955.755859	4437.655762	3802.664795	81.763092
708.741028	944.090332	4458.535156	3797.909424	81.202560
709.065552	942.307129	4482.237793	3800.361328	80.737579
709.390137	944.387512	4499.327148	3809.128906	80.584808
709.714600	952.635071	4513.890137	3827.630127	80.729828
710.039063	951.223389	4549.109375	3846.057373	80.459305
710.363403	952.709473	4597.035156	3869.685547	80.041588
710.687744	953.080994	4651.499023	3901.487305	79.720741
711.012085	959.991211	4697.046387	3938.118408	79.691818
711.336304	953.824036	4768.748535	3966.279297	78.965004
711.660461	956.201843	4818.234375	3970.068604	78.038361
711.984619	957.390625	4860.512207	3976.681641	77.355804
712.308716	965.786804	4862.815918	3992.582764	77.669319
712.632751	956.350342	4861.552246	4002.167236	77.993835
712.956726	951.743469	4835.175293	3987.826904	78.180420
713.280701	948.028503	4793.788574	3967.096436	78.503799
713.604553	961.105652	4748.018066	3937.449951	78.595543
713.928467	961.923035	4684.266113	3898.589111	78.892944
714.252258	968.015808	4623.264160	3851.778564	78.893753
714.575989	956.944763	4568.279785	3820.943115	79.305809
714.899719	953.303894	4523.104004	3799.766846	79.737320
715.223267	939.037781	4477.853516	3774.726563	80.131012
715.546936	942.381348	4439.067383	3744.485352	80.135994
715.870422	948.994324	4406.076660	3720.411377	80.166359
716.193970	952.635193	4373.829590	3689.427002	79.995216
716.517395	948.177002	4326.572754	3667.507813	80.491776
716.840820	945.056335	4292.542480	3645.811768	80.680107
717.164124	954.864258	4261.261230	3623.000732	80.696190
717.487488	956.721863	4231.763184	3581.985596	80.159714
717.810730	950.108887	4191.193848	3540.376221	79.919762
718.133972	947.508301	4139.107910	3500.252686	79.983231
718.457092	949.291504	4088.507080	3454.184570	79.793602
718.780212	950.926270	4032.557373	3409.603271	79.784920
719.103210	947.879883	3981.139648	3363.238281	79.629128
719.426208	944.759216	3929.647705	3320.811523	79.602715
719.749207	951.966492	3888.707031	3280.167969	79.278419
720.072083	948.920105	3852.447266	3256.093750	79.461067
720.394958	952.635254	3808.014404	3235.660889	79.955254
720.717773	953.378235	3761.203857	3202.967529	80.118553
721.040527	952.858154	3726.058350	3169.457031	79.929276
721.363281	950.703308	3699.532471	3137.878174	79.567505
721.685913	951.446289	3678.430420	3110.237549	79.164055
722.008545	951.223389	3653.167969	3079.847656	78.781197
722.331055	952.783752	3626.938721	3051.835693	78.494026
722.653503	951.074890	3611.855225	3045.222656	78.704269
722.976013	954.195557	3585.700439	3038.312500	79.198669
723.298401	947.805481	3582.059570	3037.420898	79.324745
723.620789	943.644531	3566.604736	3010.300537	78.790977
723.943115	943.421631	3565.936279	3003.984375	78.572021
724.265381	949.960266	3545.800049	2988.232422	78.520721
724.587585	954.715637	3537.552734	2989.198486	78.769310
724.909790	953.303955	3523.806641	2985.483398	79.057663
725.231873	950.777649	3535.471924	2991.576172	78.957054
725.553894	946.096497	3538.593018	3008.963135	79.570663
725.875916	980.870178	3589.564453	3040.021484	78.934174
726.197937	986.145691	3588.524170	3058.002930	79.613983
726.519775	989.415039	3582.357178	3054.956299	79.660133
726.841675	956.944763	3556.722656	3025.235107	79.556427
727.163513	951.520691	3556.351318	3026.572998	79.661697
727.485291	957.910706	3586.072266	3034.300049	79.005394
727.806946	954.492859	3600.115479	3042.844971	78.936127
728.128662	954.567078	3623.149414	3057.854248	78.816650
728.450256	947.359680	3642.839844	3070.039795	78.749611
728.771790	949.960205	3658.591797	3083.860107	78.781471
729.093323	953.229675	3673.303467	3073.383545	77.944717
729.414795	947.582703	3670.851563	3076.429688	78.172485
729.736145	946.319519	3665.055908	3080.739258	78.507782
730.057495	949.811707	3660.375000	3085.271729	78.782890
730.378845	949.663086	3659.483154	3093.519531	79.114349
730.700134	952.709473	3651.755859	3082.894287	78.923607
731.021301	951.000549	3650.567139	3085.048828	79.051514
731.342468	958.207947	3643.805664	3077.692627	78.920410
731.663574	956.944763	3647.891846	3080.293701	78.907120
731.984680	958.207825	3657.403076	3078.287354	78.544876
732.305664	954.269836	3666.839111	3084.231689	78.521935
732.626648	951.520691	3675.904297	3097.606201	78.773247
732.947571	946.096497	3689.352783	3108.454346	78.824493
733.268433	951.520569	3695.966064	3112.392578	78.736198
733.589233	956.498840	3693.662354	3111.426514	78.728500
733.909973	960.362610	3668.473633	3102.510498	79.101181
734.230713	956.350281	3646.331299	3072.343506	78.662010
734.551331	944.461914	3612.078125	3031.105225	78.221268
734.871948	946.765320	3582.357178	2993.062500	77.640900
735.192505	937.997559	3535.769531	2960.592041	77.858818
735.513062	946.616699	3479.373291	2933.545898	78.449272
735.833435	942.530029	3427.138428	2908.431641	79.123199
736.153931	957.687744	3380.178955	2877.818604	79.262657
736.474304	954.269836	3350.161133	2851.292725	79.178169
736.794617	956.127441	3314.644531	2823.875000	79.191605
737.114807	957.093445	3294.731201	2805.745117	79.082039
737.434998	958.133606	3288.266846	2792.667969	78.730881
737.755188	954.418457	3274.892578	2782.191406	78.767220
738.075256	945.650696	3276.378174	2780.407959	78.720367
738.395325	949.068665	3284.700439	2772.828857	78.084236
738.715271	952.412292	3311.895264	2784.791748	77.660210
739.035278	950.777649	3328.836182	2797.572021	77.659752
739.355164	942.975891	3339.089844	2818.228271	78.262238
739.675049	941.861328	3352.389893	2814.215820	77.674019
739.994873	946.690979	3355.510986	2809.980469	77.352791
740.314636	957.910645	3358.185791	2797.274658	76.631378
740.634277	954.641357	3349.046875	2784.643311	76.428238
740.953979	953.601074	3326.309814	2771.268555	76.607277
741.273499	942.604309	3299.412354	2753.881592	76.852982
741.593140	942.975891	3254.458984	2729.807617	77.302391
741.912598	941.192627	3226.372803	2683.145508	76.228249
742.232117	949.217285	3196.354248	2652.161133	75.782822
742.551453	953.081055	3153.258789	2623.554688	75.924484
742.870850	958.653625	3100.875244	2617.833252	77.451355
743.190063	956.721741	3053.767578	2585.363037	77.663597
743.509338	953.006653	3029.544922	2563.146484	77.539619
743.828552	946.319397	3014.981689	2530.527832	76.581299
744.147705	942.158508	2987.415283	2516.484619	76.974495
744.466797	942.158508	2965.941650	2494.416748	76.700821
744.785828	944.981995	2942.313232	2487.209229	77.214394
745.104858	955.830261	2920.988281	2481.265137	77.624031
745.423706	953.080994	2902.338623	2481.190918	78.394455
745.742615	958.728027	2880.493408	2462.094971	78.228432
746.061401	957.464844	2863.626953	2440.027100	77.777344
746.380249	965.266663	2849.658203	2428.138672	77.631004
746.698975	956.350342	2840.295898	2410.974609	77.211586
747.017639	956.350342	2831.305420	2400.052246	76.999283
747.336304	947.805603	2824.617920	2384.894531	76.570732
747.654907	951.966492	2816.444580	2386.157715	76.921860
747.973389	943.941833	2816.890381	2392.176025	77.323753
748.291931	947.434082	2819.490967	2398.194580	77.495537
748.610352	943.124512	2822.760498	2391.878906	77.076324
748.928711	944.982117	2828.184326	2382.739746	76.346428
749.247070	946.022278	2818.079346	2374.566406	76.308792
749.565308	947.211121	2815.552734	2365.872803	75.931602
749.883545	948.845764	2811.094727	2364.461182	76.016441
750.201782	949.068665	2809.311523	2352.498535	75.443367
750.519836	950.183167	2800.543701	2361.711914	76.283989
750.837952	948.994324	2777.658447	2360.671875	77.197205
751.155884	942.529968	2766.958740	2358.814209	77.628914
751.473877	946.765198	2766.290039	2350.492432	77.148010
751.791809	947.062500	2760.643311	2332.956787	76.417564
752.109619	956.276062	2746.600342	2332.956787	76.895607
752.427490	951.892151	2720.222656	2324.709229	77.633514
752.745300	943.421631	2728.098633	2324.931885	77.409538
753.062988	939.037781	2723.046143	2320.176514	77.417725
753.380615	942.530029	2723.714844	2309.551514	76.747871
753.698303	949.663086	2701.646729	2302.938721	77.242477
754.015808	951.000488	2692.879150	2297.068848	77.276817
754.333374	950.851868	2692.879150	2305.985107	77.790588
754.650757	950.480408	2693.325195	2306.876709	77.826569
754.968262	949.811707	2695.554199	2303.681641	77.552673
755.285583	948.622864	2693.473389	2299.743408	77.434746
755.602905	951.149170	2704.916260	2290.530029	76.371651
755.920105	955.904480	2696.297119	2272.771484	75.664940
756.237305	948.548523	2694.068115	2263.112061	75.310730
756.554443	943.867371	2669.697021	2251.446777	75.765266
756.871582	936.585693	2671.108398	2247.360107	75.569748
757.188599	943.867432	2659.368652	2239.855469	75.545738
757.505615	946.690918	2666.650391	2248.177490	75.669609
757.822510	951.669250	2667.244873	2257.093750	76.092506
758.139465	948.622864	2671.851563	2274.480713	76.940331
758.456238	951.594910	2681.882568	2282.208252	76.901276
758.773010	940.077942	2702.910156	2293.353516	76.767120
759.089783	939.037781	2720.222900	2308.362549	76.877174
759.406433	935.991394	2745.857178	2316.833252	76.295265
759.723145	949.440125	2749.052002	2331.025146	76.771278
760.039673	953.824036	2767.553467	2323.148926	75.497749
760.356201	956.647522	2777.733154	2322.331787	74.992867
760.672668	952.560852	2784.197266	2322.702881	74.804260
760.989136	949.217285	2774.463623	2323.223145	75.277832
761.305481	943.347351	2767.999268	2335.631836	76.304115
761.621826	942.827148	2775.281006	2323.223145	75.330467
761.938049	947.136719	2798.537842	2329.316162	74.655861
762.254333	950.926270	2807.973877	2331.322266	74.332825
762.570496	946.096497	2843.639404	2374.417725	75.272148
762.886597	946.765320	2899.812256	2419.816650	75.423241
763.202637	954.715637	2989.346924	2503.184326	76.105614
763.518677	964.226379	3111.797852	2589.821045	75.694557
763.834656	955.978821	3263.004150	2691.467529	75.226257
764.150574	946.022217	3419.411377	2790.364502	74.567413
764.466370	942.084167	3539.707275	2866.227539	74.073227
764.782288	949.143005	3613.489990	2909.100342	73.562393
765.097961	957.687744	3626.418701	2908.728760	73.107445
765.413696	955.458679	3588.969971	2875.738281	72.917084
765.729309	953.749756	3496.834717	2823.800781	73.534744
766.044861	948.622803	3376.538330	2733.745361	73.524902
766.360474	948.697205	3231.499268	2630.687744	73.680962
766.675903	947.434021	3083.562744	2524.211914	73.814743
766.991394	943.867493	2955.464844	2439.507080	74.350845
767.306763	946.542419	2847.057373	2367.359131	74.759567
767.622131	947.805481	2755.516357	2294.839600	74.516014
767.937378	946.913879	2669.548096	2247.137451	75.478798
768.252625	943.124451	2609.214111	2209.614502	76.015717
768.567810	941.489746	2562.403564	2188.735107	76.947052
768.882996	943.421631	2511.580322	2146.159912	76.697487
769.197998	943.793152	2476.435303	2112.723633	76.268974
769.513062	941.266846	2432.894287	2078.544189	76.244064
769.828064	938.369080	2413.575195	2060.563232	76.070328
770.142944	943.347351	2379.247559	2041.244507	76.460556
770.457825	943.570313	2346.851318	2025.194946	77.078262
770.772705	953.824036	2321.217041	2004.241577	76.818985
771.087402	950.406189	2294.245361	1984.774414	76.971130
771.402100	956.721863	2274.554932	1964.786987	76.494148
771.716736	955.904480	2241.861572	1956.985229	77.847137
772.031372	952.189392	2217.936279	1941.530151	78.162613
772.345947	951.817871	2207.459717	1927.189575	77.679131
772.660461	952.263672	2199.657715	1899.623413	75.947113
772.974854	958.579407	2186.654541	1890.929810	75.919655
773.289246	954.567139	2171.794189	1886.174438	76.535210
773.603638	951.074890	2165.032471	1882.533569	76.729103
773.917908	950.108826	2153.441406	1866.632935	76.165489
774.232178	942.009827	2136.277588	1858.385376	76.731163
774.546265	935.545471	2112.798096	1847.834473	77.493050
774.860474	934.208069	2104.104492	1841.370117	77.542076
775.174561	933.093567	2096.525391	1832.156616	77.276810
775.488586	936.660095	2092.736084	1823.240234	76.688744
775.802551	936.660095	2083.448242	1815.438354	76.629524
776.116516	946.468079	2074.531982	1806.670532	76.254761
776.430359	943.198730	2058.259766	1801.692383	76.990730
776.744202	941.935547	2044.662231	1795.896851	77.440887
777.057922	942.158508	2030.619141	1779.847534	76.960892
777.371704	940.821045	2029.356079	1781.630859	77.242332
777.685303	943.347351	2013.158081	1778.955688	78.108047
777.998962	938.889160	2008.105469	1776.652344	78.353012
778.312500	936.511536	1994.507813	1759.265625	77.765305
778.626038	931.013000	1991.387207	1752.206665	77.443756
778.939453	936.214294	1989.603882	1752.503906	77.491707
779.252869	944.684753	1997.628540	1760.008423	77.432777
779.566223	953.006653	2004.315796	1754.956055	76.281029
779.879578	953.155273	2002.829712	1751.686646	76.074196
780.192749	952.486572	1994.359253	1742.844727	75.859383
780.505920	948.994324	1985.740112	1744.404907	76.721848
780.819031	951.520691	1975.486328	1742.101563	77.207756
781.132141	952.858093	1973.777344	1745.222290	77.612816
781.445190	958.505127	1974.817749	1744.850708	77.372414
781.758118	959.248230	1971.622681	1742.918945	77.409172
782.071045	957.762024	1958.322632	1724.343262	76.615173
782.383911	953.898254	1939.375366	1708.962524	76.619156
782.696838	955.161438	1917.084473	1703.612915	77.807831
783.009583	958.579407	1906.161987	1704.281616	78.695221
783.322266	960.659851	1889.518188	1697.965820	79.377655
783.634888	957.613464	1884.614258	1679.390137	77.861496
783.947510	962.145935	1873.394531	1665.792603	77.217857
784.260132	960.808411	1875.252319	1657.767944	76.216759
784.572571	957.985046	1872.428589	1657.322144	76.476791
784.885010	947.211121	1865.592773	1649.743164	76.496742
785.197449	945.650696	1856.602051	1644.542114	76.721046
785.509766	943.793152	1842.261597	1635.551392	76.993050
785.822083	944.536133	1831.041992	1641.347168	78.601967
786.134277	942.381409	1815.141235	1636.963257	79.584534
786.446533	937.180359	1817.073120	1633.322632	79.116714
786.758606	938.369141	1823.983276	1628.269897	77.900833
787.070740	946.245178	1831.933594	1628.344116	77.013420
787.382690	949.440186	1829.630249	1627.675415	77.055542
787.694641	955.012878	1838.472168	1625.372070	75.878899
788.006653	953.824036	1867.747437	1636.740356	74.723587
788.318481	954.715637	1900.960571	1657.247925	74.244232
788.630310	948.251282	1926.817993	1671.439819	73.902832
788.942017	946.691101	1942.272949	1685.185669	74.177185
789.253784	952.709534	1965.678345	1700.046265	73.776878
789.565430	952.263672	1968.799194	1714.981079	75.031059
789.877014	943.644531	1954.830078	1703.241333	75.119431
790.188538	943.347351	1936.477417	1687.711914	74.951370
790.500061	949.068665	1918.719116	1674.560425	74.819923
790.811462	953.824036	1904.155762	1668.096069	75.160286
791.122925	949.960266	1879.784546	1655.761719	75.906975
791.434204	944.313293	1849.394531	1631.613403	75.937950
791.745483	945.204895	1831.116211	1610.362793	75.081772
792.056702	949.365906	1806.076172	1589.409546	74.709465
792.367920	950.703308	1786.088867	1574.846313	74.713165
792.678955	948.474304	1774.348999	1569.793579	75.231667
792.990112	942.678650	1752.727051	1559.762695	76.178665
793.301086	940.152344	1746.485718	1553.149780	76.022827
793.612122	933.613770	1725.309204	1549.954712	77.850761
793.922974	942.232910	1728.430054	1541.335571	76.202599
794.233826	948.399963	1725.383423	1542.227173	76.427269
794.544556	962.145996	1730.584595	1536.208862	74.705109
794.855286	959.768250	1725.457642	1544.530640	76.370705
795.166016	958.728027	1722.188477	1546.982788	77.051109
795.476624	947.656921	1724.046021	1553.149780	77.988327
795.787292	946.542297	1736.528931	1561.843140	77.887497
796.097778	946.245117	1752.280884	1570.610962	77.461311
796.408264	944.238953	1758.596680	1578.561157	77.892326
796.718689	932.424805	1772.862915	1583.019409	77.411362
797.029053	934.951172	1790.249634	1580.493164	75.475639
797.339355	947.211121	1803.995728	1578.412598	73.670967
797.649658	955.235779	1797.605835	1576.703735	73.776123
797.959839	947.582520	1787.351929	1581.087524	75.437973
798.270020	936.511414	1779.624390	1572.691406	75.456078
798.580078	937.700256	1763.797852	1567.713013	76.263718
798.890137	937.254395	1746.559570	1560.357056	76.992302
799.200195	946.839539	1737.346313	1556.642090	77.140709
799.510071	943.124451	1719.736450	1546.611206	77.707626
799.820007	944.610535	1711.860474	1532.865234	76.670547
800.129883	941.861328	1691.427246	1523.948730	77.656601
800.439575	953.452454	1694.770874	1510.945801	75.202957
800.749329	957.018982	1687.191895	1507.007813	75.323097
801.058960	958.876526	1686.745972	1500.246216	74.377304
801.368591	950.628906	1679.538696	1502.326782	75.688087
801.678162	951.966492	1678.424194	1489.769531	74.030884
801.987671	953.378174	1672.628540	1484.568359	73.853310
802.297119	958.950928	1666.833008	1471.268188	72.373245
802.606506	960.288391	1659.105591	1471.193848	73.110031
802.915894	955.012878	1648.554565	1472.085571	74.555389
803.225159	950.406067	1641.867188	1468.519043	74.930168
803.534424	951.223450	1626.635132	1471.491211	77.029724
803.843628	948.325684	1622.622925	1465.249634	76.661140
804.152771	944.238953	1622.697266	1465.398071	76.815201
804.461792	945.204895	1629.607422	1459.453979	75.138397
804.770874	945.799316	1627.155273	1462.203125	75.790604
805.079773	956.424622	1621.656860	1466.289917	76.644707
805.388733	951.297791	1620.765259	1463.094849	76.448387
805.697571	955.533020	1624.926270	1460.271484	75.402382
806.006470	953.601074	1641.941406	1458.562500	73.359268
806.315125	952.486572	1651.823730	1465.323853	73.331909
806.623901	956.573242	1661.408813	1473.868774	73.392372
806.932495	953.081055	1660.071289	1486.871704	75.501839
807.241150	956.127441	1655.093140	1493.930542	76.942703
807.549622	950.777588	1657.990845	1486.351563	75.730194
807.858154	945.799316	1651.080688	1476.171997	75.200157
808.166565	932.201965	1645.805298	1468.295898	75.124924
808.474915	933.093567	1622.177124	1464.655273	77.140381
808.783264	930.790222	1602.189575	1450.166382	77.357262
809.091492	946.170898	1591.415649	1432.853638	75.426064
809.399719	945.279236	1589.929688	1427.355347	74.781006
809.707825	954.418457	1595.502319	1431.293335	74.385727
810.015930	951.000488	1587.106079	1431.962036	75.610329
810.323975	964.449280	1580.121582	1421.113892	74.173325
810.632080	969.353333	1581.087524	1406.179077	71.407768
810.939880	966.752686	1581.236206	1402.612427	70.931068
811.247864	950.554688	1570.685059	1406.847656	73.580170
811.555664	946.022156	1549.360229	1412.866211	77.376862
811.863464	947.211121	1547.057007	1403.355469	76.043587
812.171143	954.195557	1543.490234	1396.593872	75.072510
812.478882	948.028503	1539.032227	1388.569336	74.541130
812.786438	942.158508	1534.054077	1391.615723	75.935219
813.094055	932.870667	1539.255249	1388.792358	75.186890
813.401489	936.437195	1543.564575	1383.145142	73.577301
813.708984	942.381531	1535.763062	1379.504395	73.666412
814.016357	956.350342	1527.961304	1375.491821	73.326355
814.323730	957.539124	1524.394531	1369.622070	72.696304
814.630981	961.625793	1518.896118	1365.238159	72.426674
814.938232	953.824036	1520.679565	1369.250488	73.286125
815.245361	947.359680	1521.422485	1378.835571	75.161789
815.552490	949.588867	1525.954956	1386.934570	75.879845
815.859619	943.941895	1517.335815	1384.259766	76.791512
816.166565	950.108948	1522.016968	1388.569336	76.666245
816.473572	948.697205	1522.091187	1384.928345	76.078781
816.780457	956.053162	1536.877441	1384.482422	73.762283
817.087341	946.839600	1535.168457	1386.488770	74.728470
817.394043	943.867432	1540.964233	1389.237915	74.589325
817.700806	938.146179	1542.301758	1388.940796	74.615654
818.007507	941.192566	1549.211792	1391.392700	74.043732
818.314209	936.065674	1554.561523	1393.250122	73.918755
818.620667	935.025452	1556.939087	1399.343140	74.659515
818.927246	940.672546	1574.994751	1409.002441	73.831543
819.233704	950.703308	1596.691040	1420.667969	72.751328
819.540161	957.687744	1624.331665	1442.513062	72.726280
819.846497	955.458679	1645.285156	1466.661499	74.106003
820.152832	946.542297	1691.129883	1504.778687	74.972565
820.458984	939.557922	1753.024048	1541.632813	74.013519
820.765259	944.907715	1828.367065	1582.870728	72.211929
821.071350	947.359680	1928.378540	1642.313110	70.839966
821.377502	956.647461	2091.175781	1752.281128	70.129028
821.683472	955.681641	2376.423828	1940.415649	69.311241
821.989441	957.539124	2823.131836	2238.740967	68.675323
822.295349	957.316223	3414.135742	2624.520752	67.860275
822.601196	952.040833	4105.373535	3059.711670	66.839470
822.907043	950.554688	4775.510254	3476.624268	66.041801
823.212769	943.718811	5322.898438	3799.618408	65.215401
823.518494	941.489746	5620.777832	3971.851807	64.761177
823.824097	940.523743	5627.911621	3982.105469	64.888634
824.129700	941.118164	5397.869629	3840.633057	65.058929
824.435242	948.028503	5059.866699	3636.375000	65.380646
824.740723	948.325623	4707.523438	3405.962158	65.376617
825.046082	940.449524	4352.133789	3185.654541	65.809288
825.351501	942.084229	3957.437256	2941.421875	66.305260
825.656799	940.077942	3553.676025	2693.473633	67.087425
825.962036	949.737305	3184.688721	2469.599609	68.004265
826.267212	943.050110	2906.499268	2293.056396	68.756874
826.572449	939.334961	2734.563232	2174.989258	68.829926
826.877502	940.375244	2691.170166	2135.831787	68.280785
827.182495	942.975891	2752.841797	2171.422852	67.875031
827.487488	943.198792	2868.753906	2252.784180	68.010796
827.792419	941.935608	2982.065430	2338.306641	68.445206
828.097290	946.765198	3054.138672	2376.275146	67.833725
828.402100	949.217224	3059.934326	2367.953369	67.215836
828.706848	950.777588	2977.607178	2300.412354	66.588470
829.011597	948.920105	2840.444336	2210.654541	66.704636
829.316223	954.938477	2669.102295	2101.801025	66.905075
829.620789	950.629089	2527.109619	2009.368530	67.158424
829.925354	956.573242	2380.138916	1917.604492	67.508743
830.229797	958.356506	2235.248779	1830.744629	68.321198
830.534302	961.700195	2073.566162	1727.389648	68.865265
830.838562	955.830261	1922.434448	1646.028198	71.404404
831.142944	948.399902	1815.289917	1567.416016	71.406532
831.447144	950.406006	1722.188477	1512.877808	72.879578
831.751404	951.669189	1667.130249	1463.689331	71.565063
832.055542	958.282043	1620.468140	1431.144653	71.409325
832.359619	951.966492	1601.372192	1416.804199	71.578941
832.663635	949.142883	1604.938843	1424.011597	72.411049
832.967651	944.238953	1632.728027	1447.565552	73.105965
833.271545	943.941711	1695.291016	1482.859375	71.726646
833.575439	941.712708	1782.893921	1537.546265	70.832962
833.879211	945.725098	1898.211548	1609.991333	69.740227
834.183044	944.982117	2017.244507	1691.649902	69.634796
834.486694	940.375244	2121.714111	1756.813477	69.111267
834.790344	943.198730	2183.905518	1798.497437	68.936409
835.093933	947.879822	2208.722656	1814.175171	68.707642
835.397522	952.709473	2173.131592	1795.748047	69.077621
835.700928	944.313293	2118.890625	1759.042603	69.363609
836.004395	947.954102	2055.584717	1714.683960	69.222527
836.307739	951.520691	1999.486206	1668.987671	68.462837
836.611023	949.811707	1923.251587	1623.217163	69.177917
836.914307	946.096497	1838.397949	1566.301270	69.506195
837.217529	951.743591	1749.680298	1508.270874	69.745796
837.520691	954.790039	1669.433472	1456.853516	70.253700
837.823730	952.337952	1598.994507	1400.754883	69.343910
838.126831	950.554688	1540.592651	1368.581665	70.847473
838.429749	952.560852	1495.936523	1328.235352	69.137161
838.732727	955.235779	1455.367310	1310.774292	71.089005
839.035522	951.743591	1432.184937	1283.208008	68.991653
839.338379	949.960266	1415.243774	1278.378296	70.584496
839.641113	951.297668	1419.330688	1273.622925	68.868057
839.943848	947.731140	1426.983765	1290.712524	71.565887
840.246460	946.022278	1453.955688	1305.127319	70.699234
840.549072	950.777588	1488.952148	1324.668945	69.473991
840.851563	952.932373	1516.666992	1333.585205	67.523407
841.154053	955.755859	1524.766113	1330.910278	65.931046
841.456482	953.972656	1511.466187	1327.046509	66.919853
841.758850	951.892273	1500.320679	1316.718628	66.522148
842.061157	950.703369	1479.738770	1312.557495	68.398849
842.363403	949.365906	1442.884644	1305.276001	72.116837
842.665588	955.458679	1404.915894	1286.402954	73.631989
842.967712	960.214050	1386.786133	1271.022339	72.861847
843.269775	959.768250	1378.018188	1247.691284	68.839943
843.571777	950.034485	1358.105103	1233.127930	69.373642
843.873840	949.885986	1331.207520	1219.753418	70.771622
844.175659	951.743591	1305.052979	1208.756714	72.744492
844.477600	956.796143	1287.591797	1198.280029	73.000923
844.779297	950.851868	1264.186401	1181.487671	73.606888
845.081116	947.434021	1246.279541	1179.630005	77.697662
845.382751	943.495911	1243.827637	1182.676392	79.638763
845.684387	940.821045	1247.765747	1173.017090	75.647514
845.985962	935.916992	1244.942261	1157.785034	71.796082
846.287537	937.551758	1231.864746	1140.918335	69.098747
846.588989	945.056335	1218.267456	1138.094849	70.655441
846.890381	953.972656	1213.957886	1134.899780	69.591309
847.191711	961.774414	1211.951660	1134.379517	68.993126
847.493042	962.294617	1211.431519	1142.032715	72.144310
847.794250	959.545349	1213.363403	1137.351685	70.052673
848.095459	948.251282	1213.734863	1139.803711	72.152267
848.396606	942.455750	1207.344849	1138.169067	73.885002
848.697693	942.529968	1199.914551	1147.159668	79.503479
848.998657	952.114990	1186.985840	1148.274292	83.517944
849.299622	953.675354	1190.775391	1140.695435	78.878136
849.600464	947.359680	1185.351196	1132.522095	77.802109
849.901367	940.375244	1189.809570	1126.949341	74.798889
850.202087	938.666321	1182.973633	1130.144409	78.375916
850.502808	941.564148	1192.781616	1128.435425	74.386261
850.803467	947.062500	1193.970459	1125.834839	72.404442
851.104065	950.257507	1204.595825	1126.949341	69.471184
851.404663	951.074890	1197.314087	1123.160034	69.885361
851.705139	950.406067	1196.942505	1128.955566	72.423172
852.005615	951.892151	1191.815552	1123.308472	71.446274
852.306030	949.291504	1192.410034	1126.354980	72.830101
852.606384	948.251282	1191.815552	1129.029907	74.222145
852.906616	945.799316	1196.199463	1127.023682	72.373909
853.206909	942.678650	1200.434692	1131.481812	73.248779
853.506958	939.112122	1193.896118	1121.748169	71.682701
853.807129	937.403137	1192.855957	1120.707886	71.756790
854.107178	945.725098	1187.506226	1114.540894	69.821739
854.407166	937.923279	1193.524536	1114.689453	69.157005
854.707092	934.059509	1184.013794	1111.420166	70.957237
855.007019	923.879944	1183.345215	1114.095093	73.310448
855.306763	934.282410	1178.441162	1118.107422	75.289131
855.606567	940.746765	1176.434937	1115.358154	74.085770
855.906250	948.920105	1170.342163	1116.101196	75.503357
856.205933	942.752930	1165.140991	1111.271606	75.776855
856.505493	940.375244	1163.654907	1114.763794	78.103195
856.805054	939.334961	1165.809692	1112.980469	76.673241
857.104492	949.885986	1165.661133	1112.757568	75.482086
857.403931	955.087219	1165.438232	1116.621460	76.792709
857.703308	956.424622	1168.930298	1116.026978	75.104988
858.002563	950.034485	1170.787964	1113.203491	73.914581
858.301819	946.096497	1168.187378	1115.358154	76.212791
858.601013	952.412292	1162.540405	1104.732910	72.489403
858.900208	949.068665	1177.103638	1102.057983	67.090286
859.199219	947.136902	1186.540161	1100.051758	63.873341
859.498291	940.672546	1185.425659	1107.110474	68.002373
859.797302	950.554749	1170.119263	1114.317871	74.585426
860.096191	953.229675	1164.546509	1115.729736	76.898781
860.395020	950.108887	1170.713745	1111.345825	73.088570
860.693787	943.644531	1173.834473	1107.779297	71.304054
860.992554	945.204895	1173.017090	1104.435669	69.895630
861.291260	949.365784	1167.815796	1116.844238	76.666718
861.589844	946.765198	1165.661011	1111.643066	75.322533
861.888428	944.610535	1167.518677	1108.893921	73.700035
862.186890	938.517761	1166.404175	1092.621582	67.623085
862.485413	934.951172	1166.181274	1094.553345	69.023094
862.783813	940.895325	1166.032593	1096.039429	68.910896
863.082153	939.780823	1169.896362	1099.977417	69.615723
863.380371	949.588684	1171.456665	1097.302490	66.577339
863.678589	949.960205	1163.506348	1101.686401	71.050781
863.976746	952.486511	1157.784912	1098.862915	71.299339
864.274902	946.319397	1162.688843	1101.314941	71.634674
864.572937	945.204895	1162.837524	1094.627686	68.658264
864.870911	950.851868	1170.565063	1103.692627	69.563759
865.168884	955.681580	1169.004761	1099.085815	67.223938
865.466736	949.885925	1176.955078	1107.630737	69.469940
865.764587	948.771423	1173.462891	1104.435547	69.279053
866.062317	950.034485	1177.029419	1109.339722	70.180084
866.360107	949.217285	1182.750610	1098.119995	63.760796
866.657715	950.480469	1189.883789	1095.519287	60.583462
866.955322	955.755920	1184.162476	1095.667969	61.255707
867.252808	963.557800	1184.311157	1096.931030	60.417305
867.550293	956.127441	1178.886963	1095.742188	62.675098
867.847717	948.399963	1178.441040	1096.931030	64.567192
868.145081	948.920105	1171.679565	1098.342896	67.078087
868.442383	951.595032	1175.543213	1100.200317	66.356995
868.739624	952.560852	1170.936523	1090.986816	63.388912
869.036804	952.635193	1168.261597	1090.243652	63.818001
869.333984	957.613464	1168.558838	1086.825806	61.253933
869.631042	953.823975	1168.856079	1102.652344	69.212166
869.928101	952.338074	1177.326660	1105.773071	68.196793
870.224976	951.000549	1179.109863	1106.664673	68.241020
870.521851	962.814636	1186.614380	1101.760742	62.085014
870.818726	955.012878	1177.698120	1100.869141	65.498848
871.115479	947.285400	1169.673462	1106.367554	71.533585
871.412231	949.068665	1164.175049	1104.955688	72.469734
871.708862	958.802307	1169.524902	1102.652344	68.265121
872.005493	972.474060	1170.342285	1104.286987	66.616524
872.302063	950.629089	1176.955078	1106.070313	68.680237
872.598572	948.920105	1182.453491	1104.064087	66.433319
872.895020	939.334961	1191.072632	1098.491455	63.223152
873.191406	950.406067	1197.016724	1103.172485	61.946400
873.487671	941.712708	1203.778320	1116.695679	66.770676
873.783997	948.622864	1206.601929	1116.695679	65.149788
874.080200	950.851868	1207.122070	1114.020752	63.670643
874.376343	955.384460	1202.069458	1109.859741	62.620461
874.672424	951.223450	1204.075562	1117.141357	65.618561
874.968445	950.851868	1200.657593	1115.952515	66.091621
875.264465	949.811707	1194.044556	1117.661499	68.725311
875.560364	952.858093	1188.397583	1120.187744	71.041016
875.856201	949.217224	1186.614502	1117.141357	70.735489
876.152039	961.328552	1189.363770	1113.500610	66.731827
876.447754	961.031311	1186.614380	1109.859741	65.974998
876.743469	968.238770	1190.701172	1117.290039	67.000656
877.039063	957.539246	1193.747559	1120.262207	68.889603
877.334595	953.081055	1197.611328	1121.228149	68.763306
877.630127	950.331787	1207.493530	1122.491333	66.946014
877.925537	951.817871	1214.626587	1122.491211	64.942039
878.221008	947.879700	1227.332397	1123.977417	63.015213
878.516296	942.009827	1223.468506	1123.382813	64.440361
878.811646	944.238953	1232.236206	1134.008179	65.892723
879.106812	942.901550	1235.802856	1143.667480	68.543884
879.401978	946.022278	1244.867798	1151.171997	68.647415
879.697083	942.084167	1258.167969	1156.001587	67.677437
879.992126	942.158508	1285.362671	1167.221313	65.576942
880.287109	942.455627	1328.458374	1189.586548	64.023102
880.582031	938.517639	1385.597046	1225.920654	64.284554
880.876892	946.616699	1485.311401	1300.446289	65.682770
881.171753	944.907715	1678.647095	1425.794922	65.539238
881.466492	942.901550	1968.576172	1604.047241	64.459595
881.761230	939.260742	2350.120850	1808.156616	61.586254
882.055786	940.672424	2725.349609	2026.160767	60.822666
882.350403	946.690918	3058.151367	2209.019775	59.784634
882.644958	948.251282	3265.901611	2336.820557	59.912804
882.939453	953.452454	3332.848389	2386.603271	60.231709
883.233826	959.693909	3277.270264	2367.953369	60.764320
883.528137	955.161438	3162.026611	2309.551514	61.371674
883.822449	948.399902	3043.885498	2233.539795	61.328979
884.116577	939.632141	2907.391357	2155.373291	61.783024
884.410828	954.864258	2761.460938	2071.857178	61.828571
884.704956	956.127380	2578.378662	1960.105835	61.887978
884.999023	966.306885	2366.987549	1832.379395	61.832260
885.292969	957.316223	2120.079590	1684.368286	62.527943
885.586914	956.870422	1906.013306	1546.313965	62.102718
885.880798	948.399902	1732.367798	1437.980469	62.449059
886.174622	950.851868	1619.353516	1368.656128	62.498615
886.468384	955.755859	1539.329468	1330.761719	64.260246
886.762085	954.864258	1495.490845	1305.944458	64.939499
887.055664	949.663025	1458.339478	1271.319458	63.233994
887.349304	948.919983	1412.123169	1246.799683	64.308647
887.642822	950.926208	1373.560059	1218.044556	63.203255
887.936340	946.170837	1341.164063	1213.289185	67.626060
888.229736	934.133789	1323.331421	1200.806274	68.518524
888.523071	935.099670	1305.721680	1186.391602	67.802757
888.816284	942.975830	1295.616577	1171.828247	64.896759
889.109619	958.430847	1282.613647	1154.812988	60.577595
889.402710	959.842590	1268.273071	1141.958618	59.046055
889.695862	955.310059	1252.595337	1131.184692	59.160225
889.988892	950.406067	1241.152710	1126.354980	60.516232
890.281921	953.601196	1231.567627	1130.813110	63.752991
>>>>>End Processed Spectral Data<<<<<
