Jaz Data File
++++++++++++++++++++++++++++++++++++
Date: Fri Jun 04 15:59:25 2021
User: jaz
Dark Spectrum Present: Yes
Reference Spectrum Present: Yes
Processed Spectrum Present: Yes
Spectrometers: JAZA3586
Integration Time (usec): 24700 (JAZA3586)
Spectra Averaged: 10 (JAZA3586)
Boxcar Smoothing: 1 (JAZA3586)
Correct for Electrical Dark: No (JAZA3586)
Strobe/Lamp Enabled: Yes (JAZA3586)
Correct for Detector Non-linearity: No (JAZA3586)
Correct for Stray Light: No (JAZA3586)
Number of Pixels in Processed Spectrum: 2048
>>>>>Begin Processed Spectral Data<<<<<
W	D	R	S	P
191.335022	0.000000	0.000000	0.000000	0.000000
191.713211	406.287323	398.113983	396.033478	125.454773
192.091385	811.162842	800.463196	800.686218	97.915611
192.469528	1212.546265	1209.945435	1200.732056	454.247620
192.847641	1212.248901	1219.604858	1207.939331	-58.586128
193.225739	1210.762817	1231.790405	1216.186890	25.795029
193.603790	1224.286011	1236.694458	1232.459229	65.868172
193.981842	1230.453003	1241.227051	1237.437500	64.827049
194.359863	1241.449707	1247.022583	1240.632446	-14.664972
194.737854	1239.889526	1250.811890	1244.347778	40.817650
195.115829	1238.180542	1254.675659	1251.035034	77.929077
195.493774	1239.889526	1251.777954	1246.205200	53.124550
195.871704	1244.570679	1251.332153	1237.066040	-110.991150
196.249603	1251.035034	1250.440552	1242.267212	1474.866577
196.627457	1250.143188	1249.326050	1245.090698	618.314880
197.005310	1247.394043	1244.199097	1248.434204	-32.556450
197.383133	1247.914185	1243.530396	1243.753296	94.915352
197.760910	1248.359985	1246.353882	1242.787354	277.783875
198.138687	1240.261108	1248.508667	1250.217651	120.721092
198.516449	1235.654419	1252.372314	1248.583008	77.333832
198.894180	1235.431396	1252.595215	1245.759399	60.173107
199.271866	1241.969971	1249.548828	1239.369385	-34.313694
199.649536	1251.480713	1243.307495	1236.620117	181.820633
200.027191	1250.514771	1232.905029	1240.335327	57.805752
200.404816	1249.400269	1233.796753	1233.796631	100.000786
200.782410	1236.323120	1246.725220	1241.672729	51.428169
201.159988	1233.648071	1269.536255	1249.846069	45.134628
201.537537	1227.555298	1287.740356	1258.985229	52.222149
201.915070	1229.561401	1287.740356	1256.607544	46.487846
202.292557	1222.725586	1282.836548	1252.298096	49.196533
202.670029	1230.453003	1278.526978	1246.502441	33.384880
203.047485	1223.245728	1276.966675	1246.353882	43.015167
203.424911	1228.521240	1276.669434	1243.158813	30.401085
203.802292	1223.171387	1272.211060	1246.576782	47.727470
204.179688	1229.041382	1271.245239	1246.948242	42.429440
204.557037	1226.738037	1269.239136	1249.400269	53.321518
204.934357	1223.914429	1269.239014	1253.412598	65.082047
205.311661	1223.988770	1272.062500	1255.344604	65.224464
205.688934	1221.239502	1271.319458	1255.864624	69.139679
206.066177	1224.062988	1272.211182	1250.886353	55.710011
206.443390	1225.028931	1276.372070	1246.799683	42.402454
206.820587	1228.669800	1278.824097	1240.632446	23.851688
207.197769	1231.344604	1279.270020	1236.025757	9.767578
207.574921	1228.669800	1274.886108	1234.539673	12.700870
207.952042	1225.994751	1276.669434	1240.855469	29.325724
208.329147	1214.329468	1279.715820	1244.273438	45.795444
208.706223	1224.137329	1287.591919	1246.279541	34.894577
209.083267	1230.378784	1281.573364	1238.626343	16.110218
209.460297	1235.951416	1276.372192	1242.341431	15.808738
209.837280	1227.629517	1266.564087	1240.409546	32.824375
210.214264	1223.319946	1266.415649	1245.462280	51.379448
210.591217	1226.812134	1266.712891	1243.604614	42.085617
210.968124	1229.635742	1274.068726	1244.719116	33.946346
211.345016	1222.948364	1274.886108	1242.490112	37.625332
211.721893	1219.827759	1275.480591	1239.443604	35.246803
212.098724	1215.666870	1275.480469	1235.802856	33.664562
212.475555	1219.902100	1274.440308	1237.140259	31.607491
212.852356	1221.536743	1277.783813	1234.614014	23.249691
213.229126	1222.205566	1267.901611	1236.397339	31.056894
213.605865	1229.189941	1270.279297	1232.533569	8.137455
213.982590	1231.270386	1261.363037	1234.316772	10.123358
214.359283	1233.722290	1261.140137	1235.951294	8.129756
214.735931	1223.840088	1262.180298	1235.877075	31.395205
215.112579	1221.388184	1271.393921	1236.322876	29.865957
215.489197	1210.911499	1270.056519	1237.288940	44.597908
215.865799	1210.317017	1268.793335	1239.740845	50.317513
216.242355	1208.533813	1268.496094	1232.830688	40.520264
216.618896	1213.883545	1276.446411	1233.648071	31.591465
216.995407	1221.982544	1283.356567	1234.316772	20.096823
217.371902	1221.165161	1280.904663	1241.226929	33.582081
217.748367	1220.942261	1270.650879	1237.066040	32.436588
218.124802	1214.477905	1265.523926	1240.558105	51.091545
218.501236	1212.620361	1270.873779	1241.449829	49.489746
218.877609	1213.289063	1283.876831	1236.322876	32.631451
219.253983	1215.963989	1275.480469	1236.843140	35.081291
219.630295	1220.868042	1276.000610	1236.322876	28.032131
220.006592	1222.502686	1272.879883	1247.765503	50.147327
220.382889	1216.929932	1283.653809	1248.434326	47.216072
220.759140	1218.564575	1279.864380	1252.223755	54.909115
221.135391	1218.341797	1275.034668	1248.954346	53.997173
221.511581	1218.936157	1268.570313	1252.223633	67.065666
221.887772	1217.227051	1265.449585	1253.784058	75.808968
222.263931	1215.889771	1274.365967	1257.202026	70.647987
222.640060	1225.103271	1272.731323	1254.527222	61.778614
223.016159	1226.069214	1265.152344	1253.561157	70.342224
223.392212	1229.932983	1260.174194	1247.171265	57.002617
223.768265	1224.062988	1267.604492	1242.267212	41.808899
224.144302	1218.861694	1274.366089	1244.273438	45.783298
224.520294	1214.032104	1276.595093	1247.914185	54.156750
224.896286	1214.255005	1282.167847	1253.561157	57.877350
225.272217	1224.880371	1287.740356	1248.359985	37.352242
225.648148	1227.332397	1293.238770	1250.068970	34.498291
226.024048	1224.657349	1285.511353	1244.199097	32.112511
226.399902	1219.753540	1288.483521	1248.211548	41.405521
226.775772	1217.821533	1286.402954	1246.056763	41.170376
227.151581	1224.954590	1289.895264	1246.799683	33.638538
227.527374	1216.632813	1295.616577	1245.759399	36.876675
227.903137	1208.533813	1300.074829	1246.130859	41.071259
228.278870	1203.555542	1302.601074	1249.400269	46.286518
228.654572	1210.168457	1310.328491	1252.075073	41.839657
229.030273	1221.908203	1324.520386	1248.731445	26.140408
229.405930	1225.548950	1344.359131	1246.353760	17.510965
229.781555	1222.874146	1355.950439	1247.542603	18.537079
230.157181	1212.620361	1364.940918	1249.846069	24.439056
230.532761	1215.592529	1365.981323	1250.291870	23.073090
230.908325	1213.883545	1361.374390	1247.171143	22.569263
231.283859	1212.397461	1352.978271	1245.016357	23.202951
231.659332	1214.998169	1341.684326	1242.341431	21.583464
232.034821	1212.620483	1329.572998	1236.025757	20.012629
232.410263	1223.691406	1315.901245	1241.226929	19.016975
232.785690	1214.180786	1315.678223	1246.502441	31.844799
233.161087	1222.056885	1322.439819	1253.041138	30.866056
233.536469	1217.747192	1330.315918	1242.787476	22.244440
233.911804	1221.388184	1331.058960	1237.363281	14.566413
234.287140	1219.233276	1337.820435	1240.335449	17.794653
234.662430	1219.456177	1338.637817	1247.171265	23.254494
235.037704	1214.180786	1342.798828	1249.251709	27.267498
235.412933	1212.174561	1340.941162	1247.096924	27.120668
235.788162	1213.586426	1345.102173	1249.103027	27.005589
236.163345	1216.484131	1343.616089	1248.137085	24.897717
236.538513	1221.611084	1343.170288	1246.056519	20.109900
236.913635	1224.211792	1338.489258	1244.124634	17.424994
237.288742	1225.623535	1345.622192	1247.542725	18.266195
237.663834	1218.713257	1341.609863	1241.301270	18.379688
238.038879	1213.883423	1336.854492	1239.072266	20.483551
238.413910	1213.734863	1337.820435	1230.675903	13.652707
238.788910	1219.753540	1338.637695	1233.722290	11.749884
239.163879	1225.028931	1348.520020	1235.579956	8.543957
239.538834	1225.697632	1348.817261	1239.146484	10.923403
239.913757	1223.245728	1361.002808	1248.954468	18.662373
240.288651	1213.066284	1368.730347	1257.127808	28.305521
240.663528	1212.248901	1380.321655	1262.328979	29.796667
241.038361	1214.477905	1388.940796	1252.966919	22.061434
241.413177	1226.515137	1409.894165	1250.143433	12.884950
241.787979	1228.595459	1430.698853	1250.143433	10.661857
242.162735	1221.090942	1461.906250	1254.750122	13.977176
242.537476	1217.895874	1476.692261	1249.771851	12.317010
242.912170	1212.100342	1506.413452	1244.199097	10.906328
243.286865	1225.697754	1524.617554	1241.375488	5.244796
243.661514	1221.908203	1541.335571	1239.889526	5.629237
244.036148	1228.149658	1525.137695	1238.031982	3.327516
244.410751	1227.926758	1496.456665	1245.016479	6.364178
244.785339	1227.332397	1479.515625	1244.496216	6.806090
245.159882	1225.623413	1466.587036	1253.041138	11.378366
245.534378	1222.428345	1478.326782	1245.016479	8.826992
245.908890	1225.103271	1486.648804	1243.381714	6.988627
246.283356	1225.548950	1514.215210	1244.644897	6.615233
246.657791	1222.279663	1556.344727	1248.954468	7.984913
247.032196	1220.422119	1624.480469	1258.316528	9.378449
247.406586	1214.329346	1706.064819	1249.771606	7.207587
247.780960	1209.425293	1752.132446	1245.610718	6.667578
248.155289	1210.762817	1768.479126	1246.205200	6.354912
248.529602	1212.843262	1744.330688	1251.109253	7.199792
248.903870	1214.998047	1708.293945	1256.384766	8.389836
249.278122	1218.490234	1659.700073	1248.657104	6.837307
249.652344	1223.914429	1619.279297	1245.685059	5.506465
250.026550	1221.165161	1591.861450	1238.477661	4.670265
250.400711	1222.948608	1571.874023	1236.842896	3.982022
250.774857	1227.406616	1553.744141	1236.471558	2.777781
251.148987	1240.260986	1548.171509	1235.654175	-1.496153
251.523071	1235.134155	1541.409790	1244.199097	2.959733
251.897125	1221.090942	1552.406738	1247.691284	8.028697
252.271164	1206.378906	1565.929688	1248.359985	11.675981
252.645187	1205.635986	1594.239258	1250.217651	11.472282
253.019165	1217.821655	1611.774780	1249.548950	8.053571
253.393112	1229.635742	1607.167847	1256.533325	7.124582
253.767044	1231.196167	1583.390991	1250.886353	5.590708
254.140930	1226.292114	1556.047485	1246.725464	6.196517
254.514801	1218.044556	1541.707153	1239.295044	6.565630
254.888657	1219.530640	1530.338867	1234.168091	4.709480
255.262466	1220.422241	1529.075684	1239.666382	6.234870
255.636276	1214.923828	1523.205933	1238.477539	7.640311
256.010010	1210.242798	1537.694824	1249.623169	12.026302
256.383759	1213.809204	1547.279907	1242.118652	8.489336
256.757446	1220.422241	1572.245483	1249.771729	8.342112
257.131134	1219.381958	1586.363159	1248.805786	8.017802
257.504791	1218.564575	1610.288574	1255.641724	9.465120
257.878418	1220.570801	1634.882813	1250.960571	7.334996
258.252014	1226.440796	1676.789429	1242.787231	3.629729
258.625580	1221.536743	1724.120483	1237.734741	3.222945
258.999115	1230.824585	1784.528442	1241.524170	1.932366
259.372650	1231.121704	1860.614380	1247.988403	2.679411
259.746124	1232.682129	1951.263672	1255.121460	3.122726
260.119598	1223.319946	2049.120361	1251.257690	3.383111
260.493042	1216.335571	2127.435547	1252.892456	4.012390
260.866425	1216.409912	2168.004883	1251.926636	3.732336
261.239838	1213.512085	2137.466553	1249.623169	3.908319
261.613159	1219.307617	2063.609375	1245.016479	3.044985
261.986511	1216.558472	1966.793091	1240.855469	3.238586
262.359802	1221.090942	1897.988770	1243.158813	3.260148
262.733063	1222.502808	1845.530884	1247.988647	4.090641
263.106293	1227.926758	1832.973755	1246.428101	3.057836
263.479523	1221.759644	1825.840698	1247.914185	4.329641
263.852692	1218.713135	1821.679688	1246.576782	4.621093
264.225861	1217.598633	1801.618042	1253.709839	6.183220
264.598969	1218.861938	1785.048462	1261.140015	7.467164
264.972076	1213.437866	1787.277710	1261.140015	8.312799
265.345154	1208.013672	1806.224976	1263.815063	9.328040
265.718201	1205.264526	1829.556030	1258.762451	8.569382
266.091217	1214.180786	1856.156250	1257.573608	6.759265
266.464203	1212.768921	1882.310913	1257.424927	6.669635
266.837158	1215.592407	1915.003906	1261.883057	6.618514
267.210114	1210.465576	1957.059204	1262.180298	6.926756
267.583038	1215.815308	1983.734009	1256.682007	5.321748
267.955902	1220.199341	2005.504883	1253.412598	4.229342
268.328766	1221.462402	2002.458374	1249.846069	3.634291
268.701569	1225.549194	2003.052734	1242.341431	2.159763
269.074371	1221.090942	2008.179688	1235.951538	1.888046
269.447144	1218.713257	2017.913452	1239.220825	2.566011
269.819885	1208.385132	2035.151733	1255.790405	5.733816
270.192596	1207.047729	2064.129639	1261.065796	6.302556
270.565277	1209.276855	2104.327393	1262.774780	5.977084
270.937927	1208.682373	2156.041992	1255.567383	4.949019
271.310577	1211.060181	2222.468750	1253.115356	4.158080
271.683136	1207.865112	2295.582764	1249.103149	3.791245
272.055725	1215.889771	2373.823486	1245.833862	2.585994
272.428284	1212.100342	2408.894287	1248.657349	3.054578
272.800812	1210.317017	2415.209717	1247.765625	3.108045
273.173279	1208.533813	2382.219482	1245.759399	3.171683
273.545776	1217.672974	2359.111328	1240.632446	2.011451
273.918152	1230.230103	2326.121094	1244.793457	1.328905
274.290558	1230.973145	2298.777588	1246.130859	1.419522
274.662964	1227.035034	2270.171143	1255.715942	2.749489
275.035278	1219.233276	2258.356934	1258.242310	3.754032
275.407593	1220.942261	2259.694336	1265.598267	4.299005
275.779907	1223.022827	2277.229492	1260.768433	3.580475
276.152161	1229.189819	2301.898193	1260.694214	2.936902
276.524384	1228.298218	2347.891846	1257.424927	2.601543
276.896606	1225.251953	2370.331055	1263.815063	3.367725
277.268799	1221.610962	2393.959473	1262.254761	3.466870
277.640930	1219.753540	2413.724121	1262.477539	3.578313
278.013031	1214.626587	2432.002441	1255.493042	3.356930
278.385162	1212.100342	2443.073486	1246.056519	2.758482
278.757233	1211.357300	2427.544189	1240.558228	2.401023
279.129272	1218.118774	2420.188477	1240.409668	1.854376
279.501282	1214.552368	2425.984131	1241.895630	2.257103
279.873230	1219.159058	2453.475830	1249.920410	2.492177
280.245178	1225.251831	2494.862549	1249.325928	1.896179
280.617126	1227.406616	2543.382080	1256.904907	2.241553
280.988983	1228.446899	2605.276123	1254.229980	1.872642
281.360870	1228.744019	2671.925781	1258.316528	2.049119
281.732697	1226.366333	2734.340088	1255.270142	1.916732
282.104492	1223.319946	2791.033203	1257.944946	2.208631
282.476288	1217.970093	2834.128906	1261.660278	2.703335
282.848053	1217.375854	2879.676025	1263.740723	2.789200
283.219757	1215.592651	2895.948486	1262.106079	2.768070
283.591461	1216.632690	2887.552002	1252.520996	2.147818
283.963135	1220.793823	2860.803467	1248.805786	1.708036
284.334747	1221.610962	2850.623779	1249.846069	1.733265
284.706360	1219.381958	2881.831055	1256.979126	2.261553
285.077942	1216.632813	2936.815186	1261.734497	2.621913
285.449524	1219.307739	3003.539063	1266.564209	2.648562
285.821014	1216.929932	3052.653076	1262.997681	2.509515
286.192535	1214.477905	3111.129639	1263.146240	2.566013
286.563995	1212.768921	3152.813232	1256.161743	2.236692
286.935425	1215.592407	3199.697998	1255.418823	2.007273
287.306824	1217.895996	3203.413086	1252.892456	1.762587
287.678223	1216.261230	3167.004639	1246.874023	1.569288
288.049561	1218.193115	3114.844482	1248.359985	1.590533
288.420898	1226.366333	3056.071045	1246.874023	1.120820
288.792145	1217.598633	3032.294189	1249.771729	1.772920
289.163452	1217.227173	3023.823486	1249.846069	1.805544
289.534668	1212.248901	3065.210205	1251.703613	2.129279
289.905914	1223.468628	3114.992920	1250.960571	1.453428
290.277039	1216.112671	3184.837646	1250.143188	1.728556
290.648193	1214.180786	3263.449951	1255.195801	2.001446
291.019318	1209.276733	3343.399658	1259.208130	2.339668
291.390381	1214.180786	3390.432861	1258.836792	2.051969
291.761475	1216.781372	3375.052490	1255.493164	1.793648
292.132507	1222.056885	3350.680908	1255.344482	1.563808
292.503510	1228.075317	3312.786865	1261.140015	1.586056
292.874481	1230.453125	3284.328857	1266.266968	1.743720
293.245422	1231.344727	3271.325439	1279.641479	2.367510
293.616364	1230.081543	3286.557861	1274.737427	2.171476
293.987213	1230.898926	3346.223389	1273.474243	2.012709
294.358093	1232.607910	3427.287354	1267.307129	1.581061
294.728943	1224.211548	3545.874268	1266.044067	1.801835
295.099731	1217.227173	3649.972656	1268.421753	2.104395
295.470490	1212.100220	3724.498047	1263.740723	2.055427
295.841248	1214.849609	3773.315186	1270.948120	2.192662
296.211975	1211.505859	3829.785156	1265.375366	2.057439
296.582642	1213.809204	3901.487305	1262.106079	1.796974
296.953308	1215.518188	3986.043701	1256.756226	1.488456
297.323883	1222.354126	4061.460938	1255.121582	1.154147
297.694519	1220.645020	4114.958984	1255.344482	1.198884
298.065063	1213.883667	4124.543945	1257.647827	1.503582
298.435608	1212.323120	4075.281250	1259.653931	1.653214
298.806122	1214.998047	3969.474365	1257.127808	1.529502
299.176575	1213.289185	3841.599365	1256.236084	1.634012
299.547028	1208.905273	3736.014893	1253.858276	1.778831
299.917450	1207.716431	3677.167236	1256.384644	1.970811
300.287872	1212.546143	3636.523682	1252.892456	1.664467
300.658234	1217.821655	3614.455811	1252.595337	1.450938
301.028564	1216.038330	3584.140381	1256.459106	1.706885
301.398865	1223.097046	3568.982422	1262.031738	1.659701
301.769135	1226.069214	3551.298828	1273.251465	2.029144
302.139374	1223.765869	3560.809326	1273.994507	2.149239
302.509583	1224.657471	3569.354248	1274.886108	2.142223
302.879791	1224.360229	3567.273438	1258.985352	1.477866
303.249939	1222.948486	3541.267578	1260.174194	1.605720
303.620087	1218.936157	3504.190674	1252.075195	1.450125
303.990173	1215.666870	3493.194092	1259.728394	1.934621
304.360260	1219.381958	3481.305420	1257.499146	1.685167
304.730286	1221.016602	3484.872070	1262.328979	1.824868
305.100281	1228.744141	3474.692627	1262.923462	1.521821
305.470276	1233.053711	3495.125732	1258.539551	1.126659
305.840179	1226.589355	3508.722900	1254.378540	1.217684
306.210144	1225.994995	3534.803467	1251.109253	1.087758
306.579987	1216.484253	3541.936279	1255.864624	1.693450
306.949890	1230.230347	3552.784424	1263.071899	1.414027
307.319702	1226.812256	3584.511719	1272.285400	1.928708
307.689484	1230.304443	3606.208252	1271.170898	1.720038
308.059265	1222.279785	3665.427490	1268.867554	1.906875
308.429016	1215.666748	3720.634521	1256.979126	1.649218
308.798737	1209.202393	3817.079346	1257.796509	1.863359
309.168396	1210.019775	3901.041748	1255.938965	1.706385
309.538055	1216.038208	3955.059570	1261.734497	1.668344
309.907684	1219.233398	3989.981689	1265.969727	1.686776
310.277313	1215.889771	4014.055908	1267.232788	1.834881
310.646851	1210.094116	4046.526123	1272.954102	2.216164
311.016388	1208.831055	4087.466797	1269.684814	2.113979
311.385895	1209.648315	4092.667969	1271.616699	2.149426
311.755371	1217.301392	4094.079834	1265.672485	1.681433
312.124817	1222.502563	4079.888428	1262.403198	1.396404
312.494232	1215.146606	4073.349365	1258.093628	1.502588
312.863617	1209.871216	4051.727295	1262.774780	1.861585
313.232971	1208.831055	4030.031006	1264.260742	1.964756
313.602295	1217.078613	4008.854736	1273.177124	2.009420
313.971619	1222.056763	4009.969482	1265.598145	1.561792
314.340820	1225.029175	3988.124268	1267.455688	1.535471
314.710083	1223.988770	4017.399414	1259.059448	1.255479
315.079285	1222.428467	4055.888428	1273.028442	1.785802
315.448486	1217.301636	4114.661621	1273.548584	1.941317
315.817596	1220.570801	4100.023926	1272.731323	1.811473
316.186707	1223.394287	4050.687256	1262.551880	1.384985
316.555786	1228.149780	3975.567139	1259.505493	1.141279
316.924866	1229.041382	3906.242920	1262.477539	1.248922
317.293884	1222.948608	3867.754150	1255.121460	1.216454
317.662872	1218.787598	3852.447510	1255.195801	1.382419
318.031830	1218.490234	3873.697998	1265.003906	1.751790
318.400757	1220.422241	3895.394531	1270.130737	1.858281
318.769684	1225.623413	3910.923584	1275.183228	1.845597
319.138550	1221.611084	3923.109375	1262.328979	1.507234
319.507416	1217.301392	3927.492920	1251.480835	1.261145
319.876190	1212.026001	3946.143311	1251.257935	1.434903
320.244995	1210.316895	3941.239258	1255.493164	1.654250
320.613770	1209.796875	3929.945313	1260.842773	1.876585
320.982483	1212.248901	3910.700928	1253.858398	1.541976
321.351166	1217.672974	3878.082031	1259.059570	1.555648
321.719818	1226.812134	3847.246338	1261.437378	1.321355
322.088440	1224.880371	3843.753906	1265.003906	1.532091
322.457062	1223.468750	3870.428955	1261.437378	1.434424
322.825623	1219.530640	3926.898682	1264.409424	1.657654
323.194183	1221.313843	3987.826904	1258.316528	1.337521
323.562653	1218.193115	4079.293701	1255.567383	1.306290
323.931183	1218.936157	4146.611816	1251.703491	1.119227
324.299591	1217.747314	4236.964355	1256.756226	1.292021
324.668060	1220.273560	4292.988770	1256.236084	1.170383
325.036407	1213.066284	4365.285156	1257.127808	1.397794
325.404755	1216.929810	4392.182129	1261.883057	1.415738
325.773102	1211.654541	4420.789063	1267.381470	1.736510
326.141388	1214.626587	4397.606445	1270.650757	1.760117
326.509674	1208.236572	4381.705566	1262.848999	1.720906
326.877899	1211.208618	4371.451660	1251.480835	1.274339
327.246124	1222.948364	4396.343750	1250.960571	0.882720
327.614288	1234.242554	4380.368652	1250.588989	0.519573
327.982422	1230.378784	4362.684082	1257.796387	0.875317
328.350525	1222.651245	4327.167480	1261.511475	1.251732
328.718628	1214.106445	4331.180176	1269.090454	1.763962
329.086700	1221.016602	4331.031738	1272.954224	1.670012
329.454712	1220.570801	4341.359375	1271.765259	1.640433
329.822693	1226.886475	4349.160645	1267.678711	1.306491
330.190674	1231.195923	4371.674805	1269.684814	1.225574
330.558563	1228.298218	4405.705566	1274.663086	1.459204
330.926483	1212.917603	4456.677246	1280.310059	2.077603
331.294312	1213.586304	4498.955566	1270.725098	1.739190
331.662231	1215.221069	4547.475098	1258.911011	1.311123
332.029999	1231.493286	4592.205566	1255.270142	0.707494
332.397766	1219.307617	4652.093262	1257.722046	1.119045
332.765503	1219.233276	4716.439453	1260.917114	1.191918
333.133240	1208.756714	4783.980469	1261.808716	1.483879
333.500916	1213.214844	4834.951660	1265.672485	1.448411
333.868561	1214.180664	4885.552246	1278.898438	1.762768
334.236176	1218.415894	4920.623535	1274.737549	1.521299
334.603790	1216.335571	4940.090332	1271.691040	1.486550
334.971344	1215.518188	4932.585938	1273.845825	1.569184
335.338867	1217.004272	4902.270020	1278.898560	1.679507
335.706360	1216.187012	4900.041504	1274.588867	1.585346
336.073853	1213.140503	4902.939453	1265.672485	1.423709
336.441284	1211.060059	4911.781250	1264.186523	1.435571
336.808655	1214.626587	4882.729004	1268.867554	1.478720
337.176086	1221.239502	4827.225098	1261.808716	1.125052
337.543396	1222.502563	4746.309082	1262.997681	1.149187
337.910706	1227.703979	4676.538574	1257.276367	0.857460
338.277954	1224.211670	4678.693848	1257.647949	0.967910
338.645264	1220.570801	4755.151367	1255.047241	0.975404
339.012421	1214.403687	4897.960938	1264.706665	1.365609
339.379669	1217.598633	5027.471191	1272.285400	1.435396
339.746796	1224.954712	5134.764160	1279.715698	1.400605
340.113953	1230.081665	5208.397949	1280.087280	1.256954
340.481018	1230.304443	5267.988770	1280.310181	1.238476
340.848114	1229.115601	5287.679199	1273.622925	1.096627
341.215118	1228.669800	5306.774902	1265.301025	0.898241
341.582153	1223.765747	5314.799316	1262.700439	0.951708
341.949066	1221.090942	5347.269531	1265.523926	1.076856
342.316010	1217.747192	5370.452148	1268.793213	1.229223
342.682922	1213.586304	5397.869629	1275.406128	1.477429
343.049835	1206.007446	5461.621094	1279.641479	1.730280
343.416656	1204.818726	5527.230469	1282.464966	1.796364
343.783478	1210.094116	5626.870605	1275.554810	1.482092
344.150269	1220.719360	5760.095703	1276.743652	1.234185
344.516998	1222.576904	5935.821777	1280.012939	1.218609
344.883728	1224.285889	6081.752441	1280.161499	1.150303
345.250427	1213.066162	6169.280762	1275.554810	1.260814
345.617065	1211.134399	6198.556152	1266.787109	1.115861
345.983704	1211.134399	6187.781250	1266.638550	1.115292
346.350281	1222.056885	6159.250000	1264.186646	0.853314
346.716827	1229.041382	6087.027344	1269.462036	0.832046
347.083405	1232.087769	6004.923340	1264.186523	0.672530
347.449860	1228.595459	5917.691895	1264.855225	0.773278
347.816376	1223.171387	5853.939941	1263.517700	0.871266
348.182770	1220.199219	5812.925293	1274.366089	1.179406
348.549194	1217.970093	5771.910156	1269.833496	1.138869
348.915558	1213.066040	5781.346191	1271.393799	1.276799
349.281921	1216.855591	5788.851074	1265.226685	1.057986
349.648193	1209.053833	5845.840332	1271.393799	1.344465
350.014526	1212.546143	5894.583496	1269.239136	1.210862
350.380737	1206.304810	5981.442871	1266.489868	1.260384
350.746948	1221.388184	6041.628906	1266.638428	0.938755
351.113159	1221.833984	6080.637207	1266.415527	0.917542
351.479309	1225.697754	6133.837891	1268.347412	0.868958
351.845428	1228.372681	6182.283691	1268.718994	0.814434
352.211517	1227.109497	6245.886719	1275.406250	0.962321
352.577576	1225.400391	6283.112793	1278.749878	1.054815
352.943604	1219.827759	6347.607422	1270.427856	0.986784
353.309601	1221.090942	6409.873047	1268.347534	0.910745
353.675537	1221.610962	6521.178223	1265.003906	0.818802
354.041473	1214.106323	6655.666504	1273.994507	1.100570
354.407379	1218.415894	6801.150879	1275.331909	1.019501
354.773254	1214.403687	6943.515137	1285.659912	1.243757
355.139038	1221.908203	7037.953613	1278.304077	0.969660
355.504913	1213.734985	7170.807129	1271.245239	0.965411
355.870636	1216.261108	7285.084473	1264.483643	0.794594
356.236389	1220.719360	7433.541504	1266.861328	0.742689
356.602081	1222.205444	7595.001465	1272.211304	0.784677
356.967804	1221.388062	7769.909668	1276.743652	0.845314
357.333405	1217.970215	7960.719238	1280.904663	0.933365
357.699036	1219.381958	8150.562500	1283.653809	0.927286
358.064606	1219.530762	8351.253906	1276.669312	0.801189
358.430176	1220.347900	8489.234375	1273.325684	0.728829
358.795654	1218.564575	8579.363281	1273.771484	0.750012
359.161163	1219.604858	8575.202148	1278.526978	0.801051
359.526581	1217.672974	8584.043945	1271.913940	0.736332
359.892029	1215.295288	8618.149414	1269.907715	0.737721
360.257416	1214.923828	8758.210938	1266.415527	0.682616
360.622772	1211.060059	8985.280273	1279.121338	0.875474
360.988098	1214.775269	9300.695313	1276.000610	0.757185
361.353394	1207.790649	9658.611328	1278.972778	0.842310
361.718658	1210.985840	9969.196289	1283.059448	0.822926
362.083893	1218.564575	10201.615234	1284.322632	0.732024
362.449097	1227.852417	10348.139648	1289.672363	0.677829
362.814209	1226.663574	10369.166992	1282.167847	0.607101
363.179382	1223.245728	10154.655273	1288.557739	0.731262
363.544434	1223.691528	9759.439453	1284.916992	0.717283
363.909546	1227.406616	9283.381836	1290.266724	0.780292
364.274536	1229.338501	8875.905273	1284.099609	0.716153
364.639587	1223.988770	8535.821289	1281.276123	0.783488
365.004517	1225.326050	8327.848633	1270.650879	0.638151
365.369507	1215.443970	8169.509277	1270.279419	0.788538
365.734344	1213.214844	8107.912598	1269.462036	0.815804
366.099274	1211.951660	8032.421387	1279.046997	0.983735
366.464081	1214.180664	7999.802246	1285.882935	1.056679
366.828918	1218.193115	7965.622559	1293.907593	1.122123
367.193665	1213.883667	7978.105469	1291.975708	1.154487
367.558411	1222.354126	7981.375000	1290.415405	1.006969
367.923126	1223.617188	7960.273438	1289.598022	0.979430
368.287781	1222.428345	7915.022949	1296.508179	1.106893
368.652435	1217.078613	7883.518066	1292.421509	1.130182
369.017059	1219.901978	7865.686035	1284.471069	0.971580
369.381653	1223.022827	7824.299316	1283.505249	0.916223
369.746185	1221.908325	7802.083496	1278.452637	0.859313
370.110687	1221.388062	7810.701660	1278.304077	0.863762
370.475220	1222.948364	7860.856934	1277.709595	0.824977
370.839661	1225.697754	7926.837402	1281.722046	0.836041
371.204041	1225.474731	7982.712891	1283.802368	0.863187
371.568451	1219.679199	8059.690918	1275.629150	0.817980
371.932770	1218.118774	8112.594238	1274.886108	0.823374
372.297150	1213.066284	8159.182129	1277.338013	0.925290
372.661377	1217.152832	8195.218750	1277.189453	0.860362
373.025696	1213.660645	8239.725586	1276.966553	0.901015
373.389862	1213.660645	8226.425781	1278.081177	0.918618
373.754059	1212.917603	8215.131836	1287.814819	1.069622
374.118225	1219.381958	8204.061523	1285.437134	0.945715
374.482361	1221.313843	8272.641602	1279.418579	0.824025
374.846436	1222.354004	8346.350586	1272.731323	0.707150
375.210510	1223.022827	8478.535156	1279.195679	0.774209
375.574524	1227.778198	8615.772461	1286.180054	0.790497
375.938538	1227.778198	8789.268555	1288.632080	0.804787
376.302460	1223.171387	8963.137695	1288.334839	0.841909
376.666412	1223.988770	9156.250000	1291.678467	0.853347
377.030304	1219.902100	9325.363281	1287.517578	0.834197
377.394196	1221.833984	9491.429688	1293.164551	0.862564
377.757996	1215.741089	9628.147461	1296.731079	0.962745
378.121796	1216.781250	9711.291992	1306.687622	1.058406
378.485565	1216.632690	9706.164063	1313.226318	1.137797
378.849304	1219.456177	9622.648438	1309.065308	1.066370
379.212982	1224.508911	9491.875977	1303.938477	0.960760
379.576630	1222.056885	9286.726563	1296.062378	0.917651
379.940277	1218.639038	9119.470703	1294.947876	0.965833
380.303864	1218.341675	8954.370117	1295.022095	0.991212
380.667450	1217.598755	8906.147461	1300.743286	1.081407
381.030945	1219.084839	8873.379883	1303.418335	1.101780
381.394501	1214.255005	8917.144531	1308.619507	1.225053
381.757935	1220.942261	8932.153320	1307.133423	1.117738
382.121399	1224.360352	8947.013672	1318.873169	1.223839
382.484741	1222.279785	8999.916992	1331.579102	1.405302
382.848145	1217.301514	9038.925781	1346.736938	1.654841
383.211487	1215.592407	9100.374023	1366.947266	1.919582
383.574768	1214.477905	9196.967773	1393.473267	2.242350
383.938019	1211.282959	9302.032227	1424.680298	2.637547
384.301270	1213.214844	9435.851563	1443.701782	2.803078
384.664459	1213.512207	9503.168945	1483.973999	3.262642
385.027649	1219.902222	9575.391602	1523.057129	3.628212
385.390778	1215.369629	9638.994141	1587.551880	4.418314
385.753876	1222.874146	9683.874023	1651.154907	5.061822
386.116943	1225.920532	9758.696289	1730.138794	5.909194
386.479980	1231.939087	9784.479492	1812.243286	6.785168
386.842987	1235.505615	9830.174805	1888.106445	7.593089
387.205994	1230.453125	9890.731445	1980.539063	8.661222
387.568909	1225.028931	9950.545898	2071.411133	9.700081
387.931793	1217.672974	9998.620117	2178.184326	10.938584
388.294678	1216.186890	10034.731445	2279.607422	12.058911
388.657471	1217.227173	10064.526367	2395.296631	13.315583
389.020294	1220.050781	10069.727539	2498.428955	14.445478
389.383057	1224.062988	10072.030273	2627.195557	15.858249
389.745819	1219.233398	10094.842773	2750.760986	17.255465
390.108521	1220.570801	10126.420898	2882.796875	18.664431
390.471191	1213.066284	10208.154297	3022.634766	20.117296
390.833801	1216.409790	10320.425781	3165.890381	21.413414
391.196442	1212.991943	10515.692383	3329.281982	22.749203
391.558960	1214.032104	10690.081055	3480.933838	23.922438
391.921509	1213.809204	10894.635742	3635.334717	25.013624
392.284027	1215.369629	11064.864258	3798.577881	26.226810
392.646484	1213.066162	11225.655273	3956.397217	27.398819
393.008911	1218.713257	11236.949219	4090.364990	28.664246
393.371307	1214.998169	11210.200195	4215.713379	30.021557
393.733673	1220.570801	11108.703125	4316.468262	31.309221
394.096008	1217.152954	11063.081055	4426.435547	32.595028
394.458344	1218.638916	11067.835938	4528.676270	33.607178
394.820587	1223.542847	11069.321289	4646.892090	34.769714
395.182831	1221.462402	11092.801758	4768.228516	35.929935
395.545013	1223.097046	11012.926758	4876.933594	37.322777
395.907196	1218.044434	10898.426758	4956.065918	38.614399
396.269287	1215.443848	10755.245117	4996.040527	39.629723
396.631409	1211.282837	10631.679688	5033.860840	40.577679
396.993469	1207.047607	10491.172852	5057.489746	41.473400
397.355530	1207.716431	10351.929688	5123.470215	42.822208
397.717499	1209.053833	10262.691406	5194.057617	44.015499
398.079468	1212.769043	10241.589844	5293.549316	45.197269
398.441376	1219.456299	10253.552734	5373.126953	45.977711
398.803284	1224.360352	10274.059570	5460.433105	46.808990
399.165131	1227.555298	10299.026367	5541.496582	47.555038
399.526978	1224.806030	10295.385742	5621.892090	48.476349
399.888763	1220.868042	10283.050781	5701.321777	49.441219
400.250519	1217.301636	10294.196289	5769.011719	50.146114
400.612244	1216.112671	10307.050781	5870.286621	51.195747
400.973938	1216.187012	10300.512695	5927.945313	51.866898
401.335602	1216.558472	10317.378906	6008.935547	52.658737
401.697205	1211.431519	10391.533203	6086.582031	53.105625
402.058807	1210.762817	10500.907227	6203.460449	53.741875
402.420349	1222.057007	10586.428711	6342.926270	54.684597
402.781860	1223.468628	10690.453125	6469.537598	55.414360
403.143341	1228.967041	10854.215820	6623.047363	56.040939
403.504822	1218.787598	11049.260742	6758.724121	56.354733
403.866241	1221.388184	11230.632813	6910.449707	56.838074
404.227631	1225.251831	11361.480469	7037.433594	57.340672
404.588959	1227.778198	11559.125000	7194.509277	57.753662
404.950287	1224.583130	11732.995117	7329.591797	58.096397
405.311554	1221.611084	11855.370117	7440.600098	58.483452
405.672821	1215.889771	11900.026367	7527.162598	59.071434
406.034027	1225.549194	11882.492188	7568.103516	59.515697
406.395203	1218.490356	11813.612305	7564.537109	59.895931
406.756348	1220.050781	11706.691406	7548.933594	60.351860
407.117493	1214.998047	11630.307617	7542.766113	60.754490
407.478516	1217.672974	11597.688477	7575.385254	61.249546
407.839600	1222.874146	11584.760742	7596.338379	61.508724
408.200592	1220.942383	11579.261719	7616.400391	61.742237
408.561554	1220.719360	11573.911133	7640.920410	62.011806
408.922485	1216.929932	11597.540039	7669.601074	62.160805
409.283417	1221.536743	11608.239258	7721.315918	62.577892
409.644257	1226.812134	11709.515625	7816.497559	62.862465
410.005096	1237.511841	11829.215820	7927.728027	63.164684
410.365906	1234.316772	11962.515625	8050.922363	63.539139
410.726715	1231.344727	12081.399414	8133.695801	63.615818
411.087433	1221.016724	12144.928711	8202.278320	63.908073
411.448120	1225.400513	12200.135742	8282.970703	64.307434
411.808807	1223.840210	12183.045898	8338.399414	64.918564
412.169434	1218.044556	12121.596680	8363.068359	65.529327
412.530029	1213.586426	12106.958008	8354.300781	65.551003
412.890564	1214.552368	12075.528320	8379.860352	65.972969
413.251099	1219.084839	12078.651367	8408.690430	66.205269
413.611572	1221.090942	12073.746094	8451.192383	66.620575
413.972076	1220.570801	12126.203125	8485.519531	66.616478
414.332489	1221.536621	12226.066406	8545.035156	66.549858
414.692871	1220.273560	12378.981445	8654.260742	66.620499
415.053223	1216.855591	12549.729492	8791.795898	66.840416
415.413574	1215.741089	12768.328125	8966.109375	67.087730
415.773834	1219.827759	12953.491211	9078.233398	66.973167
416.134094	1226.366455	13118.813477	9215.171875	67.175453
416.494263	1228.521240	13285.176758	9337.845703	67.260147
416.854462	1226.366455	13574.215820	9569.967773	67.571289
417.214630	1229.412842	13881.382813	9801.717773	67.754707
417.574738	1230.304443	14218.791992	10055.089844	67.943130
417.934784	1226.737915	14529.672852	10299.174805	68.198761
418.294861	1222.056763	14929.644531	10595.940430	68.384636
418.654846	1223.171387	15400.203125	10928.666992	68.459297
419.014832	1224.583130	15904.645508	11298.992188	68.626472
419.374756	1217.747314	16441.632813	11662.035156	68.604614
419.734680	1211.951660	17002.542969	12086.600586	68.867897
420.094543	1217.227173	17562.117188	12499.278320	69.024940
420.454376	1230.081543	18076.142578	12891.372070	69.222656
420.814148	1240.558228	18590.390625	13254.565430	69.245667
421.173920	1239.295044	19095.353516	13618.426758	69.327347
421.533691	1227.555176	19616.585938	13969.432617	69.290634
421.893341	1225.623413	20006.230469	14258.915039	69.397606
422.253021	1221.165161	20288.134766	14466.145508	69.465584
422.612640	1224.286011	20380.865234	14579.011719	69.713516
422.972260	1215.072510	20358.353516	14594.020508	69.888481
423.331757	1215.221069	20291.406250	14581.016602	70.065346
423.691315	1223.617310	20265.994141	14577.821289	70.128868
424.050781	1232.607910	20364.148438	14665.500000	70.213333
424.410248	1237.065918	20445.658203	14695.071289	70.062431
424.769653	1225.251831	20528.951172	14766.253906	70.147186
425.128998	1216.855591	20549.679688	14808.680664	70.304398
425.488373	1214.923828	20468.763672	14763.356445	70.367432
425.847656	1217.450195	20275.279297	14638.824219	70.424469
426.206940	1222.651245	20017.154297	14454.703125	70.403839
426.566193	1222.131104	19639.027344	14205.194336	70.495392
426.925385	1224.657349	19275.759766	13956.280273	70.531006
427.284576	1220.793579	18708.904297	13620.135742	70.901550
427.643677	1217.375732	18307.818359	13374.043945	71.131378
428.002777	1220.719360	17925.236328	13086.269531	71.031982
428.361847	1223.022705	17587.158203	12784.674805	70.652390
428.720856	1228.595337	17220.027344	12548.243164	70.785706
429.079865	1226.886597	16935.595703	12362.930664	70.890892
429.438812	1231.418945	16710.162109	12232.084961	71.069504
429.797760	1227.703857	16594.474609	12118.698242	70.873672
430.156616	1227.926758	16371.268555	11972.397461	70.951782
430.515503	1224.508667	16296.147461	11898.614258	70.822464
430.874268	1226.663452	16187.589844	11847.569336	70.990967
431.233093	1222.354126	16199.329102	11869.339844	71.089027
431.591827	1225.028931	16234.252930	11890.813477	71.061531
431.950562	1218.936157	16289.385742	11922.688477	71.024773
432.309204	1225.251831	16350.684570	11997.437500	71.219025
432.667877	1221.165283	16467.710938	12082.143555	71.235664
433.026459	1228.446899	16617.357422	12168.778320	71.092308
433.385010	1224.211548	16747.386719	12249.174805	71.022606
433.743561	1230.898804	16875.337891	12397.334961	71.376396
434.102051	1228.818481	17014.283203	12509.234375	71.460777
434.460510	1231.716187	17200.857422	12627.524414	71.361435
434.818939	1225.994873	17279.767578	12647.660156	71.146301
435.177338	1219.753418	17326.578125	12672.848633	71.107101
435.535675	1214.032104	17260.001953	12614.893555	71.051247
435.894012	1213.066162	17195.208984	12574.695313	71.089523
436.252289	1217.598755	17197.291016	12611.475586	71.302231
436.610535	1219.679077	17170.615234	12605.976563	71.383255
436.968719	1220.347778	17300.052734	12684.069336	71.293106
437.326935	1220.793701	17417.375000	12745.219727	71.153450
437.685028	1221.388184	17580.841797	12888.178711	71.315285
438.043152	1225.326172	17704.183594	12998.592773	71.444679
438.401215	1231.270386	17901.234375	13148.833008	71.491226
438.759277	1227.332397	18174.222656	13292.906250	71.196388
439.117249	1225.994995	18576.126953	13573.843750	71.168610
439.475250	1216.335571	18908.556641	13778.325195	71.002899
439.833130	1221.685303	19290.250000	14101.839844	71.284882
440.191071	1217.598633	19550.679688	14277.565430	71.237160
440.548889	1225.623413	19864.533203	14535.098633	71.406944
440.906708	1222.948608	20154.462891	14714.242188	71.263680
441.264496	1224.286011	20365.482422	14916.122070	71.530716
441.622223	1224.731812	20513.273438	15025.644531	71.549805
441.979950	1222.279785	20601.990234	15087.687500	71.545998
442.337616	1220.719360	20696.875000	15116.293945	71.346596
442.695251	1217.450073	20606.595703	15054.475586	71.364799
443.052887	1223.691528	20452.714844	14958.325195	71.426582
443.410461	1224.731812	20277.285156	14816.557617	71.338608
443.768005	1223.988770	20103.492188	14730.438477	71.540276
444.125458	1222.948486	19983.642578	14653.684570	71.589767
444.482941	1228.298340	19973.314453	14666.019531	71.686897
444.840393	1230.230103	20101.337891	14705.028320	71.404381
445.197754	1234.465454	20343.416016	14898.958008	71.508331
445.555084	1230.453003	20573.976563	15052.170898	71.453979
445.912415	1227.406616	20952.326172	15373.752930	71.718147
446.269714	1218.639038	21237.425781	15576.897461	71.723923
446.626953	1215.666870	21559.529297	15841.265625	71.891945
446.984161	1215.518188	21863.130859	16013.722656	71.670288
447.341309	1217.524292	22129.431641	16176.965820	71.535515
447.698456	1223.468628	22340.525391	16295.924805	71.375740
448.055542	1227.406616	22436.748047	16425.880859	71.659340
448.412598	1225.177612	22406.134766	16418.523438	71.731155
448.769653	1220.570801	22260.648438	16376.170898	72.032051
449.126617	1219.827759	21935.947266	16130.823242	71.977745
449.483582	1225.103149	21692.158203	15940.237305	71.896683
449.840515	1229.635742	21344.050781	15685.303711	71.867210
450.197388	1230.750366	21103.904297	15509.578125	71.849831
450.554230	1225.400513	20863.980469	15362.979492	71.988808
450.911041	1218.564575	20686.843750	15219.351563	71.915894
451.267822	1216.038208	20466.314453	15125.878906	72.257881
451.624573	1217.227173	20214.798828	15004.691406	72.574875
451.981262	1218.564575	20002.738281	14911.367188	72.895424
452.337921	1221.462524	19798.406250	14762.687500	72.892639
452.694580	1222.428345	19684.572266	14657.401367	72.770378
453.051147	1222.577026	19675.138672	14632.210938	72.670845
453.407715	1216.632813	19574.085938	14560.733398	72.690369
453.764221	1221.610962	19561.751953	14565.710938	72.758980
454.120728	1226.663696	19310.832031	14388.424805	72.780571
454.477142	1227.852417	19263.205078	14392.808594	72.995277
454.833557	1228.001099	19072.095703	14299.558594	73.254250
455.189911	1227.703979	18903.501953	14238.036133	73.605339
455.546265	1225.400513	18693.673828	14081.109375	73.594620
455.902557	1219.604858	18522.109375	13931.909180	73.470894
456.258820	1216.855713	18521.216797	13900.254883	73.295967
456.615051	1210.911499	18555.695313	13941.715820	73.398468
456.971252	1214.106445	18554.580078	13975.524414	73.593254
457.327393	1217.672974	18724.730469	14133.121094	73.772812
457.683502	1229.635620	19028.257813	14344.363281	73.683945
458.039612	1233.722290	19532.177734	14682.291992	73.495651
458.395630	1237.883301	20031.791016	15046.671875	73.474815
458.751648	1230.007202	20476.494141	15381.554688	73.527954
459.107605	1228.892700	21119.359375	15862.368164	73.570297
459.463562	1222.502563	21740.828125	16318.735352	73.574387
459.819458	1223.691528	22345.353516	16775.919922	73.631653
460.175323	1210.465576	22873.275391	17177.453125	73.706909
460.531158	1209.722534	23373.703125	17534.550781	73.654770
460.886932	1210.614258	23744.697266	17777.818359	73.520645
461.242676	1223.394287	23926.666016	17892.763672	73.422760
461.598419	1221.090942	23784.451172	17797.955078	73.468063
461.954102	1220.422241	23422.447266	17543.244141	73.519516
462.309723	1216.484253	22794.736328	17143.421875	73.810135
462.665344	1214.255127	22103.945313	16672.267578	73.998291
463.020905	1215.443970	21503.951172	16260.110352	74.153633
463.376373	1221.536743	21011.173828	15892.088867	74.132500
463.731873	1229.858521	20617.521484	15567.757813	73.953728
464.087341	1240.632568	20267.775391	15312.304688	73.955780
464.442749	1234.093872	20057.648438	15173.655273	74.053818
464.798126	1232.013550	19943.074219	15107.674805	74.157532
465.153503	1223.394287	20011.134766	15184.503906	74.309677
465.508820	1220.942261	20050.142578	15203.749023	74.261284
465.864105	1213.586304	20179.058594	15285.110352	74.195488
466.219330	1215.220825	20466.164063	15418.484375	73.779572
466.574524	1220.273560	20645.382813	15549.924805	73.768707
466.929657	1223.617188	20848.228516	15706.406250	73.799110
467.284790	1229.710083	20932.267578	15842.007813	74.164474
467.639893	1215.666870	21084.585938	15955.097656	74.183350
467.994934	1223.319946	21205.998047	16067.145508	74.283463
468.349945	1214.998169	21247.310547	16082.453125	74.217369
468.704926	1223.320068	21241.958984	16074.502930	74.186775
469.059875	1215.592529	21094.021484	15940.460938	74.074608
469.414764	1215.741089	20890.507813	15805.081055	74.152542
469.769653	1219.456299	20691.970703	15666.504883	74.192009
470.124451	1217.227173	20558.671875	15566.643555	74.189987
470.479248	1213.734985	20372.617188	15419.597656	74.147652
470.834015	1212.323242	20263.837891	15335.041992	74.129112
471.188721	1213.660645	20300.023438	15389.875977	74.274048
471.543365	1216.855713	20420.837891	15462.768555	74.182076
471.898010	1218.787598	20578.062500	15580.315430	74.184219
472.252625	1216.186890	20702.445313	15700.684570	74.331863
472.607178	1213.140503	20938.730469	15898.851563	74.450050
472.961700	1215.295410	21127.384766	16018.776367	74.344185
473.316193	1217.524414	21423.779297	16204.458008	74.169777
473.670654	1226.440796	21579.441406	16311.007813	74.114716
474.025055	1225.326172	21789.421875	16505.978516	74.307434
474.379456	1230.007446	21941.818359	16619.660156	74.303749
474.733795	1230.973267	22116.798828	16771.906250	74.408989
475.088104	1229.338501	22279.296875	16888.712891	74.391472
475.442383	1229.189819	22319.869141	16904.761719	74.324646
475.796570	1224.657349	22452.947266	16989.167969	74.261803
476.150787	1221.016602	22673.773438	17108.423828	74.057648
476.504944	1215.443970	22918.007813	17334.228516	74.271332
476.859070	1209.945435	23135.044922	17517.982422	74.380676
477.213135	1218.193237	23339.970703	17742.597656	74.697456
477.567200	1227.406616	23780.064453	18051.845703	74.600693
477.921173	1235.059692	24234.648438	18358.345703	74.450401
478.275146	1228.521240	24760.859375	18753.486328	74.471840
478.629089	1225.474854	25098.937500	19018.080078	74.528801
478.983002	1220.793823	25562.218750	19362.472656	74.530060
479.336823	1221.908203	25976.380859	19630.035156	74.362831
479.690643	1217.672974	26438.392578	20005.560547	74.493858
480.044403	1220.199219	26951.677734	20433.544922	74.668640
480.398163	1222.948486	27666.468750	20999.138672	74.786522
480.751862	1228.669800	28646.447266	21729.832031	74.773247
481.105499	1230.453125	29795.611328	22642.861328	74.959877
481.459137	1229.932983	31322.236328	23826.281250	75.090126
481.812744	1222.577026	33220.671875	25303.119141	75.256172
482.166290	1225.697632	35548.949219	27073.310547	75.306427
482.519806	1221.165161	38310.183594	29225.859375	75.506699
482.873291	1221.536743	41386.984375	31663.359375	75.791069
483.226715	1212.917603	44752.675781	34347.917969	76.102859
483.580139	1211.357300	47867.750000	36880.300781	76.450279
483.933502	1211.580200	50816.449219	39393.816406	76.972755
484.286804	1216.261230	53276.542969	41711.246094	77.784798
484.640106	1214.032227	55283.378906	43891.437500	78.930870
484.993347	1220.422241	56534.859375	45450.972656	79.962036
485.346558	1220.942383	57114.871094	46286.949219	80.627731
485.699738	1224.063110	56959.949219	46196.968750	80.689316
486.052887	1221.016602	56322.949219	45463.082031	80.291313
486.405975	1220.273560	55342.671875	44278.031250	79.556267
486.759064	1226.069214	54104.265625	42823.261719	78.666054
487.112061	1225.028931	52803.527344	41422.652344	77.934845
487.464996	1226.217773	51637.792969	40268.878906	77.447807
487.817963	1225.920532	50908.437500	39626.160156	77.291252
488.170868	1225.028931	50500.886719	39184.062500	77.033737
488.523743	1220.793579	50382.000000	39090.738281	77.032173
488.876587	1215.518311	50287.339844	38973.488281	76.944298
489.229401	1214.180908	50102.175781	38902.078125	77.090294
489.582153	1217.598755	49632.363281	38503.519531	77.013535
489.934845	1219.307739	48912.000000	37926.261719	76.965576
490.287537	1218.639038	48075.050781	37202.406250	76.795822
490.640198	1219.233398	47250.437500	36539.105469	76.730278
490.992798	1222.279785	46509.417969	35939.335938	76.659859
491.345337	1226.366333	46018.718750	35603.414063	76.747581
491.697876	1224.211670	45654.792969	35270.761719	76.628639
492.050354	1232.607788	45633.984375	35239.253906	76.589172
492.402832	1237.363281	45543.332031	35110.710938	76.453239
492.755219	1242.267212	45336.699219	34932.234375	76.404129
493.107605	1231.270508	44720.062500	34452.093750	76.389389
493.459930	1227.109497	43753.828125	33726.675781	76.421524
493.812225	1222.428345	42408.578125	32703.304688	76.435593
494.164490	1222.354004	40756.675781	31400.849609	76.334930
494.516724	1214.626587	38919.988281	29965.248047	76.250748
494.868896	1212.248901	37080.328125	28542.498047	76.196587
495.221039	1210.317017	35484.824219	27307.509766	76.141701
495.573120	1215.369751	34108.218750	26215.931641	76.006073
495.925201	1221.090942	33190.804688	25549.806641	76.099258
496.277222	1220.645020	32563.240234	25100.349609	76.189301
496.629211	1223.691528	32271.601563	24927.298828	76.345261
496.981140	1217.970215	32089.787109	24753.281250	76.235588
497.333069	1224.286011	32090.601563	24724.376953	76.135071
497.684967	1220.868042	32105.685547	24723.859375	76.098854
498.036804	1219.530518	32176.345703	24764.798828	76.058434
498.388580	1214.998169	32105.015625	24748.525391	76.184898
498.740326	1215.369629	32027.890625	24680.615234	76.154907
499.092072	1217.004272	31759.361328	24463.054688	76.110863
499.443756	1215.443970	31451.525391	24213.025391	76.060059
499.795410	1214.106445	31102.376953	23910.095703	75.936104
500.147003	1217.821655	30735.992188	23682.281250	76.103836
500.498566	1227.258057	30346.570313	23400.228516	76.145241
500.850098	1234.985474	29940.505859	23112.828125	76.214760
501.201599	1227.183716	29615.281250	22811.158203	76.031776
501.553009	1222.651245	29267.619141	22534.900391	75.993134
501.904449	1217.004272	29029.625000	22343.349609	75.959564
502.255859	1224.211548	28753.962891	22196.673828	76.181084
502.607178	1221.982544	28676.539063	22132.179688	76.162941
502.958405	1223.319946	28545.396484	22016.937500	76.105553
503.309692	1228.075317	28467.525391	21930.375000	76.001167
503.660919	1227.778198	28384.974609	21881.333984	76.051872
504.012115	1228.298340	28367.884766	21880.072266	76.094650
504.363251	1220.645020	28438.251953	21934.906250	76.106110
504.714294	1220.125000	28483.427734	21969.603516	76.107719
505.065369	1220.199219	28509.732422	22003.041016	76.156822
505.416443	1224.063110	28494.724609	22024.291016	76.273277
505.767395	1221.165283	28552.455078	22055.945313	76.230507
506.118317	1221.388062	28527.564453	22044.205078	76.256805
506.469238	1216.335571	28559.662109	22011.587891	76.052383
506.820160	1221.610962	28512.181641	21948.875000	75.950279
507.170929	1224.137329	28536.703125	21965.890625	75.942162
507.521729	1231.344727	28591.835938	22000.443359	75.909081
507.872498	1231.939087	28712.726563	22105.726563	75.957748
508.223236	1225.548950	28888.677734	22236.576172	75.953186
508.573883	1220.199219	29049.837891	22361.701172	75.967575
508.924500	1213.140503	29161.587891	22476.203125	76.079582
509.275116	1218.118774	29335.382813	22620.720703	76.119080
509.625702	1219.976318	29565.646484	22813.685547	76.179924
509.976196	1222.799927	29860.554688	23019.427734	76.111511
510.326660	1217.895874	30139.931641	23216.478516	76.061668
510.677124	1218.936157	30392.859375	23411.671875	76.070457
511.027557	1213.883545	30592.658203	23564.291016	76.076721
511.377869	1216.855591	30837.931641	23754.880859	76.087799
511.728180	1212.174683	30968.927734	23879.929688	76.176842
512.078430	1220.422241	31106.312500	23972.734375	76.130615
512.428650	1219.753540	31166.724609	24018.875000	76.131645
512.778931	1221.462524	31307.525391	24073.562500	75.955765
513.129028	1215.295410	31344.677734	24099.568359	75.953346
513.479126	1218.936157	31364.443359	24119.257813	75.965950
513.829285	1217.524414	31286.203125	24061.896484	75.973976
514.179382	1227.480957	31223.267578	24057.587891	76.111046
514.529297	1227.258057	31139.005859	24009.216797	76.163918
514.879272	1226.143433	31151.935547	24042.205078	76.242134
515.229187	1229.115601	31085.062500	23976.150391	76.189293
515.579163	1227.035034	31109.880859	24003.345703	76.218681
515.928955	1235.134155	31089.966797	23999.037109	76.248634
516.278748	1228.669800	31285.607422	24142.291016	76.234055
516.628540	1229.412964	31547.005859	24347.812500	76.254074
516.978333	1223.097046	31987.837891	24691.462891	76.283318
517.327942	1222.428223	32515.462891	25106.515625	76.323975
517.677612	1221.165161	33060.175781	25562.513672	76.451332
518.027222	1223.394287	33625.992188	26002.162109	76.471550
518.376831	1222.205444	34292.269531	26520.126953	76.497955
518.726379	1222.428345	34917.820313	26948.037109	76.347565
519.075867	1221.536743	35450.050781	27354.250000	76.347786
519.425293	1222.279785	35794.886719	27618.322266	76.349594
519.774658	1218.638916	36034.738281	27865.525391	76.536110
520.124084	1223.468628	36115.429688	27978.390625	76.679329
520.473389	1220.942261	36061.187500	27941.611328	76.694839
520.822693	1220.496460	35838.656250	27735.052734	76.591469
521.171997	1217.895874	35526.878906	27431.599609	76.404778
521.521240	1218.341675	35134.265625	27160.687500	76.490158
521.870361	1217.598633	34742.019531	26842.375000	76.436150
522.219482	1217.821655	34352.453125	26580.906250	76.545540
522.568604	1221.685425	34021.433594	26302.119141	76.465317
522.917664	1223.245728	33808.855469	26203.373047	76.659996
523.266724	1217.821533	33773.039063	26214.148438	76.781326
523.615662	1216.038330	33945.496094	26396.115234	76.933990
523.964600	1209.351196	34286.027344	26647.556641	76.906776
524.313538	1209.202515	34784.671875	27031.033203	76.906837
524.662354	1218.416016	35403.464844	27521.876953	76.944344
525.011169	1227.332397	36255.046875	28183.468750	76.956596
525.359985	1230.750366	37266.156250	28954.287109	76.934158
525.708740	1225.920654	38478.109375	29876.158203	76.908875
526.057434	1227.778198	39760.203125	30849.001953	76.873497
526.406067	1231.419067	41283.632813	32083.099609	77.028648
526.754700	1224.731812	42963.019531	33465.574219	77.245239
527.103333	1226.960815	44964.886719	35109.375000	77.466896
527.451782	1228.075317	47032.953125	36887.585938	77.850906
527.800293	1233.796631	49117.363281	38648.339844	78.136497
528.148743	1235.877075	51038.464844	40452.480469	78.744110
528.497131	1232.533569	52706.488281	42061.808594	79.320259
528.845642	1224.880249	54078.488281	43562.796875	80.104118
529.193909	1217.301392	55153.050781	44819.031250	80.840134
529.542175	1217.152832	55930.042969	45725.667969	81.349228
529.890503	1218.787598	56306.457031	46202.472656	81.658356
530.238770	1214.775146	56271.312500	46174.238281	81.660538
530.586914	1214.329468	55886.496094	45759.777344	81.477379
530.934998	1213.363403	55164.941406	44874.160156	80.925896
531.283142	1221.388184	54154.425781	43779.457031	80.399826
531.631226	1217.450073	52847.437500	42374.246094	79.714905
531.979248	1226.663574	51282.480469	40862.933594	79.184143
532.327148	1221.982544	49655.167969	39266.609375	78.550743
532.675110	1224.062988	48160.941406	37919.945313	78.181343
533.023071	1216.335449	47146.417969	37023.933594	77.961098
533.370850	1220.273560	46493.292969	36439.683594	77.793373
533.718689	1218.787598	46343.199219	36341.011719	77.834198
534.066467	1223.171387	46319.125000	36275.703125	77.728775
534.414246	1217.895874	46390.980469	36369.394531	77.815140
534.761963	1220.422241	46327.003906	36277.187500	77.719849
535.109619	1222.131226	46173.125000	36269.832031	77.968689
535.457153	1222.354126	45810.300781	35959.175781	77.906303
535.804749	1225.697754	45186.457031	35527.324219	78.027832
536.152344	1221.313843	44442.246094	34898.203125	77.918007
536.499817	1229.338501	43545.558594	34230.746094	77.987610
536.847229	1223.691406	42624.277344	33400.109375	77.719719
537.194641	1225.028931	41617.253906	32585.009766	77.638649
537.542114	1219.604858	40770.949219	31908.931641	77.593636
537.889404	1229.412720	40073.910156	31345.718750	77.530434
538.236694	1229.338501	39588.785156	30927.837891	77.421608
538.583984	1233.796753	39278.945313	30667.406250	77.364944
538.931213	1227.555298	39127.816406	30622.974609	77.559937
539.278381	1230.378784	39115.777344	30635.458984	77.615868
539.625488	1221.982544	39212.886719	30710.429688	77.619759
539.972595	1218.193237	39545.468750	30926.650391	77.512566
540.319641	1215.295288	40028.878906	31350.470703	77.640800
540.666687	1217.004272	40712.839844	31894.443359	77.672592
541.013611	1223.914429	41654.328125	32657.828125	77.748184
541.360596	1222.354126	42729.046875	33471.960938	77.697372
541.707458	1225.994995	43922.488281	34419.171875	77.742165
542.054260	1210.614258	44921.566406	35262.363281	77.902100
542.401062	1212.917603	45848.863281	36040.906250	78.026772
542.747864	1219.307617	46414.753906	36566.519531	78.209679
543.094666	1237.437378	46641.300781	36746.707031	78.207596
543.441284	1234.539673	46370.250000	36508.421875	78.150719
543.787903	1229.858521	45766.687500	35956.718750	77.973358
544.134460	1220.793701	44853.285156	35175.128906	77.818924
544.481079	1224.806152	43676.179688	34269.378906	77.840996
544.827637	1223.542969	42224.453125	33146.441406	77.859001
545.174072	1229.041382	40617.656250	31869.400391	77.789894
545.520508	1227.035156	39136.878906	30656.781250	77.630882
545.866943	1234.391235	37853.816406	29605.992188	77.476913
546.213318	1234.985596	36823.761719	28837.333984	77.559135
546.559631	1239.666626	35999.519531	28163.851563	77.457710
546.905823	1237.660400	35314.152344	27605.619141	77.378738
547.252136	1233.128052	34725.375000	27092.335938	77.209534
547.598389	1223.840210	34150.644531	26623.408203	77.139488
547.944458	1216.558350	33657.050781	26240.080078	77.136688
548.290588	1224.434448	33101.785156	25798.572266	77.089653
548.636658	1229.115601	32523.937500	25379.580078	77.170799
548.982727	1226.589355	31899.197266	24865.482422	77.068413
549.328735	1215.666870	31214.275391	24408.517578	77.313087
549.674622	1211.505859	30523.705078	23858.009766	77.259651
550.020569	1213.363403	29853.421875	23349.556641	77.291023
550.366455	1222.354126	29128.970703	22710.998047	77.001968
550.712280	1224.880371	28462.029297	22168.068359	76.891998
551.058044	1222.725586	27830.751953	21699.144531	76.955788
551.403748	1215.369629	27407.154297	21396.285156	77.050552
551.749512	1221.610962	27080.666016	21139.570313	77.025085
552.095154	1228.001099	26831.009766	20905.888672	76.857712
552.440735	1227.332397	26668.359375	20775.783203	76.838295
552.786316	1221.536743	26573.103516	20732.392578	76.961143
553.131897	1217.598633	26530.158203	20729.197266	77.082680
553.477417	1221.685303	26543.009766	20717.083984	76.992020
553.822815	1228.595581	26460.982422	20669.753906	77.048431
554.168213	1230.155884	26428.882813	20627.847656	76.978859
554.513672	1225.549072	26298.259766	20533.779297	77.008949
554.859009	1224.286011	26194.384766	20431.910156	76.922501
555.204285	1218.564575	26015.017578	20317.781250	77.023987
555.549500	1226.589355	25784.755859	20197.039063	77.247009
555.894714	1220.125000	25569.427734	20014.404297	77.186111
556.239990	1229.412964	25283.880859	19797.291016	77.190971
556.585022	1223.914429	25049.826172	19552.462891	76.926956
556.930115	1218.564697	24764.650391	19326.357422	76.903625
557.275146	1213.809326	24503.255859	19078.484375	76.707169
557.620178	1217.078613	24279.677734	18907.812500	76.707458
557.965149	1223.319946	24081.291016	18756.828125	76.706322
558.310059	1212.471802	23929.935547	18649.537109	76.756210
558.654968	1213.734985	23799.978516	18506.132813	76.561638
558.999756	1208.756714	23685.703125	18422.169922	76.582527
559.344604	1215.443848	23599.585938	18378.332031	76.674316
559.689331	1212.100342	23488.281250	18370.677734	77.026566
560.033997	1222.502686	23425.343750	18283.298828	76.840599
560.378723	1228.372681	23399.859375	18231.435547	76.688873
560.723389	1221.982544	23372.365234	18182.396484	76.569397
561.067932	1216.929932	23356.093750	18218.208984	76.792778
561.412476	1215.592529	23320.726563	18172.810547	76.711670
561.757019	1221.982544	23316.789063	18129.937500	76.524567
562.101501	1219.604858	23316.046875	18075.103516	76.281502
562.445862	1223.245728	23267.451172	18068.490234	76.415749
562.790222	1227.406616	23236.765625	18102.373047	76.671776
563.134644	1227.852539	23200.353516	18104.376953	76.807480
563.478943	1227.852417	23225.841797	18138.927734	76.875549
563.823181	1221.239380	23288.181641	18103.783203	76.506042
564.167358	1223.022827	23361.666016	18162.853516	76.517021
564.511536	1222.799927	23461.158203	18188.636719	76.290871
564.855774	1223.542847	23482.556641	18248.154297	76.484123
565.199768	1225.400513	23557.529297	18296.896484	76.443657
565.543823	1217.672974	23626.333984	18370.158203	76.543999
565.887817	1217.970215	23817.437500	18487.111328	76.413933
566.231812	1217.895874	23964.187500	18640.619141	76.595886
566.575745	1222.502563	24095.927734	18778.601563	76.753258
566.919617	1225.549072	24208.343750	18916.285156	76.973824
567.263428	1223.171387	24258.576172	18978.701172	77.079308
567.607239	1220.793701	24412.531250	19053.892578	76.894188
567.950989	1218.787598	24501.468750	19076.630859	76.700119
568.294678	1219.679199	24634.843750	19111.996094	76.413368
568.638367	1224.508911	24579.935547	19072.837891	76.420479
568.981995	1222.725708	24497.755859	19042.078125	76.559952
569.325623	1228.521240	24342.833984	18961.013672	76.716499
569.669128	1228.075317	24197.720703	18869.101563	76.801476
570.012573	1231.270386	24043.320313	18761.212891	76.845100
570.356140	1228.892700	23993.906250	18695.308594	76.724823
570.699524	1233.648071	23927.482422	18664.025391	76.806664
571.042908	1235.134155	23995.392578	18706.972656	76.764671
571.386230	1224.583130	24005.203125	18773.474609	77.034302
571.729492	1220.199219	24108.853516	18853.943359	77.041420
572.072815	1215.220947	24168.890625	18937.609375	77.209389
572.416016	1221.759644	24245.869141	18973.273438	77.099678
572.759094	1221.982544	24393.880859	19073.955078	77.041473
573.102234	1222.874146	24457.185547	19122.029297	77.037598
573.445374	1223.171387	24530.150391	19178.796875	77.039696
573.788391	1214.552368	24519.154297	19189.791016	77.131714
574.131409	1220.422241	24539.513672	19183.849609	77.033134
574.474365	1219.753540	24576.218750	19170.919922	76.857376
574.817261	1217.227173	24485.570313	19102.708984	76.866158
575.160156	1208.979614	24331.021484	18985.310547	76.880455
575.502930	1207.567749	24060.187500	18810.328125	77.027321
575.845703	1208.310913	23872.720703	18668.929688	77.039810
576.188477	1210.911499	23621.427734	18475.373047	77.037323
576.531250	1209.202515	23422.076172	18317.998047	77.021980
576.873901	1217.004272	23165.880859	18094.644531	76.895233
577.216431	1214.923828	22955.380859	17946.187500	76.959114
577.559082	1214.255005	22679.048828	17726.324219	76.926285
577.901611	1217.524414	22396.029297	17496.876953	76.867340
578.244080	1219.530518	22084.994141	17225.228516	76.709053
578.586487	1221.759644	21774.560547	17026.171875	76.896637
578.928955	1247.319702	21411.814453	16783.943359	77.049408
579.271301	1249.177368	21086.369141	16515.041016	76.955772
579.613647	1247.542725	20724.587891	16217.385742	76.858902
579.955872	1214.998169	20416.457031	15980.657227	76.898628
580.298157	1211.728882	20107.802734	15796.683594	77.185104
580.640320	1218.787598	19865.203125	15612.338867	77.192047
580.982483	1224.137329	19655.595703	15438.323242	77.119156
581.324524	1228.595581	19444.724609	15280.131836	77.137886
581.666626	1234.168213	19269.964844	15136.875000	77.083961
582.008728	1236.174438	19099.068359	15032.554688	77.234848
582.350647	1234.837036	18963.986328	14910.773438	77.138145
582.692566	1229.635620	18842.798828	14821.535156	77.168983
583.034424	1229.635620	18775.853516	14729.325195	76.937881
583.376343	1225.920532	18663.804688	14671.073242	77.103111
583.718201	1224.806030	18578.353516	14622.625977	77.205086
584.059937	1216.929932	18443.718750	14549.215820	77.392754
584.401611	1221.165161	18369.638672	14457.081055	77.184227
584.743347	1222.874146	18307.373047	14392.289063	77.084000
585.085022	1221.982544	18274.087891	14337.676758	76.915398
585.426514	1224.583130	18191.462891	14317.911133	77.169930
585.768127	1217.152832	18134.619141	14260.699219	77.101067
586.109619	1226.366333	18055.115234	14220.203125	77.212143
586.451172	1223.171265	18041.962891	14167.300781	76.962311
586.792542	1218.415894	17984.453125	14135.127930	77.040939
587.133850	1218.787476	17944.775391	14111.276367	77.080582
587.475220	1217.598755	17918.994141	14090.471680	77.076637
587.816589	1232.161987	17909.630859	14083.487305	77.058006
588.157776	1228.892700	17931.105469	14064.093750	76.847313
588.498962	1234.836914	17959.638672	14075.760742	76.777740
588.840210	1225.474731	17994.853516	14099.164063	76.769028
589.181335	1225.549194	18062.025391	14160.910156	76.829384
589.522400	1217.450195	18080.156250	14193.007813	76.948250
589.863403	1217.375854	18109.132813	14178.816406	76.732338
590.204407	1217.301514	18033.937500	14146.791992	76.885117
590.545410	1215.072388	18075.546875	14181.120117	76.902031
590.886353	1216.632690	18041.146484	14211.733398	77.239082
591.227112	1220.868042	18020.193359	14184.166992	77.165588
591.567932	1223.914429	17957.406250	14147.460938	77.231621
591.908752	1225.920532	17918.843750	14099.089844	77.117523
592.249512	1225.177612	17979.845703	14128.141602	77.011162
592.590149	1230.824585	17932.218750	14078.210938	76.924034
592.930786	1234.836792	17902.275391	14087.051758	77.109711
593.271423	1232.607788	17796.171875	14025.975586	77.238014
593.612000	1229.858643	17727.216797	13982.956055	77.303879
593.952576	1226.143555	17711.613281	13929.753906	77.059441
594.292969	1224.285889	17740.070313	13933.246094	76.950386
594.633484	1216.632690	17796.988281	13947.734375	76.784248
594.973877	1213.957886	17840.900391	13983.473633	76.800140
595.314209	1211.654419	17911.414063	14029.245117	76.753143
595.654480	1213.512085	18066.482422	14156.079102	76.796951
595.994812	1215.889771	18241.541016	14274.444336	76.699303
596.335022	1217.747437	18446.763672	14437.315430	76.728516
596.675171	1221.610962	18585.785156	14544.163086	76.724365
597.015320	1223.617188	18741.375000	14663.269531	76.720161
597.355408	1223.394287	18756.458984	14692.098633	76.818886
597.695496	1225.623413	18813.820313	14723.678711	76.744965
598.035461	1222.279663	18733.052734	14663.417969	76.759254
598.375366	1221.759644	18760.990234	14658.737305	76.610985
598.715271	1221.908325	18712.173828	14574.106445	76.340744
599.055176	1228.744141	18621.154297	14487.989258	76.235809
599.395081	1230.453125	18436.585938	14326.530273	76.112846
599.734802	1224.880371	18178.085938	14149.541992	76.237282
600.074524	1221.610962	17924.119141	13940.750977	76.151077
600.414246	1220.496460	17621.857422	13729.583008	76.268593
600.753906	1220.645020	17291.357422	13481.559570	76.293526
601.093506	1221.908203	16968.585938	13249.140625	76.379494
601.433044	1218.044556	16696.712891	13046.741211	76.419342
601.772583	1218.267456	16555.091797	12930.085938	76.364037
602.112122	1211.728760	16512.888672	12883.125977	76.277863
602.451538	1221.313843	16524.330078	12871.831055	76.132164
602.790894	1219.010376	16574.263672	12938.851563	76.324638
603.130310	1223.097046	16692.701172	13075.346680	76.616371
603.469604	1215.369629	16878.236328	13220.832031	76.649200
603.808838	1220.868042	17134.654297	13360.000977	76.280609
604.148010	1221.165161	17386.615234	13531.416992	76.151619
604.487305	1219.456177	17654.625000	13689.680664	75.875252
604.826416	1219.010376	17834.289063	13851.066406	76.026741
605.165527	1213.734985	17977.320313	13930.347656	75.858543
605.504456	1214.403687	18062.173828	14062.756836	76.261452
605.843445	1218.267456	18140.935547	14120.043945	76.239609
606.182434	1224.583130	18150.000000	14143.671875	76.329521
606.521423	1227.703857	18083.423828	14078.210938	76.238251
606.860229	1219.679199	17982.818359	13986.223633	76.158440
607.199036	1224.137207	17816.158203	13866.375000	76.194687
607.537903	1221.313843	17653.583984	13722.450195	76.076752
607.876648	1226.143555	17394.490234	13543.528320	76.182091
608.215271	1219.159058	17177.599609	13342.316406	75.967056
608.553955	1222.502686	16931.509766	13131.445313	75.809647
608.892578	1226.069214	16749.466797	12958.023438	75.575943
609.231140	1224.954712	16577.083984	12848.128906	75.710503
609.569641	1220.645142	16431.154297	12755.398438	75.834106
609.908081	1222.502808	16294.511719	12690.682617	76.089256
610.246521	1222.428467	16236.036133	12619.500000	75.911613
610.584961	1224.508911	16222.067383	12598.545898	75.839256
610.923340	1215.815308	16227.566406	12582.719727	75.720039
611.261597	1220.124878	16156.831055	12524.688477	75.683105
611.599854	1222.651245	16101.104492	12439.687500	75.391144
611.938110	1224.657471	15998.788086	12363.527344	75.394417
612.276245	1220.570801	15865.710938	12271.465820	75.457756
612.614319	1219.604858	15626.457031	12134.897461	75.764595
612.952393	1218.341675	15376.726563	11928.558594	75.645752
613.290466	1217.672852	15097.421875	11717.613281	75.649353
613.628479	1220.273560	14798.723633	11492.179688	75.648590
613.966370	1225.103149	14510.875977	11312.589844	75.926987
614.304260	1232.013306	14264.934570	11139.241211	76.016937
614.642151	1234.242432	14073.307617	10977.038086	75.883995
614.979980	1230.601685	13908.132813	10810.153320	75.563225
615.317749	1232.310669	13746.002930	10682.129883	75.515839
615.655396	1223.988770	13668.208008	10604.484375	75.380356
615.993164	1217.672974	13601.039063	10567.852539	75.505959
616.330811	1211.134399	13587.143555	10528.844727	75.288490
616.668396	1212.991943	13510.760742	10500.164063	75.519165
617.005859	1211.951660	13465.585938	10444.213867	75.343048
617.343445	1209.945435	13431.109375	10428.089844	75.427711
617.680908	1210.539917	13426.725586	10428.609375	75.457840
618.018311	1218.564575	13417.213867	10443.618164	75.623566
618.355652	1224.062988	13435.343750	10453.128906	75.578201
618.692993	1228.744019	13424.198242	10448.671875	75.601349
619.030273	1234.316772	13434.377930	10450.528320	75.542343
619.367554	1223.765747	13392.323242	10409.068359	75.483910
619.704712	1222.279785	13414.761719	10407.508789	75.335182
620.041870	1223.468628	13384.891602	10393.242188	75.400497
620.379028	1229.189941	13366.019531	10402.454102	75.582039
620.716064	1221.759644	13283.765625	10350.220703	75.679459
621.053040	1217.004272	13240.372070	10294.345703	75.497498
621.389954	1218.267456	13180.708008	10228.586914	75.321747
621.726929	1222.799927	13139.098633	10181.851563	75.183174
622.063843	1222.577026	13089.092773	10178.655273	75.473526
622.400635	1219.010376	13058.554688	10145.813477	75.398201
622.737427	1221.462402	13014.567383	10125.008789	75.497902
623.074219	1217.524292	12962.183594	10056.204102	75.257011
623.410889	1224.137329	12884.092773	10017.196289	75.412460
623.747559	1222.502563	12859.645508	9986.731445	75.312546
624.084167	1224.806030	12829.924805	9973.208008	75.383995
624.420715	1223.097046	12862.097656	9981.381836	75.249458
624.757324	1227.035034	12858.010742	10004.415039	75.465553
625.093750	1228.149658	12905.789063	10037.406250	75.436966
625.430176	1222.131226	12953.936523	10090.606445	75.593437
625.766602	1214.180786	13007.954102	10118.916992	75.503708
626.102905	1214.775146	13076.461914	10169.368164	75.491730
626.439209	1220.125000	13123.495117	10211.422852	75.535736
626.775452	1218.861816	13236.508789	10275.620117	75.362160
627.111694	1213.437744	13296.991211	10319.831055	75.361885
627.447876	1215.592407	13380.210938	10355.792969	75.137581
627.783997	1223.097046	13406.215820	10348.585938	74.902733
628.120056	1228.966919	13455.034180	10397.402344	74.990883
628.456055	1229.115601	13432.668945	10402.827148	75.172462
628.792053	1220.942261	13409.041992	10424.151367	75.509796
629.128052	1213.363403	13325.597656	10377.563477	75.660690
629.463928	1208.756714	13292.608398	10358.169922	75.716034
629.799744	1209.648315	13226.627930	10299.248047	75.639633
630.135559	1208.088013	13154.703125	10217.291992	75.412186
630.471375	1202.812622	13012.784180	10108.067383	75.404541
630.807068	1202.961060	12859.721680	10002.483398	75.488571
631.142700	1211.505981	12710.296875	9901.431641	75.572517
631.478333	1223.245728	12538.807617	9787.081055	75.681923
631.813965	1228.669800	12385.594727	9689.966797	75.838966
632.149475	1231.493286	12255.713867	9613.583008	76.033401
632.484924	1221.759644	12192.409180	9543.366211	75.853363
632.820435	1219.901978	12115.579102	9462.599609	75.651085
633.155884	1214.478149	12041.202148	9382.798828	75.445915
633.491150	1224.806152	11965.116211	9331.010742	75.474586
633.826477	1228.075317	11878.702148	9286.874023	75.665016
634.161804	1224.137207	11805.141602	9248.756836	75.839867
634.497009	1213.066162	11768.956055	9205.438477	75.714813
634.832153	1209.722534	11730.096680	9164.050781	75.608795
635.167297	1217.598755	11670.429688	9110.107422	75.505943
635.502380	1227.926636	11586.245117	9051.260742	75.527069
635.837463	1224.806030	11512.909180	8989.885742	75.476295
636.172424	1227.332153	11439.276367	8908.821289	75.220634
636.507324	1223.468628	11356.426758	8868.549805	75.447670
636.842224	1231.790405	11280.043945	8816.389648	75.481766
637.177124	1234.911133	11187.092773	8770.469727	75.717659
637.511963	1230.453003	11075.637695	8688.959961	75.757919
637.846741	1225.177612	10975.106445	8593.629883	75.574417
638.181396	1215.221069	10866.475586	8497.556641	75.454803
638.516113	1216.409790	10761.487305	8405.791992	75.320320
638.850769	1215.369629	10638.069336	8339.663086	75.607780
639.185303	1214.032104	10540.137695	8284.381836	75.812454
639.519836	1208.830933	10467.321289	8212.457031	75.645447
639.854370	1216.335571	10403.867188	8143.727051	75.399925
640.188843	1223.765869	10336.772461	8064.296875	75.063385
640.523254	1230.824707	10263.509766	8007.306641	75.021782
640.857605	1225.177612	10174.198242	7952.693848	75.176003
641.191895	1224.360229	10105.169922	7916.285645	75.352646
641.526184	1221.833862	10019.053711	7857.289551	75.426735
641.860413	1222.799927	9973.952148	7799.036621	75.147095
642.194580	1222.502563	9896.750977	7748.732910	75.236847
642.528748	1223.765869	9831.735352	7715.668457	75.417343
642.862793	1225.028931	9753.346680	7660.090332	75.455231
643.196838	1223.171509	9698.139648	7607.558594	75.332291
643.530823	1225.994995	9656.307617	7560.376465	75.138153
643.864746	1223.394409	9603.180664	7540.537109	75.385490
644.198669	1211.431641	9579.106445	7492.091797	75.058609
644.532532	1212.248901	9537.793945	7454.717285	74.979698
644.866333	1212.768921	9495.293945	7431.535156	75.082970
645.200073	1223.245605	9449.151367	7418.012207	75.308014
645.533813	1215.146729	9423.145508	7406.346191	75.428848
645.867554	1221.388184	9423.071289	7379.820313	75.087418
646.201172	1225.772095	9398.402344	7387.696777	75.397079
646.534729	1226.292114	9391.121094	7386.210938	75.444557
646.868225	1227.480957	9386.959961	7395.052734	75.587814
647.201782	1222.799805	9400.408203	7379.003418	75.281219
647.535217	1224.063110	9407.690430	7376.105469	75.175003
647.868591	1216.112671	9414.823242	7371.424316	75.076576
648.201965	1218.936157	9393.573242	7376.031250	75.319489
648.535278	1229.487183	9369.202148	7357.752441	75.288452
648.868591	1231.493286	9354.637695	7346.830078	75.282875
649.201782	1229.784302	9354.563477	7320.898438	74.969597
649.534912	1217.152954	9346.761719	7317.183594	75.034737
649.868103	1214.923706	9309.983398	7303.288574	75.210869
650.201172	1213.437744	9280.558594	7300.167480	75.451073
650.534180	1221.536743	9238.131836	7281.888672	75.597580
650.867188	1222.725586	9201.128906	7235.078125	75.357841
651.200134	1225.994995	9196.298828	7200.527832	74.959915
651.533020	1221.313843	9155.953125	7164.714355	74.904480
651.865845	1222.279785	9115.680664	7134.992676	74.907036
652.198608	1220.868042	9037.217773	7098.436035	75.195816
652.531433	1222.948486	9016.338867	7067.303223	74.991165
652.864136	1225.623413	8992.338867	7054.671875	75.051651
653.196777	1313.969238	9042.493164	7100.517090	74.872612
653.529358	1322.142578	8983.792969	7078.597656	75.133354
653.861938	1313.820679	8938.022461	7031.935547	74.999519
654.194519	1225.177612	8802.866211	6911.490723	75.040207
654.526978	1214.700928	8785.033203	6871.961426	74.729362
654.859375	1217.895874	8726.706055	6837.410645	74.838951
655.191833	1215.146729	8704.265625	6801.076660	74.587273
655.524170	1224.137329	8632.340820	6765.039063	74.794136
655.856445	1224.360352	8588.057617	6740.816895	74.914223
656.188660	1228.669800	8542.361328	6708.123535	74.920494
656.520874	1224.434570	8515.834961	6680.855469	74.833649
656.853088	1223.171509	8488.194336	6669.189453	74.962158
657.185181	1219.084839	8480.541992	6676.693848	75.158592
657.517212	1214.180786	8503.500977	6672.607910	74.882530
657.849243	1210.539917	8555.512695	6688.359863	74.579170
658.181274	1209.499634	8617.184570	6743.937988	74.712120
658.513123	1214.700806	8657.901367	6798.029785	75.012474
658.844971	1224.731689	8730.867188	6855.540527	75.016075
659.176819	1227.035034	8797.219727	6879.540527	74.667999
659.508667	1223.617188	8881.478516	6916.320313	74.338028
659.840393	1223.542847	8920.487305	6957.112793	74.491508
660.172058	1227.703857	8946.418945	6992.554688	74.686661
660.503662	1230.230103	8970.938477	7006.895996	74.627098
660.835266	1228.075317	9002.442383	7011.056152	74.385231
661.166931	1224.657471	8978.443359	7003.477051	74.528999
661.498413	1226.737915	8943.743164	6995.229980	74.750397
661.829773	1225.400391	8885.936523	6944.703613	74.659309
662.161194	1230.601685	8814.159180	6887.193359	74.590210
662.492615	1226.960815	8717.417969	6804.643066	74.463844
662.823975	1232.162109	8583.079102	6710.576172	74.526947
663.155212	1231.270386	8453.048828	6592.955078	74.243271
663.486450	1238.329224	8285.199219	6496.361328	74.615143
663.817627	1234.911133	8155.986816	6406.455078	74.721680
664.148743	1230.527344	8035.244629	6327.768066	74.907455
664.479858	1224.806030	7949.722656	6220.697754	74.289276
664.810913	1217.895996	7866.354004	6157.688965	74.299828
665.141907	1218.416016	7789.896973	6105.603516	74.369652
665.472778	1217.450073	7711.136230	6058.346191	74.547737
665.803711	1231.344727	7659.421875	6013.839355	74.400078
666.134583	1231.641968	7580.586426	5972.898438	74.677872
666.465454	1229.709961	7556.958496	5951.647949	74.628616
666.796143	1220.199219	7494.692871	5912.044922	74.776482
667.126831	1218.341675	7490.457520	5895.995605	74.578560
667.457458	1222.131226	7455.832031	5880.316895	74.725845
667.788147	1224.954590	7438.147949	5866.942871	74.711792
668.118774	1228.149536	7401.739746	5832.243652	74.577255
668.449219	1225.994751	7387.102051	5808.986328	74.385841
668.779663	1233.499390	7372.242188	5789.816406	74.222313
669.110107	1224.954712	7364.143066	5795.314941	74.445679
669.440552	1227.480835	7346.756348	5774.807129	74.311516
669.770874	1213.957886	7335.907715	5753.110840	74.145546
670.101135	1214.552246	7314.806152	5714.622559	73.768578
670.431396	1213.437744	7271.561035	5701.842285	74.089027
670.761597	1218.713257	7221.481934	5688.541504	74.462776
671.091797	1223.765747	7199.710938	5675.167480	74.488663
671.421875	1224.731812	7188.490723	5651.687988	74.230972
671.751892	1217.524414	7172.515625	5602.127441	73.629044
672.081909	1218.787598	7134.250000	5574.784668	73.637474
672.411865	1213.660645	7079.562988	5546.400879	73.863152
672.741821	1220.050659	7032.009277	5532.729004	74.203529
673.071716	1216.706909	6985.050293	5491.490723	74.107651
673.401550	1216.186890	6939.130859	5452.333984	74.020416
673.731262	1218.118774	6888.233887	5426.030762	74.212112
674.060974	1217.747192	6857.917969	5410.353027	74.334732
674.390625	1225.326050	6845.360840	5404.037109	74.353828
674.720276	1222.056763	6833.101563	5380.185547	74.106140
675.049927	1220.645020	6788.296875	5346.304199	74.100525
675.379395	1221.239624	6750.848145	5307.220703	73.892769
675.708923	1219.456177	6702.699707	5266.056641	73.799393
676.038330	1220.422241	6688.805176	5231.729004	73.354530
676.367737	1222.279785	6665.474121	5188.930664	72.873589
676.697083	1223.542969	6643.480469	5178.230957	72.965561
677.026428	1228.521240	6602.465332	5154.379395	73.053566
677.355652	1221.462402	6563.382324	5153.339355	73.604195
677.684875	1221.982544	6547.035156	5143.159668	73.636406
678.013977	1218.416016	6554.688965	5153.190918	73.736389
678.343079	1217.895874	6564.645996	5164.931152	73.821205
678.672180	1218.861816	6573.859375	5169.834961	73.781044
679.001221	1223.319946	6595.035156	5183.878418	73.729866
679.330139	1222.577026	6622.972656	5200.967773	73.668503
679.659058	1222.056885	6641.177246	5219.172363	73.759491
679.987976	1218.267456	6661.536621	5229.500000	73.691605
680.316772	1218.639038	6696.310059	5251.047363	73.615379
680.645630	1214.032227	6744.458496	5266.354004	73.273224
680.974304	1217.747314	6771.132813	5293.177246	73.386398
681.302979	1215.666870	6790.377441	5310.861328	73.460213
681.631653	1222.279785	6797.287598	5318.365723	73.472290
681.960266	1220.942383	6816.754395	5337.164551	73.558975
682.288757	1227.480957	6818.611816	5350.464844	73.741501
682.617249	1225.326172	6830.425781	5347.492676	73.543144
682.945679	1222.874268	6815.714355	5324.607422	73.339012
683.274109	1222.502686	6787.330566	5287.827637	73.053917
683.602478	1225.994995	6727.442871	5256.397949	73.260765
683.930725	1227.629639	6645.857910	5199.630371	73.308105
684.259033	1221.833984	6571.853027	5153.637207	73.491386
684.587280	1215.221069	6520.509766	5124.510254	73.686646
684.915344	1217.152954	6486.701660	5079.705566	73.299500
685.243469	1222.948608	6430.454590	5026.579102	73.041306
685.571533	1229.115723	6354.665527	4975.310059	73.088631
685.899536	1228.298340	6287.125000	4940.313965	73.377007
686.227539	1233.053589	6223.595703	4902.419434	73.526398
686.555420	1233.722290	6196.994629	4861.849609	73.099503
686.883301	1230.453125	6177.453613	4856.202637	73.291878
687.211121	1223.988647	6197.515625	4853.082031	72.968208
687.538940	1221.982544	6186.072754	4845.577637	72.996155
687.866638	1223.097046	6182.506348	4842.531738	72.981163
688.194336	1226.589233	6158.506348	4827.968262	73.021889
688.521973	1227.629517	6145.429688	4823.658203	73.122711
688.849609	1229.115601	6125.664551	4784.946777	72.619125
689.177063	1226.737915	6104.117188	4766.222168	72.569389
689.504578	1229.338623	6069.789063	4738.953125	72.505951
689.832031	1230.973267	5999.053223	4722.383301	73.224655
690.159485	1223.394287	5903.277344	4693.554688	74.150581
690.486816	1213.512085	5817.977051	4642.062500	74.461426
690.814087	1212.546021	5776.517090	4582.694824	73.842468
691.141296	1220.348022	5719.749512	4519.165527	73.316803
691.468506	1227.109497	5673.979004	4467.525391	72.869598
691.795715	1224.880371	5594.623535	4419.005859	73.096413
692.122803	1220.868042	5533.323730	4374.349609	73.124962
692.449829	1218.267456	5456.717285	4340.987793	73.676003
692.776855	1217.673096	5386.501465	4295.068848	73.819206
693.103821	1227.629517	5352.916016	4254.574219	73.375381
693.430664	1229.487183	5310.192383	4215.713867	73.179184
693.757568	1234.168213	5278.985352	4182.352051	72.887939
694.084351	1223.542969	5236.187012	4153.522461	73.018677
694.411133	1225.549072	5217.239746	4113.770020	72.355827
694.737854	1218.564575	5171.692383	4102.550781	72.954544
695.064575	1221.536743	5133.277832	4092.148193	73.384491
695.391174	1221.165161	5093.971680	4092.371094	74.137604
695.717773	1224.583130	5099.990234	4082.711670	73.750404
696.044250	1223.765747	5101.402344	4053.287842	72.970268
696.370789	1219.456299	5103.631348	4053.882080	72.973686
696.697205	1217.152832	5106.751465	4058.563232	73.051506
697.023621	1209.499634	5151.036133	4097.943848	73.282188
697.349915	1214.180786	5208.174805	4121.423340	72.790359
697.676208	1214.478027	5276.830566	4169.273926	72.736076
698.002380	1219.159058	5348.458496	4222.029297	72.721054
698.328674	1219.530640	5428.111328	4290.313477	72.964806
698.654724	1221.016724	5522.549316	4353.767578	72.828712
698.980896	1221.388184	5594.994629	4411.947266	72.950302
699.306946	1215.072388	5655.105469	4454.670898	72.963387
699.632935	1214.700806	5685.421387	4464.850098	72.698555
699.958862	1222.651245	5693.074707	4472.058105	72.686783
700.284729	1221.982544	5694.635254	4463.364746	72.471138
700.610596	1226.589355	5669.817871	4458.089355	72.728645
700.936340	1220.942383	5636.009766	4409.123047	72.211372
701.262146	1223.097168	5569.212402	4359.637695	72.168831
701.587830	1223.765869	5471.280762	4288.456055	72.152550
701.913513	1224.806030	5360.569824	4213.112793	72.255257
702.239075	1223.319946	5235.443848	4132.940430	72.520706
702.564697	1217.598755	5123.320801	4056.259766	72.679543
702.890137	1215.369629	5000.127441	3972.594971	72.850777
703.215698	1213.586304	4889.713379	3902.601563	73.148048
703.541016	1214.849487	4806.939941	3843.382568	73.175591
703.866455	1212.397339	4743.263184	3799.246338	73.263878
704.191711	1217.747192	4687.684570	3739.432861	72.672363
704.517029	1224.137329	4624.080566	3684.225830	72.356743
704.842163	1229.710083	4564.713379	3649.749268	72.564812
705.167419	1234.911255	4527.041504	3626.716064	72.652184
705.492493	1232.013550	4489.221680	3605.316650	72.863113
705.817566	1227.555176	4456.528320	3575.595703	72.717873
706.142578	1214.775146	4416.479004	3550.332764	72.947334
706.467590	1207.716431	4394.188477	3519.199951	72.540520
706.792480	1210.242676	4368.256836	3506.344971	72.707153
707.117371	1220.273560	4348.492676	3485.168945	72.402069
707.442200	1224.880249	4336.306641	3479.076172	72.448952
707.766907	1228.446777	4329.024902	3477.515869	72.537086
708.091675	1228.818237	4334.969238	3487.918213	72.729889
708.416321	1229.858521	4341.136230	3495.422607	72.817795
708.741028	1230.081665	4361.718262	3499.955322	72.482018
709.065552	1228.744263	4376.059082	3518.307861	72.746567
709.390137	1228.001099	4395.451660	3523.880859	72.483521
709.714600	1226.515015	4419.897461	3539.707275	72.437065
710.039063	1225.994995	4446.646484	3549.961182	72.158272
710.363403	1228.669800	4469.531250	3576.784424	72.453415
710.687744	1222.428345	4505.196777	3602.938721	72.515327
711.012085	1224.137329	4546.955078	3634.740479	72.546951
711.336304	1221.090820	4580.614258	3658.219971	72.543892
711.660461	1225.474731	4605.654297	3690.838867	72.935890
711.984619	1223.765747	4617.616699	3704.881836	73.106216
712.308716	1226.440796	4624.081055	3717.810547	73.326469
712.632751	1226.663696	4607.288574	3699.904053	73.159264
712.956726	1219.679199	4577.716309	3681.625732	73.315048
713.280701	1218.267456	4550.149414	3650.121094	72.987389
713.604553	1217.895874	4525.406738	3618.022217	72.565948
713.928467	1227.035034	4497.395020	3581.465576	71.993011
714.252258	1228.669800	4466.931152	3548.475342	71.637383
714.575989	1228.223999	4431.117188	3519.497070	71.537605
714.899719	1219.307739	4389.210449	3494.605469	71.778160
715.223267	1212.917603	4344.702637	3473.503662	72.182022
715.546936	1212.769043	4297.743652	3448.314697	72.465607
715.870422	1217.004272	4264.158691	3424.092529	72.431129
716.193970	1221.313843	4229.533691	3408.934326	72.721436
716.517395	1223.691528	4202.562012	3396.005859	72.924095
716.840820	1223.319946	4177.150391	3372.303467	72.752426
717.164124	1222.502563	4145.274902	3345.851563	72.648460
717.487488	1217.152954	4110.203613	3316.650635	72.570366
717.810730	1215.369751	4077.510498	3298.223633	72.772598
718.133972	1214.700928	4037.832764	3265.456055	72.641136
718.457092	1219.010498	3995.554443	3224.366455	72.224892
718.780212	1221.313843	3947.852295	3183.351563	71.960754
719.103210	1223.765991	3899.035156	3152.664795	72.101112
719.426208	1220.645142	3858.168701	3138.546875	72.716003
719.749207	1219.604858	3819.977295	3108.677490	72.646233
720.072083	1218.118774	3784.311768	3067.959717	72.085030
720.394958	1219.456177	3742.331055	3033.705811	71.911987
720.717773	1222.428345	3688.015625	2994.028076	71.853050
721.040527	1228.446899	3651.681641	2980.653564	72.308578
721.363281	1230.007202	3620.771484	2954.276367	72.122093
721.685913	1224.063110	3611.781006	2953.310547	72.422607
722.008545	1215.741089	3581.539795	2928.864502	72.412048
722.331055	1213.437866	3540.376221	2903.230225	72.618698
722.653503	1220.793701	3510.729492	2877.669922	72.354706
722.976013	1225.251831	3509.168945	2871.800049	72.093170
723.298401	1224.731812	3510.283447	2872.765869	72.106621
723.620789	1219.010498	3500.178467	2871.354248	72.434113
723.943115	1215.221069	3482.717041	2868.010742	72.890518
724.265381	1216.112671	3468.971436	2853.893311	72.697876
724.587585	1220.273560	3469.937256	2852.481445	72.553421
724.909790	1228.223999	3461.243408	2850.401123	72.645004
725.231873	1231.270386	3475.212646	2852.110107	72.231789
725.553894	1228.521118	3464.067139	2851.292725	72.589500
725.875916	1244.496216	3495.794189	2864.964111	71.979279
726.197937	1248.137207	3492.822266	2865.558594	72.055603
726.519775	1251.926636	3498.840576	2857.831299	71.471565
726.841675	1228.892700	3487.323486	2845.794189	71.594025
727.163513	1223.542847	3492.748047	2869.719727	72.544212
727.485291	1215.666870	3508.054443	2895.428467	73.275635
727.806946	1207.344971	3523.509521	2906.945313	73.379951
728.128662	1206.230469	3548.029297	2898.697998	72.272118
728.450256	1209.796997	3574.555420	2899.440674	71.451012
728.771790	1217.895996	3585.329102	2899.291992	71.021904
729.093323	1218.416138	3590.158936	2910.363281	71.337723
729.414795	1217.524414	3580.722412	2903.899170	71.359856
729.736145	1220.570801	3571.508789	2904.121826	71.611885
730.057495	1218.416016	3574.778320	2909.843018	71.781281
730.378845	1225.177612	3572.029053	2915.787109	72.037346
730.700134	1223.319946	3568.462646	2922.845947	72.470047
731.021301	1220.050781	3563.484375	2912.740967	72.231201
731.342468	1218.490356	3572.994873	2911.923828	71.923141
731.663574	1216.930054	3584.734619	2907.836914	71.412430
731.984680	1220.496582	3599.000732	2921.582764	71.519157
732.305664	1218.639038	3598.109131	2929.012939	71.880447
732.626648	1223.988770	3599.818115	2932.579834	71.915565
732.947571	1225.251831	3570.542725	2922.474609	72.367256
733.268433	1219.827759	3577.453125	2916.976318	71.985504
733.589233	1212.843384	3575.075439	2903.230469	71.558899
733.909973	1214.626587	3577.007080	2888.221436	70.843582
734.230713	1215.146851	3536.289307	2878.115967	71.644417
734.551331	1216.930054	3485.391846	2876.258057	73.147713
734.871948	1213.512085	3444.822998	2853.150146	73.483170
735.192505	1216.112671	3402.395752	2825.806641	73.626968
735.513062	1217.301514	3372.823486	2781.225342	72.554298
735.833435	1222.799805	3352.464600	2755.367920	71.962883
736.153931	1222.577026	3336.935303	2704.693359	70.097687
736.474304	1227.926880	3311.597900	2677.052490	69.546761
736.794617	1230.675903	3268.130859	2652.904297	69.804161
737.114807	1237.883423	3245.914307	2648.223145	70.234962
737.434998	1234.911255	3225.629639	2647.034424	70.935356
737.755188	1235.654175	3242.050781	2644.285156	70.207008
738.075256	1224.583130	3250.149658	2652.309814	70.485306
738.395325	1224.806030	3264.935791	2653.201416	70.014931
738.715271	1222.279785	3267.387695	2663.752686	70.483955
739.035278	1232.161987	3272.886475	2675.343750	70.719086
739.355164	1230.230103	3288.787109	2680.545166	70.452988
739.675049	1229.710083	3285.369141	2686.860596	70.884827
739.994873	1222.205444	3271.920654	2680.396240	71.141136
740.314636	1222.279663	3255.350830	2677.944336	71.599297
740.634277	1220.942261	3245.022705	2658.848877	71.039993
740.953979	1224.211548	3241.530518	2643.096680	70.335190
741.273499	1215.369629	3215.375977	2631.356689	70.799126
741.593140	1209.722656	3188.329346	2620.731201	71.313240
741.912598	1206.824829	3140.776123	2599.109131	71.991692
742.232117	1215.964111	3115.884766	2554.601807	70.457558
742.551453	1217.152832	3082.151123	2524.211914	70.083664
742.870850	1224.137329	3052.207275	2510.986084	70.393845
743.190063	1226.069214	3022.783203	2509.871826	71.452812
743.509338	1234.391113	3000.195313	2492.113281	71.226593
743.828552	1230.750244	2992.096436	2465.587158	70.107567
744.147705	1230.230225	2959.700195	2443.073486	70.128029
744.466797	1222.131226	2930.201904	2430.516113	70.745605
744.785828	1218.936157	2900.183594	2414.986816	71.140671
745.104858	1216.632690	2890.895752	2398.120117	70.567612
745.423706	1219.307617	2886.660889	2388.089355	70.098030
745.742615	1221.239624	2875.663818	2378.504395	69.949699
746.061401	1223.022827	2871.577393	2382.293945	70.320457
746.380249	1221.833984	2858.648682	2371.222900	70.221077
746.698975	1221.908203	2838.141357	2360.597412	70.453278
747.017639	1220.645020	2818.896484	2344.473877	70.316147
747.336304	1219.084717	2815.255859	2345.811279	70.589333
747.654907	1226.366333	2812.060791	2343.879639	70.474693
747.973389	1228.075317	2808.791260	2341.724609	70.452209
748.291931	1231.121704	2791.999023	2325.600830	70.119484
748.610352	1224.583130	2792.667969	2335.631592	70.853851
748.928711	1221.685303	2797.943359	2341.055908	71.014427
749.247070	1219.084839	2803.813232	2346.777100	71.159973
749.565308	1215.369629	2806.636719	2337.266357	70.503357
749.883545	1218.787476	2792.965088	2325.229248	70.286972
750.201782	1216.409790	2784.568604	2318.764893	70.296143
750.519836	1216.707031	2776.618408	2311.037598	70.153381
750.837952	1212.991943	2767.925049	2300.709473	69.952690
751.155884	1221.610962	2747.640381	2300.560791	70.703079
751.473877	1223.468628	2740.952881	2293.947998	70.543030
751.791809	1226.366333	2728.172852	2292.461914	70.987549
752.109619	1225.846313	2731.665283	2278.938721	69.934860
752.427490	1223.617188	2724.829346	2263.112305	69.243721
752.745300	1223.988647	2722.302979	2264.746826	69.461937
753.062988	1217.821655	2718.810791	2256.796631	69.219353
753.380615	1218.787598	2716.284424	2259.843018	69.519707
753.698303	1215.741089	2703.950439	2249.069092	69.434319
754.015808	1219.604858	2697.783447	2249.514893	69.674263
754.333374	1223.097046	2686.935303	2250.629150	70.194374
754.650757	1227.926636	2704.693604	2251.149414	69.288033
754.968262	1229.264160	2697.114502	2251.595215	69.648178
755.285583	1227.406616	2696.148438	2247.880127	69.479431
755.602905	1219.753540	2674.823486	2243.496338	70.356949
755.920105	1214.180786	2673.040283	2235.768799	70.026482
756.237305	1215.666870	2655.207764	2222.096924	69.913269
756.554443	1214.849487	2653.052734	2210.134521	69.203362
756.871582	1214.923828	2637.300781	2217.787354	70.506172
757.188599	1211.282959	2645.548340	2229.156006	70.968254
757.505615	1222.651245	2655.133545	2242.010498	71.160339
757.822510	1233.499390	2681.733887	2243.422119	69.734749
758.139465	1236.768677	2698.229248	2242.010498	68.783371
758.456238	1228.966919	2704.990479	2251.967041	69.307846
758.773010	1222.205444	2722.080078	2252.041260	68.661461
759.089783	1227.629517	2731.591064	2261.106201	68.716965
759.406433	1229.264160	2741.844971	2271.731445	68.919777
759.723145	1223.468628	2735.083252	2278.715820	69.809273
760.039673	1215.963989	2740.507080	2275.074951	69.470711
760.356201	1216.187012	2746.451416	2261.254639	68.293274
760.672668	1223.468628	2739.169922	2257.836670	68.243530
760.989136	1228.001099	2716.358887	2272.845947	70.201187
761.305481	1227.555298	2703.058838	2287.706299	71.850113
761.621826	1226.069214	2721.931396	2290.901367	71.185181
761.938049	1226.440796	2744.890869	2281.464844	69.480324
762.254333	1229.635742	2767.925049	2284.139893	68.550446
762.570496	1230.973267	2786.574951	2305.390625	69.067642
762.886597	1231.790649	2861.843750	2351.978516	68.720940
763.202637	1227.480957	2957.397217	2410.677490	68.396172
763.518677	1225.771851	3084.677734	2498.132080	68.446724
763.834656	1219.158936	3196.874756	2579.047607	68.760567
764.150574	1217.152832	3304.241943	2653.201660	68.806305
764.466370	1212.323120	3363.386719	2684.482910	68.438698
764.782288	1209.871216	3379.733398	2709.300049	69.102486
765.097961	1210.465576	3358.557373	2696.296875	69.169823
765.413696	1214.403687	3312.266602	2676.086914	69.674873
765.729309	1222.948486	3251.338623	2619.022217	68.826691
766.044861	1221.462280	3160.466064	2549.326416	68.481773
766.360474	1218.713135	3060.677734	2474.429199	68.172646
766.675903	1212.991821	2951.081055	2398.045898	68.181427
766.991394	1218.341675	2867.416260	2341.947510	68.135536
767.306763	1222.428345	2781.522461	2295.136963	68.803329
767.622131	1227.480957	2713.981201	2250.406494	68.814354
767.937378	1223.988647	2633.585693	2216.152832	70.386368
768.252625	1229.412842	2588.632568	2174.246094	69.512917
768.567810	1229.709961	2544.793701	2150.320557	70.003952
768.882996	1228.001099	2522.874512	2118.296387	68.755394
769.197998	1230.973145	2491.667236	2095.039307	68.538925
769.513062	1222.948486	2458.231201	2076.240723	69.076675
769.828064	1224.211670	2422.417480	2053.281250	69.192589
770.142944	1225.920532	2392.176270	2035.597290	69.425316
770.457825	1232.459229	2380.510742	2021.256836	68.707512
770.772705	1232.756470	2364.312500	2010.706055	68.750427
771.087402	1218.713257	2351.606689	1995.102417	68.531525
771.402100	1213.214844	2320.176514	1974.594727	68.781052
771.716736	1211.580200	2313.861084	1961.517578	68.035049
772.031372	1213.289185	2301.972656	1955.944946	68.215950
772.345947	1219.456299	2307.693848	1944.130737	66.591568
772.660461	1227.332397	2280.945068	1935.288696	67.193222
772.974854	1229.487061	2261.328857	1924.366211	67.343575
773.289246	1229.264160	2229.007324	1918.644897	68.955788
773.603638	1224.285767	2221.428467	1910.917358	68.859909
773.917908	1226.663696	2209.168701	1893.604858	67.881706
774.232178	1227.035156	2206.122070	1882.831055	66.980354
774.546265	1223.914551	2207.385254	1879.190063	66.628883
774.860474	1213.437866	2209.168701	1873.766113	66.315941
775.174561	1210.837158	2196.314209	1871.908569	67.081360
775.488586	1217.375854	2172.760010	1863.809570	67.662178
775.802551	1226.663574	2157.230713	1863.660767	68.452576
776.116516	1227.778198	2155.819092	1854.670288	67.550049
776.430359	1227.703857	2152.772705	1849.692017	67.236961
776.744202	1224.137329	2134.419922	1850.509277	68.810715
777.057922	1220.570679	2117.552979	1845.679565	69.690216
777.371704	1216.855591	2111.460205	1837.506226	69.377090
777.685303	1219.976318	2120.228271	1829.035767	67.654335
777.998962	1225.994873	2121.119873	1835.128540	68.050125
778.312500	1222.354126	2110.791748	1827.326782	68.093994
778.626038	1222.577026	2107.002197	1827.549683	68.402924
778.939453	1214.032227	2104.996094	1815.661255	67.525635
779.252869	1219.530640	2100.612061	1825.840820	68.814316
779.566223	1230.676025	2088.946533	1813.803711	67.942177
779.879578	1237.363159	2083.596924	1813.803711	68.118362
780.192749	1235.282715	2082.631104	1810.088501	67.835831
780.505920	1219.233398	2074.680664	1815.066895	69.651695
780.819031	1214.329468	2061.157471	1804.515991	69.693787
781.132141	1216.409912	2061.677490	1800.875000	69.145569
781.445190	1214.626587	2070.148193	1804.515991	68.950851
781.758118	1213.586304	2074.977783	1802.658203	68.386086
782.071045	1214.180786	2069.553711	1789.432495	67.251572
782.383911	1209.796875	2053.801514	1777.766968	67.294662
782.696838	1209.648315	2048.377686	1779.550171	67.948242
783.009583	1206.824829	2036.414673	1773.605835	68.320633
783.322266	1218.564697	2018.805054	1760.528687	67.725151
783.634888	1225.697754	2004.092896	1747.599976	67.048492
783.947510	1224.434448	1995.622437	1749.457520	68.079781
784.260132	1222.279785	1996.365601	1744.256348	67.431358
784.572571	1220.496460	1986.186035	1741.730103	68.073753
784.885010	1231.047485	1976.823853	1727.538452	66.573708
785.197449	1238.403442	1969.319214	1732.293579	67.571419
785.509766	1235.579956	1970.285156	1730.436157	67.354393
785.822083	1228.446899	1967.981812	1732.590820	68.170403
786.134277	1218.936157	1958.693970	1718.621948	67.547211
786.446533	1215.889771	1955.350220	1720.330688	68.217430
786.758606	1214.329346	1952.006836	1723.674438	69.047127
787.070740	1225.028931	1964.861206	1726.275024	67.751312
787.382690	1234.762695	1969.244995	1737.123413	68.396576
787.694641	1236.991699	1985.071411	1744.627930	67.858574
788.006653	1222.279785	2001.640991	1763.946411	69.501358
788.318481	1215.295288	2032.105103	1768.033203	67.670334
788.630310	1217.524414	2049.194580	1778.435547	67.443939
788.942017	1224.434570	2058.631348	1785.642944	67.275299
789.253784	1232.236328	2063.906738	1782.968140	66.219963
789.565430	1229.264282	2067.176025	1788.615112	66.755341
789.877014	1225.474731	2057.293701	1780.887695	66.770897
790.188538	1221.536621	2025.566406	1779.327271	69.374374
790.500061	1228.521118	2000.972168	1758.745483	68.641808
790.811462	1238.106079	1989.529663	1739.946899	66.785347
791.122925	1236.694458	1979.424438	1725.532104	65.816338
791.434204	1225.103271	1958.545410	1715.352661	66.842270
791.745483	1218.713257	1938.780884	1713.420776	68.702927
792.056702	1220.422119	1919.684937	1702.646851	68.961876
792.367920	1234.985474	1912.403320	1693.953491	67.752571
792.678955	1232.310547	1891.672852	1684.071167	68.514778
792.990112	1228.149658	1886.174683	1681.098999	68.834671
793.301086	1221.165161	1882.385132	1669.879272	67.861549
793.612122	1225.177612	1880.304688	1665.792603	67.256416
793.922974	1235.728394	1875.177734	1662.746216	66.778992
794.233826	1228.223999	1867.004517	1665.569702	68.465721
794.544556	1220.422241	1873.394531	1664.380859	67.990425
794.855286	1213.957886	1871.908569	1665.124023	68.571419
795.166016	1212.026001	1868.787720	1661.929077	68.503242
795.476624	1216.632813	1870.942383	1663.489258	68.294350
795.787292	1215.146729	1884.168335	1667.501587	67.614388
796.097778	1218.341675	1904.601563	1688.232056	68.471199
796.408264	1220.199219	1923.548828	1694.696411	67.462494
796.718689	1220.719360	1935.882935	1700.343384	67.064941
797.029053	1219.679077	1937.146118	1688.083618	65.285858
797.339355	1226.292114	1924.737671	1690.758423	66.500000
797.649658	1220.570801	1914.409546	1681.470581	66.427505
797.959839	1223.691528	1908.614136	1685.780273	67.465836
798.270020	1212.991943	1907.350952	1680.133301	67.276634
798.580078	1218.861938	1899.994751	1674.188843	66.848473
798.890137	1223.542969	1894.942383	1668.096069	66.212914
799.200195	1222.056763	1885.208618	1660.294312	66.084045
799.510071	1225.549072	1871.314087	1665.049683	68.058907
799.820007	1220.421997	1855.636108	1657.025024	68.733208
800.129883	1219.753296	1837.357788	1646.548218	69.104897
800.439575	1210.762817	1827.698364	1634.214233	68.637871
800.749329	1211.208740	1821.902832	1627.898438	68.232147
801.058960	1217.078735	1820.862671	1632.505249	68.803833
801.368591	1219.159058	1825.989258	1631.241821	67.907425
801.678162	1221.611084	1824.057617	1628.492676	67.538208
801.987671	1223.765747	1823.983276	1626.337891	67.071037
802.297119	1223.765869	1811.203125	1623.514282	68.049553
802.606506	1220.570801	1814.769531	1619.204712	67.087639
802.915894	1221.759644	1806.299194	1612.740601	66.887001
803.225159	1222.799927	1801.246582	1605.310181	66.127144
803.534424	1222.428345	1784.082642	1603.824219	67.905807
803.843628	1213.289063	1784.379883	1602.115234	68.084824
804.152771	1215.889648	1790.918579	1605.013062	67.670235
804.461792	1218.787598	1789.506714	1596.096680	66.111168
804.770874	1222.502808	1789.432495	1604.344360	67.352539
805.079773	1218.787598	1787.351929	1607.316406	68.335068
805.388733	1213.140625	1801.172241	1614.672363	68.284042
805.697571	1213.066284	1807.710938	1618.164673	68.124451
806.006470	1218.416016	1818.484741	1616.752930	66.381882
806.315125	1220.645142	1817.221680	1624.183105	67.642281
806.623901	1226.886475	1824.503296	1621.656860	66.057442
806.932495	1224.137207	1816.107056	1626.709473	68.005539
807.241150	1217.970215	1813.283691	1623.142944	68.060402
807.549622	1217.895996	1796.639771	1614.375366	68.506889
807.858154	1216.484253	1789.655273	1606.870605	68.109924
808.166565	1225.474731	1781.853516	1608.282349	68.803421
808.474915	1221.833984	1776.652344	1610.140015	69.987953
808.783264	1223.988770	1775.760742	1608.951172	69.768387
809.091492	1225.400513	1764.541016	1604.492798	70.314194
809.399719	1222.651245	1763.946655	1595.427856	68.867500
809.707825	1222.205444	1762.609009	1586.957397	67.496216
810.015930	1218.193115	1761.197266	1581.310547	66.871941
810.323975	1214.032104	1760.751587	1575.217773	66.064163
810.632080	1205.264404	1752.057983	1569.050659	66.530823
810.939880	1206.527466	1759.191040	1563.775024	64.641052
811.247864	1210.837158	1753.395508	1564.889648	65.256111
811.555664	1219.679199	1740.244141	1561.620239	65.686531
811.863464	1228.966919	1723.303101	1554.487305	65.849998
812.171143	1232.607910	1715.947144	1543.861938	64.396599
812.478882	1240.186768	1719.216309	1547.874390	64.231453
812.786438	1237.437622	1729.470093	1548.171509	63.153126
813.094055	1235.059814	1729.692993	1552.629517	64.203072
813.401489	1227.035034	1726.423828	1546.165405	63.904190
813.708984	1219.381958	1715.946899	1542.152954	65.000763
814.016357	1221.982544	1710.745972	1540.815430	65.232559
814.323730	1223.319946	1706.064819	1542.450195	66.107437
814.630981	1219.084839	1701.086548	1549.434570	68.537048
814.938232	1212.843262	1697.891602	1545.125000	68.504868
815.245361	1211.505859	1697.594360	1548.171509	69.260155
815.552490	1207.642090	1703.390015	1545.273560	68.105476
815.859619	1210.837158	1705.247559	1554.338501	69.476967
816.166565	1210.911499	1714.460938	1555.155884	68.363571
816.473572	1224.062988	1706.510620	1546.091187	66.748840
816.780457	1228.446777	1702.795532	1541.335571	65.961761
817.087341	1225.028931	1699.005981	1543.267578	67.142204
817.394043	1217.004272	1706.213379	1555.676147	69.228447
817.700806	1210.763062	1713.792358	1557.607910	68.951225
818.007507	1209.871216	1723.600220	1550.920776	66.387054
818.314209	1215.369629	1738.312134	1546.091187	63.242432
818.620667	1223.617065	1749.234741	1545.348022	61.210072
818.927246	1230.750122	1750.572144	1552.629761	61.921124
819.233704	1227.406616	1764.615234	1569.199219	63.623814
819.540161	1225.697632	1785.419922	1594.387695	65.870178
819.846497	1227.852417	1824.206055	1623.811646	66.396713
820.152832	1223.022827	1858.088257	1653.161133	67.731339
820.458984	1217.970215	1905.716309	1688.529297	68.420464
820.765259	1211.803101	1969.096558	1723.897461	67.621651
821.071350	1216.855591	2052.984131	1772.640015	66.471169
821.377502	1214.552246	2194.605225	1857.047852	65.557236
821.683472	1214.477905	2438.615479	2034.111450	66.956001
821.989441	1216.707031	2878.190430	2324.560791	66.678596
822.295349	1219.233276	3501.515625	2743.033936	66.766533
822.601196	1223.171387	4227.156250	3211.883789	66.202477
822.907043	1226.143555	4834.952637	3615.421875	66.206833
823.212769	1219.976440	5185.437988	3842.416748	66.132034
823.518494	1220.125000	5212.930176	3872.063477	66.417931
823.824097	1213.437866	5004.511230	3740.696045	66.663399
824.129700	1223.617188	4676.984863	3525.961182	66.669533
824.435242	1224.211548	4315.428223	3284.477539	66.649033
824.740723	1221.016602	3975.344482	3063.872803	66.907654
825.046082	1228.744019	3655.248047	2845.571289	66.631966
825.351501	1227.257935	3344.662842	2638.935547	66.670181
825.656799	1232.533447	3060.083252	2439.209717	66.027000
825.962036	1217.450073	2809.906006	2276.635498	66.512703
826.267212	1215.220947	2656.322510	2158.865723	65.480797
826.572449	1216.707031	2584.397461	2113.466553	65.567436
826.877502	1221.090942	2629.573242	2144.079346	65.530708
827.182495	1225.549072	2746.302734	2223.063232	65.593407
827.487488	1224.806030	2889.038330	2321.737305	65.912148
827.792419	1226.960815	2992.764893	2394.331055	66.109840
828.097290	1221.313843	3008.443115	2420.188232	67.083809
828.402100	1220.347778	2959.625977	2377.984131	66.558434
828.706848	1217.227173	2833.682861	2295.879883	66.729492
829.011597	1224.286011	2685.226074	2192.599121	66.280136
829.316223	1227.926758	2536.546387	2093.999268	66.182144
829.620789	1226.292114	2406.590820	2001.046509	65.640533
829.925354	1218.564575	2284.214355	1919.388062	65.764900
830.229797	1213.957886	2154.779053	1849.692017	67.572258
830.534302	1216.855591	2035.746094	1775.240601	68.187996
830.838562	1221.165161	1941.530151	1714.386719	68.468285
831.142944	1225.920532	1867.301758	1652.789673	66.554665
831.447144	1227.332397	1811.128906	1613.557983	66.157570
831.751404	1228.818481	1773.011719	1588.740845	66.138702
832.055542	1226.589355	1754.807495	1575.589233	66.071167
832.359619	1230.007202	1757.333618	1579.378540	66.253334
832.663635	1229.635742	1771.302612	1568.010376	62.469139
832.967651	1228.966919	1795.153687	1584.728516	62.834671
833.271545	1226.663574	1846.942505	1612.294800	62.170616
833.575439	1225.474731	1933.579590	1673.594360	63.284359
833.879211	1227.183716	2049.268799	1761.568970	65.003647
834.183044	1224.880371	2166.964355	1840.032593	65.296959
834.486694	1220.199219	2251.520752	1898.211548	65.742088
834.790344	1221.165161	2288.375244	1917.976074	65.292763
835.093933	1217.895874	2270.245361	1904.824585	65.275719
835.397522	1219.901978	2215.038574	1877.258301	66.056892
835.700928	1215.963989	2147.868896	1827.326782	65.603561
836.004395	1220.942261	2081.070557	1792.330200	66.430550
836.307739	1218.341675	2012.637817	1743.661987	66.136581
836.611023	1216.409790	1950.520874	1712.083374	67.520241
836.914307	1215.666870	1883.276855	1668.616089	67.846382
837.217529	1220.719360	1821.159790	1632.059204	68.506355
837.520691	1226.143433	1756.739258	1583.093750	67.273491
837.823730	1227.480957	1712.752075	1543.787598	65.181427
838.126831	1222.428345	1673.594604	1522.982910	66.617249
838.429749	1222.279785	1652.789673	1496.234009	63.634827
838.732727	1217.301636	1622.994263	1481.819336	65.201508
839.035522	1216.112671	1612.294556	1473.794556	65.041306
839.338379	1212.917603	1600.257813	1481.150391	69.249924
839.641113	1213.957886	1606.573364	1482.710938	68.451973
839.943848	1216.929932	1620.022095	1487.614868	67.152122
840.246460	1216.261230	1640.455444	1499.726196	66.824333
840.549072	1222.131226	1666.981445	1520.902344	67.162186
840.851563	1223.022827	1685.780151	1526.549438	65.590881
841.154053	1220.422241	1695.662476	1524.171753	63.914940
841.456482	1217.450073	1686.002930	1517.558716	64.050117
841.758850	1221.165283	1665.941406	1503.589844	63.498138
842.061157	1222.354126	1645.433716	1497.571411	65.050949
842.363403	1223.543091	1622.994507	1484.048218	65.215721
842.665588	1216.632935	1603.675781	1481.819214	68.515999
842.967712	1226.069214	1578.115601	1456.927734	65.576164
843.269775	1228.001099	1557.682251	1438.500610	63.849422
843.571777	1228.966919	1539.106445	1410.042847	58.385311
843.873840	1223.765747	1525.286133	1403.206665	59.512035
844.175659	1216.855591	1508.791016	1390.723999	59.557148
844.477600	1220.645142	1497.645630	1392.581543	62.070793
844.779297	1219.827759	1482.413574	1387.677734	63.921951
845.081116	1222.131104	1474.611816	1387.008911	65.303131
845.382751	1223.839966	1466.735718	1379.355835	64.025764
845.684387	1219.159058	1462.351685	1376.160645	64.558533
845.985962	1214.849487	1454.847290	1371.331055	65.201248
846.287537	1217.970093	1449.200195	1370.290649	65.874016
846.588989	1222.799805	1446.822632	1367.392944	64.543930
846.890381	1222.651245	1448.160034	1362.489136	62.009953
847.191711	1220.645020	1441.993042	1366.501343	65.894569
847.493042	1220.422241	1431.739258	1368.433228	70.042152
847.794250	1225.697632	1424.531860	1376.383667	75.784760
848.095459	1218.044556	1419.776367	1370.365112	75.506462
848.396606	1214.998047	1420.296509	1366.575684	73.832817
848.697693	1221.239624	1418.364624	1355.876099	68.300049
848.998657	1228.075439	1427.355347	1355.281616	63.832916
849.299622	1230.007202	1433.968262	1351.715088	59.672119
849.600464	1217.004272	1434.191040	1355.207397	63.633308
849.901367	1211.728882	1427.429565	1346.588257	62.521534
850.202087	1210.094116	1417.695923	1341.089844	63.099514
850.502808	1217.747314	1416.432983	1340.198242	61.630478
850.803467	1219.084595	1417.770142	1356.619019	69.222160
851.104065	1224.211548	1421.708374	1360.334106	68.923920
851.404663	1222.576782	1421.633911	1360.185669	69.130348
851.705139	1225.474731	1423.788696	1346.439575	60.996635
852.005615	1227.703735	1425.571899	1350.526245	62.072903
852.306030	1224.062988	1413.386353	1349.560181	66.287216
852.606384	1225.994873	1407.145020	1354.612793	71.000725
852.906616	1221.833862	1403.504272	1344.656250	67.607262
853.206909	1227.703857	1414.649536	1342.427246	61.367233
853.506958	1220.347778	1419.330688	1341.387085	60.828995
853.807129	1219.604858	1423.491577	1347.628540	62.791576
854.107178	1219.233276	1420.222168	1348.000000	64.066589
854.407166	1227.778198	1412.717773	1349.411621	65.769279
854.707092	1222.577026	1412.346069	1343.170288	63.547382
855.007019	1216.484253	1420.147949	1340.569702	60.926640
855.306763	1208.830933	1420.222168	1331.727783	58.137154
855.606567	1215.220947	1421.411011	1330.613159	55.964001
855.906250	1214.998169	1413.014771	1336.483032	61.350849
856.205933	1217.004272	1409.225220	1337.671875	62.775471
856.505493	1216.484253	1403.726929	1336.408691	64.047600
856.805054	1219.084717	1407.590698	1338.860718	63.539627
857.104492	1218.267456	1408.482422	1346.588257	67.460938
857.403931	1219.233398	1408.482422	1349.114502	68.629738
857.703308	1219.902100	1406.401855	1339.083618	63.904385
858.002563	1219.530640	1411.751587	1334.328247	59.721695
858.301819	1218.490356	1412.940430	1343.913208	64.501312
858.601013	1215.221069	1410.711548	1343.616089	65.678398
858.900208	1221.462524	1408.333862	1342.427246	64.731552
859.199219	1216.038330	1404.692993	1334.328247	62.701824
859.498291	1219.827759	1401.200806	1337.894653	65.096161
859.797302	1215.369507	1406.401978	1334.030884	62.115814
860.096191	1215.369507	1405.510254	1333.436646	62.094601
860.395020	1213.066162	1409.745483	1330.613159	59.765816
860.693787	1213.140503	1400.011719	1321.325317	57.892712
860.992554	1224.880371	1396.742554	1317.312866	53.782917
861.291260	1219.902222	1393.918945	1318.353149	56.575554
861.589844	1224.137451	1398.005737	1324.966064	57.991379
861.888428	1226.292114	1400.086304	1331.876221	60.752380
862.186890	1236.768799	1395.479370	1332.619263	60.393246
862.485413	1231.939087	1391.392700	1342.650146	69.431519
862.783813	1226.143555	1389.683716	1340.866943	70.149979
863.082153	1223.914429	1393.250366	1340.643921	68.933678
863.380371	1234.688354	1398.674438	1338.043335	63.026676
863.678589	1229.635742	1399.343140	1343.244507	66.943909
863.976746	1228.595581	1401.052124	1339.975342	64.584251
864.274902	1218.564575	1405.361694	1338.786499	64.359627
864.572937	1221.833862	1407.813599	1334.996948	60.846996
864.870911	1228.075317	1413.757813	1342.873047	61.824745
865.168884	1223.097168	1410.488647	1339.901001	62.331455
865.466736	1218.638916	1409.819824	1337.226074	62.028767
865.764587	1210.317017	1407.144897	1326.526489	59.041164
866.062317	1215.146606	1401.349243	1329.424194	61.372700
866.360107	1214.329224	1399.937500	1325.857788	60.088142
866.657715	1218.267456	1390.055298	1337.151855	69.204201
866.955322	1219.456177	1394.662109	1334.774170	65.818542
867.252808	1225.028931	1389.980957	1336.483032	67.567589
867.550293	1222.354126	1392.358765	1330.390259	63.548931
867.847717	1222.354126	1389.386597	1324.743164	61.298882
868.145081	1221.313843	1393.621704	1327.418091	61.578297
868.442383	1221.165161	1392.358765	1332.767944	65.190979
868.739624	1218.936157	1396.519653	1341.089722	68.786552
869.036804	1220.199219	1400.383423	1340.569702	66.804123
869.333984	1225.028931	1401.720825	1337.523315	63.666977
869.631042	1219.679199	1399.714722	1338.935059	66.240181
869.928101	1213.586304	1392.432983	1339.083618	70.170334
870.224976	1212.991821	1396.593872	1338.266235	68.231491
870.521851	1218.267334	1401.052124	1334.476929	63.577278
870.818726	1223.988647	1405.658813	1338.860718	63.231113
871.115479	1221.908325	1408.482422	1340.941162	63.799229
871.412231	1217.227173	1410.711548	1345.845215	66.474640
871.708862	1217.301392	1415.764038	1340.866943	62.261364
872.005493	1214.477905	1412.568970	1336.260254	61.477962
872.302063	1222.948364	1397.708496	1329.647095	61.054390
872.598572	1219.679077	1391.392578	1331.356079	65.036819
872.895020	1219.753540	1396.445313	1335.591309	65.559235
873.191406	1218.118896	1407.813599	1338.637817	63.533096
873.487671	1222.354126	1416.358521	1340.569702	60.934483
873.783997	1225.251831	1416.432739	1336.185913	58.025711
874.080200	1220.942261	1415.169556	1338.340454	60.443714
874.376343	1214.998169	1413.832153	1330.613159	58.146492
874.672424	1212.471802	1413.386353	1335.962891	61.464481
874.968445	1216.038452	1411.231445	1341.238403	64.141624
875.264465	1221.388062	1419.479126	1351.120728	65.491425
875.560364	1225.623413	1425.051880	1341.907227	58.308533
875.856201	1225.028931	1426.983765	1338.935059	56.401783
876.152039	1223.765747	1419.850708	1335.442749	56.953373
876.447754	1209.053833	1418.438843	1338.860718	61.994354
876.743469	1202.886841	1424.085938	1341.758423	62.781261
877.039063	1194.267700	1426.612183	1341.609863	63.415390
877.334595	1206.824829	1430.178711	1342.575806	60.778427
877.630127	1215.666870	1419.330566	1339.306519	60.707752
877.925537	1223.617188	1419.033203	1339.603760	59.353668
878.221008	1228.298340	1414.575195	1342.427246	61.268433
878.516296	1224.062988	1430.178711	1349.560181	60.886765
878.811646	1226.292114	1438.129272	1357.882202	62.118511
879.106812	1211.208618	1449.497559	1363.157837	63.766796
879.401978	1214.700806	1458.562378	1364.718140	61.517414
879.697083	1213.809204	1464.506470	1377.869751	65.441696
879.992126	1222.874146	1484.791382	1392.135742	64.624077
880.287109	1226.440552	1512.134766	1408.630859	63.771088
880.582031	1225.177490	1575.068970	1440.581177	61.563000
880.876892	1231.344727	1695.811035	1508.270874	59.622440
881.171753	1234.390991	1905.864746	1641.198608	60.584293
881.466492	1241.301147	2198.097412	1820.639648	60.549828
881.761230	1242.118530	2522.428955	2044.587891	62.677719
882.055786	1238.106201	2815.478760	2244.833740	63.823067
882.350403	1229.858521	3005.545166	2362.455078	63.783581
882.644958	1229.635742	3067.885010	2399.531982	63.641872
882.939453	1230.155762	3012.901123	2357.179443	63.218433
883.233826	1230.230103	2908.059814	2294.245117	63.416149
883.528137	1220.050659	2788.952393	2207.459717	62.936321
883.822449	1215.741089	2669.622314	2127.583984	62.717838
884.116577	1218.564697	2544.125244	2056.625000	63.223087
884.410828	1219.679199	2410.157471	1970.954102	63.106983
884.704956	1217.524292	2255.905029	1876.366577	63.449009
884.999023	1215.295288	2095.485352	1770.410767	63.067684
885.292969	1226.960815	1940.861450	1683.625366	63.967522
885.586914	1230.007202	1824.280396	1602.932617	62.753197
885.880798	1231.938965	1741.358521	1543.564819	61.172729
886.174622	1223.320068	1677.904175	1502.772461	61.474300
886.468384	1225.103394	1633.025024	1476.766602	61.694008
886.762085	1225.177612	1597.508423	1454.772827	61.664307
887.055664	1224.211548	1575.589233	1433.893921	59.674358
887.349304	1223.988770	1557.385132	1425.348999	60.396648
887.642822	1216.335571	1539.626587	1415.318237	61.549088
887.936340	1221.759644	1519.342163	1403.727051	61.148556
888.229736	1214.775269	1502.401001	1392.433105	61.767017
888.523071	1213.363403	1479.664429	1383.145142	63.755569
888.816284	1211.060059	1464.209351	1371.553833	63.398865
889.109619	1210.391479	1450.166138	1365.758179	64.796967
889.402710	1218.861816	1446.302368	1354.687134	59.719040
889.695862	1214.106445	1436.568726	1351.566406	61.790234
889.988892	1223.245728	1426.983765	1341.312744	57.950405
890.281921	1234.242432	1415.243896	1344.359131	60.837463
>>>>>End Processed Spectral Data<<<<<
