Jaz Data File
++++++++++++++++++++++++++++++++++++
Date: Fri Jun 04 16:36:18 2021
User: jaz
Dark Spectrum Present: Yes
Reference Spectrum Present: Yes
Processed Spectrum Present: Yes
Spectrometers: JAZA3586
Integration Time (usec): 40000 (JAZA3586)
Spectra Averaged: 10 (JAZA3586)
Boxcar Smoothing: 1 (JAZA3586)
Correct for Electrical Dark: No (JAZA3586)
Strobe/Lamp Enabled: Yes (JAZA3586)
Correct for Detector Non-linearity: No (JAZA3586)
Correct for Stray Light: No (JAZA3586)
Number of Pixels in Processed Spectrum: 2048
>>>>>Begin Processed Spectral Data<<<<<
W	D	R	S	P
191.335022	0.000000	0.000000	0.000000	0.000000
191.713211	235.539627	237.917343	238.511765	124.999680
192.091385	476.280426	474.943024	476.429077	-11.114914
192.469528	722.668274	719.027527	718.581604	112.248116
192.847641	729.504150	732.847717	725.343201	-124.446434
193.225739	737.825989	749.268555	732.476257	-46.752899
193.603790	744.141785	755.807312	747.039551	24.840422
193.981842	754.246887	753.429626	752.463684	218.192688
194.359863	759.968262	752.612305	756.921875	41.413872
194.737854	758.482239	759.225281	748.154114	-1389.978638
195.115829	763.088928	769.701965	748.674255	-217.973572
195.493774	763.534851	771.782410	753.355286	-123.425194
195.871704	769.627625	772.451172	759.002258	-376.312653
196.249603	763.683411	763.757629	759.076599	-6207.072266
196.627457	755.881592	764.500671	759.745300	44.827393
197.005310	756.401672	763.386169	760.265442	55.319221
197.383133	756.104492	766.283936	764.946472	86.861137
197.760910	762.717468	769.256042	763.831970	17.045031
198.138687	758.259277	768.958801	769.181702	102.083275
198.516449	763.609070	776.314758	759.671082	-30.993898
198.894180	757.962097	772.822571	759.522461	10.500094
199.271866	760.191101	764.797913	756.104492	-88.707970
199.649536	755.212891	757.367676	767.992981	593.102783
200.027191	756.401672	762.345886	771.930969	261.250641
200.404816	749.565857	763.014648	769.033203	144.751633
200.782410	748.302734	770.965027	768.958801	91.147293
201.159988	756.550293	771.633789	777.206482	136.945633
201.537537	759.448059	786.419983	780.327148	77.410454
201.915070	757.516296	790.209473	774.977356	53.408882
202.292557	752.389343	789.912292	764.054871	31.089046
202.670029	759.893982	793.181458	758.630798	-3.794771
203.047485	755.361389	786.122803	759.819641	14.493001
203.424911	751.646301	790.432373	764.426453	32.950363
203.802292	742.507080	787.608887	770.593506	62.273396
204.179688	745.924988	791.101074	774.308655	62.828964
204.557037	746.890869	787.311707	764.649353	43.933983
204.934357	749.045715	786.122803	761.602844	33.867626
205.311661	749.120056	783.076355	754.544128	15.973685
205.688934	746.222229	785.008301	754.767090	22.030746
206.066177	740.203613	777.949524	755.212891	39.763981
206.443390	738.494690	772.971191	754.767029	47.198349
206.820587	739.534973	766.655457	757.293274	65.479294
207.197769	743.175781	775.125977	759.150879	50.000000
207.574921	747.485352	779.955627	759.002258	35.469074
207.952042	749.714539	777.355042	761.008484	40.860130
208.329147	745.702087	779.584167	752.092102	18.859570
208.706223	752.983826	793.553040	763.906250	26.922937
209.083267	749.342957	799.200012	762.494629	26.378759
209.460297	759.225159	798.754211	770.890808	29.511583
209.837280	752.760803	787.460205	761.974426	26.552685
210.214264	747.411133	791.175354	760.488342	29.881052
210.591217	738.271912	781.293152	759.150879	48.531765
210.968124	733.070618	783.596497	758.110657	49.558838
211.345016	739.832214	783.150696	759.522461	45.454609
211.721893	738.346130	781.887512	756.030273	40.614567
212.098724	740.129395	780.104309	757.739197	44.052132
212.475555	743.547302	774.605896	763.460449	64.114777
212.852356	740.055115	774.828796	764.352112	69.871796
213.229126	738.866272	775.794678	763.237549	65.996017
213.605865	737.454529	767.844238	755.732971	60.146816
213.982590	742.061340	767.844238	758.779480	64.841972
214.359283	746.890930	760.042480	753.949707	53.672585
214.735931	741.169678	767.770020	755.584412	54.190033
215.112579	745.479187	770.221985	750.457520	20.120329
215.489197	737.083008	771.782410	748.525574	32.976261
215.865799	736.637207	775.646057	740.500977	9.904854
216.242355	728.092285	773.491272	739.832214	25.859451
216.618896	734.110840	778.915344	746.445129	27.529129
216.995407	735.968445	770.816406	753.429626	50.106750
217.371902	738.271790	773.342773	756.476013	51.906796
217.748367	735.522644	765.392334	753.429504	59.949936
218.124802	740.426575	775.125977	748.451233	23.126215
218.501236	746.147949	772.005310	742.878601	-12.643782
218.877609	748.079773	777.652344	753.726807	19.095512
219.253983	741.095276	769.553284	757.962097	59.269157
219.630295	736.934387	769.107422	764.129150	84.526573
220.006592	736.934387	763.460449	753.281006	61.624748
220.382889	739.237793	764.797852	758.705078	76.162910
220.759140	737.231628	767.992920	757.664856	66.425125
221.135391	739.609314	776.389160	761.231445	58.787987
221.511581	742.729980	777.949524	766.878418	68.565445
221.887772	746.147949	781.218811	772.971191	76.482986
222.263931	749.194275	777.280762	772.599670	83.333298
222.640060	748.154053	779.286926	760.562683	39.857002
223.016159	747.633972	780.921631	750.977600	10.044647
223.392212	738.866211	789.243469	753.726807	29.498619
223.768265	736.414246	790.135071	751.720703	28.492596
224.144302	738.049011	788.574707	751.497742	26.617605
224.520294	744.884766	777.652283	747.559753	8.163535
224.896286	750.606140	781.293030	753.652527	9.927323
225.272217	750.531738	777.875183	753.652527	11.413297
225.648148	752.017822	774.382996	756.178772	18.604593
226.024048	741.987000	776.314880	758.705078	48.701168
226.399902	738.420410	786.419983	761.900085	48.916424
226.775772	739.832214	798.828613	762.048645	37.657265
227.151581	749.194336	795.261963	754.544128	11.612911
227.527374	748.154114	792.438477	751.720642	8.053697
227.903137	747.411072	788.574707	749.342957	4.693183
228.278870	742.061279	788.054688	750.754700	18.901449
228.654572	749.417236	785.454102	755.584290	17.113178
229.030273	740.352356	787.980408	757.293396	35.569458
229.405930	741.987000	786.048523	755.881592	31.534525
229.781555	729.652649	782.184814	750.011658	38.755322
230.157181	729.652771	788.574768	748.154053	31.399618
230.532761	730.470032	785.602600	747.559631	30.997286
230.908325	736.934387	786.345642	756.773193	40.150379
231.283859	737.305908	782.779114	758.110657	45.751663
231.659332	739.683594	790.357971	756.698914	33.577759
232.034821	743.547363	794.964783	758.333496	28.757050
232.410263	747.931152	789.837891	750.977600	7.269589
232.785690	743.695984	781.961853	759.819641	42.135872
233.161087	739.460693	775.423157	754.023987	40.495819
233.536469	736.562805	766.655518	754.246887	58.765331
233.911804	730.915833	767.547180	751.423401	55.983658
234.287140	736.562805	766.135437	744.959167	28.392340
234.662430	739.832214	780.995911	746.147949	15.342973
235.037704	753.206726	784.933899	741.912659	-35.597458
235.412933	751.349121	791.546875	748.822754	-6.284847
235.788162	750.308899	786.642883	746.668030	-10.020561
236.163345	744.438965	786.865784	747.856934	8.056151
236.538513	742.209961	784.636780	751.794922	22.591751
236.913635	737.008728	790.580994	760.042480	42.995667
237.288742	735.522644	793.330139	759.596680	41.645180
237.663834	736.488586	791.621155	753.801086	31.401585
238.038879	739.237793	782.779114	756.178772	38.907822
238.413910	737.974609	784.190918	756.178772	39.389046
238.788910	742.878601	789.540710	760.339661	37.420212
239.163879	738.271790	791.175354	752.760925	27.387825
239.538834	739.312073	782.110413	753.949707	34.201408
239.913757	733.665039	779.955627	749.863098	34.992123
240.288651	734.556641	781.664612	759.596680	53.154568
240.663528	735.299744	789.615051	769.330383	62.653866
241.038361	735.002441	788.500488	763.460449	53.194481
241.413177	736.562805	784.933899	761.379944	51.305721
241.787979	730.915833	787.460266	745.181946	25.229916
242.162735	731.807556	795.187744	756.773193	39.390285
242.537476	737.677429	801.503479	753.206726	24.330656
242.912170	747.485352	795.336365	755.658691	17.080809
243.286865	745.999329	787.608887	752.760925	16.250105
243.661514	738.346191	784.785339	755.881592	37.759953
244.036148	737.677429	786.791504	763.460449	52.496193
244.410751	740.203796	798.308411	759.671082	33.503853
244.785339	742.135559	805.070007	750.085938	12.632792
245.159882	738.271790	801.577698	744.884766	10.446065
245.534378	739.980774	800.686218	747.559753	12.484843
245.908890	746.668152	793.776062	753.058105	13.564503
246.283356	744.736267	794.073242	756.104492	23.041998
246.657791	742.581360	791.026794	760.636963	37.269978
247.032196	737.008728	799.943115	759.522461	35.773342
247.406586	736.637207	811.905823	761.157043	32.576443
247.780960	730.395813	814.506348	758.110657	32.950504
248.155289	731.733215	806.258789	759.225281	36.889439
248.529602	733.813660	798.308411	756.327393	34.907852
248.903870	740.278015	786.568604	748.005554	16.693542
249.278122	738.791992	788.946289	748.971436	20.296253
249.652344	736.340027	792.958679	747.633972	19.947393
250.026550	736.860046	800.686096	755.955872	29.918545
250.400711	735.225403	797.491028	751.646301	26.372334
250.774857	737.603210	794.147461	752.463684	26.281139
251.148987	740.278076	789.466492	749.788818	19.335329
251.523071	739.460693	794.296082	750.977539	21.002579
251.897125	737.603027	798.531311	751.200439	22.317078
252.271164	731.733154	807.967773	752.463684	27.193066
252.645187	740.055115	813.837708	754.172668	19.133989
253.019165	733.070618	810.642761	756.698975	30.459848
253.393112	741.689758	814.506409	753.801086	16.632635
253.767044	735.894104	814.060608	747.559753	14.924103
254.140930	745.330627	812.500244	749.565918	6.305367
254.514801	735.745605	799.868835	750.531738	23.058933
254.888657	737.677429	787.088684	756.847473	38.796917
255.262466	742.284180	784.859680	752.612305	24.258375
255.636276	744.067566	790.358093	754.246887	21.990074
256.010010	745.702148	804.921387	758.556458	21.706306
256.383759	740.129395	811.608643	760.042480	27.858555
256.757446	741.318176	819.038879	763.014648	27.915949
257.131134	739.534973	811.608643	755.881592	22.680431
257.504791	738.791931	810.419739	752.166443	18.672234
257.878418	735.968445	807.001892	751.794922	22.280317
258.252014	736.860046	812.500244	754.989929	23.968582
258.625580	739.906433	824.908875	752.612244	14.947583
258.999115	740.946716	831.521729	753.280945	13.617695
259.372650	738.643311	845.564941	759.671082	19.666527
259.746124	738.271790	855.224304	764.054871	22.045769
260.119598	736.637207	866.815613	758.184998	16.552507
260.493042	740.426575	865.255188	753.503906	10.476229
260.866425	737.528809	863.100403	756.921875	15.443832
261.239838	736.860107	855.298645	763.534729	22.521910
261.613159	735.076843	852.549500	760.116882	21.315632
261.986511	737.825989	845.490723	758.556396	19.254595
262.359802	738.569031	840.883972	760.636963	21.568630
262.733063	743.250061	833.007874	764.500671	23.675499
263.106293	739.832214	827.137878	762.420166	25.872263
263.479523	743.027283	830.555847	760.859863	20.373442
263.852692	730.915833	832.339050	760.265442	28.937761
264.225861	734.779602	835.162598	759.819641	24.944502
264.598969	737.305847	835.459778	747.782654	10.673853
264.972076	739.386414	831.967529	758.184875	20.304855
265.345154	737.900330	834.791016	765.466614	28.450912
265.718201	734.928223	831.224548	782.630554	49.537022
266.091217	743.250061	844.004578	775.200378	31.711052
266.464203	745.479187	848.462708	776.240540	29.870171
266.837158	748.897156	856.710388	765.838135	15.713265
267.210114	748.302734	861.614258	760.488342	10.754077
267.583038	750.234558	873.502747	755.287109	4.098828
267.955902	750.160217	871.793762	752.538025	1.954895
268.328766	748.599915	872.611145	754.915710	5.092923
268.701569	746.965149	867.187012	757.664856	8.899968
269.074371	742.284180	875.806152	760.859863	13.912080
269.447144	740.203674	877.960938	763.980652	17.260054
269.819885	735.596924	887.323059	755.361511	13.026488
270.192596	739.757874	894.456116	762.345947	14.601377
270.565277	736.117004	908.425049	764.946533	16.731388
270.937927	743.101501	912.214539	771.559387	16.827730
271.310577	740.723816	925.143250	764.426453	12.852570
271.683136	741.838379	932.424866	758.036377	8.499027
272.055725	738.049011	938.963440	758.110657	9.985169
272.428284	739.683594	933.093567	758.482178	9.719553
272.800812	742.878662	935.174072	761.379944	9.621281
273.173279	745.702148	932.722107	764.277832	9.932461
273.545776	740.723816	938.369141	760.042542	9.774441
273.918152	734.036621	933.093567	763.980652	15.042947
274.290558	732.624817	937.774597	760.562683	13.618278
274.662964	738.197510	924.251526	768.215820	16.134192
275.035278	743.175781	919.793396	760.711243	9.928490
275.407593	738.940613	919.867737	758.705078	10.923992
275.779907	742.432800	933.910950	753.652527	5.859534
276.152161	741.689758	951.594971	758.259277	7.893810
276.524384	744.290344	957.316223	762.568848	8.580415
276.896606	744.513245	964.895081	759.522461	6.810551
277.268799	755.064270	969.724792	760.636963	2.596049
277.640930	753.652527	977.823792	758.705078	2.253880
278.013031	750.754700	979.532776	764.575012	6.040925
278.385162	744.141785	973.885742	753.801086	4.204377
278.757233	754.246887	974.851746	756.996094	1.246213
279.129272	752.537903	983.990906	761.454285	3.852351
279.501282	757.516296	996.548096	768.736023	4.693822
279.873230	748.897156	998.702881	766.952637	7.227809
280.245178	742.730042	997.588379	763.237549	8.046630
280.617126	735.596985	1010.219788	762.717468	9.875540
280.988983	735.819824	1028.126831	759.225159	8.007107
281.360870	743.918884	1047.891235	761.379883	5.744272
281.732697	743.993164	1054.429810	762.865967	6.079438
282.104492	744.661865	1068.918823	762.940369	5.637043
282.476288	736.191406	1091.952759	760.934143	6.954869
282.848053	738.866211	1104.732788	764.797852	7.087731
283.219757	736.785828	1101.983643	768.290100	8.626633
283.591461	740.129395	1097.451172	773.268372	9.274267
283.963135	741.764160	1095.667969	768.290222	7.495275
284.334747	738.049011	1104.955811	768.661621	8.343430
284.706360	740.575195	1105.550293	760.191162	5.374604
285.077942	738.494812	1118.181641	762.123047	6.223085
285.449524	743.250183	1134.453979	762.568848	4.938261
285.821014	737.603088	1153.846924	765.466614	6.694039
286.192535	740.055176	1171.382446	768.587341	6.614969
286.563995	737.751709	1191.072632	770.890808	7.310296
286.935425	747.708252	1201.772217	771.262268	5.187378
287.306824	750.160217	1196.273804	764.129211	3.131264
287.678223	754.767029	1184.979858	759.893860	1.191696
288.049561	752.983704	1178.441162	768.364502	3.615120
288.420898	748.376953	1175.097534	766.432617	4.231262
288.792145	749.937317	1180.521606	768.067200	4.210530
289.163452	750.977600	1175.469116	760.116760	2.152966
289.534668	748.897156	1186.243042	765.540955	3.805637
289.905914	748.599915	1198.057129	766.061035	3.884935
290.277039	746.370850	1227.183716	772.228210	5.377843
290.648193	753.578186	1252.966797	779.955627	5.281947
291.019318	744.513367	1266.935669	777.652283	6.343319
291.390381	742.581482	1277.635254	768.364441	4.818760
291.761475	740.649597	1271.096558	759.596680	3.571909
292.132507	743.175781	1268.421753	762.494446	3.678022
292.503510	747.039551	1258.836670	759.002258	2.337393
292.874481	744.959045	1262.923340	758.407898	2.596483
293.245422	745.999329	1268.347412	751.126221	0.981509
293.616364	745.925049	1282.019043	752.612305	1.247404
293.987213	745.850769	1299.331665	748.302734	0.443008
294.358093	746.667969	1330.167236	755.807312	1.566299
294.728943	740.649475	1359.294067	755.881592	2.462176
295.099731	737.603027	1393.176147	763.683350	3.978248
295.470490	738.123230	1415.689819	758.927979	3.070510
295.841248	735.299744	1432.482056	757.144714	3.133322
296.211975	735.002502	1443.033203	752.612305	2.487152
296.582642	735.002502	1452.395142	755.510071	2.858625
296.953308	741.689758	1481.298950	763.831970	2.993772
297.323883	744.216064	1509.608398	772.525391	3.698669
297.694519	744.587585	1534.796997	764.426331	2.510568
298.065063	743.918762	1546.908325	766.581238	2.822263
298.435608	741.912659	1534.871216	758.036316	2.033354
298.806122	736.637207	1508.939575	763.311829	3.453909
299.176575	735.448242	1464.803711	759.076599	3.239622
299.547028	732.699036	1429.435669	763.386169	4.404409
299.917450	733.962219	1411.751587	765.689636	4.681014
300.287872	737.974609	1410.859985	766.655518	4.262376
300.658234	741.095398	1424.160156	767.324219	3.839873
301.028564	745.330566	1431.441772	769.033203	3.454635
301.398865	751.943542	1438.797852	759.076599	1.038511
301.769135	751.349121	1433.893921	754.098328	0.402788
302.139374	753.503906	1430.104492	752.760925	-0.109811
302.509583	741.095276	1426.612183	762.717468	3.154144
302.879791	748.451355	1427.206665	770.519226	3.251226
303.249939	748.079773	1425.571899	771.039368	3.388909
303.620087	750.754639	1424.160278	770.593506	2.946050
303.990173	746.445129	1425.200562	765.169434	2.758623
304.360260	740.055115	1431.664917	763.906250	3.448640
304.730286	740.426575	1433.596680	763.460449	3.322976
305.100281	738.420410	1442.587280	760.636963	3.155013
305.470276	737.677429	1446.302368	765.020813	3.858654
305.840179	737.677429	1453.286987	764.203430	3.706770
306.210144	729.578430	1460.122681	762.122986	4.454837
306.579987	730.544373	1462.054688	759.596680	3.971551
306.949890	725.194580	1475.131836	757.367615	4.290097
307.319702	736.340027	1483.973999	764.797852	3.806385
307.689484	739.906555	1496.085327	761.677185	2.879032
308.059265	742.804382	1511.985962	769.033142	3.409957
308.429016	736.860107	1536.505981	768.661621	3.976950
308.798737	738.123230	1572.691406	768.513000	3.641377
309.168396	741.541199	1601.520874	769.479004	3.248659
309.538055	742.061279	1619.799316	764.797913	2.590367
309.907684	738.420471	1642.313110	762.940369	2.712700
310.277313	726.977844	1656.505005	755.881531	3.109504
310.646851	732.624817	1675.675171	758.259277	2.718249
311.016388	738.940613	1684.219849	758.705078	2.090860
311.385895	750.011719	1698.114380	758.779358	0.924756
311.755371	752.612305	1700.343384	753.429626	0.086240
312.124817	753.801086	1709.557007	757.887756	0.427585
312.494232	752.017822	1702.721069	763.609070	1.219229
312.863617	742.135559	1703.761353	767.844299	2.673466
313.232971	742.581360	1689.792603	766.952637	2.572951
313.602295	742.581360	1679.910278	762.048645	2.076890
313.971619	748.228455	1674.040161	758.036377	1.059386
314.340820	739.163513	1688.603516	758.853699	2.073874
314.710083	743.918884	1723.823120	756.921814	1.326959
315.079285	739.609375	1758.299683	763.980469	2.392395
315.448486	747.262512	1771.971313	757.887695	1.036898
315.817596	750.457520	1760.380249	759.299500	0.875511
316.186707	750.606140	1746.039673	759.745361	0.918115
316.555786	749.268738	1725.234985	762.791809	1.385609
316.924866	745.702148	1713.866577	762.717468	1.757482
317.293884	746.965332	1705.767578	765.541016	1.937384
317.662872	748.005554	1698.040039	768.290222	2.135151
318.031830	745.776367	1687.489136	767.621399	2.319713
318.400757	745.553528	1689.049438	763.980652	1.953069
318.769684	743.844543	1701.532227	760.414063	1.730159
319.138550	739.312073	1723.823120	759.745361	2.075476
319.507416	743.695984	1740.244141	759.076660	1.543395
319.876190	746.445129	1749.160278	762.866028	1.637643
320.244995	753.652527	1759.042603	771.708008	1.795868
320.613770	752.760925	1748.194336	772.153809	1.948185
320.982483	744.290344	1732.070679	772.079590	2.813302
321.351166	733.293640	1711.043091	769.256042	3.678080
321.719818	729.801331	1700.046265	780.104309	5.184565
322.088440	735.819885	1712.529297	773.417053	3.849371
322.457062	740.203674	1727.761230	767.918640	2.806415
322.825623	738.791992	1749.234741	755.287109	1.632464
323.194183	737.157288	1777.841309	765.095154	2.684567
323.562653	736.117004	1808.528320	769.999084	3.159429
323.931183	740.723816	1846.794067	764.649231	2.163101
324.299591	740.500916	1883.648438	755.881592	1.345467
324.668060	739.683533	1928.824341	755.361511	1.318429
325.036407	741.912659	1974.074707	758.705078	1.362842
325.404755	748.525635	2001.269531	764.129150	1.245547
325.773102	753.652527	2000.898071	758.036316	0.351478
326.141388	746.519470	1995.176758	756.996094	0.839031
326.509674	741.615479	2000.823730	754.246887	1.003123
326.877899	739.163513	2028.315796	753.726807	1.129680
327.246124	735.671204	2037.603516	762.197327	2.037442
327.614288	737.454529	2037.380493	764.500671	2.080591
327.982422	740.352356	2020.811157	769.924805	2.309520
328.350525	748.376953	2018.730591	774.085754	2.023751
328.718628	747.336731	2014.049683	772.971191	2.023699
329.086700	747.188171	2011.969116	776.909180	2.349894
329.454712	744.736145	2005.802124	769.701843	1.979730
329.822693	738.866211	2008.253906	773.342773	2.715999
330.190674	734.853943	2022.594360	775.943359	3.190815
330.558563	728.686768	2036.488892	776.983582	3.692976
330.926483	729.058289	2043.547729	770.593506	3.159798
331.294312	731.658875	2063.312256	764.797852	2.488559
331.662231	734.482422	2096.525635	768.215820	2.476676
332.029999	730.618652	2139.472412	773.862793	3.069456
332.397766	726.754883	2161.020264	774.085754	3.300008
332.765503	730.395752	2184.277100	766.283936	2.468440
333.133240	741.318176	2213.626709	759.522400	1.236441
333.500916	745.107666	2258.876953	753.949707	0.584108
333.868561	740.203674	2292.239014	760.859863	1.330910
334.236176	728.389587	2314.455566	766.655518	2.412632
334.603790	727.646484	2318.616455	771.633789	2.764811
334.971344	732.773438	2322.034180	762.940369	1.898174
335.338867	737.454407	2317.724854	761.974426	1.551634
335.706360	737.974609	2309.774414	765.020813	1.720716
336.073853	737.974609	2313.043701	774.382996	2.311542
336.441284	744.067383	2312.523682	774.977356	1.970726
336.808655	740.203674	2315.124268	770.742126	1.939047
337.176086	734.259460	2282.951172	767.398499	2.139809
337.543396	727.869446	2229.601807	768.438721	2.701498
337.910706	731.436035	2186.729248	770.370605	2.675376
338.277954	742.432800	2197.874512	776.389099	2.333058
338.645264	746.073669	2278.492920	775.125977	1.895846
339.012421	750.234619	2391.358643	774.234375	1.462397
339.379669	744.736145	2489.661133	765.466614	1.188043
339.746796	745.256287	2554.453125	771.113770	1.429224
340.113953	739.312012	2587.369385	766.878418	1.491642
340.481018	740.129395	2600.743896	770.073425	1.609362
340.848114	744.736145	2606.242432	765.466614	1.113639
341.215118	744.810547	2606.167969	770.370605	1.373195
341.582153	751.274902	2614.787354	765.986755	0.789469
341.949066	742.952942	2619.765625	766.655457	1.262913
342.316010	746.593750	2626.378174	773.268494	1.419032
342.682922	739.237793	2644.582520	772.674011	1.754864
343.049835	745.033386	2664.792969	769.627625	1.281110
343.416656	747.336731	2708.482666	761.082764	0.700918
343.783478	749.565857	2756.853760	762.940247	0.666292
344.150269	742.507080	2833.534180	765.986755	1.122878
344.516998	732.550476	2908.283203	772.451111	1.833894
344.883728	733.219238	2973.520752	772.674011	1.761137
345.250427	735.894104	3027.613037	772.674011	1.604905
345.617065	740.872375	3052.875732	772.674011	1.375501
345.983704	740.426575	3062.460693	778.618164	1.644747
346.350281	739.089172	3056.591064	776.537781	1.615904
346.716827	737.231628	3029.767822	769.999084	1.429310
347.083405	737.900330	3015.427002	762.494446	1.079861
347.449860	745.181946	2980.727783	769.776184	1.100145
347.816376	756.253113	2959.848877	770.742188	0.657520
348.182770	748.748535	2927.081299	770.221985	0.985775
348.549194	741.169617	2915.564453	772.005371	1.418130
348.915558	731.807434	2917.793701	767.992981	1.655342
349.281921	734.631042	2930.425049	768.587402	1.546427
349.648193	741.763977	2967.725342	759.968262	0.817817
350.014526	749.863037	3003.613281	763.014648	0.583543
350.380737	750.828918	3037.495117	768.736023	0.783110
350.746948	750.085938	3083.711670	774.754456	1.057090
351.113159	744.290344	3120.565674	783.224915	1.638470
351.479309	743.695984	3159.946045	785.825623	1.743596
351.845428	736.562805	3178.447266	781.887512	1.856136
352.211517	736.191345	3204.453369	783.745117	1.926610
352.577576	737.677429	3224.292236	779.509949	1.682308
352.943604	738.866272	3268.799561	780.773010	1.656436
353.309601	733.813660	3326.012451	770.742188	1.424603
353.675537	736.562927	3398.531982	771.559509	1.314688
354.041473	737.231628	3463.101318	771.856689	1.270239
354.407379	737.454529	3531.237061	775.497559	1.361703
354.773254	730.321472	3603.979248	774.754578	1.546221
355.139038	735.151123	3657.848633	761.900085	0.915215
355.504913	743.770264	3718.479736	770.073425	0.884226
355.870636	753.801086	3785.946533	770.519226	0.551363
356.236389	754.098328	3870.131592	779.509827	0.815508
356.602081	752.463684	3974.378174	767.992920	0.481988
356.967804	753.578308	4058.934814	765.318054	0.355173
357.333405	749.342957	4160.060547	764.352112	0.440059
357.699036	741.987000	4258.734863	765.095215	0.657090
358.064606	733.070618	4383.563477	768.364441	0.966824
358.430176	736.042786	4463.290039	770.147644	0.915015
358.795654	740.723816	4522.880859	765.243652	0.648303
359.161163	745.256348	4527.116211	761.231384	0.422412
359.526581	740.352356	4512.032715	768.438721	0.744664
359.892029	742.432800	4532.837402	780.698730	1.009547
360.257416	734.482361	4586.186523	785.231140	1.317567
360.622772	743.844543	4737.764160	774.011414	0.755320
360.988098	753.578186	4891.199707	767.472839	0.335813
361.353394	760.488342	5119.605957	763.832031	0.076706
361.718658	751.794922	5312.124512	760.116882	0.182486
362.083893	739.163391	5485.621094	761.008484	0.460240
362.449097	739.386414	5590.685059	773.194092	0.696879
362.814209	742.952942	5620.480469	782.853455	0.818048
363.179382	742.284180	5510.587402	778.246643	0.754198
363.544434	747.039551	5286.118164	769.181824	0.487814
363.909546	741.987000	4997.972168	775.274597	0.782136
364.274536	738.791992	4783.386230	781.590332	1.058161
364.639587	731.658875	4624.527344	775.794678	1.133760
365.004517	733.887939	4546.212402	771.113586	0.976455
365.369507	737.305908	4485.581543	768.958923	0.844469
365.734344	736.265686	4461.358398	774.903076	1.037220
366.099274	741.318176	4434.460449	770.667786	0.794706
366.464081	740.575195	4419.600098	769.033203	0.773520
366.828918	742.358459	4397.755371	773.491394	0.851698
367.193665	733.665039	4407.711426	774.457275	1.110281
367.558411	736.637207	4422.943359	778.692566	1.140854
367.923126	737.900330	4444.565918	775.646179	1.018324
368.287781	748.599915	4440.851074	774.457275	0.700314
368.652435	755.658691	4412.615723	778.989746	0.637991
369.017059	760.488342	4391.365234	773.862854	0.368355
369.381653	758.630859	4382.894531	779.509766	0.576087
369.746185	746.147949	4386.535156	776.091980	0.822551
370.110687	739.163513	4383.414551	783.150635	1.207028
370.475220	731.807556	4413.209961	779.584167	1.297783
370.839661	733.516541	4458.534668	773.194092	1.065164
371.204041	727.869446	4518.497070	769.776184	1.105536
371.568451	734.631042	4561.741211	768.958801	0.896963
371.932770	738.197571	4607.065918	762.643127	0.631853
372.297150	742.284180	4659.077637	767.324219	0.639299
372.661377	743.398743	4691.102051	769.924805	0.671937
373.025696	743.250061	4709.900879	779.064026	0.902877
373.389862	744.959045	4690.136230	778.023865	0.838107
373.754059	739.163513	4678.767578	780.550110	1.050527
374.118225	739.980774	4703.139160	782.110413	1.063032
374.482361	740.575195	4757.157715	777.280762	0.913851
374.846436	745.033386	4821.801270	772.228210	0.667068
375.210510	743.473083	4884.512207	769.999084	0.640564
375.574524	745.107727	4970.480469	772.748291	0.654157
375.938538	750.531799	5075.915527	780.847351	0.700875
376.302460	749.714539	5184.472168	787.460266	0.851134
376.666412	751.200500	5314.947754	786.642883	0.776607
377.030304	743.695862	5425.732910	777.206482	0.715727
377.394196	748.599915	5540.011230	774.382874	0.538108
377.757996	745.107727	5642.771484	771.410828	0.537054
378.121796	740.649475	5706.671875	777.503662	0.742127
378.485565	731.510254	5727.922363	776.983582	0.910120
378.849304	734.556641	5657.706543	784.265198	1.009690
379.212982	743.175781	5563.787598	785.454102	0.877032
379.576630	745.553528	5426.253418	787.088806	0.887373
379.940277	744.067444	5342.811523	782.036133	0.825632
380.303864	741.764099	5279.654297	779.138367	0.823605
380.667450	746.668030	5273.710449	778.469543	0.702479
381.030945	746.816650	5266.131348	780.327148	0.741495
381.394501	747.411072	5289.090332	776.091980	0.631504
381.757935	747.113831	5320.224121	773.862793	0.584918
382.121399	744.216064	5333.449707	773.119812	0.629816
382.484741	742.729980	5372.161621	770.519226	0.600273
382.848145	742.729980	5398.167480	766.952698	0.520310
383.211487	744.959045	5457.014160	762.717468	0.376872
383.574768	746.519470	5529.311035	769.553284	0.481598
383.938019	739.163391	5603.242188	777.652283	0.791288
384.301270	742.878601	5682.597656	790.432312	0.962680
384.664459	738.791931	5748.207031	791.695496	1.056083
385.027649	745.404968	5810.918457	799.051453	1.059053
385.390778	745.033386	5882.025879	800.091614	1.071799
385.753876	750.085938	5914.720215	810.494080	1.169650
386.116943	743.027161	5948.750000	805.515808	1.200384
386.479980	734.779602	5948.973145	806.407410	1.373708
386.842987	735.225403	5978.619629	812.203064	1.468088
387.205994	734.259521	6024.241699	823.125549	1.679893
387.568909	737.157288	6076.328125	824.314453	1.632410
387.931793	732.030457	6115.560059	824.165833	1.711431
388.294678	738.123230	6134.135254	825.354675	1.616591
388.657471	739.312012	6167.200684	829.887146	1.668699
389.020294	738.197510	6164.599609	833.156433	1.749943
389.383057	737.008728	6170.246094	840.660950	1.907743
389.745819	735.968445	6169.800781	849.725891	2.093503
390.108521	744.364563	6207.397949	860.351257	2.123119
390.471191	751.869202	6265.205566	871.125183	2.163046
390.833801	746.816589	6350.950684	881.304626	2.399800
391.196442	739.683594	6489.970703	893.193054	2.669596
391.558960	732.773438	6626.167969	900.028809	2.838014
391.921509	737.157288	6785.101563	924.251526	3.093518
392.284027	734.333801	6929.843262	944.313293	3.389221
392.646484	734.185242	7031.192871	971.359436	3.766459
393.008911	738.866272	7057.421387	990.529602	3.982925
393.371307	743.101563	7022.796387	1012.300293	4.286812
393.733673	739.386414	6967.886719	1039.272217	4.814735
394.096008	733.739441	6933.261719	1069.216187	5.411332
394.458344	727.497864	6947.082031	1094.033325	5.893247
394.820587	728.686768	6966.994629	1120.485107	6.280523
395.182831	733.070618	7002.585938	1147.234131	6.605989
395.545013	735.968445	6979.997559	1192.335815	7.308860
395.907196	733.665039	6956.369629	1227.629639	7.938101
396.269287	734.705261	6865.571777	1260.619995	8.578147
396.631409	738.494812	6766.229004	1281.424805	9.007198
396.993469	745.181946	6663.170410	1311.294434	9.565962
397.355530	750.383240	6594.068848	1352.235229	10.299185
397.717499	754.246887	6566.354004	1396.073730	11.042929
398.079468	753.206726	6550.676270	1442.735962	11.893623
398.441376	744.216064	6563.457031	1483.007935	12.695674
398.803284	742.061279	6582.403809	1537.026001	13.611610
399.165131	743.695984	6620.892578	1590.747070	14.412501
399.526978	751.423523	6630.626465	1641.272949	15.135545
399.888763	744.810486	6648.013184	1692.690308	16.057043
400.250519	740.203796	6659.976074	1752.801147	17.105343
400.612244	741.095398	6690.439941	1814.175171	18.036942
400.973938	740.129395	6696.532715	1861.134644	18.820169
401.335602	741.243958	6710.427246	1904.007324	19.479441
401.697205	733.813660	6731.380371	1962.483521	20.486139
402.058807	736.562805	6789.411621	2035.151733	21.454178
402.420349	736.488586	6863.045410	2119.782227	22.578650
402.781860	734.779602	6960.456543	2193.639160	23.432949
403.143341	735.448303	7083.427246	2274.554932	24.245617
403.504822	739.312012	7209.519043	2353.018555	24.940571
403.866241	741.169617	7342.298340	2442.033447	25.766256
404.227631	742.507080	7445.652832	2523.840576	26.574591
404.588959	739.757874	7596.710449	2620.434082	27.427290
404.950287	743.472961	7703.111816	2703.133057	28.157499
405.311554	743.695862	7789.451660	2793.261963	29.089373
405.672821	748.748535	7819.173340	2855.824951	29.801270
406.034027	740.872375	7827.568848	2903.527344	30.517113
406.395203	737.603088	7790.193848	2936.963623	31.185144
406.756348	734.482422	7732.981934	2973.148682	31.987803
407.117493	740.426575	7686.914063	3023.674805	32.869106
407.478516	739.312073	7686.096191	3065.507080	33.485928
407.839600	737.305969	7681.414551	3116.330322	34.259609
408.200592	734.779602	7698.950684	3165.741943	34.906704
408.561554	736.488586	7680.300781	3211.735107	35.646797
408.922485	734.036621	7709.130371	3250.447021	36.077084
409.283417	739.460693	7716.932129	3271.771729	36.292675
409.644257	741.615479	7771.247559	3333.517578	36.871094
410.005096	742.804382	7851.345703	3398.606689	37.360718
410.365906	745.107605	7951.134277	3488.364258	38.068920
410.726715	745.924988	8075.813965	3570.840088	38.539669
411.087433	746.519470	8144.915527	3641.427734	39.128864
411.448120	745.850769	8207.107422	3701.538330	39.613800
411.808807	742.804382	8205.992188	3717.662109	39.860413
412.169434	738.940613	8191.429199	3732.820068	40.172882
412.530029	731.510315	8162.450684	3751.767334	40.644344
412.890564	737.528809	8168.320801	3786.912354	41.037128
413.251099	742.135559	8162.599609	3805.859375	41.287498
413.611572	741.243958	8187.045410	3842.342041	41.648952
413.972076	734.779602	8210.895508	3873.846436	41.987938
414.332489	726.383362	8253.694336	3919.096924	42.415062
414.692871	728.389465	8376.889648	3969.994385	42.382233
415.053223	729.727051	8476.973633	4034.712158	42.660126
415.413574	739.609314	8672.019531	4119.120117	42.603832
415.773834	736.711487	8780.500977	4208.134766	43.156567
416.134094	736.860046	8896.041992	4284.220703	43.476913
416.494263	733.516418	8988.623047	4344.479980	43.742180
416.854462	739.609314	9211.680664	4444.417480	43.729660
417.214630	738.197571	9463.194336	4550.149902	43.690014
417.574738	742.878601	9721.098633	4698.829590	44.061642
417.934784	733.144958	9935.610352	4795.051270	44.139324
418.294861	731.881836	10204.141602	4944.474609	44.472942
418.654846	724.377258	10542.738281	5078.441895	44.346142
419.014832	730.024231	10909.347656	5263.976074	44.540798
419.374756	740.203796	11321.801758	5446.092285	44.472382
419.734680	747.188171	11739.606445	5656.666016	44.662403
420.094543	749.714417	12160.531250	5833.357910	44.551094
420.454376	739.683594	12534.721680	6007.375000	44.660233
420.814148	741.838379	12902.816406	6178.122559	44.702686
421.173920	744.513367	13312.893555	6379.557129	44.835087
421.533691	752.389404	13732.554688	6584.632813	44.931965
421.893341	745.033386	14036.601563	6752.185547	45.195210
422.253021	744.959167	14235.583008	6901.385254	45.634853
422.612640	738.197571	14278.604492	6943.812500	45.830341
422.972260	749.863098	14267.012695	6962.610840	45.961967
423.331757	745.553528	14205.640625	6915.947754	45.842155
423.691315	751.794922	14206.457031	6920.183594	45.845734
424.050781	743.472961	14324.895508	6954.214355	45.729679
424.410248	748.079773	14437.612305	6996.492676	45.643730
424.769653	740.352295	14579.604492	7066.634277	45.712601
425.128998	743.250183	14627.604492	7118.274902	45.915169
425.488373	742.135559	14577.450195	7127.859375	46.155247
425.847656	745.479248	14418.961914	7074.287598	46.285271
426.206940	741.838379	14250.963867	7003.402344	46.350624
426.566193	742.061340	13982.210938	6897.001465	46.486938
426.925385	737.157288	13730.101563	6794.835938	46.622833
427.284576	738.643372	13347.071289	6620.595215	46.650951
427.643677	731.064453	13067.024414	6487.146973	46.661003
428.002777	733.293640	12783.708008	6347.978516	46.593296
428.361847	726.160461	12500.020508	6220.400879	46.664730
428.720856	726.234802	12225.323242	6120.834473	46.913280
429.079865	730.321472	12042.464844	6033.306641	46.878696
429.438812	738.197510	11917.635742	5984.489746	46.928047
429.797760	746.445129	11831.890625	5947.709473	46.919758
430.156616	746.593750	11670.282227	5891.017090	47.094196
430.515503	742.135559	11611.657227	5858.323730	47.069118
430.874268	732.179016	11582.902344	5834.025879	47.018494
431.233093	726.754944	11613.515625	5860.923828	47.159748
431.591827	732.253235	11633.057617	5884.329590	47.263264
431.950562	734.928162	11654.233398	5902.905762	47.328812
432.309204	740.203674	11713.526367	5921.109375	47.213650
432.667877	735.002502	11802.465820	5969.183594	47.293415
433.026459	739.386414	11929.078125	6019.412109	47.186520
433.385010	738.569092	12045.511719	6076.847656	47.212395
433.743561	742.730042	12187.875000	6149.218750	47.238274
434.102051	742.581360	12341.012695	6219.435059	47.220638
434.460510	746.445129	12475.426758	6295.149902	47.307644
434.818939	747.782532	12569.940430	6322.269531	47.152870
435.177338	747.633972	12607.760742	6362.765137	47.344616
435.535675	739.460693	12566.372070	6362.616699	47.545433
435.894012	737.825989	12502.026367	6348.646973	47.694027
436.252289	732.550598	12510.942383	6336.907715	47.581684
436.610535	736.711487	12547.500000	6314.542480	47.226578
436.968719	738.866272	12677.233398	6371.532715	47.181213
437.326935	744.290344	12776.278320	6415.519531	47.134594
437.685028	751.274841	12863.510742	6474.292969	47.249889
438.043152	750.606140	12939.819336	6515.234375	47.292870
438.401215	750.680359	13101.426758	6588.348145	47.265713
438.759277	739.386414	13290.082031	6675.431152	47.296543
439.117249	733.888000	13598.585938	6805.609375	47.196762
439.475250	734.185242	13826.324219	6934.821777	47.361526
439.833130	739.460693	14160.686523	7084.764160	47.278126
440.191071	743.398743	14380.770508	7195.029785	47.308460
440.548889	745.479187	14677.165039	7303.882813	47.075451
440.906708	742.432800	14980.989258	7440.674316	47.042984
441.264496	739.163391	15222.547852	7559.855957	47.093220
441.622223	733.516418	15361.641602	7657.563965	47.333801
441.979950	742.507080	15395.671875	7715.743652	47.588600
442.337616	743.473083	15401.245117	7733.501465	47.688202
442.695251	743.621643	15311.117188	7703.780762	47.778694
443.052887	735.596985	15150.770508	7633.267090	47.850063
443.410461	741.095398	14990.574219	7565.205566	47.890247
443.768005	751.051941	14860.840820	7498.481934	47.820915
444.125458	755.732971	14802.290039	7438.371094	47.574921
444.482941	754.469788	14827.627930	7421.950684	47.377289
444.840393	752.537903	14940.418945	7457.243652	47.256569
445.197754	752.240723	15152.925781	7574.791016	47.376568
445.555084	754.098328	15372.415039	7694.343750	47.476368
445.912415	748.228333	15694.739258	7850.825684	47.520103
446.269714	742.209778	15931.543945	7958.861816	47.511311
446.626953	738.940491	16232.172852	8087.033691	47.427761
446.984161	737.008728	16502.931641	8231.551758	47.536343
447.341309	741.689758	16707.041016	8368.417969	47.770500
447.698456	738.866211	16860.998047	8467.166992	47.935974
448.055542	743.547302	16929.802734	8519.698242	48.041691
448.412598	740.352295	16941.320313	8498.000977	47.883858
448.769653	737.231628	16859.212891	8475.339844	47.997253
449.126617	735.894226	16616.689453	8362.250977	48.022514
449.483582	740.798096	16429.296875	8280.219727	48.056999
449.840515	749.714539	16132.754883	8160.890625	48.177578
450.197388	744.959045	15956.805664	8064.667969	48.118477
450.554230	742.209900	15803.296875	8009.015625	48.248878
450.911041	743.027161	15656.698242	7922.230469	48.138405
451.267822	745.479187	15513.442383	7879.729004	48.308964
451.624573	742.432800	15307.995117	7780.980957	48.323215
451.981262	735.522644	15257.765625	7737.216797	48.213589
452.337921	735.745605	15135.092773	7672.053223	48.170986
452.694580	737.677429	15088.132813	7654.368652	48.198410
453.051147	738.420471	15072.528320	7669.823730	48.356018
453.407715	746.519470	15016.282227	7649.019043	48.371510
453.764221	750.383240	15044.963867	7660.388184	48.340031
454.120728	747.188171	14840.706055	7577.020996	48.460812
454.477142	737.677429	14827.034180	7557.998535	48.407616
454.833557	730.172852	14671.590820	7498.927734	48.551411
455.189911	733.144958	14559.097656	7436.736816	48.485569
455.546265	735.374023	14404.918945	7374.247559	48.566895
455.902557	744.587585	14306.468750	7308.861328	48.402386
456.258820	746.370850	14305.206055	7315.028809	48.445595
456.615051	743.547363	14329.875000	7323.053223	48.427402
456.971252	746.296570	14315.682617	7312.354004	48.388760
457.327393	754.321228	14451.433594	7353.146484	48.176762
457.683502	754.098328	14642.688477	7427.746094	48.051300
458.039612	747.782532	15001.273438	7595.298828	48.040974
458.395630	731.881775	15363.574219	7785.587891	48.208408
458.751648	733.219238	15740.363281	7964.434082	48.185150
459.107605	722.148132	16300.902344	8221.595703	48.138947
459.463562	733.665039	16863.076172	8472.070313	47.976986
459.819458	735.076843	17419.900391	8769.057617	48.151428
460.175323	748.079834	17910.373047	9004.226563	48.106312
460.531158	748.451355	18392.896484	9258.043945	48.228168
460.886932	750.308899	18704.298828	9426.415039	48.324112
461.242676	748.005554	18850.826172	9559.638672	48.675468
461.598419	740.798157	18737.363281	9535.936523	48.871208
461.954102	740.426575	18405.972656	9398.179688	49.009254
462.309723	732.773438	17883.251953	9146.590820	49.058792
462.665344	736.785828	17298.416016	8872.562500	49.124249
463.020905	735.819885	16856.462891	8635.090820	49.000969
463.376373	738.866211	16488.517578	8443.166992	48.917278
463.731873	742.655701	16198.364258	8300.803711	48.901981
464.087341	742.804260	15902.343750	8179.540527	49.056480
464.442749	740.723816	15723.645508	8095.875488	49.090237
464.798126	733.145020	15612.710938	8014.812012	48.937359
465.153503	723.039734	15672.079102	8040.297363	48.948013
465.508820	725.491699	15746.159180	8069.943848	48.895641
465.864105	729.652649	15899.666992	8129.460938	48.779175
466.219330	740.946777	16158.315430	8245.000977	48.672729
466.574524	746.668030	16318.289063	8339.291992	48.759369
466.929657	745.181946	16498.697266	8444.653320	48.874622
467.284790	747.708313	16673.457031	8500.157227	48.678707
467.639893	740.798096	16854.904297	8604.329102	48.799053
467.994934	745.925049	17052.177734	8729.752930	48.961758
468.349945	746.222229	17109.017578	8809.256836	49.276634
468.704926	755.435730	17123.953125	8788.897461	49.078739
469.059875	754.469788	16919.472656	8692.303711	49.105057
469.414764	754.618408	16711.572266	8585.457031	49.074772
469.769653	746.073669	16525.667969	8494.211914	49.102264
470.124451	742.878601	16436.654297	8469.767578	49.235374
470.479248	737.008728	16291.762695	8394.499023	49.229259
470.834015	737.454529	16200.073242	8381.049805	49.432732
471.188721	736.265686	16254.315430	8373.620117	49.215942
471.543365	739.832214	16366.511719	8411.959961	49.096340
471.898010	744.958984	16484.207031	8453.643555	48.977463
472.252625	743.695862	16599.525391	8520.813477	49.048950
472.607178	740.649475	16781.642578	8632.862305	49.200275
472.961700	740.129395	16967.546875	8727.002930	49.218388
473.316193	742.729980	17201.525391	8844.178711	49.222610
473.670654	741.243958	17364.025391	8938.765625	49.314980
474.025055	741.689758	17601.869141	9046.951172	49.259628
474.379456	734.110901	17758.720703	9130.319336	49.318066
474.733795	737.528809	17916.689453	9189.315430	49.197906
475.088104	734.408020	17997.009766	9247.939453	49.317776
475.442383	740.129395	17994.410156	9246.899414	49.302368
475.796570	739.386414	18069.457031	9277.066406	49.265118
476.150787	732.253357	18231.064453	9349.882813	49.246948
476.504944	736.860046	18463.111328	9464.383789	49.235020
476.859070	732.624817	18730.824219	9600.876953	49.272995
477.213135	735.522644	18979.439453	9696.801758	49.119274
477.567200	735.225403	19377.925781	9873.270508	49.016743
477.921173	737.231628	19731.236328	10034.433594	48.948090
478.275146	737.974670	20168.804688	10242.629883	48.915333
478.629089	734.110840	20408.357422	10400.895508	49.134209
478.983002	731.435974	20747.623047	10576.844727	49.187237
479.336823	733.367859	21052.636719	10757.473633	49.333000
479.690643	729.875671	21458.181641	10904.518555	49.085739
480.044403	740.426575	21909.939453	11112.566406	48.995644
480.398163	743.027161	22481.251953	11373.442383	48.901947
480.751862	749.565857	23274.806641	11730.987305	48.751629
481.105499	741.912659	24180.111328	12182.749023	48.812778
481.459137	744.959045	25395.851563	12741.653320	48.666370
481.812744	749.417236	26820.310547	13434.601563	48.656502
482.166290	747.411133	28685.900391	14246.506836	48.317200
482.519806	752.612244	30924.195313	15275.301758	48.133667
482.873291	747.411133	33616.035156	16543.279297	48.057587
483.226715	751.200500	36722.406250	18110.990234	48.260235
483.580139	750.754700	39923.441406	19809.031250	48.651951
483.933502	752.760925	43227.312500	21613.546875	49.113609
484.286804	753.875427	46222.824219	23354.537109	49.705708
484.640106	742.655762	48794.890625	24951.818359	50.380928
484.993347	744.290344	50480.894531	26164.958984	51.110580
485.346558	742.581482	51138.402344	26743.033203	51.592476
485.699738	749.640137	50650.531250	26582.617188	51.768570
486.052887	746.890930	49382.406250	25793.150391	51.497879
486.405975	743.770264	47642.531250	24710.857422	51.103882
486.759064	738.643311	45787.792969	23543.634766	50.622471
487.112061	739.014832	44143.250000	22538.021484	50.223225
487.464996	740.278015	43063.554688	21889.953125	49.971733
487.817963	741.392517	42825.488281	21697.435547	49.795635
488.170868	739.237793	42852.093750	21796.927734	50.002995
488.523743	740.278015	43090.972656	21980.083984	50.152203
488.876587	739.906494	43047.804688	22063.671875	50.401382
489.229401	751.200500	42877.351563	21988.255859	50.412994
489.582153	759.373840	42151.562500	21643.341797	50.453892
489.934845	769.033203	41183.917969	21131.470703	50.383511
490.287537	761.082764	40084.535156	20507.328125	50.214935
490.640198	753.801086	39258.359375	19982.378906	49.938446
490.992798	743.175781	38567.050781	19523.189453	49.651215
491.345337	740.054993	38347.636719	19354.296875	49.495983
491.697876	741.392517	38374.753906	19370.642578	49.501953
492.050354	752.538025	38806.082031	19669.193359	49.710632
492.402832	751.497742	39110.500000	19935.048828	50.010555
492.755219	754.172668	39170.910156	20066.937500	50.271748
493.107605	743.918884	38723.605469	19876.425781	50.375633
493.459930	743.101563	37759.972656	19438.931641	50.506241
493.812225	734.853943	36300.148438	18753.857422	50.664574
494.164490	732.624817	34562.800781	17881.023438	50.689651
494.516724	729.355530	32733.474609	16917.986328	50.582962
494.868896	730.841614	30991.369141	15964.756836	50.342529
495.221039	729.504150	29509.326172	15188.293945	50.239330
495.573120	732.104675	28338.093750	14586.367188	50.185715
495.925201	741.763977	27691.658203	14235.434570	50.069477
496.277222	750.680359	27313.162109	14036.898438	50.018734
496.629211	751.274719	27220.654297	13967.203125	49.929123
496.981140	741.020996	27203.193359	13928.491211	49.835178
497.333069	736.934387	27302.312500	13983.252930	49.863087
497.684967	736.117004	27419.859375	14025.902344	49.804802
498.036804	734.408142	27471.427734	14107.635742	50.017647
498.388580	732.030457	27467.193359	14101.096680	50.005554
498.740326	732.179016	27381.966797	14107.190430	50.188061
499.092072	735.299805	27170.126953	13978.125000	50.096127
499.443756	738.494690	26879.828125	13877.519531	50.261490
499.795410	735.002502	26584.326172	13695.774414	50.139690
500.147003	741.095398	26270.546875	13548.284180	50.166328
500.498566	743.250061	25920.357422	13350.120117	50.072750
500.850098	743.324463	25533.015625	13170.750977	50.131432
501.201599	738.866272	25271.025391	13034.256836	50.119484
501.553009	737.974670	25034.521484	12920.871094	50.142502
501.904449	748.451355	24858.349609	12817.442383	50.058243
502.255859	751.274841	24631.203125	12741.875977	50.212051
502.607178	756.104492	24495.750000	12694.174805	50.287487
502.958405	758.110657	24402.500000	12672.700195	50.390770
503.309692	761.082764	24365.498047	12604.788086	50.175800
503.660919	750.754700	24377.458984	12600.700195	50.154881
504.012115	755.658630	24415.501953	12600.700195	50.063908
504.363251	748.971497	24505.484375	12659.846680	50.137302
504.714294	756.550354	24580.156250	12670.840820	50.010441
505.065369	745.330566	24602.892578	12692.464844	50.076931
505.416443	751.794922	24611.289063	12726.644531	50.189034
505.767395	745.702087	24628.156250	12749.975586	50.263985
506.118317	748.971375	24640.937500	12766.620117	50.299953
506.469238	748.154114	24633.728516	12748.266602	50.239998
506.820160	753.206726	24595.687500	12758.965820	50.354488
507.170929	748.971436	24569.607422	12737.789063	50.329540
507.521729	746.668030	24633.359375	12766.397461	50.319775
507.872498	744.290344	24757.666016	12804.588867	50.223255
508.223236	747.633972	24976.562500	12930.382813	50.281834
508.573883	745.999329	25163.431641	13006.988281	50.214081
508.924500	746.816650	25350.380859	13095.484375	50.190563
509.275116	742.730042	25483.751953	13173.426758	50.243263
509.625702	743.473083	25691.501953	13278.863281	50.246014
509.976196	742.581360	25916.865234	13396.781250	50.266376
510.326660	750.457520	26171.648438	13498.278320	50.146431
510.677124	750.011658	26404.291016	13618.945313	50.162910
511.027557	751.349121	26593.611328	13714.796875	50.163750
511.377869	744.959167	26834.873047	13816.144531	50.100533
511.728180	742.952881	26944.916016	13877.890625	50.129593
512.078430	742.432800	27015.353516	13967.127930	50.335842
512.428650	741.021057	27075.466797	14043.140625	50.512245
512.778931	746.593750	27229.939453	14136.613281	50.560150
513.129028	751.646301	27367.773438	14130.743164	50.266880
513.479126	750.234558	27436.281250	14156.377930	50.236530
513.829285	752.017883	27365.693359	14148.500977	50.336842
514.179382	750.903320	27327.796875	14139.584961	50.377148
514.529297	755.435791	27212.927734	14086.011719	50.384880
514.879272	755.807312	27233.507813	14094.184570	50.375889
515.229187	752.760925	27111.205078	14055.547852	50.468788
515.579163	751.943542	27142.412109	14059.635742	50.426132
515.928955	745.999329	27128.890625	14024.042969	50.328239
516.278748	747.336731	27310.486328	14103.176758	50.279579
516.628540	753.652527	27538.521484	14188.847656	50.159645
516.978333	747.559753	27943.916016	14359.743164	50.051498
517.327942	737.528809	28426.734375	14609.624023	50.099293
517.677612	729.355530	28956.216797	14903.713867	50.215851
518.027222	736.934387	29498.703125	15186.286133	50.238049
518.376831	741.689758	30155.314453	15485.578125	50.126053
518.726379	740.946777	30792.087891	15802.554688	50.119919
519.075867	740.055115	31322.015625	16117.747070	50.283539
519.425293	739.460693	31706.828125	16349.868164	50.409218
519.774658	736.340027	31915.173828	16545.580078	50.705040
520.124084	732.847717	31988.140625	16612.898438	50.807556
520.473389	731.807556	31842.580078	16566.384766	50.897408
520.822693	732.699036	31606.966797	16387.687500	50.705620
521.171997	728.909668	31205.507813	16200.816406	50.766514
521.521240	729.206970	30837.634766	15999.456055	50.717525
521.870361	729.875671	30460.103516	15811.469727	50.728146
522.219482	736.117126	30195.365234	15601.340820	50.460297
522.568604	739.014893	29914.203125	15436.835938	50.377811
522.917664	741.169678	29728.814453	15345.073242	50.379753
523.266724	736.785828	29683.787109	15373.456055	50.563683
523.615662	735.522644	29904.990234	15463.288086	50.490349
523.964600	733.590759	30266.843750	15620.883789	50.408577
524.313538	738.123230	30751.521484	15818.381836	50.245090
524.662354	742.061279	31337.023438	16106.453125	50.218697
525.011169	750.903320	32096.099609	16467.042969	50.138912
525.359985	749.565857	33036.402344	16947.705078	50.169487
525.708740	748.525635	34138.757813	17513.001953	50.207729
526.057434	744.290344	35312.222656	18133.281250	50.303818
526.406067	745.776428	36668.542969	18793.759766	50.241070
526.754700	747.262451	38133.343750	19540.650391	50.268410
527.103333	749.863098	39856.425781	20399.439453	50.246239
527.451782	748.897156	41732.199219	21385.957031	50.354805
527.800293	746.445129	43754.199219	22427.830078	50.412735
528.148743	738.494812	45878.511719	23616.750000	50.682873
528.497131	737.008728	48008.769531	24818.076172	50.941761
528.845642	734.482422	49876.667969	26046.224609	51.507153
529.193909	733.442139	51426.328125	27152.220703	52.115356
529.542175	731.138733	52492.125000	28083.009766	52.842640
529.890503	735.002502	53056.824219	28630.919922	53.316032
530.238770	737.751709	53022.125000	28728.849609	53.536259
530.586914	742.878601	52352.582031	28358.078125	53.507767
530.934998	742.655701	51098.203125	27562.072266	53.260101
531.283142	745.850769	49424.753906	26495.234375	52.896393
531.631226	750.903320	47472.230469	25209.650391	52.350281
531.979248	752.315125	45533.222656	23966.193359	51.838787
532.327148	748.897156	43753.156250	22834.265625	51.356239
532.675110	746.147888	42465.566406	22056.615234	51.080452
533.023071	743.993164	41707.675781	21644.529297	51.022110
533.370850	749.194336	41515.976563	21508.037109	50.920979
533.718689	749.045715	41697.050781	21609.683594	50.944214
534.066467	748.599854	42005.558594	21793.583984	51.009541
534.414246	738.123230	42160.402344	21979.189453	51.279331
534.761963	734.631042	42095.386719	22014.408203	51.449200
535.109619	730.544250	41884.519531	21951.400391	51.564533
535.457153	736.711487	41444.199219	21691.490234	51.476475
535.804749	740.798096	40746.574219	21324.658203	51.452217
536.152344	745.999329	39872.621094	20811.150391	51.282604
536.499817	752.240723	38945.324219	20304.333984	51.192764
536.847229	749.045715	38052.949219	19805.314453	51.083851
537.194641	751.126221	37227.964844	19356.302734	51.005447
537.542114	743.175781	36635.699219	19053.966797	51.015614
537.889404	744.364563	36145.597656	18831.505859	51.091835
538.236694	745.107666	35775.718750	18706.675781	51.273926
538.583984	743.175781	35403.910156	18521.365234	51.292015
538.931213	738.420410	35171.488281	18359.904297	51.176052
539.278381	728.909668	35029.644531	18182.619141	50.884361
539.625488	736.117004	34997.847656	18135.212891	50.782887
539.972595	733.144958	35217.332031	18183.734375	50.604614
540.319641	736.117126	35712.191406	18397.205078	50.494770
540.666687	725.863281	36517.855469	18739.443359	50.328522
541.013611	723.708496	37643.468750	19315.066406	50.356113
541.360596	727.943787	38894.800781	19990.181641	50.468498
541.707458	737.231628	40264.792969	20808.181641	50.777100
542.054260	748.154114	41480.906250	21551.357422	51.072418
542.401062	750.308899	42504.949219	22235.164063	51.455013
542.747864	746.445129	43183.105469	22678.677734	51.682278
543.094666	741.912659	43355.714844	22843.109375	51.863941
543.441284	739.906494	43020.382813	22678.529297	51.888306
543.787903	741.466858	42166.347656	22279.523438	51.993046
544.134460	740.649597	41021.714844	21672.544922	51.964600
544.481079	733.887939	39622.746094	20962.357422	52.016102
544.827637	737.528809	38111.500000	20089.523438	51.779335
545.174072	743.993164	36509.683594	19197.220703	51.594772
545.520508	747.485352	35197.941406	18439.037109	51.353603
545.866943	742.581360	34112.156250	17863.341797	51.306496
546.213318	736.265686	33302.996094	17442.488281	51.298435
546.559631	742.432800	32594.373047	17088.658203	51.319405
546.905823	740.649597	32044.310547	16793.306641	51.280449
547.252136	739.534973	31647.533203	16596.179688	51.302723
547.598389	734.556702	31243.103516	16438.509766	51.473946
547.944458	734.928223	30881.029297	16278.313477	51.560181
548.290588	741.615479	30374.880859	16044.559570	51.641102
548.636658	742.135559	29871.921875	15726.989258	51.441685
548.982727	743.473083	29264.945313	15377.542969	51.308956
549.328735	743.027161	28624.529297	15047.192383	51.303425
549.674622	743.027161	27912.187500	14730.440430	51.482685
550.020569	742.209900	27229.271484	14414.729492	51.619614
550.366455	735.374023	26553.859375	14029.023438	51.488884
550.712280	735.448303	25952.529297	13665.756836	51.275993
551.058044	735.968445	25412.271484	13369.289063	51.196163
551.403748	741.541199	24990.828125	13145.711914	51.152725
551.749512	741.243958	24679.945313	12983.657227	51.140675
552.095154	739.312073	24484.677734	12871.015625	51.090824
552.440735	741.838379	24401.978516	12840.328125	51.134483
552.786316	743.621643	24386.226563	12834.532227	51.140347
553.131897	745.404968	24440.171875	12828.438477	50.994522
553.477417	740.352295	24520.865234	12843.449219	50.895020
553.822815	735.448303	24538.177734	12884.315430	51.039810
554.168213	736.340027	24492.330078	12920.277344	51.287853
554.513672	735.819824	24382.437500	12900.958008	51.445576
554.859009	736.339905	24221.943359	12831.040039	51.498360
555.204285	737.008728	24037.896484	12745.963867	51.538612
555.549500	733.070618	23823.976563	12645.133789	51.587685
555.894714	730.024231	23643.796875	12497.495117	51.355446
556.239990	728.166687	23375.041016	12333.210938	51.243465
556.585022	737.380127	23112.009766	12172.049805	51.105518
556.930115	743.027161	22851.578125	12078.204102	51.270554
557.275146	746.073669	22631.865234	11976.929688	51.315742
557.620178	748.005554	22488.240234	11886.503906	51.234489
557.965149	746.593750	22302.037109	11792.213867	51.242836
558.310059	750.977539	22168.365234	11710.109375	51.169323
558.654968	747.856873	22001.406250	11650.815430	51.299477
558.999756	750.383118	21886.833984	11598.358398	51.323544
559.344604	748.971375	21783.179688	11582.011719	51.502007
559.689331	749.714417	21713.853516	11543.151367	51.485237
560.033997	747.485413	21652.628906	11509.789063	51.481609
560.378723	743.770264	21649.880859	11491.807617	51.410980
560.723389	738.569092	21659.986328	11486.085938	51.370880
561.067932	736.934387	21702.488281	11457.628906	51.134800
561.412476	730.395752	21668.158203	11416.687500	51.038368
561.757019	730.172852	21655.007813	11404.206055	51.011311
562.101501	733.516418	21692.679688	11429.319336	51.031628
562.445862	740.649475	21724.332031	11466.840820	51.116821
562.790222	740.872375	21686.808594	11480.215820	51.271732
563.134644	730.098572	21623.875000	11482.148438	51.460537
563.478943	730.544434	21633.164063	11451.312500	51.289112
563.823181	726.011902	21657.236328	11451.015625	51.239258
564.167358	737.751770	21685.470703	11436.600586	51.074051
564.511536	736.562805	21707.986328	11462.382813	51.144932
564.855774	745.330566	21744.617188	11465.057617	51.048050
565.199768	742.284180	21838.906250	11534.530273	51.156277
565.543823	741.541199	21986.697266	11594.493164	51.084362
565.887817	739.312073	22171.859375	11699.632813	51.138676
566.231812	743.398743	22351.896484	11789.092773	51.117363
566.575745	738.123230	22522.789063	11880.261719	51.146706
566.919617	734.631042	22722.142578	11992.459961	51.201015
567.263428	734.036621	22852.990234	12080.805664	51.298855
567.607239	736.488525	22937.994141	12154.737305	51.430065
567.950989	746.965149	22972.916016	12151.616211	51.312321
568.294678	745.330566	23011.109375	12163.950195	51.283268
568.638367	750.754700	22934.056641	12123.379883	51.266598
568.981995	749.937317	22796.968750	12082.215820	51.400475
569.325623	748.897156	22643.382813	11947.504883	51.148071
569.669128	750.903320	22492.474609	11884.870117	51.210499
570.012573	739.460693	22350.478516	11793.773438	51.151283
570.356140	737.380188	22259.757813	11791.618164	51.361607
570.699524	737.528809	22229.291016	11728.386719	51.139862
571.042908	741.169678	22324.250000	11768.807617	51.093903
571.386230	752.760925	22430.875000	11771.631836	50.829475
571.729492	749.120056	22553.548828	11833.971680	50.837612
572.072815	750.308899	22675.257813	11905.375977	50.878418
572.416016	740.872375	22811.900391	11975.815430	50.903580
572.759094	738.048889	23022.546875	12102.649414	50.997787
573.102234	741.466858	23119.216797	12161.200195	51.031643
573.445374	745.776428	23157.853516	12243.230469	51.300262
573.788391	749.342957	23119.812500	12245.682617	51.390697
574.131409	741.021057	23115.130859	12246.648438	51.423843
574.474365	730.767273	23092.171875	12211.429688	51.341419
574.817261	730.470032	22990.599609	12136.011719	51.237537
575.160156	742.135498	22836.791016	12051.231445	51.184753
575.502930	749.268555	22608.830078	11973.809570	51.348423
575.845703	744.141785	22404.500000	11884.422852	51.431660
576.188477	741.838379	22172.453125	11792.140625	51.563160
576.531250	741.838318	21951.326172	11672.585938	51.537067
576.873901	743.547302	21735.255859	11587.137695	51.656540
577.216431	739.460693	21513.384766	11450.418945	51.559628
577.559082	735.299805	21267.443359	11321.504883	51.559177
577.901611	736.637207	20984.576172	11161.308594	51.485100
578.244080	736.042786	20692.265625	11022.140625	51.543308
578.586487	742.284180	20399.068359	10841.807617	51.379326
578.928955	788.426208	20107.505859	10686.366211	51.234016
579.271301	789.986572	19810.220703	10508.930664	51.097919
579.613647	782.481934	19466.941406	10373.476563	51.331398
579.955872	735.374023	19157.841797	10210.531250	51.432613
580.298157	733.590759	18899.865234	10093.801758	51.525208
580.640320	736.340027	18712.693359	9982.645508	51.435936
580.982483	740.872498	18529.390625	9896.750977	51.470726
581.324524	747.262451	18324.462891	9814.719727	51.586468
581.666626	756.698914	18185.664063	9733.879883	51.507252
582.008728	751.794922	18058.978516	9668.715820	51.521503
582.350647	749.194336	17954.583984	9588.618164	51.375896
582.692566	745.776367	17810.660156	9519.441406	51.413567
583.034424	750.457458	17689.992188	9466.538086	51.454075
583.376343	747.336731	17568.431641	9422.030273	51.570324
583.718201	742.432800	17478.080078	9398.178711	51.720417
584.059937	742.655579	17423.617188	9379.528320	51.776833
584.401611	746.816589	17347.531250	9339.704102	51.762154
584.743347	736.488586	17333.412109	9302.032227	51.609226
585.085022	735.745605	17242.689453	9236.942383	51.500736
585.426514	732.773438	17186.888672	9216.583008	51.560413
585.768127	746.965332	17094.677734	9203.729492	51.730560
586.109619	742.061279	17066.369141	9185.004883	51.720070
586.451172	739.386414	17054.628906	9156.027344	51.587593
586.792542	731.733215	17032.041016	9116.274414	51.437931
587.133850	733.888000	16998.232422	9080.164063	51.316402
587.475220	736.860107	16978.990234	9064.782227	51.273582
587.816589	739.832214	16936.562500	9050.145508	51.308586
588.157776	738.197510	16952.984375	9080.684570	51.449871
588.498962	741.466797	17013.689453	9108.399414	51.418499
588.840210	746.519348	17076.029297	9151.940430	51.473812
589.181335	756.253113	17170.914063	9187.903320	51.366585
589.522400	752.315002	17177.673828	9225.574219	51.586445
589.863403	747.633972	17257.847656	9252.026367	51.509892
590.204407	743.101563	17219.283203	9249.499023	51.628452
590.545410	740.649475	17276.943359	9283.307617	51.660057
590.886353	745.924988	17271.814453	9273.053711	51.598610
591.227112	741.243896	17279.173828	9282.491211	51.646412
591.567932	740.278015	17213.193359	9213.611328	51.437965
591.908752	734.556641	17128.783203	9180.472656	51.517624
592.249512	741.169617	17069.044922	9135.147461	51.408878
592.590149	741.838379	16995.931641	9115.085938	51.514702
592.930786	744.216003	16923.412109	9095.991211	51.620461
593.271423	741.838379	16848.291016	9046.356445	51.560188
593.612000	748.154114	16766.111328	8998.430664	51.506420
593.952576	748.822754	16751.921875	8967.595703	51.357384
594.292969	744.884766	16771.833984	8969.973633	51.320366
594.633484	741.466797	16835.806641	8986.022461	51.226429
594.973877	735.968445	16921.107422	9018.269531	51.172256
595.314209	736.785706	17011.162109	9070.875977	51.209888
595.654480	737.528809	17142.009766	9139.085938	51.215012
595.994812	739.832214	17301.091797	9207.816406	51.131283
596.335022	744.438965	17506.017578	9291.777344	50.993633
596.675171	747.856934	17731.601563	9391.715820	50.894897
597.015320	748.674133	17914.013672	9498.413086	50.973293
597.355408	743.027161	18009.791016	9579.552734	51.176502
597.695496	732.476257	18077.406250	9640.704102	51.359261
598.035461	725.714661	18090.259766	9662.696289	51.466835
598.375366	729.578430	18090.853516	9685.210938	51.583958
598.715271	731.510254	18001.988281	9666.114258	51.733387
599.055176	736.637207	17797.134766	9593.967773	51.917183
599.395081	735.819824	17555.279297	9496.110352	52.084263
599.734802	735.596863	17262.750000	9340.149414	52.063129
600.074524	742.284180	16989.242188	9170.590820	51.876213
600.414246	745.330566	16674.050781	8940.623047	51.449787
600.753906	750.606140	16334.859375	8762.742188	51.411743
601.093506	747.931213	16025.387695	8583.153320	51.286171
601.433044	740.203796	15773.797852	8486.782227	51.528454
601.772583	748.674255	15658.257813	8393.905273	51.277294
602.112122	744.067444	15662.715820	8396.504883	51.294441
602.451538	752.760803	15716.661133	8389.297852	51.033066
602.790894	741.615417	15811.543945	8437.297852	51.066483
603.130310	746.370850	15937.264648	8503.054688	51.061405
603.469604	745.627747	16140.706055	8619.487305	51.145302
603.808838	749.194336	16390.509766	8736.290039	51.064091
604.148010	752.760925	16675.166016	8862.010742	50.929806
604.487305	747.633972	16923.857422	8988.995117	50.947376
604.826416	745.404968	17140.300781	9124.002930	51.104912
605.165527	742.878601	17310.677734	9224.609375	51.194069
605.504456	741.987000	17456.310547	9306.193359	51.238720
605.843445	745.479187	17551.789063	9362.141602	51.270397
606.182434	738.271790	17567.244141	9382.724609	51.366493
606.521423	741.095398	17470.353516	9356.346680	51.498108
606.860229	740.278015	17286.009766	9276.991211	51.594650
607.199036	743.547363	17057.900391	9176.756836	51.691959
607.537903	739.163391	16839.373047	9054.529297	51.647564
607.876648	736.711426	16582.507813	8897.676758	51.502399
608.215271	731.361633	16297.410156	8745.653320	51.485714
608.553955	730.618652	16033.040039	8593.778320	51.385067
608.892578	731.361633	15797.055664	8496.070313	51.539001
609.231140	735.299744	15679.286133	8432.541992	51.507290
609.569641	732.476257	15600.823242	8402.151367	51.583916
609.908081	726.754883	15640.054688	8398.213867	51.440388
610.246521	730.321472	15665.762695	8434.622070	51.584019
610.584961	737.231628	15698.456055	8452.899414	51.571098
610.923340	743.993164	15667.249023	8450.893555	51.643559
611.261597	741.318176	15597.105469	8404.975586	51.587017
611.599854	744.884766	15491.372070	8375.848633	51.747673
611.938110	739.089111	15379.325195	8321.905273	51.794357
612.276245	735.299622	15184.726563	8228.729492	51.859703
612.614319	735.225403	14934.104492	8090.972168	51.805122
612.952393	742.729980	14617.278320	7950.613770	51.950401
613.290466	751.943542	14358.926758	7800.448730	51.800648
613.628479	751.274841	14092.476563	7658.827637	51.776089
613.966370	747.485352	13862.956055	7528.351563	51.701279
614.304260	743.472961	13630.165039	7410.136230	51.732925
614.642151	743.175781	13430.440430	7311.833496	51.773632
614.979980	744.587585	13280.719727	7231.958496	51.749386
615.317749	745.107666	13131.965820	7158.175293	51.773155
615.655396	744.810486	13051.495117	7082.980469	51.501846
615.993164	746.370850	12962.034180	7032.009277	51.455566
616.330811	747.485352	12934.320313	7016.628906	51.441933
616.668396	742.952881	12903.039063	7011.799316	51.552650
617.005859	744.141785	12898.506836	7001.322266	51.480934
617.343445	751.794922	12904.004883	6984.752441	51.290733
617.680908	752.760925	12886.247070	6991.886230	51.420715
618.018311	750.977539	12901.256836	7024.728027	51.634621
618.355652	740.872375	12891.745117	7034.015625	51.791695
618.692993	740.055115	12914.778320	7038.027832	51.729904
619.030273	734.185120	12891.596680	7016.405762	51.674000
619.367554	733.442200	12885.950195	7003.031250	51.590904
619.704712	732.104797	12872.500000	7005.037109	51.669914
620.041870	736.265686	12869.750977	6986.090332	51.508900
620.379028	736.562805	12823.906250	6988.542969	51.723358
620.716064	735.745544	12772.563477	6947.304688	51.604660
621.053040	738.569092	12715.350586	6933.484375	51.724373
621.389954	739.237793	12636.960938	6895.886719	51.746449
621.726929	741.912659	12565.184570	6877.385254	51.893188
622.063843	743.993164	12514.882813	6846.326660	51.842587
622.400635	743.250183	12489.323242	6833.546875	51.849640
622.737427	743.993164	12460.046875	6818.611816	51.848675
623.074219	735.522644	12390.499023	6797.212891	52.009460
623.410889	734.928223	12343.093750	6741.931641	51.748085
623.747559	741.020996	12345.768555	6735.318359	51.653835
624.084167	743.993164	12338.190430	6715.108887	51.500896
624.420715	739.980774	12330.684570	6736.582031	51.736298
624.757324	735.076843	12308.245117	6701.511719	51.554035
625.093750	736.339905	12340.343750	6706.340332	51.447765
625.430176	743.472961	12407.440430	6737.548340	51.389675
625.766602	750.903320	12441.620117	6780.939941	51.579700
626.102905	748.599915	12556.268555	6832.506348	51.525040
626.439209	746.816711	12666.608398	6857.249512	51.262913
626.775452	741.243958	12801.243164	6916.394043	51.203568
627.111694	749.194336	12840.401367	6953.173828	51.309845
627.447876	752.835144	12883.200195	6997.310059	51.478046
627.783997	746.445129	12964.190430	7029.334473	51.424294
628.120056	741.169617	13029.799805	7068.194824	51.486824
628.456055	740.055115	13034.332031	7071.018066	51.495201
628.792053	749.714417	12978.010742	7056.231934	51.573151
629.128052	744.959045	12918.940430	7026.287598	51.596336
629.463928	744.661865	12855.782227	6989.730957	51.564754
629.799744	735.002502	12766.916992	6949.904785	51.653481
630.135559	739.757813	12631.981445	6883.626953	51.662914
630.471375	736.191345	12485.605469	6801.225098	51.619881
630.807068	743.398682	12319.835938	6696.755371	51.426498
631.142700	741.095398	12180.221680	6625.425293	51.440380
631.478333	744.736145	12047.813477	6565.685059	51.498798
631.813965	741.764099	11927.071289	6524.075684	51.695599
632.149475	739.980896	11817.327148	6467.308594	51.703064
632.484924	733.293640	11721.253906	6425.922363	51.807877
632.820435	732.104675	11645.317383	6391.892090	51.861790
633.155884	736.042786	11574.358398	6356.597656	51.858196
633.491150	740.946777	11549.838867	6343.445801	51.832314
633.826477	743.398743	11496.860352	6302.951172	51.700115
634.161804	741.318298	11462.532227	6273.453125	51.599892
634.497009	740.203796	11376.414063	6231.249512	51.625965
634.832153	743.250061	11331.909180	6188.450684	51.424835
635.167297	743.770264	11240.664063	6154.048828	51.541710
635.502380	739.757874	11198.014648	6114.667969	51.393940
635.837463	737.083008	11129.582031	6092.229004	51.528954
636.172424	732.699158	11054.461914	6057.380859	51.586941
636.507324	736.117004	10947.093750	6020.154785	51.748600
636.842224	736.562927	10846.190430	5974.904785	51.815376
637.177124	747.633972	10736.446289	5932.403809	51.905769
637.511963	746.965271	10641.338867	5870.658203	51.783901
637.846741	746.593750	10508.262695	5821.915527	51.992355
638.181396	739.163513	10414.417969	5738.622559	51.672634
638.516113	742.581360	10315.297852	5709.644043	51.887699
638.850769	740.500977	10255.558594	5631.774902	51.405617
639.185303	748.525574	10191.211914	5606.808594	51.450222
639.519836	747.782532	10105.467773	5542.536621	51.238674
639.854370	748.748535	10000.774414	5526.785156	51.643143
640.188843	747.113831	9914.583008	5474.773438	51.569958
640.523254	749.342957	9846.745117	5437.398926	51.531811
640.857605	752.017822	9764.269531	5376.916504	51.317902
641.191895	748.971375	9671.984375	5333.746582	51.381474
641.526184	749.342957	9583.862305	5295.926270	51.463844
641.860413	744.290344	9529.249023	5279.580078	51.625622
642.194580	746.147949	9511.416992	5264.199219	51.544922
642.528748	741.838379	9452.940430	5230.837402	51.531933
642.862793	744.141785	9394.538086	5191.605469	51.413410
643.196838	742.878601	9304.632813	5153.190918	51.511787
643.530823	741.243958	9248.086914	5141.971191	51.731613
643.864746	745.033386	9204.992188	5137.438965	51.919941
644.198669	742.432800	9178.987305	5122.949707	51.923058
644.532532	744.364563	9147.258789	5110.912598	51.964806
644.866333	747.782532	9112.411133	5080.819824	51.801907
645.200073	741.615479	9095.396484	5071.531738	51.831810
645.533813	739.832214	9079.717773	5051.841309	51.703457
645.867554	731.213074	9089.823242	5053.030762	51.704979
646.201172	736.414246	9075.408203	5034.751953	51.545040
646.534729	737.528809	9095.098633	5041.439453	51.497150
646.868225	738.866272	9098.293945	5043.520020	51.494598
647.201782	742.209900	9100.300781	5059.272461	51.651299
647.535217	745.553528	9072.957031	5036.015625	51.522205
647.868591	745.999329	9062.406250	5033.637207	51.556370
648.201965	744.290344	9061.440430	5027.396484	51.497276
648.535278	741.392578	9076.597656	5035.940918	51.523006
648.868591	748.005554	9071.991211	5036.684082	51.521938
649.201782	750.085938	9047.321289	5028.287598	51.561771
649.534912	749.640137	8997.613281	5008.672363	51.637321
649.868103	747.485352	8956.821289	4986.009766	51.630539
650.201172	742.507080	8906.816406	4972.412598	51.809711
650.534180	748.079773	8906.221680	4947.669922	51.477287
650.867188	742.432800	8887.422852	4927.607910	51.383430
651.200134	745.033386	8889.206055	4908.214844	51.118534
651.533020	738.346008	8831.323242	4907.100098	51.510757
651.865845	735.745422	8775.670898	4895.583496	51.739758
652.198608	735.745544	8704.118164	4876.636230	51.966579
652.531433	739.609314	8675.363281	4862.890137	51.958275
652.864136	735.225403	8641.256836	4830.271484	51.796482
653.196777	854.258484	8764.749023	4941.354004	51.666775
653.529358	862.431702	8725.590820	4924.858398	51.664055
653.861938	865.849609	8659.759766	4904.796875	51.821835
654.194519	745.999329	8460.702148	4749.206543	51.890625
654.526978	740.129395	8426.745117	4728.327637	51.884972
654.859375	740.055115	8385.358398	4715.473633	51.998180
655.191833	741.763977	8369.161133	4692.811523	51.800735
655.524170	734.036621	8316.034180	4655.585449	51.721844
655.856445	738.940613	8290.177734	4624.824219	51.460224
656.188660	745.702087	8246.041992	4613.901855	51.573658
656.520874	750.234558	8203.466797	4597.629395	51.620487
656.853088	752.983704	8205.324219	4607.214844	51.718399
657.185181	740.129395	8185.261719	4593.468750	51.756493
657.517212	733.665039	8182.513184	4595.474609	51.844387
657.849243	732.327637	8190.462891	4596.960449	51.817680
658.181274	739.237793	8256.220703	4599.412598	51.352715
658.513123	738.048828	8340.480469	4629.951172	51.192863
658.844971	742.655579	8423.031250	4663.981445	51.056435
659.176819	740.500916	8499.042969	4723.126465	51.332138
659.508667	751.126160	8571.710938	4760.426758	51.265991
659.840393	746.296570	8636.206055	4786.135254	51.202595
660.172058	745.181946	8668.007813	4818.085938	51.407215
660.503662	747.039551	8690.223633	4841.713379	51.549526
660.835266	740.203674	8709.245117	4857.614258	51.667576
661.166931	743.324402	8703.968750	4862.369629	51.742611
661.498413	742.729980	8678.557617	4868.982422	51.995239
661.829773	742.284180	8590.805664	4834.357910	52.138149
662.161194	744.736145	8475.786133	4759.237793	51.926994
662.492615	746.445129	8357.049805	4680.104980	51.686562
662.823975	754.692688	8210.153320	4603.053223	51.618015
663.155212	753.355286	8078.488281	4556.242676	51.915611
663.486450	750.680359	7920.224121	4477.184570	51.976864
663.817627	746.370789	7804.237793	4418.560059	52.029728
664.148743	753.726868	7681.341309	4343.736816	51.821735
664.479858	747.931213	7597.230469	4289.347168	51.704792
664.810913	748.376953	7513.937500	4242.239746	51.641884
665.141907	739.089172	7440.451660	4212.815918	51.836128
665.472778	737.528809	7351.808594	4169.125488	51.881638
665.803711	738.940613	7296.006348	4147.875000	51.988716
666.134583	736.637146	7275.350098	4116.370605	51.688053
666.465454	738.866211	7261.976563	4101.212891	51.545143
666.796143	741.912659	7221.035156	4068.817139	51.348072
667.126831	749.194336	7175.859375	4046.154541	51.301262
667.457458	741.392578	7138.335938	4047.268799	51.678997
667.788147	739.757813	7131.871582	4052.247314	51.821503
668.118774	734.853821	7114.782715	4036.495361	51.750446
668.449219	750.828918	7113.816895	4015.319092	51.304359
668.779663	749.268616	7095.538574	3998.526611	51.199493
669.110107	743.472961	7096.281250	4009.449219	51.409962
669.440552	735.745544	7093.160156	4006.031250	51.440498
669.770874	735.374023	7087.587402	4002.687500	51.435825
670.101135	745.553528	7077.705566	3992.062500	51.270233
670.431396	746.965271	7040.256348	3986.415283	51.474655
670.761597	748.822754	6991.143066	3979.059326	51.747368
671.091797	740.649475	6935.787598	3959.072266	51.950783
671.421875	740.649475	6888.011230	3936.186768	51.982258
671.751892	737.900330	6863.639160	3895.543213	51.547134
672.081909	744.959045	6835.775879	3875.332764	51.394974
672.411865	750.457458	6803.899902	3855.939697	51.301094
672.741821	751.349121	6753.225098	3849.549805	51.620537
673.071716	744.216064	6712.878906	3840.335938	51.872921
673.401550	729.206848	6668.000000	3818.119873	52.012474
673.731262	734.259460	6646.378906	3814.552979	52.101337
674.060974	737.380188	6592.583496	3803.259033	52.361614
674.390625	746.296570	6574.824707	3792.485352	52.263428
674.720276	739.534973	6537.673828	3759.420654	52.083710
675.049927	741.318298	6504.088379	3726.430420	51.799950
675.379395	740.203674	6483.209473	3705.253906	51.628891
675.708923	740.129395	6439.222656	3682.740234	51.632965
676.038330	742.284180	6401.179199	3669.217041	51.722691
676.367737	746.222229	6350.132813	3645.960205	51.744900
676.697083	746.445129	6313.650879	3624.115234	51.689671
677.026428	741.912781	6295.892578	3607.322998	51.592014
677.355652	736.191406	6279.693848	3604.573486	51.743137
677.684875	744.067566	6283.187012	3616.016357	51.848469
678.013977	743.324402	6282.666504	3608.139893	51.717609
678.343079	746.222168	6285.192871	3608.511719	51.675476
678.672180	746.965149	6298.195801	3619.954102	51.754093
679.001221	754.544128	6355.705566	3634.369141	51.414780
679.330139	755.732910	6403.705566	3649.600830	51.237286
679.659058	748.451355	6433.501465	3650.864014	51.053421
679.987976	737.677429	6448.361816	3666.987549	51.295254
680.316772	740.203796	6467.011719	3680.510986	51.342861
680.645630	742.878662	6521.847656	3691.061768	51.015732
680.974304	743.621765	6554.466309	3708.523193	51.023586
681.302979	733.145020	6589.611328	3731.333984	51.194504
681.631653	732.922058	6600.385254	3752.733154	51.467064
681.960266	736.934326	6612.125000	3773.760986	51.688992
682.288757	746.073547	6609.673340	3763.953125	51.468037
682.617249	743.398743	6599.048340	3774.206787	51.758701
682.945679	742.878601	6572.818848	3767.445068	51.879887
683.274109	736.637207	6546.664063	3765.216064	52.126762
683.602478	737.900330	6494.132324	3716.622070	51.747772
683.930725	740.203674	6424.956543	3669.662842	51.531864
684.259033	747.485352	6338.542480	3632.214111	51.595409
684.587280	749.120056	6272.412598	3599.744141	51.610954
684.915344	743.695984	6201.527344	3564.004639	51.674526
685.243469	748.302673	6145.726563	3535.323486	51.636131
685.571533	743.993164	6090.742188	3508.871826	51.711399
685.899536	747.262451	6033.306641	3486.952393	51.828739
686.227539	736.637207	5977.876953	3447.943604	51.730251
686.555420	735.745605	5929.580078	3428.773438	51.850475
686.883301	734.259460	5928.688965	3419.931396	51.702923
687.211121	736.265625	5916.949219	3423.423828	51.868797
687.538940	742.432800	5924.973145	3439.250000	52.036587
687.866638	742.507141	5922.149902	3440.512939	52.088650
688.194336	745.330566	5945.183594	3433.008545	51.687576
688.521973	745.033386	5933.072266	3404.996338	51.271065
688.849609	749.788818	5900.007813	3397.046143	51.400871
689.177063	746.965332	5868.800781	3400.612549	51.810474
689.504578	742.952942	5819.091797	3399.795166	52.339828
689.832031	743.324402	5778.225098	3372.823242	52.225433
690.159485	739.312073	5702.808594	3337.158203	52.339035
690.486816	735.894104	5645.520996	3300.452393	52.235298
690.814087	736.711487	5588.976563	3269.393799	52.195877
691.141296	744.290344	5513.261719	3218.496826	51.881348
691.468506	750.903320	5430.859863	3172.800781	51.750427
691.795715	742.135559	5330.105469	3119.451172	51.816288
692.122803	740.352356	5268.805664	3094.262695	51.980453
692.449829	736.562988	5206.985840	3060.008789	51.973736
692.776855	741.095398	5153.116699	3021.594482	51.688301
693.103821	741.763977	5106.603027	2987.935547	51.460587
693.430664	742.952881	5047.012207	2958.957031	51.486374
693.757568	746.073547	4996.263184	2943.651123	51.705402
694.084351	748.822754	4936.747070	2929.087646	52.060753
694.411133	746.965271	4905.613770	2909.991943	52.012730
694.737854	741.912598	4866.679688	2895.948486	52.222000
695.064575	739.757874	4845.354492	2869.571045	51.875851
695.391174	743.695984	4821.800293	2856.122314	51.799221
695.717773	743.770325	4814.741699	2844.753906	51.608902
696.044250	741.838379	4798.395020	2844.456787	51.832592
696.370789	743.472961	4808.277832	2836.951904	51.502571
696.697205	739.089172	4835.844238	2842.227783	51.336697
697.023621	743.473083	4878.122070	2860.134766	51.193260
697.349915	745.702087	4922.480957	2888.295654	51.297749
697.676208	749.194336	4979.471191	2904.047607	50.938824
698.002380	741.838379	5069.674805	2928.493164	50.525356
698.328674	740.649475	5171.320801	2974.560791	50.419250
698.654724	742.284180	5268.285645	3040.095703	50.769131
698.980896	738.791931	5342.662598	3095.005615	51.178970
699.306946	736.191345	5405.374512	3135.649170	51.389240
699.632935	740.426575	5465.261719	3167.004639	51.357944
699.958862	748.525574	5493.943359	3177.481445	51.185287
700.284729	752.537903	5499.962402	3182.088623	51.176189
700.610596	749.565857	5462.513184	3174.286377	51.448071
700.936340	749.565918	5406.637207	3158.757080	51.731895
701.262146	741.987000	5303.728027	3113.952393	51.996929
701.587830	746.445129	5213.524902	3054.584717	51.669991
701.913513	747.782532	5092.187988	2994.028076	51.704330
702.239075	748.748535	4972.709473	2931.985596	51.686962
702.564697	744.661926	4829.454102	2877.150146	52.205551
702.890137	743.324402	4711.461426	2807.082764	52.008244
703.215698	750.234558	4614.570313	2757.968018	51.955460
703.541016	748.897156	4523.029785	2695.999756	51.590729
703.866455	754.172607	4428.516602	2651.864014	51.647079
704.191711	747.039551	4353.842285	2620.805420	51.950882
704.517029	747.336731	4282.883301	2595.988525	52.287582
704.842163	742.507019	4240.010254	2563.369385	52.061775
705.167419	743.398743	4205.311035	2533.128174	51.697712
705.492493	748.079773	4191.713379	2501.252197	50.910538
705.817566	744.661926	4147.949219	2492.930420	51.369995
706.142578	748.154053	4110.798340	2478.144287	51.447315
706.467590	743.695984	4084.197510	2475.692139	51.848385
706.792480	749.863037	4075.949951	2465.512695	51.581623
707.117371	743.993164	4073.349609	2455.853516	51.417156
707.442200	744.513367	4072.308838	2453.995850	51.369816
707.766907	737.825989	4065.473389	2454.961670	51.602093
708.091675	733.590820	4058.711670	2451.692383	51.670349
708.416321	731.436035	4045.560303	2455.333252	52.016674
708.741028	741.689758	4048.012451	2459.865967	51.966381
709.065552	753.503906	4076.544678	2465.587158	51.521584
709.390137	752.315002	4087.690186	2470.639893	51.518188
709.714600	744.959167	4131.677246	2478.961670	51.200085
710.039063	739.534973	4157.608887	2500.583740	51.521671
710.363403	740.872498	4209.695313	2520.422607	51.301270
710.687744	739.014893	4245.434570	2547.022949	51.562798
711.012085	740.352356	4277.013184	2562.923828	51.533680
711.336304	743.324402	4306.808594	2573.029053	51.345943
711.660461	741.764099	4336.900879	2586.106445	51.301033
711.984619	742.804199	4372.714844	2598.514893	51.122765
712.308716	746.816589	4377.916504	2609.065674	51.286087
712.632751	746.222229	4378.437012	2607.951172	51.256027
712.956726	746.890930	4341.582520	2600.892578	51.576099
713.280701	743.175842	4323.378418	2596.805908	51.774448
713.604553	741.243958	4278.647949	2577.115479	51.898838
713.928467	739.089172	4231.837402	2555.939209	52.017780
714.252258	737.008728	4181.757324	2518.862305	51.726665
714.575989	744.959045	4121.571777	2486.986328	51.590973
714.899719	746.742371	4058.785889	2461.426270	51.771175
715.223267	749.863037	4011.455078	2444.336914	51.952354
715.546936	743.324402	3995.182861	2433.042725	51.961620
715.870422	739.460693	3983.814453	2418.627930	51.756599
716.193970	735.671204	3953.499023	2397.822998	51.654469
716.517395	740.723816	3919.022705	2381.699463	51.630627
716.840820	745.999329	3893.462158	2372.411865	51.673767
717.164124	742.581360	3856.459961	2365.427246	52.116543
717.487488	742.581360	3828.150391	2356.139404	52.293697
717.810730	733.144958	3803.184814	2324.560791	51.836975
718.133972	731.881836	3772.348877	2291.941650	51.309875
718.457092	726.903503	3710.455078	2261.105957	51.422016
718.780212	728.240967	3652.053467	2235.843018	51.562885
719.103210	731.361633	3602.567627	2217.638916	51.764915
719.426208	733.219238	3571.434814	2187.026123	51.222569
719.749207	742.655701	3525.812744	2174.468994	51.445652
720.072083	744.290344	3482.940186	2152.252686	51.410820
720.394958	738.271790	3447.051758	2135.906006	51.596447
720.717773	734.853943	3407.745361	2105.813232	51.291245
721.040527	738.866272	3363.164063	2079.287354	51.077324
721.363281	740.872375	3328.984619	2062.717773	51.073730
721.685913	741.392578	3296.737549	2060.637451	51.626881
722.008545	743.250183	3280.316406	2048.897217	51.462868
722.331055	747.633972	3253.196045	2037.306274	51.472378
722.653503	741.763977	3233.431641	2017.318726	51.192810
722.976013	735.151123	3217.604736	2010.408691	51.370853
723.298401	738.717590	3189.889893	2002.606812	51.562637
723.620789	745.553528	3182.385742	1990.198242	51.076340
723.943115	745.404968	3167.822266	1983.213867	51.098087
724.265381	741.095398	3156.528076	1969.690796	50.864407
724.587585	738.346130	3139.141357	1971.474121	51.363312
724.909790	739.237793	3142.039307	1974.371948	51.403919
725.231873	738.123291	3146.646240	1979.944702	51.559460
725.553894	746.296570	3165.890625	1984.997070	51.194557
725.875916	796.748047	3217.605225	2033.962769	51.106472
726.197937	802.915222	3233.877686	2037.751953	50.796207
726.519775	798.011230	3231.276611	2043.027710	51.166489
726.841675	748.377014	3193.679688	1996.365356	51.036148
727.163513	747.633972	3203.264893	1998.594604	50.942539
727.485291	742.284119	3220.354492	2002.384155	50.850056
727.806946	737.974609	3239.672852	2018.210449	51.174671
728.128662	733.219238	3254.979248	2028.984375	51.383366
728.450256	729.875671	3264.638428	2039.460938	51.665001
728.771790	731.584656	3269.691406	2047.708618	51.854557
729.093323	734.705322	3281.951172	2058.408447	51.966053
729.414795	739.757874	3297.034424	2061.603516	51.689587
729.736145	744.661865	3300.155518	2065.615723	51.690750
730.057495	741.318298	3297.034424	2049.863525	51.200726
730.378845	737.305908	3299.412109	2045.108032	51.044025
730.700134	735.522644	3292.427734	2034.334351	50.796246
731.021301	739.089172	3290.793213	2040.947266	51.019165
731.342468	745.107727	3272.885986	2045.925415	51.460907
731.663574	743.250183	3273.703857	2049.194580	51.609100
731.984680	745.256348	3269.617188	2065.541260	52.301750
732.305664	739.683594	3279.127686	2063.906982	52.146191
732.626648	736.785828	3284.997314	2067.844727	52.235023
732.947571	733.739441	3295.919922	2057.516602	51.666039
733.268433	734.779602	3300.526611	2054.693115	51.443634
733.589233	743.101501	3303.795898	2044.067871	50.805218
733.909973	739.014832	3292.353516	2040.649902	50.977768
734.230713	741.987000	3255.945068	2035.374390	51.448254
734.551331	733.590759	3218.571045	2026.160767	52.015305
734.871948	740.203796	3175.846924	1993.096313	51.439911
735.192505	738.049011	3143.227783	1959.882813	50.800121
735.513062	741.987000	3106.225342	1939.895508	50.667839
735.833435	735.894226	3056.516602	1923.623047	51.181477
736.153931	737.677429	3016.467529	1917.901855	51.791710
736.474304	742.432800	2977.384521	1897.097046	51.663948
736.794617	743.398743	2961.186523	1882.162109	51.346817
737.114807	741.764099	2942.982422	1862.323364	50.906326
737.434998	733.813660	2932.059814	1853.332886	50.927841
737.755188	737.231628	2921.063232	1845.605347	50.753632
738.075256	738.940613	2920.022705	1840.775757	50.517826
738.395325	741.243958	2930.945313	1837.580688	50.067860
738.715271	740.055115	2939.341553	1851.698242	50.545628
739.035278	736.860046	2951.229736	1875.400757	51.416023
739.355164	742.804260	2954.276123	1888.477905	51.805931
739.675049	738.866211	2971.588623	1904.750366	52.218052
739.994873	742.581360	2978.201416	1895.388184	51.565418
740.314636	735.448303	2984.294189	1903.561523	51.942787
740.634277	742.432800	2969.731201	1894.793579	51.738056
740.953979	734.556641	2942.090576	1889.146606	52.302254
741.273499	733.367859	2910.066406	1866.781616	52.070316
741.593140	722.445313	2882.722656	1836.688965	51.578732
741.912598	731.807434	2863.701172	1812.614868	50.697056
742.232117	734.631042	2813.769775	1782.819458	50.414555
742.551453	738.717590	2775.949951	1773.383179	50.787800
742.870850	739.609314	2746.971436	1765.952759	51.128967
743.190063	746.890930	2724.532227	1753.470093	50.897964
743.509338	753.355286	2682.254150	1727.092407	50.481499
743.828552	754.989990	2633.139893	1700.492188	50.342213
744.147705	751.423523	2604.236084	1694.176392	50.882259
744.466797	750.160339	2585.808838	1695.513672	51.499695
744.785828	747.039551	2563.146729	1687.637695	51.791996
745.104858	743.250183	2546.948486	1674.411743	51.625130
745.423706	746.296570	2537.660889	1662.969116	51.171757
745.742615	738.940613	2530.082031	1656.727905	51.240360
746.061401	739.832214	2526.292725	1659.848633	51.499401
746.380249	731.807434	2508.459961	1653.161133	51.858967
746.698975	740.129395	2505.636475	1657.099243	51.938046
747.017639	746.519470	2502.813232	1642.684448	51.025917
747.336304	744.736145	2494.193604	1641.198608	51.242310
747.654907	743.770264	2494.119385	1634.734253	50.902073
747.973389	734.705322	2472.348877	1630.795898	51.569298
748.291931	735.374084	2477.029785	1628.715454	51.292648
748.610352	730.915955	2465.884521	1619.204712	51.199127
748.928711	734.185242	2478.441650	1629.533081	51.331207
749.247070	742.729980	2487.655029	1627.675415	50.715385
749.565308	743.027161	2498.948975	1626.263672	50.300446
749.883545	738.494690	2495.085205	1623.588745	50.387043
750.201782	738.866211	2497.165771	1622.399902	50.249329
750.519836	743.993164	2482.379639	1623.960327	50.619766
750.837952	746.370789	2465.810059	1615.043945	50.520725
751.155884	740.278015	2435.123047	1599.143188	50.675148
751.473877	741.392578	2416.918945	1596.022461	51.006649
751.791809	749.045715	2411.420654	1582.499390	50.136322
752.109619	748.451355	2391.656006	1590.821289	51.263851
752.427490	743.844543	2393.290771	1582.499390	50.844627
752.745300	738.494690	2395.668213	1585.545898	51.114212
753.062988	744.661926	2395.371094	1582.202148	50.738205
753.380615	742.804382	2385.860107	1572.542969	50.499725
753.698303	746.222229	2381.030518	1570.462402	50.418152
754.015808	745.776367	2383.854248	1557.830933	49.573624
754.333374	748.525635	2389.129639	1562.289063	49.601452
754.650757	747.188171	2371.742676	1563.180664	50.228695
754.968262	746.668030	2365.278320	1562.437622	50.399380
755.285583	745.702148	2345.588135	1568.084595	51.402565
755.602905	743.695984	2337.712158	1555.378906	50.920624
755.920105	740.575195	2338.083740	1553.001099	50.855808
756.237305	737.900330	2330.504639	1548.468750	50.895782
756.554443	740.798096	2327.458496	1557.162109	51.451717
756.871582	736.934387	2311.260498	1554.932983	51.958649
757.188599	737.900330	2323.594971	1555.676147	51.572090
757.505615	732.104736	2325.155273	1551.960938	51.464546
757.822510	731.510254	2351.978516	1551.143555	50.580029
758.139465	737.157288	2356.659424	1550.920776	50.247753
758.456238	741.987000	2377.018311	1561.917358	50.147686
758.773010	750.606140	2385.265869	1563.626343	49.736359
759.089783	752.983826	2386.380615	1569.050415	49.961323
759.406433	748.302673	2388.609619	1575.291992	50.416744
759.723145	744.736145	2389.129639	1587.849121	51.271969
760.039673	741.392578	2407.110840	1589.409546	50.909988
760.356201	737.008728	2414.095459	1572.988647	49.847149
760.672668	736.042725	2419.891113	1572.691406	49.686699
760.989136	735.002502	2423.160400	1565.335449	49.185738
761.305481	741.541199	2422.640381	1570.982422	49.339222
761.621826	741.689758	2421.600098	1576.852539	49.714722
761.938049	744.216003	2420.708252	1593.124634	50.636002
762.254333	745.107666	2436.163330	1608.505371	51.056728
762.570496	745.107666	2473.909180	1628.938599	51.123909
762.886597	741.392578	2542.119141	1650.189087	50.468323
763.202637	738.346130	2652.012695	1706.807983	50.607662
763.518677	737.751709	2790.141357	1760.082886	49.811749
763.834656	738.048889	2935.774658	1829.184204	49.648380
764.150574	738.420410	3054.659180	1883.127930	49.420963
764.466370	741.318176	3124.949951	1925.406372	49.675797
764.782288	743.250183	3158.385986	1950.520630	49.987686
765.097961	746.667969	3161.358154	1958.842773	50.200012
765.413696	742.729980	3117.965088	1942.570313	50.514591
765.729309	747.559631	3033.037109	1898.211548	50.346233
766.044861	749.565857	2916.753174	1839.215210	50.279430
766.360474	750.457520	2803.739014	1775.909302	49.942093
766.675903	741.318298	2690.873047	1715.129517	49.950443
766.991394	739.237793	2578.675781	1651.080688	49.571819
767.306763	743.993164	2472.645996	1609.099609	50.045124
767.622131	742.655701	2386.529053	1566.004272	50.085892
767.937378	733.367859	2319.285156	1529.670044	50.210827
768.252625	733.888000	2267.273193	1496.308228	49.721375
768.567810	735.596924	2220.090820	1476.172241	49.887394
768.882996	744.438965	2176.401123	1458.562500	49.870281
769.197998	739.089172	2141.850342	1441.695679	50.087391
769.513062	746.965271	2113.466797	1420.667969	49.301277
769.828064	745.627747	2083.968506	1407.442261	49.450371
770.142944	749.417236	2050.532227	1392.581665	49.431789
770.457825	743.398682	2027.721191	1382.550781	49.765701
770.772705	745.627747	2010.111450	1362.711914	48.801277
771.087402	737.751709	1994.582397	1353.126831	48.962452
771.402100	741.912598	1972.068726	1351.269287	49.534908
771.716736	746.668030	1954.013062	1347.851440	49.793839
772.031372	755.287109	1946.434082	1341.015503	49.173477
772.345947	749.120056	1922.137207	1327.120972	49.274723
772.660461	743.472961	1904.824585	1327.938110	50.326290
772.974854	740.352234	1884.168457	1320.210815	50.695084
773.289246	744.661865	1878.595703	1316.867065	50.461956
773.603638	750.680359	1867.450317	1298.811646	49.081841
773.917908	748.525635	1846.794312	1294.427612	49.705685
774.232178	745.553528	1845.976929	1291.455566	49.608368
774.546265	741.392517	1838.323608	1301.709351	51.080402
774.860474	741.838379	1830.893433	1294.724976	50.767551
775.174561	739.832214	1805.258789	1284.842651	51.154202
775.488586	738.271790	1783.859741	1269.907837	50.845657
775.802551	739.534973	1774.200195	1266.266968	50.908443
776.116516	741.392578	1767.290161	1263.220581	50.865505
776.430359	740.798157	1757.556641	1250.143188	50.094986
776.744202	738.569031	1753.395630	1248.582886	50.256256
777.057922	741.987000	1744.404907	1242.044312	49.885113
777.371704	736.711487	1737.717773	1243.976074	50.675465
777.685303	741.318176	1731.327759	1231.047363	49.467117
777.998962	733.293640	1720.256470	1225.177612	49.838146
778.312500	735.374023	1729.544434	1219.827759	48.729446
778.626038	728.835449	1714.683960	1220.570679	49.879391
778.939453	734.185242	1722.708618	1221.685425	49.315998
779.252869	738.420410	1718.621948	1224.657471	49.605824
779.566223	737.008606	1723.748657	1220.347778	48.983437
779.879578	737.900330	1704.578735	1220.793823	49.953892
780.192749	738.494690	1697.148438	1214.032104	49.604710
780.505920	743.027161	1706.882202	1217.375732	49.213684
780.819031	744.810486	1701.903809	1208.310913	48.427925
781.132141	750.977600	1703.910034	1211.282837	48.304081
781.445190	753.281006	1690.906860	1206.824829	48.371513
781.758118	748.376953	1699.303223	1202.069458	47.710587
782.071045	744.141663	1682.882446	1193.524536	47.870815
782.383911	742.284119	1663.712280	1189.958130	48.584797
782.696838	749.268616	1644.244751	1182.899292	48.451649
783.009583	741.020996	1622.028320	1189.586548	50.915077
783.322266	739.386414	1610.065796	1179.778564	50.580288
783.634888	734.036621	1595.502319	1182.007690	52.001034
783.947510	735.076843	1600.852173	1165.958252	49.768272
784.260132	737.008606	1601.595215	1151.097778	47.894470
784.572571	735.819824	1600.406372	1141.661255	46.940521
784.885010	739.386414	1584.802734	1143.964722	47.855511
785.197449	737.974670	1576.183594	1157.041992	49.995567
785.509766	733.219238	1566.821411	1156.521851	50.779930
785.822083	735.745544	1563.329102	1148.125610	49.829418
786.134277	735.374023	1552.852539	1141.289917	49.654625
786.446533	747.336731	1555.453125	1145.227783	49.236851
786.758606	743.844543	1555.676147	1148.274292	49.816952
787.070740	749.565857	1559.168335	1147.605469	49.164822
787.382690	748.599915	1566.004028	1145.673706	48.577415
787.694641	748.154114	1577.075195	1149.165894	48.377560
788.006653	745.404968	1606.127563	1151.840820	47.220306
788.318481	737.677429	1624.108887	1162.391846	47.912830
788.630310	735.819824	1647.365723	1171.159546	47.758400
788.942017	740.575195	1654.350098	1179.184204	47.999680
789.253784	742.878601	1668.467651	1179.927124	47.218418
789.565430	746.445129	1668.541992	1175.097534	46.486702
789.877014	743.175842	1665.495483	1178.366821	47.184399
790.188538	741.838379	1657.545044	1175.840454	47.395317
790.500061	740.278015	1653.458496	1172.051147	47.282345
790.811462	736.860046	1637.334839	1162.317505	47.248127
791.122925	737.825989	1614.078125	1155.481567	47.663860
791.434204	732.476257	1584.876953	1141.809937	48.021275
791.745483	735.671204	1563.923706	1137.574585	48.524258
792.056702	738.866211	1537.843384	1126.949341	48.572495
792.367920	745.924988	1529.075684	1127.395142	48.709675
792.678955	750.085938	1512.060547	1110.825684	47.342751
792.990112	747.633972	1509.831421	1112.460449	47.865089
793.301086	745.627869	1497.348511	1103.767090	47.642593
793.612122	735.076843	1487.911987	1107.556396	49.476910
793.922974	737.677429	1485.311401	1096.485229	47.992443
794.233826	742.135559	1478.624146	1095.222168	47.941898
794.544556	743.398743	1482.265015	1095.593628	47.666931
794.855286	748.377014	1478.549927	1094.330444	47.379658
795.166016	746.816711	1485.757446	1097.674194	47.481140
795.476624	750.011719	1497.422852	1099.977661	46.823753
795.787292	741.392578	1505.224609	1107.705078	47.957207
796.097778	738.717590	1506.339233	1116.324219	49.191765
796.408264	743.844543	1503.738647	1118.776123	49.339977
796.718689	749.714539	1508.196655	1125.463257	49.539562
797.029053	745.553467	1523.057251	1126.800781	49.034786
797.339355	740.129395	1528.332642	1133.710938	49.934017
797.649658	738.643311	1537.769165	1128.583984	48.795902
797.959839	743.398682	1522.611328	1123.011353	48.717468
798.270020	746.370789	1515.255249	1121.822388	48.830692
798.580078	747.262451	1494.673462	1117.364258	49.517841
798.890137	750.234558	1476.469360	1108.002075	49.263340
799.200195	743.993164	1459.974121	1092.472778	48.671631
799.510071	739.980774	1455.590210	1086.008667	48.354294
799.820007	735.076843	1456.853394	1087.643188	48.847023
800.129883	734.036621	1459.825562	1086.454468	48.556519
800.439575	735.225403	1448.828735	1075.977661	47.750935
800.749329	734.928223	1441.844360	1076.572144	48.328777
801.058960	741.615479	1426.166382	1068.473145	47.747753
801.368591	741.615479	1412.568970	1074.640259	49.634556
801.678162	740.946777	1399.417358	1066.095581	49.379398
801.987671	735.374023	1392.581665	1064.163574	50.028259
802.297119	728.686829	1382.996582	1051.234985	49.295940
802.606506	727.720886	1383.888306	1046.256714	48.544903
802.915894	735.671204	1378.018188	1047.668457	48.571453
803.225159	739.089172	1381.807617	1047.594116	48.000015
803.534424	742.878601	1375.046265	1045.810791	47.919598
803.843628	740.500977	1372.222656	1041.426880	47.635838
804.152771	743.398743	1373.857056	1048.411377	48.379509
804.461792	746.296570	1377.423828	1055.915894	49.058144
804.770874	744.438965	1381.064575	1054.578491	48.716156
805.079773	748.228333	1382.104980	1055.321655	48.446857
805.388733	745.330566	1389.683716	1052.423706	47.659134
805.697571	749.640137	1395.627930	1053.761108	47.078438
806.006470	749.045715	1402.166626	1056.659058	47.098988
806.315125	751.051941	1404.990234	1056.881836	46.767395
806.623901	753.429504	1406.921997	1069.587769	48.379784
806.932495	752.463623	1397.931274	1069.216187	49.073345
807.241150	752.835144	1392.804565	1075.160400	50.365726
807.549622	750.085938	1391.095581	1068.770386	49.716015
807.858154	748.748535	1397.262695	1064.312134	48.659477
808.166565	742.729980	1397.857056	1056.881958	47.952831
808.474915	741.912659	1388.643555	1051.977905	47.943474
808.783264	742.878662	1379.801758	1052.572388	48.623409
809.091492	750.234558	1367.095825	1035.259766	46.205723
809.399719	744.587585	1364.718018	1025.897583	45.363037
809.707825	734.928223	1353.869751	1020.919373	46.206490
810.015930	733.962341	1343.244507	1020.176331	46.975605
810.323975	742.729980	1343.690430	1021.588074	46.402069
810.632080	746.445129	1348.520142	1012.151672	44.131802
810.939880	742.655762	1348.074219	1024.411621	46.539028
811.247864	739.757874	1337.300415	1015.941101	46.219845
811.555664	739.534973	1324.668945	1015.569580	47.174599
811.863464	737.008606	1313.003418	1007.619202	46.981430
812.171143	733.590820	1297.399780	1013.043274	49.565098
812.478882	738.866211	1286.403076	1018.170105	51.010975
812.786438	740.872375	1289.300781	1023.371338	51.510635
813.094055	741.764099	1292.198730	1020.993713	50.728931
813.401489	742.952881	1296.210938	1007.024719	47.730320
813.708984	748.599915	1286.997437	997.811218	46.287601
814.016357	754.767090	1277.115234	998.554382	46.671421
814.323730	752.760925	1272.434082	999.148743	47.412075
814.630981	746.147949	1268.941895	1001.006287	48.749290
814.938232	741.169617	1280.755981	1003.012451	48.526585
815.245361	744.661865	1280.161621	1008.288025	49.229931
815.552490	747.485352	1284.545410	1007.916504	48.491997
815.859619	742.507080	1277.709595	1012.300293	50.409557
816.166565	738.791931	1277.635254	1011.482910	50.606728
816.473572	737.603027	1280.533081	1005.390137	49.322578
816.780457	747.411072	1286.848877	1006.356140	48.002766
817.087341	749.565857	1286.848755	1007.767883	48.056995
817.394043	752.537903	1291.381348	1010.294128	47.835087
817.700806	746.965271	1296.285278	1002.418030	46.503452
818.007507	747.633972	1308.693726	1001.897888	45.318508
818.314209	743.695984	1315.009521	1003.383972	45.454548
818.620667	738.494690	1323.925781	1010.219788	46.414532
818.927246	736.042725	1337.894775	1016.461243	46.592602
819.233704	740.129395	1353.572632	1024.411499	46.342037
819.540161	744.959045	1384.036743	1034.219604	45.262188
819.846497	748.748535	1414.277954	1060.968506	46.913025
820.152832	737.900330	1462.129028	1087.271729	48.240479
820.458984	735.522644	1511.688965	1112.609009	48.583191
820.765259	733.888000	1582.573730	1137.649048	47.574860
821.071350	741.689758	1667.947632	1188.174805	48.203106
821.377502	743.250061	1819.970703	1259.802734	47.974621
821.683472	738.866211	2095.039307	1379.578613	47.244148
821.989441	740.575195	2579.196045	1577.818359	45.536476
822.295349	738.420471	3241.233398	1865.964355	45.051067
822.601196	741.541199	4001.201416	2203.224365	44.841579
822.907043	736.711426	4655.140137	2499.394775	44.984444
823.212769	740.649597	5048.498047	2701.944092	45.528397
823.518494	750.829041	5123.841309	2776.989502	46.333290
823.824097	759.670959	4939.273438	2722.451660	46.960941
824.129700	757.813477	4622.966797	2607.208252	47.847900
824.435242	744.141785	4282.214355	2465.512939	48.652794
824.740723	739.312073	3978.018799	2352.721436	49.816471
825.046082	743.621582	3692.102295	2216.598877	49.957161
825.351501	742.507141	3395.337158	2074.829346	50.222675
825.656799	743.027161	3073.160400	1909.877319	50.076538
825.962036	737.083008	2781.076416	1759.859985	50.038174
826.267212	735.225403	2548.731934	1640.901367	49.940594
826.572449	733.590820	2416.770264	1570.685181	49.732925
826.877502	738.123230	2395.296875	1549.063110	48.935120
827.182495	748.228333	2481.265137	1567.341675	47.264622
827.487488	747.485352	2621.400146	1618.759155	46.494846
827.792419	746.742371	2717.176270	1676.343750	47.177498
828.097290	736.117004	2739.169922	1691.724243	47.707539
828.402100	734.259460	2680.173340	1672.777222	48.230183
828.706848	734.928223	2582.167969	1609.099609	47.323116
829.011597	742.730042	2425.538086	1550.028931	47.973320
829.316223	747.559753	2261.997803	1490.661133	49.067799
829.620789	744.587585	2123.274658	1444.296265	50.751816
829.925354	748.228333	2015.461426	1383.665405	50.143658
830.229797	745.999329	1905.047485	1316.792847	49.246750
830.534302	741.689758	1773.977539	1255.047363	49.730083
830.838562	731.956055	1650.486450	1192.038574	50.088982
831.142944	729.355469	1544.084961	1144.930664	51.007751
831.447144	734.705322	1454.401367	1094.999146	50.061943
831.751404	745.033447	1396.296753	1068.993286	49.743298
832.055542	756.178772	1363.826538	1042.021362	47.040836
832.359619	759.299500	1362.043213	1035.036865	45.747032
832.663635	749.342957	1369.250610	1038.380493	46.625904
832.967651	748.599915	1400.160522	1050.640503	46.356483
833.271545	741.912598	1459.528320	1077.315063	46.738449
833.575439	746.816650	1558.648071	1118.107300	45.734943
833.879211	735.299744	1673.891602	1169.673340	46.279285
834.183044	746.742371	1781.407715	1219.307617	45.673248
834.486694	745.181946	1869.382202	1270.502197	46.728355
834.790344	753.355286	1918.942017	1296.062378	46.560852
835.093933	749.640137	1930.235962	1299.554565	46.579399
835.397522	751.720642	1880.304688	1274.885986	46.355907
835.700928	755.955872	1809.939941	1253.858276	47.240028
836.004395	756.773254	1742.918945	1219.010376	46.873108
836.307739	756.476074	1684.888306	1190.403809	46.738693
836.611023	752.315125	1624.406128	1149.017212	45.488613
836.914307	745.702148	1551.143555	1133.190796	48.108856
837.217529	742.284180	1477.732544	1103.395386	49.100822
837.520691	740.203674	1403.355469	1076.200562	50.666664
837.823730	738.271790	1344.359009	1042.987305	50.275852
838.126831	736.860046	1291.009644	1010.814270	49.436871
838.429749	733.219238	1254.155640	986.294373	48.580811
838.732727	734.185242	1218.044556	964.449402	47.589073
839.035522	731.881836	1210.242798	955.458740	46.738117
839.338379	747.856934	1198.279907	951.966492	45.315086
839.641113	750.383240	1192.781494	957.241943	46.758480
839.943848	749.045715	1195.456421	964.820801	48.335552
840.246460	732.253357	1215.295288	977.675293	50.807583
840.549072	726.606262	1244.421875	984.808289	49.863701
840.851563	736.637207	1253.115356	995.136414	50.050365
841.154053	738.643372	1260.842773	998.182800	49.701210
841.456482	745.181946	1255.641724	989.563660	47.874825
841.758850	742.878601	1239.592285	974.108643	46.551979
842.061157	740.055115	1212.100342	965.341003	47.725487
842.363403	742.358459	1180.447388	959.248108	49.508133
842.665588	744.438965	1166.701416	955.012878	49.868019
842.967712	752.537903	1154.515747	946.319397	48.207008
843.269775	747.931152	1138.912109	933.242188	47.396435
843.571777	748.525574	1114.095093	917.935852	46.341469
843.873840	745.850769	1091.581299	908.202209	46.958954
844.175659	750.903320	1074.417358	893.861816	44.189270
844.477600	754.618408	1063.717773	890.889648	44.086548
844.779297	753.578186	1042.244263	881.155945	44.195618
845.081116	746.742371	1033.402222	880.710144	46.734055
845.382751	741.689758	1028.201050	868.598816	44.294609
845.684387	736.117126	1024.411499	865.923889	45.025772
845.985962	736.711487	1020.027649	863.249023	44.663013
846.287537	738.123230	1004.424133	866.518372	48.214310
846.588989	747.856873	1010.962830	866.146790	44.959042
846.890381	750.160339	1009.328125	864.735046	44.208698
847.191711	749.937317	1012.374573	866.592590	44.450729
847.493042	737.826111	997.662598	861.837219	47.726597
847.794250	735.819824	991.941223	861.911621	49.231262
848.095459	733.367859	982.653503	859.459656	50.581249
848.396606	735.299744	982.802063	855.224304	48.453915
848.697693	739.089172	980.201477	852.029297	46.841293
848.998657	736.934326	984.213867	844.673340	43.569725
849.299622	742.432800	986.294250	848.165588	43.357731
849.600464	738.346130	981.687500	848.908630	45.435143
849.901367	739.534973	968.610291	846.308044	46.610466
850.202087	735.596924	964.077820	849.428711	49.821140
850.502808	733.219238	965.415283	844.673401	48.000027
850.803467	734.259583	976.040527	849.280090	47.572197
851.104065	739.163574	979.458496	843.261536	43.320915
851.404663	747.485352	981.018799	846.085022	42.220791
851.705139	749.640137	970.542175	844.004578	42.717777
852.005615	750.829041	965.861023	839.397766	41.188629
852.306030	748.822815	966.232605	839.769348	41.831848
852.606384	740.946777	972.176758	844.896240	44.955009
852.906616	733.293518	968.461609	848.982849	49.194313
853.206909	726.606262	962.591736	849.800232	52.204048
853.506958	730.247070	964.152100	849.057190	50.794170
853.807129	738.494812	965.043701	846.753723	47.786114
854.107178	745.033386	965.935364	846.010742	45.711388
854.407166	747.262451	955.904480	841.255371	45.049850
854.707092	742.432800	957.167542	837.317322	44.186852
855.007019	742.507141	944.759033	835.459778	45.958847
855.306763	746.519470	950.257507	832.413391	42.159000
855.606567	749.640137	947.136719	838.208984	44.845764
855.906250	745.702148	954.046875	831.001648	40.941521
856.205933	733.887939	948.697083	835.385559	47.250141
856.505493	736.711426	947.954102	830.184326	44.249062
856.805054	742.507019	947.805481	835.905579	45.494038
857.104492	748.971436	948.994324	830.258606	40.638935
857.403931	741.095276	948.622864	835.385559	45.435059
857.703308	736.340027	948.994324	832.190491	45.073372
858.002563	737.380188	953.972656	832.041931	43.705002
858.301819	742.804260	957.687805	834.865417	42.842350
858.601013	744.290344	953.526855	843.112976	47.230110
858.900208	737.454529	957.390625	857.230469	54.459427
859.199219	742.135559	952.115051	857.602051	54.989414
859.498291	739.757874	958.133606	858.345032	54.304184
859.797302	750.531738	947.285339	851.137695	51.132969
860.096191	746.742371	947.136719	850.320313	51.687057
860.395020	750.829041	941.638367	845.342041	49.532696
860.693787	752.092102	938.740540	840.586670	47.412434
860.992554	748.599915	930.715820	831.596008	45.573227
861.291260	743.027161	931.161682	830.110046	46.287563
861.589844	731.658936	932.350586	831.224548	49.611237
861.888428	730.470032	934.505371	836.945801	52.184963
862.186890	741.169678	938.889221	836.202820	48.064617
862.485413	745.776428	938.294861	828.772644	43.110790
862.783813	748.154114	947.508301	825.651855	38.874397
863.082153	745.702148	944.833435	824.240051	39.440262
863.380371	746.519470	948.920105	832.190430	42.327415
863.678589	748.599915	951.966492	835.831238	42.893639
863.976746	752.909485	949.143005	841.626892	45.210117
864.274902	758.259277	950.108887	836.722900	40.898506
864.572937	758.779358	952.189453	832.116150	37.917767
864.870911	750.085999	955.755920	832.487732	40.065037
865.168884	747.113953	955.830261	832.710632	41.011017
865.466736	748.674255	953.824036	835.013977	42.086189
865.764587	747.485352	950.777588	833.676514	42.397667
866.062317	742.581482	946.988098	843.410156	49.327499
866.360107	735.968506	943.421631	847.050964	53.545811
866.657715	733.293640	945.502136	842.741455	51.575603
866.955322	740.798157	950.108887	836.128479	45.544880
867.252808	741.466858	950.851868	835.979919	45.138409
867.550293	743.770264	947.731201	838.654785	46.520927
867.847717	742.284180	946.096497	848.982910	52.351463
868.145081	743.027161	940.969666	849.205811	53.641155
868.442383	747.708252	945.204895	852.252197	52.934544
868.739624	740.723816	942.158508	844.673340	51.604580
869.036804	739.386292	934.802551	846.976807	55.057095
869.333984	734.779602	934.356689	842.518555	53.983627
869.631042	738.643372	936.511536	844.599060	53.548630
869.928101	743.175842	942.158508	837.986084	47.647488
870.224976	744.438965	942.901550	839.397766	47.847206
870.521851	754.321228	949.588684	839.472107	43.607307
870.818726	747.633972	955.161438	844.450378	46.652332
871.115479	748.599854	959.099548	848.611328	47.511459
871.412231	743.398682	951.817871	844.078918	48.306606
871.708862	741.243958	951.446350	836.128601	45.139660
872.005493	741.243958	946.542297	833.007813	44.697807
872.302063	738.866272	951.743591	835.236877	45.270489
872.598572	744.364685	958.950928	848.759949	48.649559
872.895020	741.912598	960.882751	850.097412	49.406193
873.191406	739.980774	961.848633	856.338867	52.444771
873.487671	744.513184	961.848633	850.246033	48.649609
873.783997	748.822815	964.597839	851.583496	47.623993
874.080200	752.240723	974.182922	847.051025	42.718468
874.376343	748.525574	976.040527	847.348328	43.435719
874.672424	753.280945	978.715393	847.794128	41.924908
874.968445	750.977600	979.681335	849.354492	43.014992
875.264465	753.132385	969.947754	847.125305	43.351593
875.560364	749.120056	971.508118	852.846680	46.642174
875.856201	747.931152	964.746521	853.664001	48.766308
876.152039	745.776367	965.861084	852.475098	48.480755
876.447754	740.278015	971.656677	848.016907	46.563885
876.743469	739.683594	977.972412	851.286194	46.835014
877.039063	735.745605	981.390320	858.270691	49.878983
877.334595	733.590759	972.028137	855.001404	50.919300
877.630127	734.333740	970.096375	851.211914	49.574512
877.925537	738.346191	980.201477	848.908508	45.714245
878.221008	742.804260	992.758606	851.954895	43.668228
878.516296	744.810486	992.981506	849.057129	42.005970
878.811646	738.346191	990.826721	851.732117	44.908779
879.106812	738.271912	998.257080	862.728821	47.870773
879.401978	745.776428	1012.300293	875.657532	48.731510
879.697083	756.921875	1037.265991	885.836975	45.984592
879.992126	756.996094	1055.321533	890.592468	44.782093
880.287109	750.457520	1088.609009	902.629395	45.001095
880.582031	745.850769	1140.398193	933.019287	47.438789
880.876892	743.695984	1252.149536	985.922852	47.639919
881.171753	735.596985	1447.342651	1075.457642	47.750294
881.466492	738.717590	1735.860229	1201.177734	46.378536
881.761230	738.643311	2090.432617	1351.046387	45.303146
882.055786	749.863037	2436.609131	1515.478149	45.390064
882.350403	747.039551	2701.201172	1641.792969	45.787075
882.644958	752.240723	2833.906006	1717.284546	46.359222
882.939453	741.689758	2834.648682	1727.612671	47.106651
883.233826	754.172668	2744.742432	1704.504517	47.741699
883.528137	753.503906	2624.594971	1656.950806	48.284496
883.822449	757.516296	2500.657959	1606.647827	48.712711
884.116577	745.999329	2392.547607	1554.412964	49.097473
884.410828	745.702148	2276.115234	1503.887085	49.541195
884.704956	744.513184	2133.379639	1443.255981	50.310295
884.999023	744.438904	1956.019165	1361.968872	50.968967
885.292969	740.129395	1762.980835	1270.948120	51.895973
885.586914	738.346191	1600.480835	1172.645630	50.374897
885.880798	734.408020	1469.633423	1097.599731	49.398689
886.174622	737.157227	1369.919312	1048.634277	49.224987
886.468384	737.974609	1289.300781	1017.872864	50.768177
886.762085	737.008606	1230.898804	991.569824	51.542068
887.055664	735.374023	1179.035522	964.077820	51.549164
887.349304	737.974609	1150.280396	943.050110	49.738689
887.642822	742.135559	1120.484985	926.480652	48.723503
887.936340	743.473083	1100.274780	915.929688	48.334019
888.229736	747.559631	1071.891113	903.892639	48.201614
888.523071	744.513245	1062.306030	896.239441	47.743752
888.816284	744.513245	1061.488647	887.991882	45.264912
889.109619	737.900330	1059.111084	885.316895	45.894032
889.402710	738.717712	1043.953247	874.840271	44.595909
889.695862	739.312073	1015.123718	866.369812	46.066853
889.988892	739.312073	987.854675	861.242859	49.058304
890.281921	736.488525	966.975464	868.895996	57.446842
>>>>>End Processed Spectral Data<<<<<
