Jaz Data File
++++++++++++++++++++++++++++++++++++
Date: Fri Jun 04 16:23:46 2021
User: jaz
Dark Spectrum Present: Yes
Reference Spectrum Present: Yes
Processed Spectrum Present: Yes
Spectrometers: JAZA3586
Integration Time (usec): 69400 (JAZA3586)
Spectra Averaged: 10 (JAZA3586)
Boxcar Smoothing: 1 (JAZA3586)
Correct for Electrical Dark: No (JAZA3586)
Strobe/Lamp Enabled: Yes (JAZA3586)
Correct for Detector Non-linearity: No (JAZA3586)
Correct for Stray Light: No (JAZA3586)
Number of Pixels in Processed Spectrum: 2048
>>>>>Begin Processed Spectral Data<<<<<
W	D	R	S	P
191.335022	0.000000	0.000000	0.000000	0.000000
191.713211	293.792969	294.833221	296.096344	221.424591
192.091385	587.957458	584.167969	586.545715	37.254177
192.469528	881.453125	885.093994	882.567688	30.612553
192.847641	891.186829	890.815247	889.997986	319.940857
193.225739	898.022644	906.567383	903.521057	64.348518
193.603790	912.363098	906.567444	911.991516	6.411390
193.981842	916.672668	912.140137	912.734619	86.884094
194.359863	932.350586	910.877014	913.626221	87.197258
194.737854	939.780823	918.158752	922.171082	81.443359
195.115829	942.901550	925.737610	930.344299	73.160652
195.493774	937.403137	934.802551	930.121521	279.999054
195.871704	935.842773	935.842773	929.155518	0.000000
196.249603	939.260681	936.139954	924.548767	471.425781
196.627457	937.403076	933.539368	926.332031	286.539337
197.005310	930.790222	937.328857	925.217529	-85.227158
197.383133	928.486816	933.836609	927.075134	-26.387606
197.760910	936.957336	928.412415	933.762268	37.391430
198.138687	941.712708	922.096741	931.979004	49.621330
198.516449	933.687988	921.948181	930.864502	24.050533
198.894180	922.022400	928.783997	924.623047	38.462025
199.271866	924.177246	933.316589	917.638672	-71.543152
199.649536	925.960449	932.796387	917.935791	-117.389282
200.027191	931.384583	941.638367	920.313538	-107.970329
200.404816	920.610657	941.712708	926.629211	28.521183
200.782410	918.976074	952.635254	924.623047	16.776917
201.159988	916.598328	958.653748	922.393982	13.780993
201.537537	922.468262	975.297546	917.564270	-9.282715
201.915070	919.570496	970.096252	916.969910	-5.147050
202.292557	914.146423	967.049866	910.951355	-6.039434
202.670029	918.307373	959.768250	915.186523	-7.527215
203.047485	921.502380	968.833191	913.997742	-15.855716
203.424911	929.304199	963.706238	918.678894	-30.885685
203.802292	923.137024	964.300598	910.208313	-31.408134
204.179688	919.644775	962.517395	904.041199	-36.395203
204.557037	910.579895	958.579407	902.332214	-17.182842
204.934357	901.960754	958.059265	909.836853	14.039764
205.311661	903.818298	952.189270	908.425110	9.523918
205.688934	904.041077	957.687744	910.059753	11.219107
206.066177	904.635559	950.480286	911.545837	15.073224
206.443390	905.229980	951.817871	915.855286	22.807011
206.820587	912.288757	947.211121	914.592224	6.595965
207.197769	914.072083	946.691101	913.552002	-1.594409
207.574921	910.728455	943.273132	908.276550	-7.533964
207.952042	899.657227	943.495911	904.561340	11.186727
208.329147	903.892578	947.434021	906.939026	6.996663
208.706223	927.520813	970.690735	934.133789	15.318480
209.083267	932.350525	975.446106	936.957336	10.689754
209.460297	931.533203	977.972412	928.115234	-7.360093
209.837280	908.870850	960.288391	907.682068	-2.312016
210.214264	904.041199	953.972656	911.694336	15.327286
210.591217	904.784180	957.687805	913.031799	15.589895
210.968124	906.493164	965.786804	911.620117	8.646717
211.345016	914.592102	971.656738	905.898743	-15.234233
211.721893	912.214539	967.867188	904.115540	-14.552765
212.098724	910.431213	956.870422	907.533447	-6.239913
212.475555	907.830750	965.341003	910.134033	4.004997
212.852356	911.471497	965.192383	914.517883	5.670768
213.229126	910.579895	970.319275	909.688171	-1.492690
213.605865	904.115540	957.910645	906.195984	3.867349
213.982590	898.914307	955.830139	901.143372	3.916423
214.359283	896.685242	957.019043	903.669739	11.576425
214.735931	893.787415	962.666016	907.830627	20.388353
215.112579	901.812195	967.198547	909.539612	11.818089
215.489197	904.561340	963.037598	903.372498	-2.033035
215.865799	914.740906	957.762024	895.942200	-43.696461
216.242355	905.304382	949.737366	896.833801	-19.063723
216.618896	912.660339	940.523865	900.846191	-42.400047
216.995407	904.709961	942.604309	903.892578	-2.157005
217.371902	903.000977	942.752930	908.722351	14.392688
217.748367	894.158936	945.279236	914.443604	39.680260
218.124802	897.279602	941.787048	916.747009	43.739662
218.501236	902.183655	947.359680	908.350769	13.651299
218.877609	904.784363	952.337952	905.007141	0.468478
219.253983	894.158997	958.579407	906.270264	18.800358
219.630295	885.094055	948.325623	910.728455	40.540508
220.006592	882.419128	938.666260	909.465332	48.084591
220.382889	895.867920	938.517639	904.932861	21.254398
220.759140	907.607727	949.142883	904.041199	-8.586770
221.135391	918.678894	957.019043	905.229980	-35.077885
221.511581	920.387878	953.675476	905.007141	-46.205608
221.887772	917.564270	953.303894	905.973083	-32.432312
222.263931	914.517883	965.192383	904.709961	-19.354750
222.640060	916.598389	967.792969	909.242371	-14.368744
223.016159	911.694336	970.467834	906.567566	-8.722928
223.392212	910.877136	960.437012	906.939026	-7.946167
223.768265	904.338379	954.567078	906.864746	5.029728
224.144302	910.951355	953.006653	905.824524	-12.190690
224.520294	904.932800	948.994385	908.796631	8.769159
224.896286	907.161926	952.783752	911.100098	8.632209
225.272217	901.812073	957.019043	910.431335	15.612635
225.648148	900.846191	964.820801	902.035095	1.858400
226.024048	893.564636	964.152161	894.158997	0.842019
226.399902	897.205383	953.675476	903.446838	11.052673
226.775772	900.474609	955.087219	909.093811	15.782438
227.151581	901.737793	961.031311	908.573730	11.528979
227.527374	896.016602	968.387390	901.812195	8.008194
227.903137	900.549072	966.678406	902.778076	3.370673
228.278870	899.657410	965.117981	905.898743	9.534492
228.654572	907.830566	959.471008	904.338379	-6.762505
229.030273	900.697571	955.607361	900.697571	0.000000
229.405930	904.784180	953.006775	899.285828	-11.402024
229.781555	904.709961	957.910706	899.360168	-10.055861
230.157181	907.830627	960.362793	897.279602	-20.084887
230.532761	909.613953	962.145996	898.394226	-21.357872
230.908325	900.326111	962.145996	900.325989	-0.000197
231.283859	901.217712	961.848816	907.904968	11.029415
231.659332	899.880188	961.254395	900.846191	1.573957
232.034821	907.013245	962.443176	895.422180	-20.911201
232.410263	909.613831	956.499023	896.611023	-27.733292
232.785690	913.254700	956.053162	905.527344	-18.055220
233.161087	917.861511	959.694031	908.945129	-21.314474
233.536469	914.220703	965.786804	909.168152	-9.798203
233.911804	910.802795	969.427673	902.629456	-13.941760
234.287140	908.202209	961.105713	903.149597	-9.550619
234.662430	914.072083	963.334778	891.112488	-46.606453
235.037704	919.793457	965.192383	893.490173	-57.938118
235.412933	911.991638	968.387390	888.809082	-41.106918
235.788162	904.635681	957.316223	889.477844	-28.773123
236.163345	904.338379	953.155334	887.768982	-33.941891
236.538513	912.734619	947.879822	893.044434	-56.025246
236.913635	914.369324	957.167664	900.028870	-33.507034
237.288742	915.781006	959.842590	900.771912	-34.063900
237.663834	916.672607	968.610291	903.892578	-24.606468
238.038879	920.164856	971.359436	906.270325	-27.140629
238.413910	916.969910	976.114807	910.802734	-10.427232
238.788910	907.161926	977.229309	910.951355	5.408264
239.163879	899.211487	982.133362	909.390930	12.275945
239.538834	894.827637	970.319275	909.688232	19.685089
239.913757	900.697571	968.610352	907.161865	9.518524
240.288651	899.360168	963.780579	908.276428	13.840737
240.663528	905.155762	969.056091	908.573669	5.348811
241.038361	902.034973	968.833191	911.471497	14.126909
241.413177	910.059753	969.278992	907.459167	-4.391455
241.787979	903.669739	968.164368	904.635559	1.497521
242.162735	899.360168	973.216980	901.886414	3.420463
242.537476	902.406555	972.251038	904.115540	2.446842
242.912170	908.647949	984.659485	914.666504	7.917949
243.286865	919.273254	976.932129	911.248535	-13.917579
243.661514	915.781006	980.201477	910.654114	-7.958483
244.036148	912.437317	977.526611	903.075378	-14.383224
244.410751	912.363098	987.557434	904.635742	-10.276513
244.785339	906.938965	982.876404	902.109375	-6.359959
245.159882	906.716125	977.972412	897.948425	-12.304459
245.534378	907.830750	978.418274	900.177429	-10.842313
245.908890	916.449768	987.483215	896.388000	-28.242706
246.283356	919.199036	994.616211	901.589172	-23.349937
246.657791	914.072083	992.981506	896.165039	-22.693163
247.032196	904.709961	999.000183	904.784180	0.078713
247.406586	901.960754	998.480042	897.948303	-4.157150
247.780960	907.979248	1004.795715	905.155701	-2.916392
248.155289	907.310547	996.919617	898.691406	-9.618603
248.529602	908.053528	998.479980	903.372498	-5.176616
248.903870	897.725403	995.730774	905.824463	8.263894
249.278122	903.075256	986.591553	909.316711	7.473338
249.652344	907.533447	987.706055	909.985413	3.058358
250.026550	913.180481	984.585388	895.645020	-24.557781
250.400711	913.106140	991.867004	894.084656	-24.150934
250.774857	912.734619	988.820557	895.719299	-22.363291
251.148987	911.025635	992.758606	904.041199	-8.545433
251.523071	910.059753	999.074402	904.412781	-6.343869
251.897125	906.938965	1004.572754	898.988586	-8.143061
252.271164	906.047424	1003.458252	902.332275	-3.813897
252.645187	904.338379	1006.058838	902.852356	-1.460889
253.019165	888.809082	997.439758	911.991516	21.340597
253.393112	892.152771	1005.018616	910.059631	15.865615
253.767044	890.443787	994.170410	909.613953	18.481432
254.140930	900.251770	996.770996	904.858582	4.772947
254.514801	895.124817	983.619385	904.709900	10.831267
254.888657	897.056702	988.894836	899.805969	2.993601
255.262466	904.189758	989.935059	890.741028	-15.684510
255.636276	907.979248	996.919617	896.313721	-13.116122
256.010010	915.038025	999.222961	905.007141	-11.915296
256.383759	919.347595	996.325134	914.666504	-6.081113
256.757446	929.006897	995.284851	911.248535	-26.793768
257.131134	931.013123	997.811218	913.477600	-26.251530
257.504791	924.994568	1011.111389	914.666504	-11.993086
257.878418	912.437500	1021.885254	912.214417	-0.203826
258.252014	907.533386	1027.978149	916.524109	7.464602
258.625580	915.781067	1026.714966	913.031799	-2.478293
258.999115	919.198914	1020.622131	917.415588	-1.758301
259.372650	909.985352	1024.337280	908.424988	-1.364528
259.746124	899.657410	1035.334106	904.338379	3.450091
260.119598	897.428284	1050.640503	904.412781	4.558708
260.493042	900.697571	1066.764160	910.728516	6.040315
260.866425	906.344666	1075.829102	917.192810	6.400673
261.239838	903.818359	1076.720703	917.341370	7.821184
261.613159	904.264160	1072.262573	912.660339	4.997773
261.986511	900.028809	1051.532104	913.626282	8.975035
262.359802	900.846191	1043.061646	914.146301	9.352085
262.733063	900.251709	1032.139038	908.350830	6.140940
263.106293	898.171326	1034.368164	907.904968	7.146746
263.479523	899.360168	1038.454712	904.932861	4.006406
263.852692	898.542786	1041.278320	917.935791	13.586670
264.225861	897.056824	1049.600220	915.483826	12.079843
264.598969	900.400391	1045.439331	914.294983	9.579905
264.972076	906.270264	1040.981079	903.669739	-1.930450
265.345154	916.672668	1039.718018	898.319885	-14.915462
265.718201	919.496155	1050.789063	895.050537	-18.619146
266.091217	919.496155	1056.064575	899.508728	-14.635468
266.464203	917.564270	1062.751831	905.824463	-8.085959
266.837158	918.307312	1057.699219	902.332275	-11.460520
267.210114	916.449768	1061.711548	899.137268	-11.918139
267.583038	910.579834	1063.271973	895.867920	-9.635017
267.955902	905.155762	1068.621704	899.657410	-3.363607
268.328766	903.223877	1076.126343	901.291992	-1.117326
268.701569	899.583008	1080.361694	906.493164	3.822440
269.074371	896.239441	1088.906372	908.945129	6.594639
269.447144	896.685242	1089.649414	910.579834	7.200607
269.819885	906.344543	1091.358276	909.613953	1.767117
270.192596	910.208252	1093.438843	909.019470	-0.648790
270.565277	910.579834	1099.977417	909.613953	-0.509976
270.937927	903.223816	1103.246704	910.951355	3.863328
271.310577	904.041199	1111.197144	908.276550	2.044523
271.683136	907.607666	1121.673828	906.344543	-0.590062
272.055725	912.065857	1136.162964	905.675842	-2.851449
272.428284	907.087585	1147.085449	911.248535	1.733745
272.800812	910.951355	1152.360962	915.558105	1.908271
273.173279	905.973145	1143.741821	913.700500	3.249947
273.545776	909.093811	1131.704712	916.152527	3.170876
273.918152	901.291992	1120.782227	917.787109	7.515194
274.290558	898.765686	1120.633667	912.437317	6.162057
274.662964	899.583008	1129.772949	912.437317	5.584219
275.035278	900.920471	1138.169067	900.325989	-0.250574
275.407593	900.771973	1137.351685	905.007080	1.790140
275.779907	901.440613	1135.419800	900.400391	-0.444579
276.152161	905.675964	1131.035889	905.378601	-0.131950
276.524384	911.025696	1137.797485	902.852295	-3.604241
276.896606	912.660339	1140.398071	905.601501	-3.099547
277.268799	904.189758	1152.286499	905.304260	0.449221
277.640930	899.805969	1162.911865	903.372559	1.355572
278.013031	894.456116	1168.113159	901.663574	2.633756
278.385162	904.487061	1167.518677	906.270325	0.677966
278.757233	911.917297	1164.992310	908.870911	-1.203748
279.129272	915.186584	1166.181152	907.979309	-2.871487
279.501282	911.991516	1176.880737	900.846191	-4.207542
279.873230	906.938965	1180.744507	901.663513	-1.926715
280.245178	909.762512	1184.682617	900.846191	-3.243241
280.617126	910.134033	1190.032349	894.010315	-5.760563
280.988983	909.316711	1208.830933	894.456055	-4.961586
281.360870	912.288818	1227.852417	893.267273	-6.027801
281.732697	910.208313	1237.288940	895.422058	-4.520676
282.104492	913.551941	1248.062866	904.115540	-2.820955
282.476288	906.790344	1253.189575	906.270325	-0.150121
282.848053	904.487000	1259.059570	913.997742	2.682312
283.219757	909.688232	1261.585938	907.459167	-0.633441
283.591461	911.620117	1264.409302	909.911133	-0.484421
283.963135	914.889404	1262.180298	908.499329	-1.839978
284.334747	911.025635	1262.106079	910.505554	-0.148137
284.706360	916.375488	1267.158691	902.926575	-3.833967
285.077942	918.827454	1277.189453	905.973083	-3.586979
285.449524	921.353821	1289.300903	901.886414	-5.290817
285.821014	913.849182	1300.520508	909.168030	-1.210628
286.192535	908.425049	1308.173706	909.390930	0.241622
286.563995	904.338379	1315.381104	905.675781	0.325368
286.935425	911.620117	1322.439819	904.784180	-1.663975
287.306824	915.038025	1333.882446	899.954590	-3.601202
287.678223	913.180420	1323.851563	911.248535	-0.470421
288.049561	909.168152	1322.885620	910.728333	0.377113
288.420898	908.276428	1316.867188	911.620056	0.818332
288.792145	909.762512	1326.377808	903.520996	-1.498149
289.163452	906.790344	1326.674927	902.480774	-1.026370
289.534668	903.000977	1333.956665	906.195984	0.741377
289.905914	902.183655	1341.758423	905.007141	0.642322
290.277039	905.007141	1353.647095	903.892639	-0.248418
290.648193	912.660339	1375.566406	903.521179	-1.974301
291.019318	918.307312	1398.525879	904.635681	-2.846960
291.390381	920.759277	1406.847656	906.716125	-2.889012
291.761475	922.914124	1413.163452	908.647949	-2.909983
292.132507	922.171082	1399.491821	909.093750	-2.739737
292.503510	919.124695	1396.222290	912.065918	-1.479525
292.874481	919.347595	1386.637329	915.855286	-0.747354
293.245422	913.626282	1393.993286	912.140137	-0.309377
293.616364	909.614014	1401.572266	914.517883	0.996806
293.987213	902.926758	1414.649414	906.493164	0.696941
294.358093	900.771912	1434.934082	913.551941	2.392537
294.728943	901.440613	1463.614868	909.985535	1.519977
295.099731	899.285828	1490.215454	905.527344	1.056220
295.470490	899.508728	1506.859253	896.833801	-0.440426
295.841248	901.143372	1520.530884	895.422058	-0.923705
296.211975	901.514893	1532.642212	905.750183	0.671068
296.582642	902.109375	1546.611206	912.065918	1.544843
296.953308	907.979248	1574.920410	913.997803	0.902412
297.323883	912.363098	1587.997681	907.310547	-0.747823
297.694519	914.369324	1606.424805	910.579773	-0.547579
298.065063	912.734680	1599.514648	909.093750	-0.530145
298.435608	909.391052	1590.375488	908.573669	-0.120030
298.806122	912.363220	1570.908203	904.189880	-1.241121
299.176575	914.443604	1551.515137	898.468506	-2.507583
299.547028	909.019531	1545.199341	894.901917	-2.219123
299.917450	904.709961	1535.837280	894.456116	-1.624687
300.287872	897.651184	1527.441040	898.394104	0.117963
300.658234	901.291992	1515.849731	902.406555	0.181360
301.028564	907.459167	1514.809570	909.019531	0.256913
301.398865	908.796570	1514.809570	906.716064	-0.343310
301.769135	915.335266	1519.193359	910.356934	-0.824421
302.139374	915.112366	1518.673340	902.406555	-2.105141
302.509583	912.883301	1517.632935	902.257996	-1.756976
302.879791	908.796570	1510.797241	905.527283	-0.543070
303.249939	908.276367	1508.791016	910.282532	0.334074
303.620087	911.471375	1501.360840	913.031738	0.264518
303.990173	912.288757	1502.029663	900.177429	-2.053669
304.360260	912.437439	1502.178223	903.075195	-1.587518
304.730286	906.864746	1509.756958	903.966858	-0.480664
305.100281	909.688232	1513.843750	917.267090	1.254455
305.470276	912.065918	1514.438110	917.192810	0.851117
305.840179	918.827393	1525.880859	914.889404	-0.648705
306.210144	912.065918	1524.469116	906.790344	-0.861454
306.579987	905.304260	1533.979614	901.217712	-0.650025
306.949890	897.651184	1540.295410	900.623291	0.462481
307.319702	904.338379	1560.282837	903.000977	-0.203890
307.689484	906.716125	1572.171387	908.573669	0.279139
308.059265	912.883301	1581.830688	912.437317	-0.066670
308.429016	907.310547	1601.669556	906.344666	-0.139104
308.798737	909.242432	1626.338013	897.056824	-1.699300
309.168396	908.499329	1652.938354	893.713196	-1.986211
309.538055	911.099915	1673.074341	897.576904	-1.774733
309.907684	906.938965	1683.996948	900.846191	-0.784082
310.277313	905.155762	1692.318726	900.697571	-0.566362
310.646851	904.115417	1699.674683	898.691345	-0.681794
311.016388	906.938965	1717.432983	897.279602	-1.191787
311.385895	913.923523	1729.024292	899.211487	-1.804935
311.755371	911.545837	1736.826050	904.487000	-0.855326
312.124817	904.487061	1736.826050	907.236267	0.330299
312.494232	900.251770	1735.117188	908.053528	0.934493
312.863617	901.960754	1725.234863	900.474609	-0.180516
313.232971	913.477600	1723.451660	906.567444	-0.853133
313.602295	916.449707	1721.742798	901.812073	-1.817678
313.971619	918.530273	1723.897461	907.830627	-1.328543
314.340820	909.391052	1714.535278	902.109375	-0.904394
314.710083	905.304382	1725.829224	905.601563	0.036218
315.079285	906.716125	1741.358765	911.174316	0.534144
315.448486	909.613953	1760.157227	908.425049	-0.139782
315.817596	908.573669	1764.764038	910.356934	0.208279
316.186707	907.533386	1754.138672	907.161865	-0.043884
316.555786	903.818298	1737.643555	914.294922	1.256453
316.924866	900.920471	1716.913086	914.369324	1.648159
317.293884	893.267395	1705.916138	909.168152	1.956658
317.662872	896.165222	1710.300171	903.000977	0.839634
318.031830	900.846191	1710.597168	905.675964	0.596452
318.400757	910.802734	1721.445435	908.276428	-0.311642
318.769684	912.660339	1727.166626	915.483826	0.346650
319.138550	909.019470	1740.541382	910.282715	0.151920
319.507416	909.539551	1747.228516	911.322937	0.212894
319.876190	907.087585	1741.953125	908.425110	0.160208
320.244995	909.465271	1742.324585	913.626282	0.499605
320.613770	901.143372	1735.934570	914.963684	1.655541
320.982483	904.264099	1738.237793	915.112305	1.300785
321.351166	910.282654	1725.309082	910.579773	0.036455
321.719818	906.567566	1720.628296	904.338379	-0.273835
322.088440	904.189941	1733.259399	897.353943	-0.824539
322.457062	901.886414	1757.928101	900.474670	-0.164915
322.825623	908.053528	1785.345703	908.276550	0.025422
323.194183	908.499329	1798.571777	914.666504	0.692885
323.562653	904.412781	1826.138062	913.329041	0.967345
323.931183	905.973145	1854.521606	910.654114	0.493488
324.299591	904.487061	1887.660645	906.047363	0.158701
324.668060	907.756348	1905.121704	900.549011	-0.722638
325.036407	908.870911	1929.864624	896.685242	-1.193511
325.404755	914.517883	1940.787109	892.672852	-2.128587
325.773102	913.180481	1946.805664	900.103088	-1.265197
326.141388	915.409485	1942.124512	904.115540	-1.100008
326.509674	920.685059	1947.177124	908.499329	-1.187124
326.877899	918.753113	1956.093384	903.149597	-1.504185
327.246124	913.626221	1953.344116	906.047424	-0.728928
327.614288	907.384827	1954.087280	908.276550	0.085194
327.982422	905.824463	1949.480469	908.796570	0.284778
328.350525	910.282654	1953.938599	911.694336	0.135263
328.718628	907.756348	1952.675415	914.443542	0.639973
329.086700	908.870850	1958.025024	912.065918	0.304538
329.454712	904.487000	1968.576172	910.579834	0.572587
329.822693	901.663574	1968.204712	907.087585	0.508561
330.190674	902.629456	1977.418335	906.344543	0.345657
330.558563	913.774902	1989.158203	909.093750	-0.435301
330.926483	912.437500	2007.733765	909.093750	-0.305283
331.294312	911.545837	2020.513794	910.208313	-0.120610
331.662231	904.115479	2046.445435	907.830627	0.325226
332.029999	905.973083	2071.782959	906.121765	0.012754
332.397766	907.681946	2103.064209	909.688171	0.167831
332.765503	908.499329	2116.364502	904.561340	-0.326029
333.133240	914.815002	2144.896729	908.647949	-0.501353
333.500916	915.112305	2165.107178	913.106140	-0.160494
333.868561	914.146423	2184.797363	913.997742	-0.011701
334.236176	909.911194	2198.171631	913.997742	0.317214
334.603790	912.288879	2203.893066	909.539551	-0.212862
334.971344	907.384827	2207.905273	912.140198	0.365651
335.338867	908.573669	2209.391357	908.499329	-0.005715
335.706360	911.471436	2213.404053	906.418945	-0.388076
336.073853	914.146301	2226.703857	902.703796	-0.871772
336.441284	908.796631	2222.914307	909.242432	0.033924
336.808655	911.322815	2219.422363	909.093933	-0.170391
337.176086	916.301208	2201.069580	913.031921	-0.254465
337.543396	924.771667	2167.781738	917.712952	-0.567873
337.910706	918.233093	2136.871826	927.966736	0.798731
338.277954	913.626282	2134.791504	930.790100	1.405528
338.645264	912.214539	2189.106689	922.245300	0.785561
339.012421	907.310486	2273.217529	923.657043	1.196755
339.379669	906.716125	2350.418213	919.570374	0.890367
339.746796	909.242371	2395.593994	924.028625	0.994802
340.113953	919.793274	2419.816895	914.220703	-0.371499
340.481018	923.285583	2433.711182	916.598450	-0.442732
340.848114	920.164856	2447.234375	921.428040	0.082719
341.215118	911.025696	2456.299316	925.514648	0.937630
341.582153	905.824463	2469.302490	925.589050	1.264142
341.949066	905.601563	2476.658447	931.013123	1.617482
342.316010	906.418945	2499.023193	937.403137	1.945505
342.682922	914.443604	2512.620850	931.458923	1.064670
343.049835	912.065918	2535.431641	924.994629	0.796414
343.416656	919.273254	2554.156006	922.022461	0.168159
343.783478	908.722351	2583.134033	939.483582	1.837137
344.150269	912.660339	2654.464600	935.099670	1.288281
344.516998	905.230042	2717.993408	929.824219	1.356723
344.883728	910.208313	2785.832031	919.347473	0.487260
345.250427	906.344543	2813.100830	917.638489	0.592312
345.617065	908.499451	2832.568359	928.858215	1.058110
345.983704	902.778137	2831.230713	931.161682	1.471830
346.350281	900.177490	2822.537354	933.762390	1.747066
346.716827	897.576904	2808.568604	918.084473	1.073138
347.083405	901.589172	2802.327148	907.087646	0.289281
347.449860	919.644775	2801.881592	913.923523	-0.303960
347.816376	925.811951	2790.438721	930.195801	0.235106
348.182770	928.115295	2770.451172	937.923279	0.532367
348.549194	914.146423	2752.321289	931.013123	0.917579
348.915558	914.146301	2757.819580	925.440430	0.612588
349.281921	911.248535	2770.525391	933.539368	1.198898
349.648193	907.533447	2788.803955	933.390808	1.374463
350.014526	902.332214	2822.537354	927.743652	1.323371
350.380737	905.601563	2858.053955	919.050293	0.688812
350.746948	905.824402	2900.926758	924.994568	0.960861
351.113159	898.171204	2925.892578	928.858337	1.513380
351.479309	892.301453	2945.805664	933.985168	2.029882
351.845428	894.010315	2960.146240	928.115234	1.650662
352.211517	897.502625	2981.768311	933.762268	1.739684
352.577576	896.165100	3008.219971	929.898499	1.597184
352.943604	899.137268	3049.755127	931.681824	1.513265
353.309601	907.087646	3090.324219	932.499084	1.163934
353.675537	916.895569	3151.104248	935.099792	0.814795
354.041473	916.672668	3220.502686	944.833435	1.222346
354.407379	913.180481	3283.214111	942.678650	1.244631
354.773254	912.288818	3339.164063	951.669250	1.622681
355.139038	907.979309	3394.371094	945.725037	1.518093
355.504913	911.694336	3458.866211	948.845764	1.458536
355.870636	910.505554	3525.292236	946.245117	1.366825
356.236389	910.579834	3586.369141	943.347351	1.224593
356.602081	909.613953	3665.055908	941.266907	1.148743
356.967804	905.081543	3745.748779	944.907715	1.402001
357.333405	907.161926	3811.432373	952.486633	1.560623
357.699036	909.242371	3900.223877	950.331848	1.373779
358.064606	915.186707	4004.545166	949.143005	1.099138
358.430176	914.740906	4100.767578	950.628967	1.126421
358.795654	908.796631	4159.986328	946.468079	1.158697
359.161163	913.551941	4169.051270	954.567078	1.259872
359.526581	914.815125	4173.435059	957.390564	1.306548
359.892029	918.976074	4181.534668	965.043762	1.412011
360.257416	910.505554	4246.177734	954.641418	1.323148
360.622772	905.155762	4349.235840	951.446350	1.344062
360.988098	899.954590	4498.955078	959.916809	1.666080
361.353394	902.034973	4643.027832	966.455383	1.722014
361.718658	913.403320	4809.912109	971.879578	1.500735
362.083893	914.889404	4922.406738	971.582336	1.414665
362.449097	907.459167	5024.350098	977.526550	1.701949
362.814209	903.075195	5050.355957	976.932129	1.780852
363.179382	901.366272	4975.830566	977.526611	1.869211
363.544434	904.412781	4804.859863	973.662903	1.775441
363.909546	897.799805	4574.818359	969.947693	1.962130
364.274536	907.384827	4408.752441	963.929199	1.614922
364.639587	913.626282	4260.369629	957.762024	1.318767
365.004517	915.335266	4186.363770	951.892090	1.117594
365.369507	908.945129	4124.692871	946.245117	1.159916
365.734344	918.381592	4097.720703	951.223450	1.032977
366.099274	918.530212	4082.265625	955.681641	1.174290
366.464081	917.489990	4056.557373	956.796143	1.252160
366.828918	911.025635	4057.374268	945.725037	1.102847
367.193665	913.477539	4057.300049	942.307129	0.917023
367.558411	913.180420	4082.785889	949.886047	1.158050
367.923126	896.165100	4096.680176	958.430908	1.945493
368.287781	894.084656	4097.794922	969.947754	2.367976
368.652435	889.552246	4092.816650	967.792908	2.442529
369.017059	900.028809	4076.247314	966.826965	2.103072
369.381653	905.230042	4065.993408	950.926208	1.445732
369.746185	910.282715	4065.621826	954.790039	1.410540
370.110687	911.248596	4087.169678	953.749756	1.338231
370.475220	900.325989	4120.234863	962.220215	1.922235
370.839661	903.446777	4145.423340	965.340820	1.909145
371.204041	898.542786	4178.933594	966.678406	2.077058
371.568451	902.332214	4217.422363	971.433777	2.084455
371.932770	902.480774	4269.137207	965.861145	1.882591
372.297150	902.703796	4314.981934	968.090149	1.916208
372.661377	903.743958	4339.056152	959.545410	1.624349
373.025696	894.902039	4350.869629	957.836426	1.821035
373.389862	893.638855	4355.774414	957.316223	1.839251
373.754059	897.651184	4363.724121	959.025208	1.770708
374.118225	903.669678	4395.525879	956.350281	1.508670
374.482361	906.716064	4421.085938	950.554688	1.247411
374.846436	906.270264	4471.314941	951.966492	1.281786
375.210510	907.236145	4539.302246	954.418457	1.299049
375.574524	910.654114	4636.638184	966.455505	1.497628
375.938538	908.350769	4738.061523	977.006531	1.792714
376.302460	905.824463	4820.463379	977.080750	1.820252
376.666412	907.533386	4913.936035	977.823730	1.754450
377.030304	912.957520	4996.561035	975.594666	1.533869
377.394196	918.010010	5097.314941	980.572998	1.496971
377.757996	920.016296	5184.770020	981.464661	1.440842
378.121796	913.031921	5251.122070	980.944519	1.565495
378.485565	907.682068	5264.421875	977.155029	1.594609
378.849304	892.227051	5233.363281	969.873352	1.788617
379.212982	900.771912	5167.382813	970.616394	1.637002
379.576630	905.527283	5057.711426	973.291321	1.632010
379.940277	914.963684	4973.526855	979.309814	1.585441
380.303864	912.734558	4909.849121	972.845520	1.503859
380.667450	910.059631	4907.322754	967.421387	1.435026
381.030945	909.242371	4908.140625	962.517517	1.332246
381.394501	907.756287	4923.669922	966.455505	1.461665
381.757935	907.087646	4953.093750	968.610291	1.520577
382.121399	908.053528	4967.731445	966.232483	1.433093
382.484741	906.493164	4990.914063	959.248047	1.291612
382.848145	906.939026	5027.395996	963.037598	1.361465
383.211487	907.533447	5075.321777	966.306885	1.410183
383.574768	910.059753	5160.397949	975.594727	1.541877
383.938019	901.217590	5217.313965	987.557434	2.000415
384.301270	902.629395	5300.533203	988.523438	1.953068
384.664459	899.360107	5356.260254	986.368652	1.952221
385.027649	903.149597	5388.804688	978.789795	1.686269
385.390778	903.521057	5434.798340	979.978577	1.687328
385.753876	904.115540	5458.500977	978.938416	1.642875
386.116943	907.013367	5521.063965	982.133301	1.628069
386.479980	904.264099	5538.822266	980.052917	1.635298
386.842987	902.555176	5572.777832	983.173584	1.726222
387.205994	903.372498	5602.871094	977.823792	1.584239
387.568909	903.446777	5638.833496	981.687500	1.652256
387.931793	907.087646	5684.009277	983.916565	1.608335
388.294678	911.471497	5740.925781	985.031250	1.523148
388.657471	903.966980	5778.150879	982.281982	1.606730
389.020294	900.028809	5792.045410	985.848572	1.754282
389.383057	891.706970	5770.869629	993.873230	2.093930
389.745819	900.549011	5779.562500	1002.863770	2.097038
390.108521	905.750183	5798.881348	1002.938171	1.986212
390.471191	907.013367	5867.537109	1002.120789	1.917286
390.833801	903.372559	5957.963379	1000.337585	1.918356
391.196442	906.047363	6082.049316	1005.464417	1.920731
391.558960	905.898865	6188.748047	1002.195068	1.822808
391.921509	914.443604	6308.746582	1002.269348	1.628120
392.284027	907.607727	6417.377441	997.216797	1.626367
392.646484	907.830627	6540.497559	999.742981	1.631773
393.008911	903.966980	6575.196777	1001.972168	1.728112
393.371307	907.904968	6601.722656	1013.563416	1.855670
393.733673	910.802795	6554.614746	1016.164001	1.866845
394.096008	910.505615	6523.853516	1009.922546	1.771081
394.458344	905.007141	6525.785156	1003.681152	1.755522
394.820587	905.304382	6547.481934	1001.897949	1.711991
395.182831	902.480896	6600.310547	1006.430420	1.824371
395.545013	907.161926	6581.437500	1002.566650	1.681355
395.907196	906.047363	6534.478516	1002.789551	1.718813
396.269287	910.877014	6440.856934	1010.368347	1.799127
396.631409	902.480896	6347.458984	1005.835938	1.898172
396.993469	897.576904	6264.239746	1000.857666	1.924487
397.355530	894.233215	6202.865234	985.105469	1.711783
397.717499	903.000977	6177.378906	986.591553	1.584842
398.079468	918.455872	6171.212402	990.901062	1.379184
398.441376	913.106140	6203.683105	1003.458191	1.707792
398.803284	909.539612	6233.701172	997.662598	1.655152
399.165131	899.285889	6279.248535	1002.269348	1.914204
399.526978	907.384766	6306.220703	994.244629	1.608863
399.888763	910.431152	6313.576660	1002.492249	1.703843
400.250519	912.288818	6328.139160	997.365417	1.570882
400.612244	913.997742	6350.505371	1006.727539	1.705687
400.973938	912.660339	6385.130371	1010.219727	1.782730
401.335602	917.638489	6395.234863	1011.185730	1.707816
401.697205	916.152527	6415.520020	1011.260071	1.729427
402.058807	916.226868	6443.606934	1004.498535	1.596989
402.420349	910.505554	6530.169434	1007.099121	1.718850
402.781860	910.877014	6606.032715	1005.390137	1.659535
403.143341	910.431213	6711.170410	1008.659424	1.693374
403.504822	916.301208	6801.299316	1011.111389	1.611049
403.866241	913.254822	6931.478027	1018.170166	1.743294
404.227631	913.477722	7074.361816	1029.910034	1.889864
404.588959	905.304382	7238.422363	1035.557007	2.056690
404.950287	906.493164	7362.062012	1031.693237	1.939412
405.311554	911.100037	7439.114746	1032.510498	1.859837
405.672821	912.437439	7490.011719	1032.584839	1.826622
406.034027	911.397217	7484.810059	1035.779907	1.892209
406.395203	903.669739	7422.470215	1027.012085	1.892102
406.756348	896.239441	7352.923340	1022.256836	1.951735
407.117493	897.056824	7324.390625	1023.742859	1.971051
407.478516	899.805969	7346.235840	1029.984375	2.019388
407.839600	911.768738	7342.817871	1034.070923	1.901745
408.200592	907.384827	7357.529785	1035.557007	1.987121
408.561554	901.737793	7331.820313	1033.550781	2.049942
408.922485	899.285828	7351.288574	1024.560181	1.941635
409.283417	903.595398	7349.430176	1016.609863	1.753294
409.644257	903.298157	7426.556641	1014.529297	1.705147
410.005096	899.954590	7507.398438	1023.074158	1.863346
410.365906	898.022644	7608.227051	1035.779907	2.052952
410.726715	900.697571	7699.099609	1044.324707	2.112660
411.087433	902.555176	7789.822754	1043.135742	2.041166
411.448120	899.583069	7855.729004	1037.860229	1.987842
411.808807	900.994812	7875.567871	1033.625122	1.901626
412.169434	900.771790	7815.011719	1032.287598	1.902101
412.530029	901.143372	7784.102051	1032.361938	1.906427
412.890564	903.521057	7783.061035	1029.018433	1.824212
413.251099	903.743958	7816.126465	1034.442505	1.890789
413.611572	906.938965	7858.478027	1037.563232	1.879070
413.972076	911.322815	7914.576660	1045.439331	1.915060
414.332489	911.471436	7982.638184	1051.086304	1.974425
414.692871	920.239197	8089.708496	1047.445435	1.774277
415.053223	917.267090	8185.781738	1045.885132	1.769523
415.413574	917.564270	8353.780273	1048.708618	1.763590
415.773834	910.208313	8459.364258	1053.538330	1.898623
416.134094	907.607727	8569.407227	1053.612549	1.905621
416.494263	902.703796	8658.718750	1058.739380	2.011801
416.854462	905.378662	8851.459961	1066.318359	2.025397
417.214630	910.951355	9091.680664	1079.246948	2.057220
417.574738	913.403320	9334.948242	1076.943481	1.941926
417.934784	908.796570	9579.775391	1083.928101	2.019744
418.294861	906.418945	9849.866211	1087.568970	2.025506
418.654846	907.904968	10161.194336	1090.541016	1.973742
419.014832	915.260925	10510.863281	1087.420288	1.794149
419.374756	911.174255	10879.776367	1096.559448	1.859691
419.734680	909.613953	11311.920898	1117.958740	2.002871
420.094543	904.784180	11695.545898	1130.218750	2.089144
420.454376	901.812073	12054.352539	1126.354858	2.013378
420.814148	910.505554	12426.535156	1124.125854	1.854982
421.173920	903.966858	12828.066406	1135.271362	1.939807
421.533691	911.099915	13246.093750	1149.983276	1.936631
421.893341	904.041260	13536.543945	1156.224609	1.996305
422.253021	909.985413	13741.545898	1153.475464	1.897587
422.612640	904.412781	13768.590820	1153.995605	1.940138
422.972260	910.282654	13719.700195	1149.091675	1.864324
423.331757	910.802734	13638.339844	1149.611694	1.876317
423.691315	915.929688	13634.921875	1149.834595	1.839021
424.050781	913.477722	13736.493164	1155.110107	1.884365
424.410248	910.282532	13824.913086	1159.568237	1.930258
424.769653	910.877014	13953.010742	1152.360840	1.851567
425.128998	913.849121	14013.937500	1151.097778	1.811046
425.488373	912.808899	13980.428711	1147.159790	1.793371
425.847656	909.985413	13865.333008	1158.899536	1.921323
426.206940	909.539612	13710.413086	1158.082275	1.941607
426.566193	915.706787	13493.671875	1149.760376	1.860822
426.925385	911.545837	13250.627930	1138.020508	1.835426
427.284576	901.069153	12916.785156	1127.469360	1.884201
427.643677	895.719238	12676.934570	1126.503540	1.958918
428.002777	899.285828	12404.765625	1121.153809	1.928368
428.361847	900.549011	12122.339844	1124.125854	1.992345
428.720856	901.069092	11877.066406	1118.776001	1.983482
429.079865	899.880188	11705.204102	1119.519043	2.032691
429.438812	903.595276	11593.675781	1117.215820	1.998306
429.797760	906.864746	11499.385742	1119.964966	2.011799
430.156616	912.437500	11394.916992	1113.500488	1.918086
430.515503	911.768738	11337.109375	1110.082642	1.902229
430.874268	909.688232	11301.145508	1114.912354	1.974931
431.233093	903.149597	11312.664063	1117.141479	2.055733
431.591827	901.440613	11379.981445	1121.451050	2.099628
431.950562	909.093811	11422.186523	1121.005249	2.015691
432.309204	909.465332	11482.668945	1119.593384	1.987364
432.667877	910.951416	11554.965820	1114.169312	1.909222
433.026459	905.527344	11672.213867	1111.643066	1.914384
433.385010	903.892578	11796.002930	1129.847168	2.074479
433.743561	904.561279	11954.416992	1143.816040	2.165230
434.102051	899.954590	12105.622070	1161.128540	2.330731
434.460510	899.805908	12269.756836	1160.905640	2.296402
434.818939	895.050537	12305.273438	1155.927368	2.286343
435.177338	897.428223	12354.239258	1153.326782	2.233593
435.535675	900.326111	12309.731445	1151.692139	2.203147
435.894012	902.109375	12306.165039	1151.766479	2.189196
436.252289	901.291992	12308.542969	1145.822266	2.143639
436.610535	904.189758	12325.334961	1150.131836	2.153392
436.968719	913.997864	12394.362305	1159.196777	2.135811
437.326935	916.747009	12491.328125	1161.202881	2.112006
437.685028	916.524109	12597.432617	1159.716919	2.081968
438.043152	911.545715	12723.153320	1154.738525	2.058931
438.401215	902.183594	12889.887695	1158.602295	2.139014
438.759277	901.069092	13077.948242	1159.716797	2.124089
439.117249	904.784241	13364.532227	1168.113159	2.113437
439.475250	912.660400	13596.655273	1175.320435	2.070799
439.833130	914.592285	13918.237305	1184.979858	2.079321
440.191071	904.487061	14160.390625	1201.920776	2.243783
440.548889	897.205383	14441.476563	1209.128174	2.302987
440.906708	896.982422	14722.489258	1209.053833	2.257215
441.264496	904.932800	14914.116211	1203.332520	2.130029
441.622223	915.038025	15102.695313	1210.019775	2.079144
441.979950	909.613831	15202.632813	1214.477905	2.132958
442.337616	909.539612	15311.114258	1215.369629	2.123587
442.695251	909.911133	15235.698242	1208.756714	2.086067
443.052887	912.288879	15067.625000	1211.728760	2.115385
443.410461	910.951355	14887.961914	1211.282837	2.148753
443.768005	906.716064	14771.604492	1206.156006	2.159700
444.125458	904.561340	14690.317383	1206.453247	2.189883
444.482941	910.505554	14707.109375	1194.193359	2.056215
444.840393	909.390930	14784.680664	1200.731934	2.099711
445.197754	912.214539	15016.432617	1206.676147	2.087756
445.555084	904.635559	15248.551758	1222.279663	2.214487
445.912415	909.019531	15593.762695	1227.480835	2.168654
446.269714	906.641785	15863.183594	1221.239502	2.103412
446.626953	909.390930	16187.664063	1224.285889	2.061064
446.984161	913.477600	16497.134766	1224.731812	1.997312
447.341309	920.907898	16730.222656	1232.979492	1.973973
447.698456	919.273254	16892.203125	1230.155884	1.946309
448.055542	916.003906	16948.376953	1236.248657	1.997488
448.412598	916.895569	16908.474609	1233.425171	1.979352
448.769653	914.666504	16774.582031	1235.059937	2.020146
449.126617	916.524109	16505.904297	1230.378906	2.013260
449.483582	919.124695	16341.992188	1232.682129	2.033068
449.840515	924.102966	16095.083008	1234.614014	2.046743
450.197388	919.570496	15961.414063	1231.344727	2.072713
450.554230	912.734619	15751.953125	1226.960815	2.117539
450.911041	912.140198	15649.788086	1220.570801	2.092808
451.267822	908.499329	15498.433594	1218.564575	2.125200
451.624573	903.669678	15348.192383	1213.660522	2.146079
451.981262	893.936035	15172.541992	1212.769043	2.232942
452.337921	901.589172	15057.742188	1206.230347	2.152005
452.694580	902.183594	15027.206055	1203.109741	2.130447
453.051147	914.740723	15097.272461	1201.177856	2.019647
453.407715	914.443542	15071.565430	1203.481323	2.041642
453.764221	918.307312	15127.067383	1205.264404	2.019579
454.120728	907.682068	14958.772461	1203.332520	2.104110
454.477142	908.796570	14880.977539	1203.704102	2.110677
454.833557	907.756348	14697.002930	1207.122070	2.171009
455.189911	912.140198	14571.581055	1208.979492	2.173144
455.546265	904.709961	14414.208008	1199.617432	2.182964
455.902557	900.697571	14327.273438	1198.057007	2.214708
456.258820	903.298157	14331.062500	1194.416260	2.168031
456.615051	909.019531	14412.870117	1200.434692	2.158015
456.971252	912.734680	14413.464844	1201.252075	2.137050
457.327393	909.836853	14596.250000	1206.527588	2.167776
457.683502	907.384949	14811.504883	1216.335571	2.222008
458.039612	906.121765	15186.065430	1222.131226	2.212960
458.395630	910.654114	15504.972656	1229.412964	2.184130
458.751648	910.059753	15822.913086	1237.437622	2.195273
459.107605	917.415710	16351.577148	1256.013184	2.193818
459.463562	914.889404	16893.837891	1275.703491	2.258059
459.819458	920.982178	17511.888672	1283.579468	2.185518
460.175323	913.700500	18034.013672	1279.418579	2.136165
460.531158	912.957520	18651.025391	1286.180054	2.104077
460.886932	902.629456	19050.103516	1302.898315	2.205645
461.242676	908.722351	19245.148438	1310.477051	2.191020
461.598419	911.397217	19049.656250	1304.978760	2.169897
461.954102	916.821289	18629.773438	1276.520874	2.030715
462.309723	912.511719	18026.732422	1273.920044	2.111743
462.665344	911.545715	17397.388672	1257.944946	2.101192
463.020905	911.694336	16938.716797	1265.598145	2.208169
463.376373	907.682068	16629.767578	1250.217407	2.178689
463.731873	905.230042	16381.668945	1248.359985	2.217112
464.087341	899.211487	16143.752930	1241.078369	2.242553
464.442749	901.589172	15972.335938	1247.468384	2.295037
464.798126	902.480774	15854.121094	1254.229858	2.352578
465.153503	903.149597	15892.386719	1254.972900	2.347173
465.508820	903.000977	15944.324219	1258.167847	2.361274
465.864105	908.202148	16054.143555	1258.242188	2.311115
466.219330	909.242432	16282.473633	1269.164673	2.341227
466.574524	915.855408	16442.150391	1271.245239	2.288954
466.929657	909.316711	16679.845703	1276.743652	2.329833
467.284790	923.880066	16902.085938	1284.545410	2.257233
467.639893	913.254700	17177.451172	1280.978882	2.260943
467.994934	921.427979	17409.646484	1286.700195	2.215353
468.349945	907.310486	17512.111328	1279.938843	2.244100
468.704926	918.753113	17499.626953	1286.848755	2.220001
469.059875	915.409485	17307.630859	1276.075073	2.200224
469.414764	914.072083	17068.150391	1276.223511	2.241858
469.769653	905.750244	16846.136719	1272.434082	2.300345
470.124451	900.697571	16746.570313	1273.697266	2.353923
470.479248	907.607727	16616.615234	1264.706665	2.273211
470.834015	915.335266	16586.595703	1264.409302	2.227479
471.188721	918.753174	16632.591797	1260.917114	2.177469
471.543365	907.087646	16705.628906	1263.146118	2.253743
471.898010	907.310547	16784.761719	1263.963501	2.246286
472.252625	906.716125	16909.666016	1273.623047	2.292746
472.607178	916.152527	17130.121094	1284.322632	2.270697
472.961700	914.517883	17302.726563	1288.409180	2.281465
473.316193	914.443665	17573.039063	1294.204956	2.279672
473.670654	909.093811	17796.095703	1298.737183	2.307357
474.025055	902.778076	18102.371094	1306.687622	2.348367
474.379456	895.124939	18297.267578	1308.842407	2.377394
474.733795	900.846191	18448.324219	1311.071655	2.337803
475.088104	899.731628	18548.335938	1308.396606	2.315566
475.442383	912.883240	18539.123047	1310.179810	2.254006
475.796570	915.483887	18566.541016	1317.387207	2.276936
476.150787	919.941956	18683.123047	1321.102417	2.258382
476.504944	909.391052	18883.740234	1320.136475	2.285175
476.859070	907.236267	19188.900391	1320.433716	2.260174
477.213135	905.230042	19427.636719	1331.207642	2.299796
477.567200	900.623291	19834.294922	1349.114624	2.368750
477.921173	894.902039	20165.089844	1358.402222	2.405271
478.275146	892.152771	20631.412109	1374.303101	2.442596
478.629089	902.555115	20921.490234	1377.423828	2.372098
478.983002	906.864685	21302.439453	1388.792114	2.362902
479.336823	916.375427	21665.408203	1392.061523	2.292570
479.690643	912.808899	22080.835938	1406.401978	2.331786
480.044403	914.963684	22603.556641	1426.166504	2.357012
480.398163	908.276550	23203.103516	1452.618164	2.441560
480.751862	912.734680	24024.150391	1476.097778	2.437597
481.105499	916.598389	24994.099609	1504.258667	2.440703
481.459137	918.901855	26274.556641	1520.902344	2.374226
481.812744	915.038086	27772.572266	1562.660522	2.411325
482.166290	910.282715	29569.068359	1609.842773	2.440997
482.519806	910.356934	31660.466797	1687.191772	2.526283
482.873291	902.257996	34154.808594	1752.355347	2.556488
483.226715	898.988586	37164.441406	1831.487793	2.571316
483.580139	895.644958	40380.410156	1909.877319	2.568668
483.933502	911.248535	43945.230469	1995.771118	2.520154
484.286804	915.335266	47304.675781	2068.290527	2.485389
484.640106	911.471497	50362.015625	2119.262207	2.442422
484.993347	903.000977	52446.875000	2141.181641	2.402188
485.346558	900.400391	53389.406250	2128.995850	2.340672
485.699738	905.750183	52971.750000	2079.064453	2.253513
486.052887	903.372498	51337.906250	2022.445801	2.218863
486.405975	904.561340	48924.921875	1968.650757	2.215913
486.759064	911.843018	46348.175781	1937.889282	2.258207
487.112061	917.118469	44408.730469	1923.400269	2.313738
487.464996	913.106140	43463.300781	1914.855469	2.354277
487.817963	908.722351	43525.792969	1919.610718	2.372027
488.170868	913.997803	43949.394531	1929.270142	2.359156
488.523743	912.585999	44578.511719	1933.133789	2.337172
488.876587	910.728455	44945.718750	1931.870605	2.318933
489.229401	911.322815	44917.855469	1921.394043	2.295276
489.582153	913.700500	44116.277344	1906.013306	2.296883
489.934845	916.449768	42842.574219	1883.499634	2.306557
490.287537	909.168152	41350.652344	1846.348267	2.317373
490.640198	908.647949	40142.785156	1830.670410	2.350052
490.992798	908.499329	39238.894531	1819.599243	2.376965
491.345337	903.743958	38971.183594	1839.363770	2.457795
491.697876	904.561279	39109.457031	1843.301758	2.457121
492.050354	913.551941	39843.644531	1859.054077	2.428718
492.402832	921.948242	40642.921875	1860.911621	2.363898
492.755219	920.090576	41132.355469	1860.763062	2.339267
493.107605	906.195984	40913.980469	1840.775513	2.335994
493.459930	909.242371	39941.281250	1801.395142	2.285693
493.812225	911.025635	38239.750000	1755.030273	2.261006
494.164490	906.938965	36070.550781	1692.987671	2.235404
494.516724	894.381836	33802.683594	1645.879517	2.283611
494.868896	897.799805	31804.091797	1611.923218	2.310608
495.221039	902.852356	30358.531250	1594.164917	2.346958
495.573120	907.087646	29258.255859	1578.264160	2.367368
495.925201	909.613953	28709.158203	1578.932739	2.407661
496.277222	912.437317	28362.908203	1585.322876	2.451272
496.629211	911.991516	28357.412109	1599.366211	2.504515
496.981140	915.409485	28403.181641	1596.245483	2.476869
497.333069	910.802734	28553.271484	1596.245483	2.479673
497.684967	905.898865	28714.361328	1601.223633	2.500407
498.036804	894.827637	28845.728516	1601.892212	2.529666
498.388580	899.657410	28867.054688	1600.109009	2.504529
498.740326	901.960754	28783.388672	1591.564331	2.473344
499.092072	908.573669	28557.134766	1580.790405	2.431290
499.443756	905.378662	28227.603516	1566.301392	2.418993
499.795410	914.740784	27831.791016	1549.508911	2.358238
500.147003	912.363098	27475.509766	1543.861938	2.377350
500.498566	908.647949	27137.062500	1549.731812	2.444234
500.850098	904.115479	26809.757813	1541.855835	2.461782
501.201599	897.874023	26527.781250	1527.218140	2.455507
501.553009	906.344543	26240.228516	1514.958130	2.402370
501.904449	909.613831	26047.787109	1521.125366	2.432601
502.255859	922.988464	25831.490234	1527.292480	2.426095
502.607178	924.994568	25783.416016	1523.354370	2.407071
502.958405	917.861511	25666.833984	1518.673340	2.427623
503.309692	911.322754	25587.181641	1520.010742	2.466735
503.660919	905.155701	25590.896484	1524.691772	2.509692
504.012115	911.025635	25638.525391	1523.577148	2.477208
504.363251	910.877136	25761.201172	1530.858887	2.494864
504.714294	913.403381	25859.427734	1540.146851	2.512398
505.065369	912.363098	25966.273438	1545.050781	2.525305
505.416443	907.830627	26050.013672	1542.673218	2.525010
505.767395	898.840027	26060.267578	1546.165405	2.572689
506.118317	894.010437	26072.677734	1551.440796	2.611061
506.469238	889.180664	26078.248047	1549.137329	2.620013
506.820160	901.514893	26064.056641	1540.741211	2.540389
507.170929	908.870850	26076.242188	1539.849609	2.507130
507.521729	917.861511	26090.435547	1548.468628	2.505136
507.872498	920.462097	26205.603516	1555.676147	2.512203
508.223236	915.855408	26382.445313	1556.047485	2.513851
508.573883	916.226868	26615.085938	1555.601929	2.487951
508.924500	904.858582	26823.578125	1563.775024	2.542242
509.275116	904.338379	27041.435547	1580.195923	2.585817
509.625702	898.245605	27280.023438	1589.261108	2.619291
509.976196	903.298096	27557.244141	1594.907837	2.594774
510.326660	903.966980	27817.525391	1595.502319	2.569468
510.677124	910.134094	28048.533203	1602.635376	2.551740
511.027557	907.979309	28271.962891	1604.938843	2.546996
511.377869	908.499329	28484.095703	1617.347290	2.570563
511.728180	909.093750	28620.814453	1622.102539	2.572950
512.078430	918.158691	28676.466797	1624.703125	2.545344
512.428650	922.839844	28806.646484	1617.198608	2.490186
512.778931	920.462097	28941.578125	1625.297729	2.515373
513.129028	911.174316	29087.210938	1634.808228	2.568260
513.479126	910.802734	29139.593750	1643.427368	2.595310
513.829285	910.356934	29146.875000	1647.514038	2.610652
514.179382	912.511719	29084.164063	1643.278931	2.593981
514.529297	906.939026	28995.447266	1634.957153	2.591872
514.879272	905.081482	28992.250000	1631.167603	2.585117
515.229187	905.378723	28869.875000	1638.003540	2.619839
515.579163	906.938965	28885.033203	1642.610352	2.629455
515.928955	911.620056	28873.740234	1643.650513	2.617936
516.278748	909.613831	29075.992188	1647.217163	2.618737
516.628540	911.842957	29314.650391	1660.517212	2.635916
516.978333	915.483887	29670.710938	1675.006348	2.641337
517.327942	922.171082	30115.562500	1686.820435	2.619255
517.677612	924.028625	30611.458984	1707.922363	2.640491
518.027222	914.815125	31211.525391	1722.039917	2.664397
518.376831	898.691406	32020.015625	1744.330688	2.717234
518.726379	891.558350	32803.906250	1750.052124	2.690162
519.075867	896.462341	33501.906250	1764.317993	2.661690
519.425293	911.099915	34020.988281	1775.686523	2.611264
519.774658	912.660339	34380.093750	1788.689453	2.617557
520.124084	908.499329	34589.925781	1778.732910	2.583719
520.473389	898.245605	34449.566406	1759.637085	2.567385
520.822693	901.960754	34134.152344	1740.764160	2.524069
521.171997	905.750183	33603.332031	1735.414429	2.537387
521.521240	922.022461	33032.832031	1730.733276	2.518500
521.870361	923.805847	32546.451172	1732.293579	2.556673
522.219482	921.353760	32179.099609	1725.606445	2.572971
522.568604	910.356934	31911.085938	1722.782837	2.620667
522.917664	908.499329	31696.351563	1719.587891	2.634444
523.266724	912.660339	31653.103516	1718.176147	2.620378
523.615662	917.044128	31850.976563	1725.903687	2.614797
523.964600	916.523987	32215.056641	1746.708374	2.652471
524.313538	913.774841	32734.656250	1782.596680	2.730351
524.662354	907.013245	33359.542969	1805.407593	2.768334
525.011169	911.471497	34174.128906	1820.342407	2.732406
525.359985	913.552002	35149.496094	1829.927368	2.676647
525.708740	909.836914	36349.042969	1858.311157	2.676342
526.057434	911.843079	37734.042969	1896.651245	2.674496
526.406067	904.932922	39261.703125	1935.585815	2.687017
526.754700	912.883301	40906.542969	1987.151978	2.686097
527.103333	911.620117	42654.964844	2033.293945	2.687072
527.451782	908.573669	44568.703125	2090.507080	2.707123
527.800293	908.127869	46470.332031	2157.973877	2.743164
528.148743	898.022644	48456.890625	2227.001221	2.794386
528.497131	895.942200	50409.566406	2303.532959	2.842835
528.845642	896.462341	52352.808594	2365.204102	2.854345
529.193909	901.366272	54091.113281	2418.256104	2.851846
529.542175	910.431213	55492.246094	2439.506836	2.801438
529.890503	910.728455	56348.285156	2433.785400	2.747338
530.238770	906.493164	56516.582031	2397.154297	2.680559
530.586914	908.647949	55996.761719	2348.634521	2.613970
530.934998	908.647949	54670.082031	2274.257568	2.540129
531.283142	917.564270	52770.167969	2209.242920	2.491058
531.631226	915.483887	50308.890625	2145.788330	2.490827
531.979248	909.539734	47854.296875	2096.079834	2.527524
532.327148	896.165222	45808.593750	2062.718018	2.597394
532.675110	893.490234	44533.187500	2058.854248	2.670422
533.023071	901.143372	44074.738281	2069.628174	2.706481
533.370850	908.722351	44192.582031	2087.237793	2.722759
533.718689	911.620117	44732.839844	2088.426514	2.685472
534.066467	917.638611	45393.906250	2103.287109	2.665800
534.414246	911.620056	45914.917969	2103.064209	2.647460
534.761963	911.322937	46128.093750	2112.129150	2.655665
535.109619	907.756348	45945.609375	2084.042725	2.611773
535.457153	914.517883	45243.894531	2046.594116	2.553783
535.804749	909.539551	44154.687500	2002.681152	2.527779
536.152344	905.155701	42888.425781	1984.700073	2.571368
536.499817	910.134033	41646.824219	1979.796021	2.625795
536.847229	912.883301	40602.796875	1976.898071	2.680819
537.194641	910.728516	39857.687500	1974.223267	2.730623
537.542114	907.533386	39470.125000	1964.415405	2.740693
537.889404	908.647949	39191.640625	1945.022461	2.707141
538.236694	912.363037	38917.015625	1921.839966	2.656193
538.583984	906.418884	38567.199219	1906.161987	2.654600
538.931213	906.938965	38274.296875	1901.629517	2.661924
539.278381	901.514893	37939.789063	1893.456055	2.678152
539.625488	903.223877	37664.273438	1909.059692	2.736145
539.972595	907.682068	37604.609375	1932.613770	2.792963
540.319641	907.013367	37977.457031	1965.158325	2.854417
540.666687	908.499329	38825.550781	2003.944336	2.889057
541.013611	907.533447	40192.199219	2048.377441	2.904044
541.360596	912.140198	41743.566406	2109.157227	2.931607
541.707458	907.384827	43528.613281	2148.166260	2.911182
542.054260	907.756348	45098.855469	2168.748047	2.853497
542.401062	901.514893	46615.222656	2171.794189	2.778771
542.747864	905.007141	47636.437500	2177.366943	2.722707
543.094666	905.007141	48030.093750	2173.280029	2.691290
543.441284	910.802734	47551.656250	2153.664307	2.664749
543.787903	913.997803	46396.847656	2103.510010	2.615298
544.134460	911.397156	44834.261719	2052.315430	2.597550
544.481079	911.025635	43159.328125	2009.442749	2.599908
544.827637	908.425049	41384.386719	1989.009399	2.669694
545.174072	911.322754	39674.234375	1971.919922	2.736113
545.520508	907.013245	38146.718750	1937.146362	2.766222
545.866943	910.356934	36912.476563	1902.372681	2.755437
546.213318	907.682068	35982.949219	1885.654419	2.788211
546.559631	912.065918	35240.519531	1887.289063	2.840860
546.905823	910.505554	34658.652344	1879.190063	2.870334
547.252136	911.100037	34213.433594	1854.744507	2.833569
547.598389	904.932800	33854.402344	1827.698242	2.800547
547.944458	910.505554	33646.203125	1809.791382	2.747111
548.290588	914.072083	33287.621094	1799.091797	2.733774
548.636658	923.880066	32788.750000	1786.757446	2.707927
548.982727	908.350830	32079.904297	1767.290405	2.755524
549.328735	904.264160	31343.634766	1747.154175	2.769078
549.674622	895.199219	30525.861328	1718.547485	2.778704
550.020569	897.279602	29687.501953	1696.256836	2.775169
550.366455	897.948303	28833.244141	1668.393188	2.757962
550.712280	905.601563	28134.353516	1666.089844	2.792960
551.058044	915.706726	27574.037109	1654.795776	2.772451
551.403748	909.316711	27148.060547	1653.458374	2.836041
551.749512	907.087585	26835.021484	1644.987915	2.845967
552.095154	905.378662	26642.875000	1639.192261	2.851146
552.440735	915.855286	26594.650391	1646.027954	2.843485
552.786316	914.666504	26572.734375	1642.164429	2.835357
553.131897	915.855286	26651.345703	1653.607056	2.866671
553.477417	908.425110	26753.882813	1639.489624	2.828600
553.822815	910.579895	26910.218750	1647.291382	2.833545
554.168213	912.883240	26953.757813	1644.021851	2.807658
554.513672	916.969788	26922.773438	1646.028198	2.803445
554.859009	913.849121	26731.296875	1628.121094	2.766625
555.204285	910.951416	26535.583984	1621.954102	2.774684
555.549500	909.911133	26262.890625	1618.684692	2.795622
555.894714	911.545837	26011.228516	1617.347290	2.811993
556.239990	906.195984	25649.968750	1615.192505	2.865353
556.585022	906.790344	25359.224609	1611.031616	2.880046
556.930115	906.493164	25091.210938	1609.768555	2.907933
557.275146	907.013245	24870.460938	1592.604614	2.860988
557.620178	906.716064	24676.453125	1580.790405	2.835851
557.965149	908.870850	24494.187500	1576.035034	2.828727
558.310059	908.276428	24322.548828	1572.022583	2.834793
558.654968	908.796570	24181.599609	1574.400391	2.860007
558.999756	903.075378	24073.859375	1571.576782	2.885105
559.344604	903.892639	24069.400391	1576.629395	2.904045
559.689331	895.570740	23998.740234	1582.276489	2.972344
560.033997	901.291992	23930.601563	1588.815063	2.985426
560.378723	909.836853	23894.046875	1594.833618	2.980293
560.723389	920.536377	23905.337891	1584.208374	2.887439
561.067932	918.010071	23981.724609	1582.573730	2.881425
561.412476	911.025635	23951.779297	1576.703735	2.889133
561.757019	906.195984	23946.726563	1586.065918	2.950756
562.101501	908.499329	23964.335938	1583.465332	2.927528
562.445862	910.208313	24021.474609	1581.161987	2.903146
562.790222	910.877014	24023.630859	1581.013306	2.899422
563.134644	907.830566	24046.070313	1571.056641	2.866364
563.478943	906.567566	24011.962891	1581.236206	2.919961
563.823181	904.709961	23974.367188	1575.440552	2.907415
564.167358	900.549011	23929.041016	1587.106079	2.981338
564.511536	903.000977	23964.041016	1590.226929	2.980030
564.855774	898.171326	23967.085938	1593.496094	3.014120
565.199768	902.778076	24030.837891	1593.273315	2.985530
565.543823	899.954529	24148.013672	1587.849243	2.958934
565.887817	906.270325	24429.843750	1600.109009	2.949546
566.231812	905.304382	24682.771484	1609.322632	2.960863
566.575745	906.121765	24929.603516	1620.839478	2.975080
566.919617	906.047363	25182.529297	1629.458618	2.979885
567.263428	906.493164	25384.927734	1629.087280	2.951962
567.607239	900.846191	25574.849609	1633.768188	2.970422
567.950989	905.527161	25649.671875	1630.350220	2.929271
568.294678	911.099915	25666.759766	1630.350220	2.905397
568.638367	918.232971	25548.468750	1630.350220	2.891232
568.981995	916.078308	25359.521484	1621.359741	2.885360
569.325623	913.552002	25139.134766	1613.632202	2.889838
569.669128	912.585999	24932.576172	1603.006836	2.874359
570.012573	914.294983	24807.523438	1599.663208	2.868462
570.356140	915.335205	24760.119141	1609.396851	2.910748
570.699524	915.558105	24712.640625	1610.065552	2.918456
571.042908	909.836731	24770.890625	1622.325562	2.985991
571.386230	908.053467	24836.054688	1626.560913	3.002789
571.729492	908.573547	25028.869141	1628.492798	2.984703
572.072815	917.861511	25230.380859	1627.452515	2.918624
572.416016	918.381592	25391.693359	1636.963257	2.936185
572.759094	921.353699	25564.593750	1638.003418	2.908099
573.102234	911.768738	25641.052734	1636.666016	2.931332
573.445374	903.818298	25762.091797	1635.105591	2.941827
573.788391	903.075256	25782.822266	1640.975586	2.965868
574.131409	909.242371	25769.296875	1640.381226	2.941019
574.474365	916.821289	25702.423828	1629.310059	2.874608
574.817261	908.647949	25578.416016	1622.548462	2.893827
575.160156	907.607727	25413.609375	1618.982056	2.902858
575.502930	903.223816	25175.173828	1619.427734	2.950747
575.845703	905.675781	24997.218750	1621.879883	2.972844
576.188477	900.920410	24757.443359	1617.124390	3.002131
576.531250	907.979187	24574.361328	1606.201782	2.950272
576.873901	914.889343	24260.804688	1596.022461	2.917569
577.216431	920.016296	24040.646484	1587.700562	2.887829
577.559082	912.585938	23750.865234	1571.725586	2.886118
577.901611	909.093750	23486.343750	1565.186890	2.905992
578.244080	905.304382	23136.455078	1561.471680	2.951567
578.586487	913.180420	22777.052734	1561.917480	2.967165
578.928955	985.774231	22490.837891	1622.251343	2.959661
579.271301	985.997070	22156.328125	1603.898560	2.918714
579.613647	981.241699	21801.013672	1588.592163	2.917181
579.955872	905.973145	21394.576172	1509.088257	2.943661
580.298157	906.567566	21087.705078	1505.298828	2.966787
580.640320	904.487061	20840.724609	1513.174805	3.053173
580.982483	903.000977	20626.509766	1502.475220	3.039390
581.324524	902.035095	20425.072266	1504.333008	3.085063
581.666626	903.223877	20270.822266	1498.611694	3.074144
582.008728	906.047363	20173.857422	1508.716797	3.127856
582.350647	906.567444	20076.150391	1499.131714	3.091170
582.692566	904.635559	20006.677734	1495.045044	3.090819
583.034424	906.567566	19895.000000	1489.621094	3.070572
583.376343	901.663574	19822.109375	1491.181274	3.115771
583.718201	905.230164	19727.000000	1494.599243	3.131316
584.059937	906.344666	19664.439453	1484.271118	3.080944
584.401611	911.397278	19584.638672	1484.196899	3.067489
584.743347	909.391052	19512.193359	1470.971069	3.018793
585.085022	907.607727	19398.361328	1479.515747	3.092941
585.426514	905.229980	19290.845703	1477.955444	3.115074
585.768127	910.877014	19186.523438	1480.704712	3.117962
586.109619	906.195984	19112.146484	1471.862671	3.107043
586.451172	907.161926	19073.880859	1468.593384	3.090440
586.792542	901.217773	19053.447266	1467.924438	3.121967
587.133850	918.158691	19052.853516	1474.017456	3.065167
587.475220	920.387756	19050.251953	1480.927368	3.091803
587.816589	925.514648	19032.640625	1484.196899	3.085428
588.157776	912.808899	19046.609375	1475.651978	3.103834
588.498962	913.774841	19076.478516	1479.069946	3.112395
588.840210	909.390930	19132.951172	1472.754272	3.091401
589.181335	912.734619	19218.843750	1485.757202	3.130226
589.522400	910.802734	19282.226563	1473.868774	3.064902
589.863403	905.750183	19364.033203	1483.008179	3.127366
590.204407	905.230042	19354.076172	1475.875000	3.093120
590.545410	904.412781	19414.556641	1485.459961	3.139074
590.886353	913.626282	19412.996094	1488.357788	3.106763
591.227112	911.991638	19412.847656	1486.723145	3.106513
591.567932	913.700500	19385.283203	1485.385742	3.094945
591.908752	917.341370	19325.246094	1482.339355	3.069323
592.249512	918.232971	19341.591797	1476.915161	3.032466
592.590149	916.524109	19239.500000	1470.971069	3.025965
592.930786	916.375488	19193.507813	1471.936890	3.039653
593.271423	911.694336	19103.750000	1477.880981	3.112274
593.612000	912.288757	19041.783203	1476.692261	3.113178
593.952576	904.487000	19006.562500	1478.624023	3.171664
594.292969	905.601501	18999.798828	1483.379517	3.193167
594.633484	908.202148	19028.406250	1489.175171	3.206217
594.973877	909.985413	19075.439453	1489.695313	3.191277
595.314209	913.106140	19151.453125	1493.336060	3.181373
595.654480	912.734619	19314.992188	1501.509399	3.199470
595.994812	912.140198	19495.326172	1503.738403	3.183513
596.335022	914.146423	19706.046875	1502.103882	3.128781
596.675171	914.072083	19890.765625	1511.985962	3.150780
597.015320	915.038025	20108.619141	1510.351563	3.101628
597.355408	916.524109	20290.291016	1525.360718	3.142582
597.695496	923.508484	20481.470703	1527.292480	3.087152
598.035461	920.685059	20506.957031	1532.865234	3.125557
598.375366	916.524109	20524.195313	1520.085083	3.078188
598.715271	913.031799	20471.958984	1507.453613	3.039133
599.055176	919.124695	20323.353516	1503.664185	3.012434
599.395081	917.192688	20067.232422	1493.410522	3.008964
599.734802	909.985413	19681.380859	1478.475586	3.028492
600.074524	907.904968	19302.064453	1465.026733	3.028797
600.414246	907.384949	18855.652344	1465.026733	3.106939
600.753906	909.688293	18405.601563	1461.757446	3.155418
601.093506	909.985413	18014.472656	1450.686401	3.161165
601.433044	914.072083	17797.806641	1448.605835	3.165969
601.772583	911.099915	17678.400391	1443.999023	3.178205
602.112122	913.626282	17686.650391	1448.308594	3.187752
602.451538	906.790466	17665.623047	1448.754517	3.233901
602.790894	902.555176	17756.048828	1447.342773	3.232491
603.130310	895.347839	17931.400391	1451.949341	3.267198
603.469604	892.821472	18178.978516	1460.717163	3.285263
603.808838	903.966858	18450.406250	1478.995728	3.277183
604.148010	901.886414	18740.410156	1495.639282	3.328487
604.487305	912.065918	19050.919922	1504.481445	3.266003
604.826416	906.344543	19375.623047	1514.215210	3.291253
605.165527	906.344666	19636.351563	1507.527954	3.209733
605.504456	898.617126	19866.466797	1503.515625	3.189073
605.843445	901.217712	20018.490234	1500.394897	3.134219
606.182434	908.425049	20093.759766	1498.685913	3.076625
606.521423	912.585999	20010.689453	1494.896484	3.049049
606.860229	908.053528	19832.734375	1488.952148	3.069529
607.199036	909.390930	19541.392578	1482.710938	3.077071
607.537903	911.248535	19247.822266	1469.410767	3.043983
607.876648	917.712891	18830.986328	1465.101196	3.055769
608.215271	915.929688	18475.595703	1465.992676	3.132537
608.553955	917.341492	18115.298828	1466.290039	3.191941
608.892578	923.880066	17879.388672	1458.339478	3.152129
609.231140	921.948181	17726.251953	1460.122681	3.202599
609.569641	917.564270	17692.742188	1463.169312	3.252455
609.908081	905.007141	17735.761719	1483.082397	3.434637
610.246521	902.406555	17805.904297	1494.525024	3.502934
610.584961	905.304382	17856.207031	1498.537231	3.499712
610.923340	907.087585	17892.466797	1487.614868	3.417806
611.261597	911.842957	17852.195313	1478.104126	3.342677
611.599854	913.329041	17749.283203	1479.664429	3.363845
611.938110	913.849121	17623.341797	1473.942993	3.351950
612.276245	908.647949	17393.748047	1465.769897	3.379549
612.614319	907.236267	17113.033203	1451.057739	3.355722
612.952393	906.790466	16754.150391	1439.912476	3.364106
613.290466	910.282715	16446.908203	1422.822754	3.298915
613.628479	910.059814	16151.034180	1418.290405	3.334633
613.966370	910.059753	15892.164063	1416.209839	3.378364
614.304260	906.493225	15652.387695	1409.522583	3.411318
614.642151	902.183655	15429.925781	1398.600098	3.417024
614.979980	908.945251	15198.695313	1378.612671	3.286743
615.317749	911.917297	15004.541992	1375.714844	3.291066
615.655396	909.762451	14871.987305	1367.764526	3.280294
615.993164	904.264099	14815.739258	1374.228882	3.378253
616.330811	904.932861	14782.749023	1380.544556	3.427136
616.668396	901.291992	14738.463867	1380.395874	3.462441
617.005859	912.065918	14734.526367	1374.080200	3.342489
617.343445	915.260925	14717.140625	1367.913086	3.279641
617.680908	921.353699	14755.183594	1366.872681	3.220504
618.018311	915.483826	14778.588867	1368.507446	3.267837
618.355652	899.954590	14797.015625	1367.913086	3.367320
618.692993	909.985413	14800.062500	1376.680786	3.359919
619.030273	905.452942	14784.012695	1379.281616	3.414106
619.367554	914.369324	14784.606445	1375.343384	3.323476
619.704712	906.344543	14773.015625	1368.656128	3.333977
620.041870	904.635681	14805.041992	1356.024658	3.247308
620.379028	910.654114	14794.489258	1352.903931	3.185358
620.716064	905.527161	14735.567383	1346.662476	3.189689
621.053040	900.549011	14609.698242	1357.585083	3.333803
621.389954	898.171204	14531.160156	1357.213501	3.367143
621.726929	905.824463	14476.843750	1359.219604	3.340907
622.063843	912.883240	14431.296875	1356.247559	3.279707
622.400635	912.288818	14368.660156	1352.903931	3.274398
622.737427	914.220703	14329.799805	1352.309448	3.265522
623.074219	907.459167	14275.632813	1343.764771	3.263764
623.410889	901.737854	14225.106445	1347.702759	3.347239
623.747559	894.233215	14174.284180	1348.520020	3.420821
624.084167	896.462219	14124.948242	1352.681152	3.448761
624.420715	902.406494	14129.257813	1348.668701	3.373911
624.757324	909.242371	14133.715820	1348.891479	3.324511
625.093750	913.626282	14184.835938	1352.309448	3.305525
625.430176	915.781006	14182.606445	1356.024780	3.318381
625.766602	920.536438	14232.983398	1364.049316	3.331565
626.102905	923.211365	14314.047852	1360.259888	3.263788
626.439209	917.192810	14456.782227	1368.135864	3.330552
626.775452	909.168152	14577.301758	1367.690063	3.354678
627.111694	907.236267	14693.734375	1386.117188	3.473550
627.447876	920.833679	14787.132813	1388.940796	3.375862
627.783997	923.880066	14866.414063	1383.962524	3.299848
628.120056	923.137024	14953.867188	1374.823242	3.219264
628.456055	917.787292	14969.545898	1371.554077	3.229253
628.792053	916.301086	14990.127930	1376.903687	3.272760
629.128052	921.799561	14920.656250	1376.012085	3.244640
629.463928	918.010071	14836.618164	1386.265991	3.364244
629.799744	913.180420	14692.694336	1388.346313	3.448350
630.135559	905.601563	14554.120117	1388.197754	3.535887
630.471375	905.378662	14397.563477	1375.194824	3.482136
630.807068	910.134033	14215.299805	1367.838867	3.440053
631.142700	912.660339	14030.286133	1365.386719	3.451283
631.478333	909.762512	13850.843750	1361.745972	3.492625
631.813965	903.966980	13718.363281	1348.743042	3.470909
632.149475	904.932861	13596.208008	1341.015503	3.436082
632.484924	909.242432	13517.448242	1329.647095	3.334373
632.820435	910.802795	13409.188477	1334.551147	3.390425
633.155884	915.632385	13342.242188	1330.018677	3.334669
633.491150	917.638611	13300.410156	1339.306519	3.405279
633.826477	918.010071	13267.567383	1335.517090	3.380745
634.161804	909.836853	13176.325195	1336.780273	3.480568
634.497009	906.641785	13095.038086	1328.904175	3.464462
634.832153	912.734619	13026.901367	1324.594604	3.399821
635.167297	907.161926	12961.960938	1318.130249	3.409168
635.502380	906.864746	12870.643555	1307.430786	3.348156
635.837463	900.028809	12778.434570	1301.412231	3.379102
636.172424	903.892578	12742.174805	1296.285278	3.314608
636.507324	901.514954	12664.601563	1299.926025	3.386960
636.842224	902.332275	12597.135742	1293.610352	3.345743
637.177124	905.973083	12443.253906	1293.833130	3.361798
637.511963	906.195984	12289.075195	1283.728149	3.316667
637.846741	904.784180	12141.139648	1287.814819	3.408851
638.181396	900.846191	12038.674805	1283.876709	3.439005
638.516113	902.926575	11965.710938	1286.923218	3.471067
638.850769	908.945129	11874.911133	1283.728027	3.417692
639.185303	911.099915	11773.563477	1279.418579	3.390747
639.519836	911.099915	11663.743164	1275.183350	3.385990
639.854370	914.963684	11552.735352	1270.650879	3.343625
640.188843	914.072083	11452.352539	1269.833496	3.375896
640.523254	910.059753	11355.535156	1270.056519	3.446437
640.857605	903.521057	11263.920898	1271.468140	3.551476
641.191895	905.601501	11151.204102	1267.827271	3.535427
641.526184	901.960632	11070.214844	1254.527222	3.467327
641.860413	904.487000	10988.704102	1246.353882	3.390118
642.194580	902.926697	10926.885742	1243.381714	3.396413
642.528748	909.762512	10870.190430	1246.799683	3.383762
642.862793	908.945129	10801.535156	1252.966797	3.477569
643.196838	912.734619	10748.854492	1255.047241	3.480159
643.530823	912.437439	10673.065430	1257.647827	3.536764
643.864746	909.613953	10635.988281	1261.883179	3.621794
644.198669	903.372498	10603.592773	1259.728271	3.673687
644.532532	895.570618	10563.246094	1254.081421	3.708345
644.866333	897.428223	10493.773438	1249.548950	3.669321
645.200073	907.459167	10476.238281	1251.183594	3.592145
645.533813	921.502441	10472.894531	1259.059570	3.534114
645.867554	916.895569	10489.538086	1249.251587	3.471936
646.201172	911.099915	10456.325195	1245.313599	3.501370
646.534729	912.734680	10448.821289	1248.582886	3.521866
646.868225	913.403320	10450.083008	1253.709839	3.568396
647.201782	909.168152	10458.406250	1255.195801	3.623615
647.535217	902.183594	10459.817383	1248.285767	3.621212
647.868591	903.000977	10500.237305	1246.873901	3.583041
648.201965	908.276550	10495.259766	1249.920410	3.563622
648.535278	912.585999	10498.974609	1249.920288	3.518888
648.868591	914.146484	10452.535156	1258.539429	3.610599
649.201782	906.641785	10443.841797	1253.932739	3.641435
649.534912	905.229980	10427.420898	1251.480713	3.636250
649.868103	905.527161	10403.941406	1245.313599	3.577296
650.201172	910.951355	10381.501953	1248.954468	3.568991
650.534180	904.487061	10328.821289	1252.743896	3.695294
650.867188	902.332214	10309.577148	1255.344360	3.752556
651.200134	901.663574	10277.180664	1254.452759	3.762877
651.533020	899.657410	10247.311523	1252.075195	3.770120
651.865845	896.685303	10202.060547	1234.985474	3.635535
652.198608	902.555176	10153.020508	1236.694580	3.612136
652.531433	905.824463	10140.018555	1235.877197	3.574245
652.864136	906.641785	10100.489258	1240.038208	3.626299
653.196777	1205.338745	10396.436523	1533.979614	3.575643
653.529358	1221.908203	10346.059570	1546.462524	3.557091
653.861938	1224.583130	10270.493164	1555.081665	3.653569
654.194519	918.827454	9856.329102	1247.022583	3.672112
654.526978	908.425049	9789.309570	1225.177612	3.566678
654.859375	909.688171	9720.950195	1218.490356	3.504631
655.191833	908.722229	9689.891602	1219.381958	3.537795
655.524170	899.583008	9634.165039	1228.818481	3.769333
655.856445	897.428223	9597.161133	1227.183838	3.790411
656.188660	911.917297	9560.010742	1243.678955	3.836240
656.520874	918.381653	9509.485352	1235.579956	3.692172
656.853088	923.211243	9483.478516	1236.397217	3.658600
657.185181	909.390930	9474.785156	1219.901978	3.625181
657.517212	900.103210	9490.538086	1223.988770	3.770305
657.849243	892.004150	9537.125000	1225.623413	3.859047
658.181274	899.731628	9572.196289	1230.081543	3.809181
658.513123	903.075256	9620.865234	1234.316772	3.799604
658.844971	909.391052	9715.303711	1237.957642	3.731204
659.176819	903.743958	9839.909180	1246.799561	3.838958
659.508667	914.443604	9986.434570	1242.415649	3.615216
659.840393	910.431213	10106.358398	1245.239258	3.640830
660.172058	906.864746	10178.209961	1245.908081	3.656894
660.503662	898.840027	10238.394531	1258.390991	3.849766
660.835266	903.966980	10252.290039	1257.870728	3.785746
661.166931	908.796631	10222.642578	1246.651001	3.627442
661.498413	910.282654	10187.200195	1241.375488	3.568996
661.829773	913.774902	10106.061523	1233.573730	3.478991
662.161194	919.347473	9978.631836	1236.545898	3.501363
662.492615	919.941895	9807.214844	1225.251953	3.435363
662.823975	917.564270	9604.221680	1219.084839	3.471077
663.155212	908.276428	9451.157227	1212.917603	3.566024
663.486450	905.750183	9269.413086	1197.834106	3.492297
663.817627	904.041199	9117.538086	1197.016968	3.567004
664.148743	909.539612	8980.895508	1189.735229	3.471481
664.479858	909.093811	8864.685547	1197.091187	3.620062
664.810913	912.511719	8771.584961	1182.676392	3.437615
665.141907	915.929688	8686.656250	1176.286255	3.350479
665.472778	916.969910	8617.035156	1173.760132	3.334910
665.803711	920.462097	8558.856445	1189.958130	3.528176
666.134583	918.307312	8516.281250	1197.388306	3.673097
666.465454	918.753113	8487.301758	1201.326294	3.733519
666.796143	908.276550	8440.417969	1193.153076	3.782145
667.126831	902.406555	8423.848633	1189.363647	3.815187
667.457458	897.948425	8400.815430	1189.735229	3.889004
667.788147	900.028809	8381.125000	1192.335693	3.907274
668.118774	902.778076	8352.219727	1194.193237	3.911906
668.449219	906.121643	8323.316406	1193.896118	3.879829
668.779663	914.889404	8337.731445	1189.512329	3.699701
669.110107	917.935791	8307.043945	1184.608276	3.608994
669.440552	921.130798	8270.784180	1176.806519	3.478745
669.770874	911.099915	8241.137695	1170.862305	3.543807
670.101135	908.053528	8226.648438	1175.468994	3.653918
670.431396	914.666504	8207.106445	1180.150024	3.640531
670.761597	914.369324	8155.243652	1184.533936	3.731105
671.091797	916.449707	8116.457520	1192.855835	3.838970
671.421875	911.917297	8080.644043	1183.568115	3.789387
671.751892	920.090576	8052.408691	1170.713745	3.513909
672.081909	922.022400	8004.260254	1152.806763	3.258636
672.411865	916.375427	7955.369629	1166.924194	3.559440
672.741821	911.545715	7882.033203	1172.273926	3.740459
673.071716	905.973083	7829.649902	1178.886841	3.941746
673.401550	905.527161	7804.238281	1171.902466	3.861233
673.731262	902.778015	7799.631348	1175.617554	3.956000
674.060974	898.617126	7764.263184	1174.205933	4.014026
674.390625	899.731628	7722.653809	1171.010864	3.975998
674.720276	898.022705	7677.254395	1169.079102	3.998335
675.049927	904.412781	7636.685059	1160.608521	3.805487
675.379395	900.697571	7586.531250	1153.029663	3.774131
675.708923	905.007141	7529.763184	1149.240112	3.686671
676.038330	903.892578	7478.345703	1156.967651	3.849371
676.367737	906.418884	7430.123535	1155.333008	3.815533
676.697083	909.613953	7413.702637	1157.338989	3.808758
677.026428	913.254822	7397.281738	1149.314453	3.640633
677.355652	915.186707	7390.371582	1148.422729	3.601998
677.684875	913.403381	7388.514160	1149.240234	3.642206
678.013977	905.898743	7383.461426	1146.119507	3.708506
678.343079	907.979309	7379.746094	1149.463135	3.731343
678.672180	908.945129	7348.390625	1147.605591	3.706227
679.001221	911.100037	7359.387207	1152.286499	3.740318
679.330139	914.294983	7382.644531	1154.515747	3.713788
679.659058	910.431213	7418.012207	1158.082153	3.805576
679.987976	914.220703	7479.980957	1156.001831	3.682454
680.316772	910.431213	7528.500000	1152.955200	3.664573
680.645630	907.756348	7601.094238	1155.555786	3.702180
680.974304	912.957520	7637.725098	1161.797241	3.700347
681.302979	912.363098	7671.161621	1169.153320	3.799347
681.631653	913.254700	7692.857910	1163.803589	3.695628
681.960266	910.654114	7708.981934	1164.843872	3.739004
682.288757	913.774841	7736.548340	1171.456665	3.776790
682.617249	910.654114	7745.984863	1174.205933	3.855729
682.945679	900.177429	7728.969238	1179.258423	4.086828
683.274109	896.016418	7723.173828	1177.178101	4.118283
683.602478	904.784180	7656.746582	1178.887085	4.059604
683.930725	913.180481	7581.254395	1171.233765	3.869982
684.259033	908.648010	7476.339844	1158.527954	3.804684
684.587280	903.223938	7402.928223	1148.274170	3.770175
684.915344	901.217712	7340.812012	1157.190552	3.974984
685.243469	903.743958	7269.183594	1159.568237	4.018957
685.571533	903.966858	7177.643066	1170.490845	4.248291
685.899536	898.171204	7075.922363	1154.218384	4.144667
686.227539	896.090820	6996.344238	1155.927368	4.259439
686.555420	903.595398	6959.490234	1151.246460	4.089421
686.883301	901.069092	6965.137207	1159.568359	4.262803
687.211121	900.697571	6965.880371	1157.710815	4.237519
687.538940	893.044434	6962.982910	1156.521851	4.340693
687.866638	902.555176	6954.809082	1152.063599	4.122571
688.194336	906.121643	6934.673340	1156.298950	4.149874
688.521973	903.595398	6930.437500	1158.899536	4.236118
688.849609	908.053528	6903.392090	1159.716919	4.197651
689.177063	909.613953	6904.580566	1157.413452	4.133459
689.504578	914.369324	6867.800781	1152.286743	3.996307
689.832031	911.768616	6839.490723	1148.720093	3.997344
690.159485	914.072083	6763.925293	1135.791504	3.790171
690.486816	918.084473	6690.365234	1131.778931	3.702080
690.814087	923.434143	6583.295410	1127.692383	3.608891
691.141296	922.022461	6489.079590	1122.193970	3.595643
691.468506	917.712891	6383.644043	1116.026978	3.628185
691.795715	904.932800	6302.876465	1105.178711	3.709670
692.122803	903.372498	6227.013672	1108.745239	3.857749
692.449829	902.406555	6173.664063	1108.968140	3.918640
692.776855	903.000977	6102.705566	1111.568726	4.011146
693.103821	900.177429	6024.984375	1112.311646	4.139360
693.430664	903.075256	5928.911621	1108.447876	4.086337
693.757568	902.332214	5867.165527	1102.057983	4.022809
694.084351	905.750183	5810.769531	1096.039429	3.879480
694.411133	904.561279	5774.732910	1101.835083	4.050654
694.737854	910.356934	5728.739746	1105.847412	4.057180
695.064575	909.093811	5706.300781	1109.859741	4.185059
695.391174	916.301208	5690.474121	1115.878296	4.180349
695.717773	916.895569	5670.412109	1113.129028	4.128174
696.044250	922.171082	5653.917480	1105.475952	3.873937
696.370789	908.425049	5659.489746	1091.209839	3.847239
696.697205	907.904968	5666.474121	1092.770142	3.884890
697.023621	902.852295	5698.646973	1091.729858	3.938400
697.349915	919.050354	5741.148438	1094.553345	3.639557
697.676208	920.536316	5815.599609	1100.200317	3.670310
698.002380	924.177185	5904.912109	1110.156860	3.733981
698.328674	911.025574	6020.006348	1113.723511	3.967483
698.654724	907.310547	6118.903809	1119.073242	4.063301
698.980896	899.954590	6234.146484	1119.370483	4.113386
699.306946	906.790466	6334.083984	1123.085571	3.985322
699.632935	902.480896	6458.466797	1121.079468	3.934469
699.958862	908.350769	6528.385254	1120.856567	3.781219
700.284729	906.047363	6558.032715	1117.364258	3.738808
700.610596	915.632507	6532.992188	1114.317871	3.536988
700.936340	912.511719	6457.946777	1112.237427	3.601624
701.262146	906.493164	6333.267090	1110.231323	3.754314
701.587830	903.520996	6184.363770	1109.116699	3.893237
701.913513	904.487000	6036.278809	1104.138428	3.890482
702.239075	913.997803	5897.406738	1097.228149	3.676807
702.564697	907.682068	5749.990723	1091.655640	3.799295
702.890137	902.555176	5587.490234	1087.048706	3.938017
703.215698	891.186829	5445.646484	1078.652588	4.116092
703.541016	893.267273	5310.043457	1074.788940	4.109822
703.866455	895.347839	5216.793457	1070.776489	4.059490
704.191711	899.062927	5133.500488	1075.977661	4.177999
704.517029	900.771912	5079.779297	1077.017944	4.217414
704.842163	902.480896	5031.334473	1080.138550	4.302833
705.167419	900.994812	4991.359863	1077.315186	4.310627
705.492493	900.549011	4942.542480	1075.606201	4.330962
705.817566	900.325989	4896.846680	1069.364746	4.229648
706.142578	903.000977	4852.710938	1069.216187	4.208289
706.467590	915.929626	4836.884277	1056.956299	3.596743
706.792480	918.381653	4821.058105	1060.671387	3.645952
707.117371	921.205078	4806.494629	1058.739380	3.539873
707.442200	910.877014	4800.550293	1073.674316	4.185372
707.766907	918.753113	4810.135254	1067.432983	3.820747
708.091675	916.672668	4811.026855	1070.999512	3.962835
708.416321	915.706726	4814.667969	1063.197632	3.782826
708.741028	910.728455	4813.701660	1076.795044	4.254874
709.065552	913.329041	4847.955566	1077.166504	4.163990
709.390137	913.329041	4856.797852	1086.380005	4.388293
709.714600	906.938965	4877.974121	1081.327515	4.391514
710.039063	906.567566	4887.633301	1082.293335	4.414039
710.363403	912.140198	4930.877441	1075.754761	4.071293
710.687744	911.025696	4976.647949	1073.005737	3.984139
711.012085	912.214539	5030.145996	1076.572144	3.991266
711.336304	905.824402	5071.829590	1084.151001	4.280518
711.660461	914.740723	5111.804199	1088.088989	4.130228
711.984619	914.963684	5145.463379	1093.067261	4.209989
712.308716	913.254700	5169.314453	1092.547241	4.212642
712.632751	905.378601	5188.039063	1091.952759	4.356501
712.956726	907.607727	5177.562500	1095.073364	4.390343
713.280701	911.397156	5157.277832	1090.541016	4.219239
713.604553	918.455872	5101.847656	1092.770142	4.166817
713.928467	914.220703	5061.873047	1082.739380	4.062989
714.252258	914.443665	5001.761719	1082.962280	4.122963
714.575989	906.641846	4962.083984	1083.705200	4.366068
714.899719	906.864746	4879.905762	1073.971558	4.206018
715.223267	903.818298	4830.791504	1068.324341	4.189131
715.546936	904.115479	4774.172852	1065.946777	4.181625
715.870422	902.778076	4752.104980	1070.182007	4.348914
716.193970	900.623352	4706.036621	1072.411133	4.514300
716.517395	900.846191	4653.207520	1068.770386	4.475161
716.840820	897.056824	4621.777832	1063.346069	4.464475
717.164124	898.022644	4591.388184	1063.048950	4.468183
717.487488	900.920471	4560.329590	1057.847778	4.288323
717.810730	908.945129	4524.738281	1060.597046	4.194153
718.133972	908.425110	4473.023926	1054.727051	4.104303
718.457092	914.443604	4438.844238	1051.606323	3.891803
718.780212	906.864746	4386.980957	1051.606445	4.159105
719.103210	900.994812	4342.770996	1050.417603	4.341444
719.426208	892.078430	4256.134277	1048.708496	4.655989
719.749207	898.468506	4188.593262	1044.176147	4.428636
720.072083	909.093750	4122.091797	1041.724121	4.127932
720.394958	909.168152	4083.603271	1040.981079	4.152327
720.717773	905.527344	4022.600586	1033.550903	4.107172
721.040527	903.669739	3985.895264	1029.315552	4.076464
721.363281	905.229980	3940.198975	1030.950195	4.142389
721.685913	911.620056	3920.137451	1038.529175	4.218328
722.008545	917.341370	3895.691650	1041.278320	4.161262
722.331055	916.746887	3874.367188	1031.173218	3.868865
722.653503	905.230042	3835.358154	1017.947266	3.846836
722.976013	903.372559	3819.159912	1012.300232	3.735789
723.298401	907.533447	3811.729248	1016.015381	3.735352
723.620789	914.443604	3802.218750	1026.120605	3.867233
723.943115	915.781067	3777.104248	1025.451904	3.832871
724.265381	917.341370	3768.262451	1020.622253	3.622720
724.587585	914.889404	3753.253174	1019.730469	3.693715
724.909790	912.140198	3741.662109	1023.594238	3.938971
725.231873	906.493164	3744.559814	1031.619019	4.408841
725.553894	908.499329	3758.602783	1028.052612	4.194700
725.875916	968.238770	3847.915039	1129.029907	5.583653
726.197937	967.644348	3838.255859	1134.082397	5.798000
726.519775	970.319336	3842.193604	1132.150513	5.635037
726.841675	906.121765	3790.924805	1027.309448	4.200900
727.163513	908.276428	3815.221924	1028.944092	4.151012
727.485291	902.109314	3828.373291	1026.937866	4.265800
727.806946	906.418884	3842.268311	1033.179321	4.317675
728.128662	905.898743	3860.769287	1024.857422	4.025851
728.450256	910.876953	3866.119141	1035.482666	4.216430
728.771790	913.774841	3874.366455	1036.968750	4.161125
729.093323	915.409424	3877.339111	1040.535278	4.224471
729.414795	920.462097	3910.255127	1033.773804	3.789952
729.736145	919.421814	3919.914063	1034.070923	3.821010
730.057495	922.245361	3925.412842	1035.036987	3.755755
730.378845	914.443542	3924.669678	1034.665405	3.993782
730.700134	903.149597	3910.775391	1033.179321	4.323335
731.021301	899.583008	3893.165283	1025.749146	4.214554
731.342468	903.892639	3889.153076	1029.315552	4.201406
731.663574	918.976074	3899.481201	1033.253540	3.834164
731.984680	919.421875	3916.199219	1033.773804	3.815830
732.305664	913.180481	3917.536377	1030.875854	3.917491
732.626648	911.917297	3929.870850	1031.916138	3.976166
732.947571	911.397156	3946.291748	1034.516724	4.056799
733.268433	916.524109	3958.106201	1039.866577	4.055208
733.589233	905.304382	3950.527344	1035.779907	4.284597
733.909973	903.223816	3943.542725	1039.569458	4.484584
734.230713	899.805969	3922.589111	1038.454956	4.586799
734.551331	903.818359	3891.827881	1033.104980	4.326848
734.871948	903.298157	3842.416748	1032.139160	4.383661
735.192505	902.778076	3788.324463	1027.903809	4.336293
735.513062	904.709961	3744.188721	1026.417847	4.286275
735.833435	907.384766	3707.408936	1019.953430	4.020275
736.153931	915.260925	3657.625732	1018.393066	3.760701
736.474304	913.551941	3605.167969	1017.798645	3.873015
736.794617	911.768738	3545.651367	1017.427185	4.011509
737.114807	903.595398	3510.580811	1014.529297	4.255256
737.434998	905.675781	3491.782227	1016.386902	4.280996
737.755188	910.282654	3475.584229	1014.157776	4.049236
738.075256	905.378662	3480.785156	1015.198059	4.264158
738.395325	906.641785	3485.912109	1016.089661	4.243366
738.715271	907.979248	3516.896240	1017.278564	4.189452
739.035278	919.496155	3531.534180	1021.736755	3.914208
739.355164	923.805725	3537.701172	1021.736816	3.746557
739.675049	922.245361	3542.828125	1023.297058	3.856077
739.994873	923.508484	3548.772217	1022.628418	3.775618
740.314636	913.626282	3554.939453	1018.095886	3.955215
740.634277	915.038025	3540.747314	1016.832764	3.876847
740.953979	906.195862	3516.004639	1012.820313	4.085527
741.273499	908.127747	3481.974365	1018.393066	4.284067
741.593140	899.880188	3457.305664	1015.569519	4.523664
741.912598	900.697510	3425.058350	1018.393066	4.662390
742.232117	901.291992	3381.814209	1013.934875	4.541096
742.551453	902.109314	3328.167236	1017.724304	4.765550
742.870850	904.338379	3294.136719	1018.244446	4.766346
743.190063	906.121643	3260.254639	1018.318787	4.765965
743.509338	908.499329	3230.310791	1014.009277	4.544294
743.828552	910.877014	3195.314453	1005.315735	4.134003
744.147705	914.740784	3162.843750	1006.356018	4.075224
744.466797	917.118469	3130.670898	1002.789551	3.870298
744.785828	919.644775	3101.915771	1006.356018	3.973441
745.104858	909.836853	3091.884766	1002.566650	4.249669
745.423706	912.957520	3077.024170	1005.018616	4.254078
745.742615	911.991516	3060.231689	1007.767822	4.458361
746.061401	923.062683	3035.340576	1006.430359	3.946814
746.380249	920.090576	3017.284912	1000.411865	3.829940
746.698975	918.232971	2996.554443	992.758728	3.585863
747.017639	913.329102	2990.015625	990.455261	3.713905
747.336304	914.815125	2971.885986	994.690491	3.882966
747.654907	918.010071	2970.028320	1005.241455	4.251004
747.973389	914.666504	2955.167969	1003.829773	4.369674
748.291931	917.935791	2947.960205	1006.876160	4.381246
748.610352	915.038025	2949.892578	1000.263184	4.188268
748.928711	913.403320	2949.149414	996.028015	4.058693
749.247070	910.282715	2960.740479	994.244812	4.094798
749.565308	912.214539	2954.945068	995.582214	4.081188
749.883545	910.282532	2961.929443	999.223083	4.335081
750.201782	911.917236	2954.870361	996.325256	4.131667
750.519836	908.276428	2939.118408	989.489441	3.998982
750.837952	907.904968	2935.106201	989.340759	4.017154
751.155884	906.864746	2921.954346	994.467590	4.347342
751.473877	901.663513	2913.632813	998.925781	4.834183
751.791809	909.465332	2896.766357	1001.154846	4.613771
752.109619	903.000977	2892.531006	994.096130	4.578727
752.427490	908.053528	2884.654541	989.117859	4.101198
752.745300	904.561340	2868.307861	983.619446	4.025881
753.062988	899.805969	2857.459717	976.337708	3.909360
753.380615	891.409729	2847.875000	982.653503	4.663705
753.698303	895.793640	2839.998779	994.244690	5.063820
754.015808	899.285828	2825.435547	999.817383	5.219301
754.333374	909.019531	2823.875000	994.244812	4.450742
754.650757	906.790466	2824.097900	986.740051	4.169889
754.968262	912.883301	2826.326904	992.387207	4.155017
755.285583	914.517883	2819.862549	993.055847	4.121982
755.602905	912.065918	2806.116455	991.718445	4.205407
755.920105	909.019531	2803.664795	990.380859	4.294278
756.237305	902.332214	2788.878174	990.603821	4.679007
756.554443	901.886414	2783.899658	994.021790	4.895576
756.871582	902.555115	2766.884766	989.712219	4.674984
757.188599	903.818298	2768.816406	998.702820	5.087647
757.505615	904.412781	2772.011719	997.662598	4.993032
757.822510	904.264160	2771.491455	1003.235352	5.300436
758.139465	911.843018	2778.253174	997.365417	4.582187
758.456238	906.567566	2794.673828	1005.687256	5.249688
758.773010	905.452942	2826.921631	1007.024719	5.286153
759.089783	896.090820	2853.373047	1000.337463	5.326092
759.406433	901.291992	2868.456299	992.684326	4.645892
759.723145	908.276428	2861.917969	993.575989	4.366183
760.039673	915.558105	2864.518311	998.405762	4.250865
760.356201	918.158691	2867.713623	1002.566650	4.329601
760.672668	909.985413	2891.490234	996.696777	4.376036
760.989136	902.183594	2890.598633	995.656494	4.700875
761.305481	903.000977	2890.747314	995.730774	4.665072
761.621826	910.059753	2871.948486	1002.715271	4.722772
761.938049	924.028625	2876.778320	1009.253906	4.364373
762.254333	927.000793	2882.425537	1006.058838	4.043011
762.570496	925.143250	2925.669678	996.696716	3.576732
762.886597	915.186584	2972.554688	995.879395	3.922137
763.202637	907.756348	3055.922607	999.966064	4.292485
763.518677	907.161926	3161.878174	1014.009277	4.738838
763.834656	908.425110	3311.895508	1031.767578	5.131849
764.150574	911.174316	3460.128906	1044.250366	5.220809
764.466370	915.186584	3599.744141	1056.064575	5.247717
764.782288	912.065857	3683.557373	1056.361816	5.206437
765.097961	913.180420	3736.609619	1053.835571	4.981713
765.413696	907.161926	3721.600342	1048.857300	5.034588
765.729309	906.418884	3655.991455	1033.848145	4.634512
766.044861	903.223877	3536.586670	1023.297058	4.559690
766.360474	900.028809	3388.723877	1012.300293	4.511259
766.675903	902.183594	3222.211670	1013.117615	4.781581
766.991394	910.059753	3065.135742	1008.510742	4.568330
767.306763	904.041199	2944.542236	1000.486145	4.726533
767.622131	903.818359	2866.524658	993.501648	4.569369
767.937378	900.103210	2803.218750	990.009460	4.724162
768.252625	912.363098	2738.649658	989.563660	4.227188
768.567810	911.545715	2672.148682	986.368652	4.249847
768.882996	906.344543	2622.440430	982.356262	4.429340
769.197998	907.533447	2586.775146	986.294250	4.690260
769.513062	913.997742	2550.069580	978.343933	3.932969
769.828064	917.564270	2502.812744	981.093079	4.007498
770.142944	910.505554	2463.803955	975.297546	4.171252
770.457825	903.966980	2432.745361	983.024963	5.171318
770.772705	898.022705	2406.218994	978.195313	5.315794
771.087402	903.000977	2382.516846	971.879578	4.655482
771.402100	894.753357	2357.105225	964.375000	4.760937
771.716736	898.022705	2329.167480	970.987854	5.098376
772.031372	905.081360	2294.913818	974.257324	4.977288
772.345947	910.505554	2276.338135	970.096375	4.362967
772.660461	909.911133	2261.106201	965.341003	4.102285
772.974854	904.338440	2243.347656	965.415222	4.561341
773.289246	901.663574	2227.447021	975.891907	5.598828
773.603638	904.041199	2221.948486	972.622559	5.203808
773.917908	902.406494	2207.236572	967.644348	4.999720
774.232178	913.626282	2182.270752	960.957092	3.730817
774.546265	915.260925	2156.933838	964.077820	3.931542
774.860474	914.443542	2135.534668	964.523621	4.101257
775.174561	911.397156	2120.302490	955.607239	3.657034
775.488586	909.168030	2112.426514	952.338074	3.587761
775.802551	912.585999	2109.083008	952.858093	3.365833
776.116516	911.768738	2106.779297	955.310059	3.643593
776.430359	910.356995	2096.005615	951.966492	3.509429
776.744202	909.019531	2092.810303	954.195496	3.816212
777.057922	908.425110	2078.098389	956.276062	4.090967
777.371704	908.796631	2061.900635	960.511292	4.484822
777.685303	901.514954	2049.120605	957.985046	4.920688
777.998962	903.446777	2048.749023	958.802307	4.833268
778.312500	903.595398	2047.634766	953.229675	4.338511
778.626038	906.195984	2034.631470	953.080994	4.154868
778.939453	910.505554	2022.743042	950.257507	3.574052
779.252869	916.821289	2014.644043	953.303894	3.323178
779.566223	923.731445	2017.913452	955.681580	2.920002
779.879578	919.421875	2017.616089	955.161438	3.254394
780.192749	916.524109	2012.637695	950.703308	3.118217
780.505920	909.465332	2003.201538	958.505127	4.483695
780.819031	908.870911	1995.176758	962.220215	4.911076
781.132141	917.712891	1991.312866	972.176819	5.073019
781.445190	920.610779	1990.495483	961.848694	3.854426
781.758118	920.239197	1982.916626	966.158264	4.321073
782.071045	907.236267	1974.520508	969.724854	5.854916
782.383911	908.127869	1960.402954	969.130432	5.797206
782.696838	905.601563	1943.313477	970.690735	6.272374
783.009583	909.019470	1928.898560	957.093262	4.713675
783.322266	909.539551	1917.753296	966.678406	5.667336
783.634888	910.654114	1906.459106	956.721863	4.626182
783.947510	911.545837	1904.007202	960.734192	4.956198
784.260132	912.883240	1889.815430	952.783752	4.084266
784.572571	917.564270	1877.704102	952.635193	3.652689
784.885010	922.839844	1860.465820	947.359680	2.615098
785.197449	917.192810	1847.239868	950.257507	3.555164
785.509766	909.613953	1849.023071	944.164734	3.677927
785.822083	896.462341	1835.648560	947.805481	5.466769
786.134277	899.062805	1836.688843	947.062500	5.119279
786.446533	902.257996	1833.196655	955.161438	5.682806
786.758606	913.626221	1839.215210	961.179993	5.137677
787.070740	915.186707	1837.580566	960.436951	4.905740
787.382690	911.322937	1841.370117	958.207825	5.041130
787.694641	904.561340	1850.583496	955.384460	5.372297
788.006653	902.555176	1879.784546	949.068604	4.759725
788.318481	908.647949	1891.821655	953.006653	4.511787
788.630310	908.945129	1916.490234	962.145935	5.280241
788.942017	902.257996	1920.651001	961.031433	5.771194
789.253784	902.406555	1941.827148	967.198547	6.233472
789.565430	900.549011	1959.957153	955.012878	5.140971
789.877014	913.626221	1970.805298	963.557678	4.723084
790.188538	913.106140	1969.096313	965.935364	5.002814
790.500061	918.901672	1938.780762	967.495789	4.764694
790.811462	913.031799	1916.712891	961.402893	4.819369
791.122925	912.660339	1887.734863	953.601074	4.198729
791.434204	917.192810	1866.410156	949.811707	3.436399
791.745483	918.084473	1832.973999	953.452454	3.865820
792.056702	915.335266	1805.333374	950.480469	3.948908
792.367920	909.911133	1779.698853	960.734192	5.843157
792.678955	910.728516	1767.735962	954.344238	5.089305
792.990112	920.982239	1765.729858	955.310120	4.063685
793.301086	919.421875	1747.822876	939.260742	2.394839
793.612122	921.576660	1740.838379	940.300964	2.285510
793.922974	913.031799	1726.943848	933.836609	2.556149
794.233826	910.951355	1738.163574	946.468079	4.293544
794.544556	907.607727	1743.290405	948.697083	4.916861
794.855286	902.109375	1745.593750	954.418457	6.201547
795.166016	905.155762	1734.968384	951.892090	5.632154
795.476624	902.703796	1720.999634	948.697083	5.620618
795.787292	906.418945	1725.160522	944.313293	4.628365
796.097778	908.722351	1739.500977	941.266846	3.917349
796.408264	913.997803	1757.928101	940.449524	3.134349
796.718689	916.078308	1776.057983	947.954102	3.706575
797.029053	914.294983	1791.810181	945.873535	3.598633
797.339355	911.248535	1793.742188	957.687683	5.262264
797.649658	919.273254	1789.952759	952.189392	3.780511
797.959839	922.914063	1782.968262	952.040710	3.386606
798.270020	920.684998	1780.441895	941.489746	2.419841
798.580078	917.341370	1769.742188	946.468079	3.417020
798.890137	910.282654	1746.856934	953.229675	5.133677
799.200195	911.768738	1733.259399	950.406067	4.703320
799.510071	907.236267	1715.798462	945.873718	4.778538
799.820007	907.756348	1709.259766	938.443359	3.828681
800.129883	903.818359	1703.538452	942.530029	4.840652
800.439575	903.372498	1694.101929	945.576416	5.337340
800.749329	901.737793	1693.656250	944.387634	5.385635
801.058960	905.452942	1679.687378	947.954102	5.489443
801.368591	908.276428	1671.588379	948.845703	5.314901
801.678162	913.254700	1658.213867	950.777649	5.036913
801.987671	912.957520	1653.458496	945.279236	4.364844
802.297119	910.951355	1647.811523	938.814880	3.781386
802.606506	906.864685	1636.889038	938.517578	4.335868
802.915894	912.065857	1626.040894	939.409180	3.829731
803.225159	906.047363	1622.028320	942.084167	5.033207
803.534424	906.195984	1620.319336	939.855164	4.713356
803.843628	902.406555	1619.056274	941.266907	5.422503
804.152771	911.471497	1613.929565	941.861267	4.326204
804.461792	917.935730	1623.068726	942.604309	3.498429
804.770874	919.496155	1621.656860	937.551758	2.571434
805.079773	909.019470	1629.384399	939.855042	4.280549
805.388733	899.731689	1622.845703	943.124512	6.000827
805.697571	898.245605	1633.991211	952.560852	7.382340
806.006470	901.886414	1641.644409	949.365906	6.418247
806.315125	905.081360	1650.040649	943.421570	5.146618
806.623901	909.168030	1646.176758	933.613586	3.316861
806.932495	911.842957	1646.176758	936.511475	3.359306
807.241150	918.307312	1644.096313	939.409180	2.907438
807.549622	917.489929	1648.703125	938.591858	2.885879
807.858154	926.406311	1636.591797	939.780762	1.883233
808.166565	919.793396	1624.406128	946.245117	3.754079
808.474915	918.233093	1616.678589	949.068665	4.414886
808.783264	910.505554	1609.396973	946.616699	5.166918
809.091492	912.883240	1603.526978	936.511536	3.421199
809.399719	911.397156	1583.836914	943.570313	4.784541
809.707825	907.904968	1577.446777	942.752930	5.204748
810.015930	911.248535	1570.462280	950.480408	5.951313
810.323975	911.099915	1579.527344	936.362854	3.779459
810.632080	913.329102	1578.264160	934.133789	3.128830
810.939880	904.709961	1568.307617	932.647766	4.210052
811.247864	897.056702	1552.035156	942.752930	6.976753
811.555664	896.833801	1536.283203	942.530029	7.146183
811.863464	897.056824	1528.035522	944.536194	7.524718
812.171143	902.257996	1521.868530	937.328796	5.660136
812.478882	898.691406	1523.280273	940.077942	6.626204
812.786438	905.230042	1530.190308	940.820984	5.694913
813.094055	914.963684	1517.112915	950.777588	5.947679
813.401489	919.347595	1518.821899	945.130615	4.300938
813.708984	920.907959	1505.521851	936.437256	2.656334
814.016357	912.957581	1520.233765	937.254578	4.000980
814.323730	913.923523	1513.546387	940.672424	4.460954
814.630981	906.195984	1514.363770	945.056335	6.389742
814.938232	903.075256	1501.880859	936.362976	5.559020
815.245361	901.366394	1499.131714	936.214294	5.829696
815.552490	903.521057	1500.469116	928.635315	4.207109
815.859619	907.979309	1504.630005	924.028625	2.689902
816.166565	908.648010	1503.812866	927.743835	3.208493
816.473572	913.403320	1508.345215	935.248352	3.671793
816.780457	917.489990	1508.567993	938.814941	3.607807
817.087341	917.415710	1510.202759	933.910889	2.782648
817.394043	920.685059	1506.784790	937.700378	2.903144
817.700806	913.477600	1509.979980	941.638367	4.720982
818.007507	916.821289	1524.543335	937.923157	3.472289
818.314209	910.654114	1537.174683	929.081238	2.941184
818.620667	918.307373	1544.604858	929.601318	1.803288
818.927246	922.616882	1555.230103	937.477356	2.349061
819.233704	920.164856	1578.858521	948.845703	4.354201
819.540161	912.585999	1609.768433	946.393738	4.849195
819.846497	900.846191	1633.693970	950.406067	6.762642
820.152832	903.075256	1671.514038	950.034485	6.110991
820.458984	896.016541	1717.061523	961.477234	7.972851
820.765259	892.598633	1778.584351	970.913635	8.839308
821.071350	896.536621	1879.487305	974.034363	7.884194
821.377502	906.270264	2041.615845	977.972473	6.315453
821.683472	911.917297	2317.130371	992.461426	5.731809
821.989441	901.514954	2675.418213	1028.869751	7.179354
822.295349	895.867920	3138.918701	1080.733154	8.241688
822.601196	900.549011	3647.817627	1137.054565	8.608752
822.907043	906.938965	4214.747559	1188.546387	8.513413
823.212769	911.471436	4753.293457	1225.251831	8.167489
823.518494	908.647949	5166.342285	1231.344727	7.579144
823.824097	909.688232	5356.706055	1218.564575	6.945696
824.129700	903.446777	5311.753418	1190.181030	6.504408
824.435242	900.251770	5118.417480	1164.100708	6.255064
824.740723	900.994812	4859.918457	1132.819336	5.855746
825.046082	904.264160	4559.066406	1106.739014	5.539968
825.351501	908.053528	4206.499512	1082.144897	5.277981
825.656799	909.539551	3790.999268	1061.711548	5.281073
825.962036	909.242371	3376.687256	1043.804565	5.453504
826.267212	906.047363	3038.758545	1026.269165	5.637041
826.572449	911.843018	2813.249268	1018.615967	5.615473
826.877502	914.666504	2731.962158	1013.934875	5.462423
827.182495	920.462097	2734.340088	1027.829590	5.919224
827.487488	913.552002	2791.479248	1031.916138	6.302914
827.792419	914.740784	2854.561768	1053.909790	7.174322
828.097290	914.443604	2910.883545	1046.033569	6.591231
828.402100	916.003906	2944.988281	1059.705444	7.082437
828.706848	921.279480	2927.007080	1045.364868	6.186553
829.011597	915.186707	2846.760010	1040.609741	6.493310
829.316223	903.743958	2730.327881	1012.894714	5.975677
829.620789	891.484070	2604.458984	1001.229187	6.406697
829.925354	896.536682	2475.915283	991.569763	6.017118
830.229797	902.778137	2340.907227	990.901062	6.127609
830.534302	913.552002	2177.292480	981.910461	5.409216
830.838562	906.344543	2007.807983	973.588562	6.104971
831.142944	898.765686	1851.475220	963.037598	6.746223
831.447144	887.694580	1738.609375	952.337952	7.596927
831.751404	891.484070	1673.668823	944.833313	6.820542
832.055542	905.898743	1627.081055	941.118347	4.883593
832.359619	907.607727	1598.994629	937.328857	4.298769
832.663635	911.174255	1596.245239	941.786926	4.468540
832.967651	905.527161	1627.526733	949.885986	6.143885
833.271545	904.858459	1678.052734	959.545227	7.072836
833.575439	905.675842	1741.655762	953.229553	5.688380
833.879211	908.053528	1820.639648	959.322449	5.617981
834.183044	916.523987	1916.044312	975.297546	5.880177
834.486694	915.558105	2001.938110	994.764832	7.290886
834.790344	914.740906	2079.213135	1003.160950	7.593143
835.093933	911.397156	2131.224854	989.563660	6.407996
835.397522	912.586121	2148.463135	991.272644	6.366858
835.700928	909.242432	2114.878174	984.585388	6.249230
836.004395	909.985413	2060.488525	989.563660	6.916821
836.307739	910.059753	2008.551147	970.765137	5.526250
836.611023	915.483826	1951.189453	958.876648	4.189687
836.914307	921.279480	1883.648438	951.594910	3.150084
837.217529	918.455994	1794.931030	962.963196	5.077977
837.520691	912.140198	1709.557007	958.727966	5.842336
837.823730	901.737793	1616.752930	952.412292	7.087193
838.126831	897.205322	1550.994995	939.186340	6.421181
838.429749	897.799805	1489.100708	937.997559	6.798189
838.732727	899.954590	1455.144531	937.551758	6.771947
839.035522	901.440613	1428.395508	934.059509	6.190073
839.338379	901.589172	1421.039551	930.864563	5.635839
839.641113	907.384766	1412.048828	928.486816	4.181406
839.943848	908.573730	1418.884766	929.972900	4.193358
840.246460	911.397217	1429.138672	936.362976	4.822052
840.549072	908.053650	1453.138306	937.477478	5.398029
840.851563	906.418945	1463.169067	939.706543	5.978911
841.154053	908.053650	1472.308472	934.059509	4.608886
841.456482	910.208435	1464.803833	932.722107	4.059477
841.758850	916.078308	1459.751343	932.499207	3.020363
842.061157	917.490051	1447.788574	942.530029	4.721865
842.363403	919.644775	1438.054810	939.706543	3.869865
842.665588	919.793396	1410.265625	936.808655	3.469158
842.967712	917.489990	1392.284302	926.332031	1.862289
843.269775	911.545715	1363.900757	924.325867	2.825248
843.571777	906.716064	1340.792603	921.353699	3.372132
843.873840	904.041199	1311.220093	922.096680	4.434287
844.175659	911.991516	1293.536011	920.239197	2.161656
844.477600	923.211243	1279.864380	921.873840	-0.374987
844.779297	925.291809	1268.718872	928.932617	1.060140
845.081116	923.137024	1252.223755	935.842773	3.860912
845.382751	911.768738	1245.462280	940.523865	8.617226
845.684387	915.483826	1230.378662	928.635437	4.176509
845.985962	908.127869	1225.103149	921.799561	4.313173
846.287537	904.784180	1215.369629	918.232971	4.330142
846.588989	902.480896	1212.546143	920.090576	5.679347
846.890381	900.771912	1215.369629	925.960449	8.006586
847.191711	908.647949	1212.323242	924.325867	5.162724
847.493042	908.870850	1207.716431	925.143250	5.445086
847.794250	917.267090	1193.450317	919.719055	0.887804
848.095459	912.883301	1184.459595	916.969910	1.504774
848.396606	908.722351	1172.794067	910.134033	0.534583
848.697693	899.434509	1167.369995	912.957520	5.047114
848.998657	901.960754	1163.877808	912.734619	4.113464
849.299622	901.663574	1173.314209	915.260925	5.005455
849.600464	906.864746	1170.787964	908.573730	0.647531
849.901367	907.756348	1166.849976	911.174133	1.319131
850.202087	913.477600	1159.048218	919.570496	2.481117
850.502808	915.038086	1164.175171	927.149231	4.861238
850.803467	913.923523	1163.580566	927.372253	5.386882
851.104065	912.214539	1169.524780	918.158691	2.310111
851.404663	903.520996	1163.580566	918.010071	5.571445
851.705139	897.205322	1167.147095	915.855286	6.908884
852.005615	890.889648	1164.026489	916.747070	9.466838
852.306030	894.307556	1160.014160	914.518005	7.606303
852.606384	902.555176	1159.122437	912.140198	3.735871
852.906616	915.781006	1165.215210	918.901794	1.251147
853.206909	916.672607	1168.930298	921.948181	2.091343
853.506958	915.929688	1172.868530	921.130859	2.024284
853.807129	906.641785	1157.487915	921.502258	5.924139
854.107178	910.951355	1161.797485	916.524109	2.221583
854.407166	911.025696	1156.373291	920.090637	3.694734
854.707092	910.059753	1157.413452	908.425049	-0.660877
855.007019	908.499329	1154.961548	911.248535	1.115468
855.306763	908.425110	1154.664185	915.038025	2.685567
855.606567	906.864685	1157.041992	920.759338	5.553922
855.906250	907.533447	1149.165894	923.954346	6.795817
856.205933	904.264099	1147.605591	922.839783	7.633586
856.505493	904.858582	1147.679810	913.180481	3.427171
856.805054	903.372559	1145.747925	906.047363	1.103579
857.104492	908.350769	1139.952271	896.759583	-5.004797
857.403931	914.517883	1137.203247	903.669739	-4.871512
857.703308	917.341309	1137.723267	908.053528	-4.214402
858.002563	911.471497	1138.317749	915.409485	1.735972
858.301819	906.938965	1141.512695	928.041016	8.995914
858.601013	904.264099	1140.992554	924.400085	8.505942
858.900208	904.041199	1143.964722	923.359863	8.052010
859.199219	905.824463	1148.125610	908.276428	1.011950
859.498291	903.298157	1155.704468	915.855286	4.974967
859.797302	914.592102	1148.794434	915.186584	0.253833
860.096191	912.883118	1147.234009	924.622986	5.009526
860.395020	921.873718	1140.918335	924.771667	1.322995
860.693787	913.700500	1143.964722	924.697449	4.775795
860.992554	906.418945	1138.986328	918.158752	5.047916
861.291260	897.874207	1136.980103	916.672668	7.861982
861.589844	895.793640	1136.831665	910.802734	6.226858
861.888428	900.400391	1127.395142	912.288818	5.237314
862.186890	905.824463	1127.841064	901.514893	-1.941103
862.485413	903.298157	1118.553101	910.802734	3.486367
862.783813	911.397156	1120.113525	914.294922	1.388375
863.082153	905.527283	1126.800781	916.672668	5.036928
863.380371	911.768738	1144.187622	914.592102	1.214774
863.678589	906.418945	1149.537354	906.344543	-0.030603
863.976746	909.465332	1146.713867	913.552002	1.722527
864.274902	904.115479	1143.667480	913.031799	3.722081
864.572937	911.322937	1145.004883	918.604492	3.116011
864.870911	915.855286	1139.580811	921.502258	2.524063
865.168884	923.508484	1137.574707	920.536438	-1.388377
865.466736	919.941956	1139.803833	918.530273	-0.642077
865.764587	918.010071	1144.261963	910.208313	-3.448262
866.062317	913.923523	1144.782104	911.397156	-1.094335
866.360107	903.223816	1157.041992	915.706726	4.918052
866.657715	896.610901	1158.750977	917.712891	8.049891
866.955322	885.762756	1156.001709	915.260925	10.915587
867.252808	897.874084	1140.472534	919.570496	8.943343
867.550293	907.979248	1138.540527	919.793396	5.124082
867.847717	918.753113	1142.404419	917.267090	-0.664437
868.145081	919.644775	1137.351685	909.985413	-4.436865
868.442383	913.849121	1136.162964	914.666504	0.367671
868.739624	908.276367	1133.116577	921.799561	6.014580
869.036804	903.298157	1133.413696	928.486816	10.946093
869.333984	896.908142	1135.345703	922.988342	10.937958
869.631042	897.576843	1136.683105	920.536377	9.602230
869.928101	892.970154	1151.692261	912.511719	7.553110
870.224976	892.821533	1145.748047	914.889343	8.724989
870.521851	901.440613	1153.326782	919.496094	7.168111
870.818726	901.812073	1148.497192	917.267090	6.265079
871.115479	905.824463	1160.980103	915.706726	3.873034
871.412231	900.549011	1154.218384	909.242371	3.427043
871.708862	906.195984	1155.333008	909.911133	1.491207
872.005493	907.459167	1154.887207	913.477722	2.432446
872.302063	916.524109	1158.676636	913.403320	-1.288770
872.598572	921.502380	1159.568237	921.279541	-0.093604
872.895020	920.387878	1158.230835	918.604553	-0.749791
873.191406	917.935852	1160.237061	915.929688	-0.827963
873.487671	909.836853	1158.973999	910.877014	0.417505
873.783997	910.282654	1162.986206	914.072083	1.499555
874.080200	903.892578	1164.769531	913.626221	3.731124
874.376343	907.236145	1167.964478	911.322815	1.567405
874.672424	910.802734	1171.085205	913.849121	1.170416
874.968445	913.254700	1171.976685	904.561279	-3.360140
875.264465	906.121643	1174.800293	909.168152	1.133886
875.560364	895.942200	1172.497070	908.796570	4.648036
875.856201	896.685242	1164.323730	921.650940	9.328142
876.152039	903.372375	1162.837524	926.034851	8.734304
876.447754	916.747009	1164.472168	921.502258	1.919566
876.743469	916.821289	1169.896362	926.109070	3.669971
877.039063	913.254700	1166.701294	924.548645	4.456144
877.334595	906.641846	1164.992310	919.793396	5.090585
877.630127	905.898743	1169.970581	918.307373	4.698960
877.925537	908.945129	1176.509277	913.551941	1.721760
878.221008	909.242432	1181.190308	917.787170	3.142050
878.516296	903.818298	1190.106689	913.477600	3.373976
878.811646	897.651123	1190.626831	918.010071	6.949022
879.106812	893.564453	1198.800049	918.604492	8.203512
879.401978	890.592346	1205.041504	920.090637	9.380941
879.697083	893.936035	1220.347778	916.078308	6.783541
879.992126	898.765686	1248.211426	918.455872	5.634690
880.287109	904.932861	1284.396851	922.393982	4.601522
880.582031	911.099915	1358.625366	927.743713	3.719073
880.876892	913.180420	1462.277710	933.985168	3.788900
881.171753	912.883301	1641.495728	950.628967	5.180486
881.466492	909.762512	1879.784546	980.795898	7.322863
881.761230	905.898865	2197.502930	1014.306458	8.393253
882.055786	907.756348	2523.171875	1048.857178	8.734646
882.350403	907.087646	2848.246094	1071.370972	8.463159
882.644958	906.121643	3090.918945	1076.795044	7.811864
882.939453	909.836731	3243.982422	1076.869263	7.156045
883.233826	907.830566	3273.257813	1067.135620	6.734726
883.528137	910.877136	3229.419189	1064.609375	6.630557
883.822449	903.521179	3164.107178	1057.996460	6.833418
884.116577	900.697571	3087.054932	1048.337158	6.752765
884.410828	896.908142	2981.916748	1027.978149	6.286305
884.704956	897.874023	2808.791748	1002.120789	5.455325
884.999023	897.056702	2558.985596	981.241699	5.065499
885.292969	896.685242	2281.167969	968.238770	5.168250
885.586914	896.388000	2030.619019	958.133606	5.443830
885.880798	901.589172	1836.837524	954.121277	5.616915
886.174622	903.298157	1693.210449	950.406067	5.963689
886.468384	903.075195	1580.567383	947.359680	6.536530
886.762085	903.595398	1508.865356	935.396973	5.254114
887.055664	908.425049	1453.212524	929.601318	3.887070
887.349304	915.632507	1412.791992	922.691223	1.419809
887.642822	914.666504	1369.993530	930.790222	3.541129
887.936340	912.214539	1343.318848	929.081116	3.912412
888.229736	913.551941	1317.535889	925.143127	2.869220
888.523071	910.951355	1304.235718	918.010071	1.794812
888.816284	919.198975	1288.260620	921.725281	0.684521
889.109619	914.889343	1266.935669	924.028625	2.596045
889.402710	922.542480	1248.954468	917.712952	-1.479581
889.695862	916.226807	1230.230103	907.310608	-2.839524
889.988892	915.855286	1221.239624	906.121765	-3.187302
890.281921	912.586060	1211.059937	913.700562	0.373400
>>>>>End Processed Spectral Data<<<<<
