Jaz Data File
++++++++++++++++++++++++++++++++++++
Date: Fri Jun 04 16:48:05 2021
User: jaz
Dark Spectrum Present: Yes
Reference Spectrum Present: Yes
Processed Spectrum Present: Yes
Spectrometers: JAZA3586
Integration Time (usec): 24900 (JAZA3586)
Spectra Averaged: 10 (JAZA3586)
Boxcar Smoothing: 1 (JAZA3586)
Correct for Electrical Dark: No (JAZA3586)
Strobe/Lamp Enabled: Yes (JAZA3586)
Correct for Detector Non-linearity: No (JAZA3586)
Correct for Stray Light: No (JAZA3586)
Number of Pixels in Processed Spectrum: 2048
>>>>>Begin Processed Spectral Data<<<<<
W	D	R	S	P
191.335022	0.000000	0.000000	0.000000	0.000000
191.713211	231.155762	234.127869	232.121689	32.499744
192.091385	464.763519	467.438385	473.382660	322.227051
192.469528	701.492004	705.652893	718.581604	410.719940
192.847641	713.603333	712.860291	727.720886	-1899.967163
193.225739	723.857117	731.064453	730.247070	88.659019
193.603790	734.482422	738.271790	730.098572	-115.688171
193.981842	733.739441	737.900330	737.751709	96.428154
194.359863	736.117004	734.185120	743.695984	-392.310120
194.737854	737.974609	738.123230	748.971436	7399.260742
195.115829	740.500916	744.736145	750.160339	228.073212
195.493774	744.141785	746.147949	749.491516	266.664642
195.871704	743.472961	746.593750	750.085938	211.900803
196.249603	746.445068	755.361511	750.606018	46.666027
196.627457	747.188171	758.556458	755.064270	69.281319
197.005310	747.188171	764.203430	758.630798	67.249207
197.383133	750.606140	760.339783	764.129211	138.931244
197.760910	754.246887	757.293274	761.157043	226.831223
198.138687	752.909485	756.327393	756.847473	115.216347
198.516449	751.943542	754.989990	750.160217	-58.537857
198.894180	745.330566	752.612305	742.284180	-41.835983
199.271866	748.154053	751.572083	747.039551	-32.606560
199.649536	744.736145	746.816650	748.599915	185.713028
200.027191	745.553467	751.051941	753.058105	136.485840
200.404816	740.500916	744.364685	743.770264	84.615509
200.782410	742.432800	759.448059	745.627747	18.776947
201.159988	746.370850	763.311829	755.658691	54.824707
201.537537	747.931152	776.314880	768.067200	70.942223
201.915070	745.999268	771.559509	766.135437	78.779259
202.292557	737.008606	778.320984	760.934143	57.913727
202.670029	728.835388	777.726563	755.584412	54.711353
203.047485	720.885010	782.333313	757.739197	59.975922
203.424911	718.358704	770.667786	759.002258	77.698853
203.802292	723.188416	771.633789	760.934143	77.914001
204.179688	728.538147	771.930969	761.528625	76.027504
204.557037	728.835388	782.556335	758.110657	54.495071
204.934357	735.374023	782.704895	745.850769	22.135120
205.311661	737.603088	775.571777	748.228455	27.984549
205.688934	741.912659	776.091980	752.315125	30.434969
206.066177	736.191406	769.999084	759.968262	70.329750
206.443390	740.278015	775.051758	754.841309	41.880142
206.820587	744.216064	767.101318	752.092224	34.415871
207.197769	743.101501	768.810242	750.754700	29.768858
207.574921	737.751709	772.302429	752.240723	41.935490
207.952042	727.052185	774.159973	748.822815	46.214504
208.329147	726.309082	773.045471	751.943542	54.849041
208.706223	732.179016	770.073425	767.621399	93.529320
209.083267	734.036621	768.364441	767.992920	98.917725
209.460297	734.333801	767.992920	760.191101	76.821083
209.837280	723.485596	767.398499	750.011719	60.406216
210.214264	726.457703	769.479004	752.389343	60.276283
210.591217	725.640381	767.101318	760.414063	83.870949
210.968124	722.668274	765.912415	758.556458	82.989700
211.345016	723.188416	764.054871	758.482178	86.363647
211.721893	720.662109	770.370605	754.098328	67.264595
212.098724	717.095520	765.986755	748.154114	63.525894
212.475555	702.383606	762.048767	747.856934	76.214203
212.852356	708.773682	761.974426	748.154114	74.022331
213.229126	711.448547	765.838135	748.005554	67.213242
213.605865	725.417480	768.661621	743.101563	40.893593
213.982590	719.027527	761.602844	750.234558	73.298409
214.359283	722.445313	756.104492	750.829041	84.326859
214.735931	720.141907	760.785583	748.674255	70.201202
215.112579	718.284363	756.104492	746.519470	74.656296
215.489197	719.324646	761.825867	742.284180	54.020882
215.865799	714.049133	760.934143	748.897156	74.326576
216.242355	717.541321	764.203430	745.627747	60.191074
216.618896	722.816895	761.751465	753.801086	79.580154
216.995407	731.733215	762.866028	753.949707	71.360374
217.371902	732.104675	764.277832	757.144714	77.828979
217.748367	733.219238	768.736023	754.692688	60.460003
218.124802	732.104675	763.683350	749.194336	54.117725
218.501236	736.934387	768.067200	750.234619	42.720947
218.877609	731.510315	760.265442	747.039551	54.005104
219.253983	727.572266	757.516174	752.463623	83.126617
219.630295	726.309082	750.829041	748.079773	88.787636
220.006592	721.479431	749.342957	747.931152	94.933144
220.382889	720.142029	754.395508	745.999329	75.488098
220.759140	717.095520	761.751465	746.668152	66.223282
221.135391	717.764343	770.816406	745.033447	51.400646
221.511581	717.689941	775.497498	742.507141	42.930717
221.887772	714.420654	770.890808	746.073669	56.052647
222.263931	711.522888	761.454285	746.816650	70.684509
222.640060	704.984192	756.253113	755.138489	97.825928
223.016159	706.470276	760.785583	746.965271	74.555397
223.392212	709.145203	769.627625	749.640137	66.953232
223.768265	723.188416	774.457275	752.017883	56.231926
224.144302	723.485596	775.200378	758.185059	67.097763
224.520294	731.881836	767.918640	760.116882	78.350586
224.896286	728.389648	763.757751	753.281006	70.377983
225.272217	728.315247	766.135315	747.708313	51.277184
225.648148	724.525818	769.701843	744.884766	45.065823
226.024048	722.593933	772.599609	740.500916	35.809898
226.399902	718.953125	775.943359	748.228455	51.369030
226.775772	723.857178	779.064026	748.154114	44.010727
227.151581	729.206970	777.726563	755.584290	54.364265
227.527374	734.036621	776.983582	758.259216	56.401188
227.903137	730.395752	775.794739	757.367615	59.410717
228.278870	730.990234	779.807129	751.646301	42.313358
228.654572	736.042786	772.302490	745.924988	27.253952
229.030273	733.590759	765.912415	745.999329	38.390884
229.405930	723.782776	759.893982	750.457520	73.868324
229.781555	724.674500	762.048767	747.559631	61.232323
230.157181	724.302917	765.838135	753.875488	71.198784
230.532761	731.658875	771.262207	752.760925	53.283524
230.908325	720.885010	776.983582	753.578186	58.278091
231.283859	720.736389	776.091980	747.188171	47.785206
231.659332	713.603333	773.862793	746.965271	55.363819
232.034821	725.120300	770.816406	749.788757	53.983719
232.410263	722.668274	767.770020	746.668030	53.212475
232.785690	729.875671	768.438721	745.256287	39.884335
233.161087	724.228577	761.157043	737.231628	35.211460
233.536469	720.736328	767.472839	737.231628	35.294247
233.911804	716.501160	763.163269	737.528809	45.063648
234.287140	719.621826	766.878418	744.736145	53.144585
234.662430	724.377258	766.655457	750.011658	60.632668
235.037704	723.485596	770.890625	752.240723	60.658390
235.412933	719.324646	778.023743	745.181946	44.050591
235.788162	718.210144	773.268372	745.479187	49.527645
236.163345	720.142029	767.027039	747.559631	58.478397
236.538513	718.953125	764.054932	751.572083	72.322952
236.913635	721.256531	774.903076	745.553528	45.290890
237.288742	723.931458	778.172363	746.668030	41.917759
237.663834	724.748779	776.017578	749.268616	47.826042
238.038879	730.024231	771.410889	759.596680	71.454063
238.413910	727.646545	774.754456	752.389343	52.523659
238.788910	733.145020	777.800842	749.194336	35.940029
239.163879	730.692932	778.692444	734.185120	7.275465
239.538834	735.002502	776.166199	736.191345	2.888086
239.913757	728.092346	775.200256	740.946716	27.287073
240.288651	729.578430	777.057861	750.977539	45.070271
240.663528	723.337097	777.726563	749.863037	48.770363
241.038361	729.578430	778.915466	750.160339	41.716953
241.413177	728.984070	784.190918	748.079773	34.589375
241.787979	732.327637	787.608887	742.952942	19.220449
242.162735	732.699219	789.243469	734.408142	3.022276
242.537476	731.881775	785.156921	735.968445	7.670875
242.912170	731.807556	787.237305	748.971436	30.965105
243.286865	727.869446	788.054688	756.104492	46.913570
243.661514	726.532043	789.689270	752.463684	41.058865
244.036148	730.024231	789.317810	746.147949	27.193026
244.410751	730.767273	788.128906	748.154053	30.310818
244.785339	733.516418	786.419983	754.841309	40.308987
245.159882	724.823059	798.977234	755.807312	41.783558
245.534378	722.222412	799.348694	751.423401	37.861267
245.908890	715.758057	795.782166	756.104492	50.417850
246.283356	716.724060	782.407654	760.116882	66.063408
246.657791	721.553711	782.779114	765.838135	72.330147
247.032196	730.024231	790.357971	759.596680	49.014778
247.406586	734.928223	803.509583	758.853699	34.886265
247.780960	726.383362	808.710754	760.934082	41.967464
248.155289	717.987122	818.444519	761.231384	43.047363
248.529602	717.689941	815.620911	755.881531	38.998482
248.903870	725.268860	823.794250	754.692688	29.864208
249.278122	727.869446	818.370178	754.172668	29.064098
249.652344	716.501160	814.655029	756.253113	40.499630
250.026550	713.008972	800.983337	747.336731	39.020184
250.400711	707.659180	798.679932	741.615479	37.306107
250.774857	721.033630	795.187744	742.729980	29.258457
251.148987	722.445374	795.633484	745.033386	30.862953
251.523071	726.383362	799.274414	756.921814	41.896023
251.897125	723.262695	804.475586	755.881592	40.164680
252.271164	727.200745	806.704651	756.178711	36.448483
252.645187	728.909668	806.778992	746.147949	22.137447
253.019165	729.578430	810.122620	745.999329	20.387440
253.393112	724.600098	812.277344	751.943542	31.186478
253.767044	723.336975	809.899719	755.732910	37.424801
254.140930	725.045959	806.704590	752.463623	33.575954
254.514801	726.309082	810.122559	754.395508	33.510632
254.888657	735.374023	814.060608	757.516174	28.139677
255.262466	731.361633	814.952209	762.271545	36.977749
255.636276	734.408142	813.911926	762.197266	34.953209
256.010010	727.943787	813.837708	757.218994	34.082981
256.383759	733.144958	821.565186	751.869141	21.176355
256.757446	724.600159	823.645691	738.123230	13.653388
257.131134	723.114075	827.360840	738.791931	15.039178
257.504791	724.005676	835.162598	741.763977	15.975884
257.878418	723.857117	840.140808	743.175781	16.613392
258.252014	718.804504	848.388428	748.302673	22.763756
258.625580	711.448547	856.561768	758.184998	32.206886
258.999115	716.724060	875.731750	770.370605	33.738335
259.372650	717.318542	890.666748	766.358215	28.289692
259.746124	723.708496	902.480896	763.460449	22.236069
260.119598	733.516418	926.257751	762.122986	14.841948
260.493042	737.900208	938.666321	755.881592	8.956384
260.866425	730.172852	952.783752	752.835144	10.180226
261.239838	711.448547	941.266907	748.748535	16.230204
261.613159	713.528992	925.886230	752.909485	18.544455
261.986511	715.386536	899.285828	744.661926	15.919251
262.359802	725.491699	881.824707	742.581482	10.931653
262.733063	731.584534	879.446960	741.318298	6.582987
263.106293	734.408142	883.087830	746.147949	7.896039
263.479523	732.104736	890.740967	756.178772	15.175623
263.852692	721.702332	889.997986	758.630798	21.942616
264.225861	724.005676	890.815247	758.630798	20.757275
264.598969	728.612488	893.044434	748.079773	11.839114
264.972076	734.482422	900.325989	744.884766	6.272383
265.345154	734.333801	894.604736	747.485352	8.205824
265.718201	729.281189	896.016541	745.702148	9.848517
266.091217	732.699158	898.691406	751.051941	11.056410
266.464203	733.144958	918.976074	752.537903	10.435790
266.837158	735.671204	926.109131	757.367615	11.392904
267.210114	726.011780	929.155579	761.974365	17.703018
267.583038	720.959290	928.263977	758.184998	17.957003
267.955902	718.953125	932.350586	761.082825	19.742363
268.328766	715.015137	941.787048	754.692688	17.496677
268.701569	712.414551	941.341125	757.887756	19.863665
269.074371	713.751953	946.839600	750.903320	15.938797
269.447144	720.884949	951.594971	746.890930	11.272151
269.819885	722.445313	966.529785	748.451233	10.654475
270.192596	725.863281	979.384094	756.327393	12.016415
270.565277	721.627991	996.622375	761.751465	14.590652
270.937927	723.039795	1007.544861	755.510071	11.412899
271.310577	710.854065	1030.801636	749.268616	12.006515
271.683136	714.494934	1047.891235	750.531738	10.808999
272.055725	711.299988	1081.550415	752.612244	11.157923
272.428284	717.392761	1092.695801	760.859863	11.581868
272.800812	719.250305	1101.389160	761.305664	11.005256
273.173279	723.931396	1073.228516	764.203430	11.529449
273.545776	728.389587	1071.445190	760.265442	9.291746
273.918152	724.302917	1064.906616	759.671082	10.383964
274.290558	725.268860	1075.606079	758.259277	9.416760
274.662964	724.302917	1056.213135	753.429626	8.775478
275.035278	729.801270	1054.578491	755.807312	8.007348
275.407593	725.714661	1056.064575	761.082764	10.706255
275.779907	725.863281	1070.850708	762.123047	10.510460
276.152161	723.411316	1079.395630	757.070374	9.455208
276.524384	726.977844	1103.098145	749.491516	5.985764
276.896606	722.891113	1111.717285	753.726807	7.930457
277.268799	719.919128	1122.639771	753.652527	8.376377
277.640930	721.776672	1119.370483	755.584412	8.503085
278.013031	724.971680	1133.488037	754.915710	7.329947
278.385162	726.309082	1127.246582	759.745300	8.339509
278.757233	725.789001	1133.710938	761.528625	8.761388
279.129272	726.829163	1127.618042	757.813477	7.730832
279.501282	723.559875	1138.020386	760.339661	8.874135
279.873230	729.058289	1142.850098	756.921814	6.733706
280.245178	722.668274	1156.670532	765.838074	9.946907
280.617126	728.166687	1174.205933	761.900085	7.562877
280.988983	714.420593	1199.617432	764.054871	10.229720
281.360870	717.615662	1234.762695	762.048767	8.591968
281.732697	718.953125	1270.947876	755.807312	6.676547
282.104492	728.538269	1296.731079	752.463684	4.210792
282.476288	728.389465	1313.449097	743.398743	2.565427
282.848053	724.748718	1322.662598	746.370850	3.616262
283.219757	717.318420	1323.480103	747.113831	4.915423
283.591461	719.324707	1321.250977	753.355286	5.653613
283.963135	723.262695	1319.318970	757.664856	5.771630
284.334747	723.114075	1329.349976	763.757629	6.704247
284.706360	723.188293	1350.154663	763.832031	6.482603
285.077942	724.971619	1370.588013	759.522400	5.351596
285.449524	731.881836	1402.315063	754.618469	3.391335
285.821014	732.030457	1420.519409	763.311829	4.543482
286.192535	727.646545	1451.355103	764.575012	5.102671
286.563995	726.383484	1465.472656	769.256042	5.800729
286.935425	722.965515	1486.871704	759.968262	4.843886
287.306824	719.770508	1484.791382	756.550293	4.807684
287.678223	726.680664	1477.806763	759.373840	4.352555
288.049561	733.739441	1457.076294	758.184998	3.379554
288.420898	730.024231	1444.667847	761.825745	4.449982
288.792145	724.748718	1441.770020	753.801086	4.051814
289.163452	721.107910	1448.457153	754.246887	4.556130
289.534668	726.011902	1472.605591	754.246887	3.781841
289.905914	726.680603	1497.348267	753.875427	3.528736
290.277039	725.045898	1535.094238	754.098328	3.586506
290.648193	731.584656	1572.914429	750.457520	2.243218
291.019318	732.699158	1598.028687	751.126221	2.129485
291.390381	730.544373	1617.570313	749.863098	2.177921
291.761475	727.126465	1609.471313	756.401672	3.317887
292.132507	714.123474	1606.127808	756.550293	4.756347
292.503510	712.265930	1582.573730	759.076660	5.378641
292.874481	714.346375	1570.239380	769.256042	6.415483
293.245422	715.386536	1574.326050	772.674011	6.669559
293.616364	723.485596	1596.022461	764.277771	4.675123
293.987213	713.380432	1635.254395	756.773254	4.707023
294.358093	716.724060	1671.291138	756.624573	4.179959
294.728943	715.163635	1716.913086	764.426331	4.917666
295.099731	720.216309	1765.358398	761.751465	3.974116
295.470490	720.736328	1793.147827	765.095032	4.136351
295.841248	720.885010	1824.354858	765.243713	4.019929
296.211975	731.287354	1840.106934	767.695740	3.283527
296.582642	735.076843	1885.803101	766.878418	2.763609
296.953308	736.860107	1931.127808	769.033203	2.693960
297.323883	734.853943	1979.498657	764.797913	2.405825
297.694519	733.070618	2011.597656	762.940369	2.336263
298.065063	733.070618	2009.739868	764.649353	2.473525
298.435608	727.497986	1988.563843	767.398499	3.164031
298.806122	726.977844	1931.573608	761.677246	2.880585
299.176575	730.692871	1875.029175	761.008484	2.649187
299.547028	733.962219	1836.837524	761.157043	2.465811
299.917450	734.928223	1825.692261	762.643127	2.540871
300.287872	726.160461	1823.165894	760.711243	3.149554
300.658234	728.240967	1817.295898	761.454285	3.049738
301.028564	732.847717	1812.317749	763.832031	2.870327
301.398865	737.825989	1815.586914	764.723572	2.495691
301.769135	729.504089	1809.791382	761.082825	2.923179
302.139374	722.148132	1811.500366	764.277832	3.867408
302.509583	712.488770	1810.088501	756.550293	4.014353
302.879791	711.076965	1809.940063	755.732971	4.063837
303.249939	707.733398	1799.983398	747.113831	3.605441
303.620087	717.838562	1789.209595	753.058105	3.287334
303.990173	721.330811	1775.760742	753.801086	3.079415
304.360260	720.290527	1785.123047	756.401672	3.391251
304.730286	722.668274	1782.819702	758.853699	3.413232
305.100281	722.519592	1798.125977	753.875488	2.915183
305.470276	735.968445	1800.875000	754.321228	1.723417
305.840179	731.361633	1820.119507	753.132385	1.999596
306.210144	726.829285	1836.540405	756.401672	2.664872
306.579987	720.290588	1852.663940	763.311829	3.799210
306.949890	712.934631	1870.868164	763.980530	4.408361
307.319702	725.491760	1886.323120	768.958801	3.744475
307.689484	729.652771	1911.660278	764.054871	2.910480
308.059265	737.825989	1935.288696	758.184998	1.700179
308.429016	727.349365	1967.907593	761.751465	2.773114
308.798737	723.411316	2000.526489	763.088867	3.106811
309.168396	723.634277	2049.046143	761.379944	2.847844
309.538055	726.011902	2088.575195	760.785583	2.552078
309.907684	725.863281	2122.308594	761.825745	2.575286
310.277313	723.039795	2149.428955	768.067200	3.156740
310.646851	727.275085	2172.017334	763.088928	2.478909
311.016388	728.686829	2186.134766	759.968262	2.146316
311.385895	724.525879	2176.549561	766.209656	2.870737
311.755371	727.646484	2178.778809	766.729797	2.693298
312.124817	731.584534	2176.772461	768.958923	2.586127
312.494232	733.144958	2178.852783	769.181824	2.492680
312.863617	733.813660	2163.398193	771.633789	2.645533
313.232971	732.104675	2149.800781	774.531555	2.992664
313.602295	741.095398	2141.627441	775.720459	2.472279
313.971619	738.271790	2153.441406	778.172363	2.819490
314.340820	737.677429	2161.763428	778.692566	2.880103
314.710083	722.742615	2190.369873	771.410828	3.316115
315.079285	716.649719	2216.450195	766.358215	3.314340
315.448486	716.278259	2255.013428	769.330383	3.447775
315.817596	725.268860	2255.756348	770.221985	2.937177
316.186707	730.544373	2227.892822	771.856628	2.759028
316.555786	729.652649	2188.066650	767.027039	2.562673
316.924866	726.309082	2146.605469	766.878357	2.856395
317.293884	714.717834	2128.772949	763.460449	3.447009
317.662872	712.488770	2122.754395	756.550293	3.124342
318.031830	715.609558	2140.735596	759.299500	3.065690
318.400757	726.309082	2149.280518	769.404602	3.028558
318.769684	727.720764	2160.277344	775.571777	3.340253
319.138550	721.999512	2182.791016	774.085754	3.565618
319.507416	717.764343	2212.511963	772.153870	3.638710
319.876190	715.163635	2229.675781	768.661621	3.532357
320.244995	722.891113	2222.022949	768.141541	3.018442
320.613770	725.640320	2197.800293	760.859863	2.392372
320.982483	736.042786	2178.630127	763.163269	1.879989
321.351166	735.745544	2161.391846	773.714172	2.663257
321.719818	732.847717	2159.682861	780.401550	3.332819
322.088440	725.491760	2157.082275	782.630554	3.991280
322.457062	721.479492	2179.893066	775.497498	3.703888
322.825623	721.256531	2214.740967	769.404724	3.223883
323.194183	714.569336	2254.790283	767.249817	3.420320
323.562653	712.340271	2298.183105	760.339661	3.026743
323.931183	710.705566	2351.978271	755.138611	2.707231
324.299591	715.981018	2422.343018	759.522461	2.551712
324.668060	720.662109	2479.556396	760.562683	2.268503
325.036407	725.268799	2521.908936	765.763855	2.253932
325.404755	725.640381	2539.889893	758.630859	1.818409
325.773102	725.863281	2553.264404	760.191162	1.878508
326.141388	720.885010	2552.967285	760.636963	2.169769
326.509674	722.816895	2558.837158	767.101318	2.411979
326.877899	728.240967	2567.902100	773.639954	2.467791
327.246124	731.807434	2588.632568	777.354980	2.452980
327.614288	728.463867	2586.849121	778.023743	2.666825
327.982422	717.764343	2577.858643	769.850525	2.800190
328.350525	716.278259	2549.846436	772.525391	3.067632
328.718628	712.637390	2538.106445	773.268372	3.321392
329.086700	712.191589	2529.264648	783.967957	3.950109
329.454712	713.528992	2548.211914	779.212585	3.580106
329.822693	719.101746	2563.741211	775.051697	3.033110
330.190674	724.080017	2591.381836	766.283997	2.260159
330.558563	724.674500	2599.332031	765.838196	2.195798
330.926483	722.593933	2622.291504	766.729797	2.323310
331.294312	718.432922	2634.700195	768.661682	2.621177
331.662231	716.278259	2673.634766	772.005310	2.847057
332.029999	717.169861	2723.417725	771.708069	2.718418
332.397766	720.736511	2773.126221	772.153870	2.505244
332.765503	718.061523	2805.001953	769.701843	2.474451
333.133240	723.559875	2839.701416	775.051575	2.433282
333.500916	721.999512	2883.391357	766.283875	2.048882
333.868561	733.219238	2942.610596	761.082764	1.261140
334.236176	722.148132	2982.288330	756.698914	1.528701
334.603790	723.336975	2993.433594	765.392334	1.852580
334.971344	723.708496	2979.241943	774.308594	2.243376
335.338867	734.110901	2963.712646	768.958801	1.562965
335.706360	736.117004	2971.365967	767.992920	1.426057
336.073853	731.213074	2979.613281	767.398499	1.609385
336.441284	728.092285	2987.266602	776.760559	2.154250
336.808655	728.018066	2971.365967	773.862793	2.043585
337.176086	723.188416	2945.805664	767.992920	2.015844
337.543396	729.355469	2874.995361	767.324219	1.769577
337.910706	728.983948	2816.072998	772.525391	2.086228
338.277954	732.476257	2820.234131	779.212646	2.238592
338.645264	724.377258	2892.158936	781.441711	2.632389
339.012421	723.634216	3011.489258	784.488098	2.659866
339.379669	721.776672	3126.732666	785.082581	2.632310
339.746796	720.439209	3225.481201	779.435547	2.355104
340.113953	716.352539	3306.842529	775.571777	2.286025
340.481018	719.770508	3336.117920	767.101257	1.809039
340.848114	721.776672	3343.102295	767.175598	1.731907
341.215118	726.903564	3346.966064	769.033203	1.607963
341.582153	719.696106	3355.436523	775.423279	2.114289
341.949066	718.358704	3377.578857	771.559509	2.000617
342.316010	717.244141	3386.123779	774.085754	2.129793
342.682922	723.708496	3404.699219	766.061035	1.579735
343.049835	724.525879	3420.080078	771.410828	1.739344
343.416656	728.686768	3457.379883	763.906250	1.290709
343.783478	721.256531	3500.698486	773.862854	1.892694
344.150269	722.073914	3609.552002	773.714172	1.788421
344.516998	718.358704	3731.631592	778.766785	2.004733
344.883728	729.281250	3851.407227	774.011475	1.432685
345.250427	738.717712	3922.812256	772.822571	1.071101
345.617065	740.872375	3941.610596	769.404724	0.891430
345.983704	738.643311	3939.530273	768.661621	0.937812
346.350281	727.646484	3937.449951	770.742126	1.342626
346.716827	728.909668	3887.444092	767.992920	1.237386
347.083405	727.423645	3852.298828	763.683350	1.160357
347.449860	733.962341	3795.531494	769.553223	1.162505
347.816376	729.578430	3767.965088	770.667786	1.352341
348.182770	722.668274	3733.711670	777.280762	1.813740
348.549194	717.912903	3712.164063	774.308594	1.883466
348.915558	722.742615	3739.210205	780.178528	1.904079
349.281921	730.618652	3753.550537	780.029968	1.634549
349.648193	732.550476	3783.717041	773.417053	1.339375
350.014526	732.179016	3803.259033	767.547180	1.151652
350.380737	729.578430	3861.809570	768.810303	1.252522
350.746948	726.680664	3925.115479	769.330383	1.333456
351.113159	726.457703	3991.616455	769.107422	1.306207
351.479309	730.767273	4037.089844	772.153870	1.251741
351.845428	728.240967	4057.002686	772.896912	1.341518
352.211517	723.188293	4083.157471	774.011414	1.512607
352.577576	718.061523	4118.896973	765.318054	1.389557
352.943604	724.005676	4179.453613	769.181702	1.307385
353.309601	723.262695	4231.763184	772.302490	1.397742
353.675537	723.262695	4310.672363	780.327148	1.590687
354.041473	723.336975	4401.916504	774.828796	1.399775
354.407379	716.872742	4500.516113	775.646057	1.553352
354.773254	715.609558	4598.001465	772.822571	1.473654
355.139038	715.312317	4684.267090	778.246643	1.585665
355.504913	726.160461	4782.420410	775.348877	1.212654
355.870636	728.240967	4876.265137	776.314758	1.158956
356.236389	725.417480	4985.786621	769.924805	1.044682
356.602081	725.863281	5117.376953	771.485168	1.038865
356.967804	726.754883	5250.527344	768.661621	0.926367
357.333405	727.349365	5384.792480	775.348938	1.030599
357.699036	728.909729	5531.316895	785.008301	1.168134
358.064606	726.234863	5683.787109	790.209473	1.290447
358.430176	723.634216	5804.603027	789.466370	1.295661
358.795654	717.764343	5856.614746	780.178528	1.214555
359.161163	715.535217	5840.193848	773.416992	1.129476
359.526581	720.884949	5804.008301	770.221985	0.970605
359.892029	727.720886	5803.414063	772.451111	0.881263
360.257416	733.219238	5889.605469	779.435547	0.896293
360.622772	731.807434	6079.820313	782.704895	0.951708
360.988098	722.668274	6338.839844	779.509827	1.012105
361.353394	720.290527	6620.446777	776.017639	0.944502
361.718658	711.597168	6894.475098	772.302551	0.981831
362.083893	714.643616	7115.971191	774.605957	0.936717
362.449097	715.460938	7268.068848	774.680176	0.903751
362.814209	725.268860	7276.465332	772.822571	0.725878
363.179382	725.566101	7095.909668	776.091858	0.793140
363.544434	734.259460	6775.665527	778.023743	0.724406
363.909546	728.761169	6403.333984	780.252869	0.907411
364.274536	724.674500	6121.800781	778.915466	1.004997
364.639587	713.826233	5915.239746	778.915344	1.251374
365.004517	717.615723	5774.436035	783.373535	1.300379
365.369507	720.736389	5684.529297	781.813171	1.230446
365.734344	721.256531	5624.715332	785.379700	1.307713
366.099274	728.092468	5604.505371	787.311707	1.214402
366.464081	726.309082	5567.057129	784.339539	1.198791
366.828918	724.674500	5567.948730	783.596497	1.216574
367.193665	716.426819	5580.505859	783.224915	1.373294
367.558411	723.411316	5617.136719	788.277588	1.325499
367.923126	730.618652	5612.158691	786.568604	1.146154
368.287781	738.866211	5594.103027	787.460266	1.000859
368.652435	734.556702	5552.791016	787.980408	1.108782
369.017059	728.686707	5532.357910	789.837891	1.273009
369.381653	723.857117	5509.101074	789.317810	1.367970
369.746185	719.919128	5503.899902	790.952454	1.484816
370.110687	725.120300	5533.323730	790.060852	1.350620
370.475220	730.544373	5573.595703	788.500488	1.196686
370.839661	740.649597	5630.957520	787.385986	0.955694
371.204041	740.500977	5676.505371	780.475769	0.809861
371.568451	737.677429	5732.900879	775.794739	0.763075
371.932770	729.132629	5774.658691	775.868958	0.926292
372.297150	724.154297	5816.193848	776.612061	1.030192
372.661377	720.439209	5835.958496	777.132141	1.108254
373.025696	719.176086	5876.378906	779.881348	1.177097
373.389862	722.593994	5860.181641	786.568604	1.245227
373.754059	719.770508	5865.828125	788.203308	1.329810
374.118225	719.919128	5878.162598	782.704834	1.217192
374.482361	721.033630	5939.907715	780.698669	1.143255
374.846436	720.662109	6013.096191	783.968018	1.196159
375.210510	722.593933	6109.244141	783.522217	1.131098
375.574524	717.987122	6210.592285	788.723389	1.287845
375.938538	721.627991	6352.362793	794.816223	1.299799
376.302460	717.392761	6478.230957	797.862610	1.396843
376.666412	722.073914	6648.681641	791.472656	1.170969
377.030304	722.668274	6786.364746	779.732849	0.941086
377.394196	726.754944	6937.942871	781.441711	0.880456
377.757996	720.959290	7061.730469	780.847351	0.944492
378.121796	720.290588	7141.828125	781.664612	0.955753
378.485565	722.371094	7159.140625	775.348877	0.823049
378.849304	730.395752	7070.349609	774.085754	0.689122
379.212982	728.612488	6937.496094	776.612000	0.773078
379.576630	735.968445	6773.361816	789.094910	0.879957
379.940277	730.470032	6665.325684	797.491150	1.129280
380.303864	734.705383	6576.979980	805.441589	1.210765
380.667450	733.888000	6537.896484	801.503479	1.164979
381.030945	732.550598	6508.026855	796.896667	1.114126
381.394501	727.052185	6539.382813	792.289978	1.122403
381.757935	728.315247	6543.840332	788.277588	1.031074
382.121399	727.869446	6563.531250	789.912292	1.063167
382.484741	731.361633	6589.462402	793.701660	1.064168
382.848145	721.553711	6658.489746	794.296082	1.225251
383.211487	725.045959	6727.071777	801.577820	1.275100
383.574768	724.600098	6844.767090	800.834717	1.245630
383.938019	724.005676	6923.007324	806.110168	1.324479
384.301270	716.501160	7033.792969	800.834717	1.334964
384.664459	713.380432	7077.928223	800.611816	1.370583
385.027649	714.940735	7137.296387	802.320801	1.360561
385.390778	719.696106	7208.478516	811.608643	1.416484
385.753876	723.039795	7248.007813	819.633301	1.480368
386.116943	721.999512	7306.410156	822.085266	1.520041
386.479980	721.479431	7310.793457	828.549622	1.624907
386.842987	716.501160	7368.898438	829.887024	1.704436
387.205994	723.336975	7425.962402	845.267761	1.819150
387.568909	726.606262	7489.862793	846.159363	1.767686
387.931793	727.943665	7537.861816	862.283020	1.972702
388.294678	725.788879	7566.914551	869.490479	2.100555
388.657471	722.296692	7585.861816	883.830872	2.353503
389.020294	722.519714	7569.664063	898.171326	2.565326
389.383057	721.776611	7583.112793	910.208313	2.746283
389.745819	721.405090	7589.502441	930.270081	3.041090
390.108521	722.445313	7611.496094	947.434021	3.265888
390.471191	715.238037	7672.424316	962.740417	3.557507
390.833801	717.987122	7791.383301	987.037292	3.803692
391.196442	722.296692	7989.103027	1012.448914	3.992844
391.558960	727.126404	8180.878906	1046.479492	4.284461
391.921509	728.463867	8367.081055	1084.894043	4.666161
392.284027	728.686768	8540.131836	1116.324097	4.962428
392.646484	731.584656	8648.019531	1160.162720	5.413776
393.008911	728.018066	8656.267578	1191.072632	5.840565
393.371307	722.816895	8610.200195	1250.068970	6.684753
393.733673	719.547546	8532.702148	1292.570068	7.334074
394.096008	721.999573	8510.708008	1350.897705	8.074486
394.458344	723.039795	8518.806641	1400.160522	8.685749
394.820587	730.024231	8555.661133	1454.847290	9.262161
395.182831	728.166687	8570.966797	1507.676392	9.939176
395.545013	727.052185	8521.629883	1562.214844	10.714663
395.907196	720.142029	8410.399414	1629.458618	11.824267
396.269287	723.782776	8284.753906	1691.873047	12.803782
396.631409	731.287354	8156.209473	1764.169556	13.911017
396.993469	737.305847	8051.145996	1828.738647	14.922842
397.355530	738.569092	7976.768066	1907.722290	16.152542
397.717499	730.915955	7951.654297	1984.699829	17.363653
398.079468	731.287415	7959.679199	2067.770264	18.489353
398.441376	725.863281	7957.152344	2142.816162	19.594748
398.803284	727.274963	7981.300781	2227.595459	20.682592
399.165131	717.169861	7995.121094	2326.640869	22.114342
399.526978	723.114014	8004.707031	2418.850830	23.287992
399.888763	727.423584	8000.992188	2524.434814	24.706047
400.250519	734.036621	8007.381348	2620.731201	25.939848
400.612244	726.309082	8056.198730	2733.151123	27.378885
400.973938	722.445313	8037.474121	2827.887451	28.782417
401.335602	719.027405	8049.584473	2926.635498	30.115149
401.697205	715.609558	8082.724121	3042.919189	31.590517
402.058807	708.550781	8181.621094	3175.401123	33.009865
402.420349	706.544617	8292.406250	3316.650635	34.407509
402.781860	713.306152	8402.969727	3465.107422	35.785717
403.143341	719.844727	8519.921875	3598.109375	36.900463
403.504822	727.943787	8640.218750	3761.649658	38.341766
403.866241	731.881775	8803.683594	3919.096924	39.485794
404.227631	728.092285	8986.839844	4096.755371	40.789028
404.588959	719.473206	9200.682617	4274.783691	41.919857
404.950287	716.724060	9346.910156	4442.485352	43.171272
405.311554	721.182129	9442.092773	4585.814941	44.314560
405.672821	724.525818	9454.352539	4694.742676	45.478756
406.034027	727.646545	9436.520508	4776.327637	46.489147
406.395203	728.983948	9363.925781	4840.673828	47.616882
406.756348	727.497986	9300.842773	4908.215332	48.764133
407.117493	726.680664	9232.113281	5000.646973	50.249840
407.478516	725.268860	9209.004883	5096.498047	51.524811
407.839600	721.405090	9192.731445	5178.974121	52.619492
408.200592	715.015137	9192.211914	5241.388184	53.394688
408.561554	715.981018	9167.617188	5306.328613	54.313126
408.922485	720.439209	9178.764648	5391.107910	55.219784
409.283417	727.943848	9198.973633	5474.178223	56.029015
409.644257	728.018066	9322.836914	5608.220703	56.780754
410.005096	731.510254	9466.910156	5740.702637	57.343594
410.365906	722.371094	9609.347656	5882.917969	58.068645
410.726715	722.148132	9694.202148	6005.740723	58.889446
411.087433	717.541321	9767.910156	6117.565918	59.666344
411.448120	719.770508	9826.163086	6233.403809	60.546844
411.808807	716.872742	9848.231445	6295.223145	61.090042
412.169434	717.838562	9769.991211	6298.121094	61.645920
412.530029	715.683777	9723.402344	6307.260254	62.075390
412.890564	712.860352	9693.086914	6335.941406	62.616249
413.251099	712.340149	9710.845703	6409.129395	63.308167
413.611572	717.912903	9743.242188	6481.649902	63.861790
413.972076	720.959290	9800.008789	6574.602051	64.474174
414.332489	730.544250	9864.799805	6651.728516	64.823936
414.692871	734.408020	10000.477539	6759.615723	65.024414
415.053223	733.145020	10131.250000	6860.518066	65.197960
415.413574	722.593994	10338.257813	7030.671387	65.602097
415.773834	719.770447	10481.215820	7155.648926	65.931610
416.134094	725.491699	10626.403320	7301.579590	66.419014
416.494263	733.219238	10754.278320	7424.327637	66.770477
416.854462	734.482422	11017.235352	7619.743652	66.959320
417.214630	731.881836	11325.518555	7831.877441	67.021324
417.574738	733.070618	11663.668945	8072.395996	67.144768
417.934784	730.024231	11917.487305	8311.280273	67.765640
418.294861	723.411316	12244.198242	8588.651367	68.269989
418.654846	715.015076	12632.726563	8895.967773	68.645332
419.014832	717.169861	13107.817383	9194.367188	68.416100
419.374756	729.727051	13603.343750	9512.458008	68.222710
419.734680	735.671204	14113.208008	9851.204102	68.140594
420.094543	724.302917	14608.213867	10248.053711	68.595589
420.454376	715.015076	15033.967773	10574.836914	68.858543
420.814148	708.773682	15492.860352	10929.409180	69.132683
421.173920	717.392761	15957.327148	11283.760742	69.333420
421.533691	719.547546	16436.951172	11636.698242	69.458992
421.893341	727.572266	16781.642578	11895.047852	69.561646
422.253021	723.114075	17021.416016	12055.467773	69.530884
422.612640	729.652771	17087.841797	12142.178711	69.766441
422.972260	718.655945	17047.792969	12144.184570	69.970192
423.331757	719.250305	16936.562500	12109.708008	70.236412
423.691315	715.237976	16925.789063	12104.359375	70.257462
424.050781	720.364929	17077.587891	12206.598633	70.221169
424.410248	725.268860	17235.111328	12301.335938	70.116165
424.769653	725.640381	17394.267578	12444.293945	70.303650
425.128998	723.782898	17379.037109	12492.293945	70.659447
425.488373	720.885071	17286.751953	12476.170898	70.960884
425.847656	717.392822	17063.396484	12333.508789	71.063950
426.206940	726.011902	16859.660156	12162.909180	70.888474
426.566193	726.754883	16520.837891	11932.793945	70.950867
426.925385	728.315247	16211.515625	11718.133789	70.978989
427.284576	729.578369	15750.317383	11409.182617	71.099060
427.643677	737.454529	15409.194336	11174.014648	71.133759
428.002777	738.271790	15044.293945	10922.649414	71.189445
428.361847	727.200745	14703.023438	10690.750977	71.291328
428.720856	724.377258	14409.081055	10458.405273	71.130722
429.079865	721.553711	14161.208008	10334.617188	71.527611
429.438812	726.754883	14009.703125	10232.969727	71.567055
429.797760	713.900574	13914.075195	10189.206055	71.781670
430.156616	716.798340	13761.606445	10029.232422	71.388046
430.515503	717.467041	13677.793945	9965.778320	71.358627
430.874268	726.977844	13600.890625	9933.458008	71.512680
431.233093	724.674377	13647.254883	9958.497070	71.454941
431.591827	720.736328	13680.245117	10007.908203	71.662994
431.950562	722.296692	13704.468750	10014.000977	71.572800
432.309204	726.680664	13747.859375	10072.997070	71.777809
432.667877	726.457703	13885.320313	10159.633789	71.686867
433.026459	725.343079	14029.171875	10266.926758	71.720581
433.385010	718.284424	14180.600586	10356.386719	71.593193
433.743561	715.089355	14333.515625	10461.079102	71.564735
434.102051	715.089417	14486.281250	10608.571289	71.841873
434.460510	722.891113	14657.104492	10759.777344	72.030525
434.818939	728.761047	14704.583008	10827.690430	72.260002
435.177338	724.897278	14737.796875	10839.652344	72.181740
435.535675	728.612549	14642.838867	10797.225586	72.362007
435.894012	733.813660	14586.441406	10750.562500	72.309380
436.252289	735.374023	14605.983398	10739.417969	72.124039
436.610535	726.160461	14626.120117	10719.728516	71.896385
436.968719	726.606262	14759.195313	10798.266602	71.773354
437.326935	727.423645	14846.351563	10895.602539	72.018066
437.685028	726.829285	14988.864258	11015.007813	72.136818
438.043152	726.606262	15096.231445	11104.987305	72.224442
438.401215	721.107910	15333.778320	11248.019531	72.039619
438.759277	727.720886	15545.987305	11435.039063	72.257561
439.117249	721.776611	15909.549805	11720.065430	72.415413
439.475250	724.971680	16198.586914	11941.264648	72.486572
439.833130	715.386536	16624.341797	12217.448242	72.299294
440.191071	718.210144	16917.242188	12386.338867	72.029793
440.548889	721.702332	17181.761719	12591.859375	72.114914
440.906708	731.361633	17513.521484	12800.352539	71.915604
441.264496	728.835388	17729.447266	12974.963867	72.033463
441.622223	727.646484	17908.962891	13096.449219	71.989845
441.979950	722.445313	17892.244141	13121.043945	72.211670
442.337616	722.668213	17867.203125	13150.168945	72.486664
442.695251	722.222412	17743.712891	13065.167969	72.513893
443.052887	724.377197	17573.113281	12926.593750	72.422150
443.410461	718.210144	17427.330078	12811.200195	72.373596
443.768005	713.008972	17256.804688	12723.226563	72.596512
444.125458	707.882019	17167.791016	12690.977539	72.801720
444.482941	713.380371	17198.478516	12681.541992	72.599884
444.840393	712.117249	17360.236328	12758.891602	72.361176
445.197754	711.820068	17633.447266	12960.624023	72.385498
445.555084	709.813904	17877.679688	13148.980469	72.456108
445.912415	719.473206	18255.806641	13430.290039	72.482742
446.269714	722.296692	18555.916016	13614.710938	72.292755
446.626953	724.971619	18898.970703	13897.803711	72.481743
446.984161	723.485535	19195.513672	14117.070313	72.507393
447.341309	719.770447	19413.666016	14304.612305	72.669930
447.698456	717.690002	19567.326172	14430.406250	72.747902
448.055542	710.705566	19634.123047	14512.807617	72.936623
448.412598	721.776611	19591.103516	14482.937500	72.928734
448.769653	724.674377	19456.466797	14367.546875	72.832710
449.126617	732.476257	19163.265625	14157.863281	72.842171
449.483582	727.200684	18906.476563	13992.167969	72.967522
449.840515	724.525879	18551.382813	13726.909180	72.937042
450.197388	723.634216	18293.849609	13549.027344	72.995087
450.554230	724.748718	18093.457031	13389.573242	72.917473
450.911041	733.219238	17917.285156	13278.788086	73.006981
451.267822	735.151184	17796.394531	13167.704102	72.870140
451.624573	736.191406	17627.207031	13048.375000	72.891907
451.981262	731.807434	17557.880859	12991.979492	72.864128
452.337921	728.166687	17414.253906	12884.536133	72.853317
452.694580	723.485596	17306.439453	12827.324219	72.989647
453.051147	719.621826	17285.117188	12815.956055	73.021263
453.407715	722.668274	17201.005859	12774.866211	73.139648
453.764221	735.002502	17218.095703	12827.027344	73.360161
454.120728	743.472961	16996.003906	12690.534180	73.508926
454.477142	737.974670	16925.119141	12634.657227	73.494637
454.833557	732.996399	16739.882813	12460.417969	73.264854
455.189911	733.293640	16607.623047	12352.827148	73.197006
455.546265	735.745544	16415.328125	12206.229492	73.155548
455.902557	730.098572	16301.868164	12113.051758	73.099930
456.258820	726.680664	16279.725586	12105.325195	73.160240
456.615051	723.188416	16375.500977	12177.546875	73.179977
456.971252	727.795166	16333.743164	12191.589844	73.457855
457.327393	719.547546	16536.515625	12317.979492	73.329048
457.683502	724.377258	16755.041016	12460.863281	73.212730
458.039612	715.906738	17206.802734	12769.070313	73.089806
458.395630	718.358704	17605.880859	13062.493164	73.096191
458.751648	715.758057	18088.476563	13399.085938	73.007156
459.107605	727.126404	18768.494141	13891.786133	72.969307
459.463562	735.151062	19462.111328	14388.500000	72.907448
459.819458	742.284180	20081.796875	14885.956055	73.133553
460.175323	731.881836	20584.306641	15267.946289	73.220596
460.531158	725.863281	21093.875000	15644.364258	73.244759
460.886932	721.702332	21369.460938	15856.200195	73.298508
461.242676	728.092346	21472.521484	15920.027344	73.233803
461.598419	729.355469	21226.726563	15755.445313	73.307404
461.954102	731.287415	20816.351563	15459.497070	73.329163
462.309723	723.559875	20163.751953	15029.284180	73.588394
462.665344	726.383362	19467.904297	14570.911133	73.870880
463.020905	725.789063	18905.138672	14162.766602	73.913414
463.376373	735.076904	18504.275391	13846.460938	73.787140
463.731873	736.711487	18188.859375	13577.411133	73.576607
464.087341	737.231628	17929.544922	13395.963867	73.630188
464.442749	731.287415	17784.431641	13281.684570	73.595795
464.798126	726.977844	17661.458984	13213.327148	73.733292
465.153503	725.343079	17741.931641	13262.738281	73.677490
465.508820	723.262695	17792.751953	13316.459961	73.776070
465.864105	720.141907	17995.376953	13463.950195	73.769234
466.219330	723.114075	18263.310547	13675.862305	73.846077
466.574524	726.903503	18498.255859	13809.754883	73.617653
466.929657	728.761047	18660.830078	13925.667969	73.593895
467.284790	726.903503	18791.306641	14034.594727	73.668045
467.639893	724.971680	18899.490234	14160.016602	73.922424
467.994934	726.309082	19064.740234	14282.765625	73.923752
468.349945	721.405090	19088.814453	14275.929688	73.796600
468.704926	728.166687	19063.552734	14258.840820	73.795410
469.059875	728.092346	18834.328125	14106.222656	73.886864
469.414764	727.052063	18603.248047	13951.821289	73.979774
469.769653	720.959290	18386.283203	13814.731445	74.121323
470.124451	727.646545	18328.474609	13760.789063	74.048462
470.479248	732.773438	18199.335938	13681.954102	74.136971
470.834015	738.643311	18134.841797	13623.403320	74.066521
471.188721	726.903503	18144.800781	13645.769531	74.170074
471.543365	724.377258	18238.273438	13688.122070	74.019768
471.898010	718.730225	18403.669922	13781.000977	73.860985
472.252625	725.417480	18593.882813	13915.637695	73.818436
472.607178	728.983948	18892.951172	14128.067383	73.767380
472.961700	730.841614	19100.478516	14298.444336	73.858849
473.316193	732.922058	19355.412109	14515.780273	74.011894
473.670654	727.423645	19476.228516	14621.511719	74.106529
474.025055	723.782776	19685.390625	14809.200195	74.283875
474.379456	716.649719	19837.265625	14886.698242	74.108749
474.733795	717.987122	20004.894531	15021.410156	74.161308
475.088104	723.411316	20110.404297	15083.676758	74.071655
475.442383	721.999512	20130.242188	15131.081055	74.242073
475.796570	722.073792	20215.541016	15193.867188	74.239197
476.150787	719.621826	20424.404297	15348.416992	74.239815
476.504944	723.559875	20676.441406	15514.631836	74.130005
476.859070	726.011902	20990.443359	15756.041992	74.169510
477.213135	733.962219	21237.500000	15934.515625	74.136253
477.567200	732.624817	21680.419922	16244.730469	74.051254
477.921173	727.720764	22041.455078	16525.000000	74.117836
478.275146	722.222412	22530.740234	16871.695313	74.051216
478.629089	725.566101	22828.693359	17104.857422	74.103951
478.983002	731.584656	23268.791016	17418.267578	74.040604
479.336823	732.922058	23616.156250	17700.841797	74.150009
479.690643	728.538086	24051.421875	18011.275391	74.102066
480.044403	725.194519	24514.474609	18347.943359	74.078529
480.398163	722.816895	25201.923828	18837.892578	74.002190
480.751862	725.417480	26082.632813	19493.613281	74.015205
481.105499	724.674500	27200.740234	20356.937500	74.150986
481.459137	724.525818	28618.583984	21423.552734	74.205864
481.812744	718.581726	30452.226563	22784.187500	74.210899
482.166290	719.176086	32665.482422	24398.787109	74.123161
482.519806	720.810730	35371.066406	26397.080078	74.101242
482.873291	723.708496	38503.222656	28769.939453	74.236610
483.226715	732.847717	42079.785156	31522.408203	74.466362
483.580139	731.287415	45594.375000	34329.937500	74.891525
483.933502	730.693054	48887.843750	37169.562500	75.666580
484.286804	726.754883	51570.917969	39711.609375	76.675179
484.640106	727.646545	53594.550781	41911.863281	77.901695
484.993347	735.151123	54710.730469	43250.128906	78.767059
485.346558	735.894104	54907.035156	43638.214844	79.197739
485.699738	723.411316	54248.488281	42931.074219	78.855865
486.052887	717.095520	52953.468750	41547.406250	78.164520
486.405975	705.429993	51405.519531	39922.554688	77.351196
486.759064	715.015137	49808.609375	38369.554688	76.699493
487.112061	722.668274	48518.566406	37128.175781	76.168686
487.464996	733.442139	47738.386719	36326.453125	75.721848
487.817963	737.528809	47610.285156	36108.152344	75.460945
488.170868	730.990173	47694.839844	36189.066406	75.500786
488.523743	730.098572	47794.480469	36318.058594	75.615486
488.876587	725.268860	47515.769531	36161.648438	75.734131
489.229401	728.315247	47021.363281	35792.738281	75.744469
489.582153	731.287354	46169.480469	35083.367188	75.601776
489.934845	728.835388	45181.253906	34264.550781	75.441826
490.287537	722.445313	44102.605469	33375.890625	75.272766
490.640198	716.649719	43260.828125	32706.720703	75.192589
490.992798	709.219482	42644.265625	32210.900391	75.120178
491.345337	710.482605	42541.355469	32101.228516	75.042053
491.697876	711.299988	42677.328125	32153.015625	74.921829
492.050354	721.999573	43103.007813	32515.240234	75.017662
492.402832	716.501160	43317.148438	32738.968750	75.168968
492.755219	715.460938	43127.082031	32691.115234	75.393616
493.107605	715.758118	42369.269531	32169.437500	75.512672
493.459930	726.754883	41144.910156	31239.763672	75.493317
493.812225	731.807434	39428.964844	29958.634766	75.527069
494.164490	734.556641	37456.523438	28443.228516	75.455299
494.516724	733.144958	35399.824219	26873.585938	75.405090
494.868896	726.829285	33572.417969	25489.101563	75.389946
495.221039	728.315247	32195.218750	24393.955078	75.208038
495.573120	722.296692	31157.287109	23582.494141	75.111565
495.925201	731.213074	30565.687500	23058.810547	74.838249
496.277222	732.476257	30169.953125	22778.390625	74.890640
496.629211	740.723816	30031.005859	22683.431641	74.914635
496.981140	736.191345	29952.390625	22683.283203	75.119598
497.333069	736.637207	30074.843750	22743.171875	75.009819
497.684967	738.940613	30129.009766	22796.890625	75.052391
498.036804	738.346130	30205.837891	22872.681641	75.114418
498.388580	732.179016	30068.302734	22814.947266	75.275002
498.740326	728.612488	29900.453125	22688.781250	75.278656
499.092072	727.646484	29606.587891	22422.554688	75.123627
499.443756	728.761047	29316.134766	22190.507813	75.074219
499.795410	724.451477	28996.337891	21940.033203	75.041267
500.147003	726.160461	28609.000000	21686.216797	75.171883
500.498566	718.804504	28222.255859	21403.865234	75.208961
500.850098	719.993347	27850.742188	21118.541016	75.186081
501.201599	717.987122	27556.576172	20886.419922	75.147141
501.553009	721.776672	27215.156250	20656.378906	75.243713
501.904449	716.352539	26933.771484	20494.175781	75.437729
502.255859	714.271973	26741.031250	20331.378906	75.372841
502.607178	714.717834	26646.070313	20219.404297	75.216621
502.958405	716.501160	26598.072266	20159.070313	75.121284
503.309692	717.244141	26527.556641	20090.564453	75.060387
503.660919	722.593994	26559.138672	20121.695313	75.083961
504.012115	732.401917	26577.117188	20113.820313	74.991806
504.363251	733.219238	26680.843750	20209.076172	75.058342
504.714294	729.578430	26748.537109	20260.568359	75.064453
505.065369	717.764343	26828.853516	20314.216797	75.050308
505.416443	720.810730	26849.140625	20343.269531	75.100319
505.767395	720.364807	26849.361328	20347.353516	75.115738
506.118317	735.596924	26804.556641	20371.650391	75.323502
506.469238	736.340027	26791.630859	20366.748047	75.341354
506.820160	734.110840	26781.375000	20369.570313	75.383957
507.170929	728.761169	26819.712891	20317.931641	75.080322
507.521729	722.296814	26880.718750	20363.998047	75.087486
507.872498	721.702332	26961.708984	20435.404297	75.128418
508.223236	716.724060	27156.380859	20643.228516	75.365974
508.573883	720.439209	27344.515625	20760.402344	75.270081
508.924500	722.742493	27516.673828	20899.794922	75.304558
509.275116	724.154297	27689.726563	21005.824219	75.213203
509.625702	721.405090	27900.078125	21227.544922	75.449379
509.976196	724.600098	28182.873047	21431.429688	75.411987
510.326660	723.188416	28427.404297	21646.314453	75.523254
510.677124	727.646545	28704.406250	21827.613281	75.419624
511.027557	726.754883	28919.064453	22003.859375	75.471313
511.377869	731.881836	29165.228516	22174.531250	75.413734
511.728180	730.618652	29296.818359	22256.265625	75.353554
512.078430	729.206848	29403.962891	22332.947266	75.340622
512.428650	725.714661	29437.697266	22422.927734	75.568497
512.778931	731.658875	29540.830078	22510.009766	75.595200
513.129028	735.002502	29604.134766	22543.669922	75.543205
513.479126	737.603027	29655.406250	22567.447266	75.489288
513.829285	726.977844	29606.662109	22538.318359	75.524857
514.179382	714.197754	29554.501953	22494.703125	75.521065
514.529297	711.225647	29508.734375	22426.865234	75.408051
514.879272	718.210144	29544.398438	22441.130859	75.358284
515.229187	728.240906	29500.115234	22420.548828	75.394142
515.579163	729.801270	29490.677734	22409.031250	75.377502
515.928955	726.383362	29474.328125	22416.984375	75.450966
516.278748	726.383362	29672.791016	22557.490234	75.419052
516.628540	724.228577	29966.431641	22773.041016	75.400658
516.978333	723.931396	30431.867188	23122.708984	75.396614
517.327942	726.011902	30947.083984	23560.796875	75.559151
517.677612	730.915833	31584.673828	24023.630859	75.493935
518.027222	737.380188	32163.789063	24491.439453	75.586296
518.376831	738.197510	32894.925781	25012.750000	75.488251
518.726379	733.070618	33538.019531	25487.837891	75.460464
519.075867	732.699158	34102.050781	25903.265625	75.430191
519.425293	735.745544	34466.656250	26215.263672	75.537590
519.774658	738.271790	34599.285156	26412.908203	75.823593
520.124084	735.225403	34616.152344	26434.531250	75.851845
520.473389	731.138855	34338.187500	26238.000000	75.897362
520.822693	732.476257	34022.996094	25953.419922	75.760139
521.171997	730.172852	33578.218750	25632.134766	75.809563
521.521240	730.172852	33130.394531	25295.468750	75.818298
521.870361	724.897278	32700.851563	24979.162109	75.851578
522.219482	730.247131	32342.861328	24706.025391	75.842438
522.568604	724.674500	32123.224609	24493.447266	75.700226
522.917664	730.395813	32003.224609	24399.751953	75.686646
523.266724	730.544373	32046.171875	24446.041016	75.730545
523.615662	732.179016	32312.025391	24664.044922	75.782082
523.964600	726.086182	32748.630859	24979.384766	75.738197
524.313538	716.203918	33350.332031	25384.781250	75.591347
524.662354	714.049133	34048.332031	25857.570313	75.428421
525.011169	713.306152	34883.566406	26470.119141	75.377861
525.359985	715.906738	35910.875000	27289.306641	75.503410
525.708740	715.906738	37138.875000	28271.443359	75.654289
526.057434	719.547607	38507.605469	29325.427734	75.700851
526.406067	720.216309	40075.914063	30467.531250	75.585785
526.754700	723.114075	41785.250000	31748.884766	75.558105
527.103333	725.417480	43710.437500	33329.082031	75.848900
527.451782	721.850891	45821.449219	35051.269531	76.119125
527.800293	724.674500	47939.000000	36923.546875	76.669258
528.148743	724.228577	50049.269531	38791.371094	77.176102
528.497131	723.188477	51871.917969	40602.125000	77.966621
528.845642	727.646667	53445.949219	42233.664063	78.731705
529.193909	725.640381	54641.847656	43682.199219	79.672813
529.542175	732.476257	55430.644531	44696.425781	80.375542
529.890503	727.349304	55683.125000	45114.082031	80.768097
530.238770	730.767273	55412.589844	44828.390625	80.644028
530.586914	722.445374	54653.511719	43976.878906	80.203186
530.934998	724.600159	53440.519531	42616.175781	79.466652
531.283142	721.256531	51910.699219	40946.144531	78.580437
531.631226	729.727051	50089.542969	39102.769531	77.741463
531.979248	727.720886	48230.488281	37406.960938	77.214951
532.327148	728.315247	46617.605469	35968.015625	76.792862
532.675110	727.349304	45429.652344	34992.496094	76.651863
533.023071	724.525818	44913.621094	34502.027344	76.438545
533.370850	730.395752	44747.324219	34370.660156	76.425743
533.718689	728.686768	45005.683594	34513.464844	76.303230
534.066467	732.401855	45214.468750	34704.871094	76.373405
534.414246	724.600098	45308.984375	34844.933594	76.529785
534.761963	725.714661	45100.714844	34760.152344	76.697327
535.109619	723.336975	44760.406250	34482.183594	76.660065
535.457153	722.593933	44113.375000	33976.925781	76.639168
535.804749	718.581543	43341.746094	33348.769531	76.555054
536.152344	722.668213	42452.117188	32637.617188	76.480637
536.499817	722.222473	41557.066406	31911.603516	76.379333
536.847229	726.160461	40605.769531	31179.650391	76.363564
537.194641	721.850891	39757.824219	30540.720703	76.388184
537.542114	723.188416	39137.996094	30053.369141	76.351234
537.889404	723.114075	38667.953125	29677.470703	76.306442
538.236694	722.891174	38248.511719	29328.099609	76.228477
538.583984	725.714661	37890.078125	29054.962891	76.226913
538.931213	719.101746	37629.574219	28870.248047	76.268723
539.278381	718.655945	37458.531250	28750.474609	76.298080
539.625488	714.049133	37448.421875	28695.265625	76.171761
539.972595	717.467102	37776.691406	28897.296875	76.039993
540.319641	715.163757	38449.355469	29390.218750	75.992233
540.666687	714.197754	39466.484375	30132.427734	75.913536
541.013611	713.900574	40733.941406	31121.173828	75.980118
541.360596	710.854187	42116.714844	32174.787109	75.989082
541.707458	710.185364	43577.652344	33332.796875	76.101089
542.054260	715.312317	44794.656250	34290.332031	76.169510
542.401062	718.284424	45790.316406	35189.917969	76.481209
542.747864	719.919128	46294.531250	35642.199219	76.626610
543.094666	718.358704	46236.875000	35666.050781	76.776871
543.441284	721.702332	45567.855469	35142.292969	76.752602
543.787903	724.823059	44523.894531	34348.363281	76.767700
544.134460	723.411316	43236.828125	33328.855469	76.694473
544.481079	725.937500	41834.214844	32180.880859	76.517296
544.827637	730.618652	40256.914063	30934.673828	76.415085
545.174072	728.389587	38614.605469	29659.119141	76.362160
545.520508	726.977783	37213.769531	28579.056641	76.334686
545.866943	724.154297	36077.386719	27642.843750	76.142082
546.213318	733.665100	35291.859375	27007.552734	76.027946
546.559631	730.024231	34611.988281	26495.162109	76.043816
546.905823	729.949951	33986.140625	26089.322266	76.254593
547.252136	718.135803	33530.144531	25729.695313	76.226845
547.598389	715.460876	33034.695313	25378.392578	76.310387
547.944458	712.711731	32626.474609	25062.677734	76.299263
548.290588	720.810730	32093.869141	24654.240234	76.286568
548.636658	728.018066	31547.005859	24205.001953	76.177010
548.982727	734.185242	30856.134766	23680.724609	76.178802
549.328735	730.172852	30136.439453	23157.556641	76.267365
549.674622	730.767273	29358.416016	22574.353516	76.302414
550.020569	724.154297	28655.365234	22074.818359	76.440163
550.366455	728.315247	27916.500000	21475.044922	76.307892
550.712280	727.275085	27246.658203	20988.660156	76.402176
551.058044	735.374023	26740.062500	20537.867188	76.149704
551.403748	736.711487	26361.193359	20268.072266	76.221489
551.749512	735.225403	26134.642578	20049.328125	76.041519
552.095154	728.241028	25939.228516	19887.273438	75.994774
552.440735	727.869446	25869.384766	19835.707031	76.001137
552.786316	727.274963	25883.578125	19830.802734	75.939331
553.131897	726.160461	25906.015625	19822.925781	75.841446
553.477417	725.937561	25949.630859	19833.179688	75.751167
553.822815	726.977844	25916.640625	19801.080078	75.721947
554.168213	726.829285	25882.978516	19802.193359	75.827835
554.513672	718.953125	25730.140625	19723.210938	75.983032
554.859009	718.507324	25531.232422	19601.207031	76.100868
555.204285	722.668274	25322.812500	19459.214844	76.164375
555.549500	723.039734	25089.056641	19296.863281	76.228394
555.894714	728.389587	24840.068359	19098.996094	76.189659
556.239990	730.470032	24527.031250	18883.888672	76.285889
556.585022	732.699219	24260.732422	18660.384766	76.197128
556.930115	732.104675	23995.099609	18486.369141	76.319771
557.275146	719.621826	23735.705078	18289.541016	76.337570
557.620178	723.931396	23518.818359	18134.099609	76.377518
557.965149	718.507324	23363.150391	17991.361328	76.277878
558.310059	720.662109	23167.884766	17871.513672	76.405228
558.654968	719.919006	23029.458984	17746.982422	76.321892
558.999756	721.256531	22900.099609	17656.779297	76.358910
559.344604	725.640381	22914.662109	17586.265625	75.986336
559.689331	721.256531	22872.976563	17549.783203	75.969391
560.033997	722.148132	22811.380859	17498.068359	75.946144
560.378723	722.742615	22757.958984	17505.201172	76.161987
560.723389	725.417480	22759.072266	17516.792969	76.207855
561.067932	728.018066	22819.927734	17541.462891	76.106796
561.412476	729.355530	22824.312500	17544.359375	76.103355
561.757019	727.943665	22821.562500	17510.103516	75.959305
562.101501	724.897278	22823.492188	17534.476563	76.066284
562.445862	725.714600	22784.781250	17517.089844	76.120064
562.790222	732.476257	22750.007813	17526.302734	76.274796
563.134644	729.429871	22750.156250	17487.443359	76.101097
563.478943	727.869446	22769.771484	17506.835938	76.123039
563.823181	722.816895	22799.716797	17513.078125	76.053528
564.167358	723.931396	22826.833984	17537.968750	76.071625
564.511536	722.148193	22886.873047	17571.851563	76.020355
564.855774	727.052063	22899.281250	17588.791016	76.048912
565.199768	717.764343	22967.193359	17650.166016	76.102638
565.543823	718.878845	23097.818359	17734.648438	76.034744
565.887817	717.838623	23335.958984	17883.849609	75.894951
566.231812	732.922058	23515.400391	18048.947266	76.005890
566.575745	734.185059	23690.976563	18174.445313	75.969940
566.919617	734.779602	23871.755859	18327.062500	76.035362
567.263428	734.036560	23994.798828	18425.365234	76.056526
567.607239	732.699158	24116.435547	18513.712891	76.040085
567.950989	727.349304	24109.599609	18546.404297	76.207611
568.294678	725.640320	24143.037109	18559.630859	76.157013
568.638367	729.132568	24070.591797	18495.732422	76.116066
568.981995	734.110840	23934.171875	18368.599609	76.010529
569.325623	727.795166	23731.916016	18231.361328	76.088829
569.669128	719.770508	23530.705078	18130.755859	76.327362
570.012573	715.832458	23415.240234	18050.359375	76.365547
570.356140	721.107910	23377.419922	18010.681641	76.312393
570.699524	733.367859	23365.234375	17987.650391	76.238884
571.042908	737.677429	23427.351563	18046.052734	76.283051
571.386230	740.649597	23567.931641	18098.287109	76.039001
571.729492	735.299744	23761.564453	18232.625000	75.988556
572.072815	731.138733	23945.240234	18329.664063	75.809631
572.416016	727.720886	24047.630859	18448.548828	75.990120
572.759094	726.234863	24193.412109	18525.228516	75.846336
573.102234	731.138733	24291.343750	18592.546875	75.811768
573.445374	731.213074	24358.662109	18643.369141	75.810791
573.788391	727.200745	24302.638672	18645.376953	76.003578
574.131409	718.433044	24271.056641	18635.865234	76.074036
574.474365	726.977844	24189.474609	18604.509766	76.196205
574.817261	734.036621	24067.693359	18494.021484	76.113167
575.160156	739.386292	23866.333984	18354.927734	76.168900
575.502930	734.408020	23672.328125	18189.455078	76.096901
575.845703	731.584656	23463.017578	18042.115234	76.152397
576.188477	732.104675	23221.830078	17863.861328	76.175926
576.531250	724.302917	22959.689453	17666.291016	76.193810
576.873901	723.039795	22722.218750	17459.357422	76.077011
577.216431	716.129578	22494.181641	17288.386719	76.096138
577.559082	720.290527	22228.697266	17085.466797	76.087349
577.901611	725.937500	21924.130859	16849.998047	76.063370
578.244080	733.293457	21578.103516	16560.738281	75.929909
578.586487	730.172852	21255.480469	16298.524414	75.849541
578.928955	730.470032	20886.419922	16051.171875	76.010818
579.271301	725.417480	20567.291016	15835.842773	76.154228
579.613647	725.268860	20181.660156	15561.887695	76.255760
579.955872	719.324646	19897.005859	15324.192383	76.155548
580.298157	719.844727	19590.134766	15123.352539	76.329025
580.640320	724.302917	19373.171875	14959.218750	76.331253
580.982483	725.937561	19147.587891	14827.108398	76.546730
581.324524	725.789001	18981.373047	14671.293945	76.390350
581.666626	719.250305	18819.021484	14561.176758	76.475700
582.008728	714.717957	18724.138672	14471.569336	76.386978
582.350647	716.055359	18583.705078	14381.067383	76.479065
582.692566	729.727051	18511.927734	14303.049805	76.330948
583.034424	733.145020	18392.894531	14204.524414	76.282951
583.376343	729.206848	18326.171875	14158.977539	76.318672
583.718201	720.587830	18208.402344	14115.436523	76.595329
584.059937	722.371094	18155.869141	14078.062500	76.609360
584.401611	725.937561	18055.115234	13991.277344	76.549156
584.743347	727.126404	18001.841797	13917.122070	76.354347
585.085022	721.182129	17908.664063	13860.801758	76.448769
585.426514	723.559875	17852.640625	13828.554688	76.507294
585.768127	725.194580	17770.388672	13798.164063	76.695930
586.109619	737.825989	17702.474609	13732.257813	76.597115
586.451172	736.042786	17631.812500	13684.257813	76.635841
586.792542	730.470032	17595.404297	13635.441406	76.519554
587.133850	728.612488	17556.396484	13610.995117	76.554245
587.475220	731.881775	17571.404297	13610.772461	76.480141
587.816589	733.739441	17579.355469	13583.875000	76.281784
588.157776	729.058289	17593.623047	13630.090820	76.497871
588.498962	730.693054	17647.490234	13645.916992	76.345558
588.840210	733.293640	17694.970703	13719.328125	76.561028
589.181335	735.671204	17787.476563	13771.043945	76.445709
589.522400	735.299744	17794.833984	13783.229492	76.484673
589.863403	731.658875	17860.294922	13792.070313	76.248985
590.204407	728.984070	17823.365234	13737.754883	76.099686
590.545410	721.776672	17896.849609	13762.645508	75.929047
590.886353	720.439209	17892.244141	13760.714844	75.940041
591.227112	722.816895	17916.986328	13773.420898	75.901329
591.567932	725.194580	17817.716797	13753.210938	76.220566
591.908752	723.262695	17680.333984	13732.406250	76.718109
592.249512	718.730286	17621.039063	13715.464844	76.893250
592.590149	719.696106	17530.908203	13617.385742	76.720757
592.930786	719.844788	17491.455078	13516.854492	76.301620
593.271423	713.231873	17390.181641	13455.108398	76.404121
593.612000	714.643616	17334.974609	13405.846680	76.359512
593.952576	723.782898	17339.580078	13434.598633	76.498383
594.292969	734.705322	17396.869141	13425.164063	76.163330
594.633484	732.922058	17472.210938	13511.429688	76.338417
594.973877	728.538147	17554.017578	13555.268555	76.233971
595.314209	728.612488	17673.867188	13668.133789	76.360741
595.654480	730.321472	17859.847656	13787.984375	76.228981
595.994812	732.401917	18048.207031	13932.131836	76.229370
596.335022	729.652771	18266.433594	14072.120117	76.082764
596.675171	724.897461	18480.126953	14209.801758	75.948914
597.015320	725.640442	18680.595703	14347.781250	75.868416
597.355408	729.727051	18764.781250	14469.117188	76.181587
597.695496	734.482361	18812.410156	14530.417969	76.313698
598.035461	733.739258	18756.681641	14517.117188	76.476852
598.375366	733.590637	18722.726563	14461.687500	76.313263
598.715271	739.014832	18600.794922	14418.219727	76.583664
599.055176	733.070618	18403.298828	14259.137695	76.547211
599.395081	723.262695	18152.080078	14088.018555	76.681946
599.734802	717.615723	17838.150391	13814.065430	76.495560
600.074524	722.816833	17512.333984	13608.320313	76.747314
600.414246	727.423645	17154.195313	13302.713867	76.553635
600.753906	725.343201	16839.820313	13049.192383	76.476883
601.093506	721.850891	16567.203125	12798.717773	76.217094
601.433044	721.850891	16377.805664	12653.827148	76.213661
601.772583	720.736389	16235.812500	12593.938477	76.526871
602.112122	720.885010	16212.409180	12605.828125	76.719002
602.451538	716.724060	16236.036133	12636.218750	76.804276
602.790894	715.535156	16373.050781	12696.403320	76.518318
603.130310	714.420715	16585.183594	12796.191406	76.125961
603.469604	718.061523	16796.576172	12952.895508	76.094307
603.808838	722.668274	17097.130859	13133.153320	75.791710
604.148010	724.005676	17350.501953	13360.075195	75.999596
604.487305	725.789001	17637.013672	13571.168945	75.957718
604.826416	728.092346	17829.533203	13770.523438	76.265099
605.165527	730.692932	18013.505859	13882.497070	76.097588
605.504456	734.928223	18116.193359	13984.589844	76.229561
605.843445	732.401917	18167.908203	14004.575195	76.121521
606.182434	733.590759	18141.826172	14008.737305	76.257851
606.521423	734.928223	18049.765625	13934.286133	76.231483
606.860229	740.798157	17829.458984	13812.132813	76.491280
607.199036	742.061279	17573.335938	13626.598633	76.551163
607.537903	738.569092	17310.158203	13437.645508	76.631607
607.876648	739.237793	17063.619141	13227.815430	76.502617
608.215271	730.544373	16787.585938	13037.006836	76.642151
608.553955	727.423584	16582.138672	12825.913086	76.308464
608.892578	725.343079	16391.105469	12677.604492	76.295433
609.231140	737.528809	16308.704102	12599.512695	76.179115
609.569641	736.860046	16245.027344	12560.875000	76.243790
609.908081	738.717590	16226.377930	12556.565430	76.304924
610.246521	729.726990	16228.606445	12523.872070	76.096764
610.584961	729.504089	16221.325195	12540.887695	76.242706
610.923340	721.405090	16199.034180	12549.135742	76.418236
611.261597	724.080017	16119.825195	12478.547852	76.348808
611.599854	731.658875	15975.233398	12395.328125	76.515312
611.938110	734.482422	15838.590820	12269.608398	76.370781
612.276245	737.231628	15604.092773	12143.145508	76.720390
612.614319	726.606384	15321.816406	11923.803711	76.718300
612.952393	724.377258	15012.715820	11680.684570	76.680069
613.290466	715.609558	14761.127930	11464.092773	76.526070
613.628479	717.689941	14519.569336	11256.565430	76.358261
613.966370	713.677673	14280.983398	11056.468750	76.233200
614.304260	714.272034	14041.875977	10892.407227	76.368828
614.642151	714.940735	13858.793945	10724.186523	76.151535
614.979980	713.826172	13678.312500	10595.419922	76.220482
615.317749	719.844727	13534.834961	10462.937500	76.028877
615.655396	720.885010	13434.601563	10408.250000	76.196167
615.993164	724.674377	13392.843750	10404.164063	76.407959
616.330811	728.018066	13366.911133	10357.947266	76.192825
616.668396	731.658875	13316.459961	10352.671875	76.449463
617.005859	732.327637	13290.750000	10311.359375	76.275757
617.343445	732.922058	13268.682617	10334.245117	76.591469
617.680908	737.157288	13259.468750	10327.558594	76.586510
618.018311	738.866211	13260.657227	10345.242188	76.717270
618.355652	735.448242	13260.211914	10338.703125	76.674141
618.692993	725.937561	13270.614258	10320.127930	76.480171
619.030273	720.141907	13264.522461	10311.954102	76.463020
619.367554	721.553711	13262.738281	10321.985352	76.551231
619.704712	724.154297	13239.555664	10318.196289	76.657883
620.041870	729.504150	13205.301758	10273.688477	76.501595
620.379028	721.405090	13150.540039	10240.771484	76.589127
620.716064	719.473145	13099.346680	10207.409180	76.640007
621.053040	721.330750	13032.473633	10181.998047	76.846375
621.389954	728.092285	12975.484375	10134.890625	76.806541
621.726929	726.903503	12925.032227	10083.770508	76.707397
622.063843	725.194580	12878.964844	10038.520508	76.629112
622.400635	721.776611	12857.863281	10021.728516	76.630569
622.737427	719.770508	12837.429688	9997.059570	76.560074
623.074219	721.033630	12793.887695	9964.441406	76.563568
623.410889	721.479492	12724.117188	9913.171875	76.580605
623.747559	720.810730	12689.790039	9877.060547	76.499840
624.084167	716.798401	12672.700195	9855.735352	76.438705
624.420715	719.398926	12682.062500	9858.113281	76.393646
624.757324	724.228699	12696.922852	9864.874023	76.345772
625.093750	724.451599	12750.272461	9893.184570	76.242058
625.430176	721.999573	12816.179688	9931.227539	76.145943
625.766602	726.457703	12880.153320	9950.843750	75.897789
626.102905	726.011902	12951.038086	10010.210938	75.944206
626.439209	717.838623	13025.192383	10101.454102	76.243973
626.775452	713.157532	13134.566406	10234.084961	76.649338
627.111694	716.946960	13228.114258	10293.230469	76.541885
627.447876	719.398926	13311.333008	10309.651367	76.161865
627.783997	723.782776	13360.668945	10337.366211	76.075569
628.120056	715.089355	13387.269531	10364.412109	76.145721
628.456055	717.912903	13362.971680	10344.647461	76.130409
628.792053	711.597168	13309.622070	10310.765625	76.195816
629.128052	713.826233	13251.890625	10265.961914	76.185089
629.463928	710.631165	13180.335938	10224.203125	76.293480
629.799744	716.203918	13071.854492	10138.680664	76.260468
630.135559	717.838562	12923.843750	10045.653320	76.419884
630.471375	721.776672	12784.079102	9928.477539	76.326233
630.807068	714.940857	12631.387695	9809.370117	76.318298
631.142700	724.451477	12506.113281	9690.784180	76.104141
631.478333	730.321472	12359.959961	9603.850586	76.300987
631.813965	730.024231	12251.179688	9511.416992	76.219719
632.149475	723.485596	12123.750977	9406.502930	76.165047
632.484924	725.343201	12025.375000	9327.964844	76.129181
632.820435	734.408020	11942.156250	9240.435547	75.894173
633.155884	733.219238	11866.961914	9206.330078	76.102997
633.491150	731.287354	11833.303711	9164.348633	75.959724
633.826477	725.789001	11749.934570	9139.383789	76.319702
634.161804	722.445313	11711.520508	9115.754883	76.378670
634.497009	718.804504	11634.171875	9070.801758	76.515953
634.832153	719.176086	11583.645508	9037.142578	76.561188
635.167297	728.463867	11513.058594	8965.143555	76.374496
635.502380	721.776672	11432.067383	8912.090820	76.471443
635.837463	716.575500	11361.257813	8834.296875	76.260811
636.172424	713.008972	11286.434570	8776.786133	76.264565
636.507324	715.237976	11198.534180	8694.979492	76.118637
636.842224	725.045898	11104.020508	8642.744141	76.285942
637.177124	721.925293	10982.833008	8554.100586	76.330231
637.511963	729.281250	10859.194336	8442.200195	76.140030
637.846741	727.349304	10721.882813	8338.176758	76.149902
638.181396	733.665039	10616.149414	8248.047852	76.037384
638.516113	737.380188	10530.627930	8204.877930	76.251488
638.850769	735.745544	10445.253906	8143.949707	76.298447
639.185303	729.281250	10352.671875	8087.479980	76.461601
639.519836	724.525818	10274.729492	8024.396484	76.436806
639.854370	719.473206	10183.632813	7960.347656	76.508377
640.188843	723.782776	10073.739258	7874.527832	76.478920
640.523254	724.748718	10016.674805	7831.507324	76.483162
640.857605	730.618652	9938.583008	7762.405762	76.366356
641.191895	721.107910	9876.168945	7730.900879	76.567413
641.526184	717.838623	9783.885742	7675.693848	76.746300
641.860413	716.426941	9749.780273	7634.753418	76.586472
642.194580	727.052185	9710.102539	7587.867676	76.375114
642.528748	727.869446	9662.697266	7534.667480	76.182755
642.862793	735.819824	9586.760742	7496.178223	76.380104
643.196838	735.002502	9535.788086	7453.751953	76.342613
643.530823	735.225403	9493.139648	7405.900879	76.167397
643.864746	734.705261	9440.829102	7377.145996	76.296188
644.198669	732.104675	9396.099609	7365.628906	76.564270
644.532532	728.240967	9358.427734	7324.836426	76.436302
644.866333	721.776611	9334.354492	7273.864746	76.075806
645.200073	725.417480	9308.125000	7238.422363	75.885208
645.533813	730.321472	9277.958008	7213.159668	75.843636
645.867554	725.045898	9263.915039	7216.503906	76.022453
646.201172	712.637390	9265.028320	7202.385254	75.882271
646.534729	711.671387	9262.725586	7228.242676	76.207809
646.868225	715.980957	9269.933594	7224.378906	76.086433
647.201782	725.863281	9253.883789	7222.075684	76.174919
647.535217	728.612488	9249.277344	7229.134277	76.291252
647.868591	727.720886	9248.682617	7248.229980	76.523163
648.201965	731.064514	9250.317383	7243.029297	76.438217
648.535278	721.405090	9235.977539	7237.828125	76.532593
648.868591	721.479431	9213.983398	7238.496582	76.738464
649.201782	726.754883	9183.742188	7224.750488	76.835823
649.534912	730.321472	9155.432617	7181.580566	76.571800
649.868103	729.355469	9130.615234	7129.644043	76.182487
650.201172	727.274963	9086.182617	7114.708496	76.414696
650.534180	734.779602	9049.179688	7109.433105	76.670029
650.867188	746.445129	9014.703125	7085.062012	76.662056
651.200134	741.912598	9017.229492	7063.513672	76.391052
651.533020	738.643311	8993.081055	7026.585449	76.176506
651.865845	728.240967	8933.788086	6995.378906	76.376846
652.198608	722.668274	8878.877930	6962.759766	76.507248
652.531433	725.417480	8860.748047	6940.839844	76.400368
652.864136	729.801453	8864.389648	6917.583496	76.067551
653.196777	857.899231	8997.911133	7020.269531	75.704681
653.529358	857.453369	8948.946289	6993.520996	75.833557
653.861938	855.001404	8893.516602	6978.214355	76.173431
654.194519	730.024231	8685.245117	6811.775879	76.449814
654.526978	727.720886	8635.165039	6762.885254	76.322571
654.859375	730.767273	8580.551758	6710.278809	76.174210
655.191833	726.754883	8525.123047	6658.192871	76.059990
655.524170	726.680603	8469.247070	6626.465332	76.199341
655.856445	718.804504	8409.062500	6576.757324	76.173683
656.188660	722.593933	8394.871094	6571.036621	76.228249
656.520874	715.758057	8361.062500	6528.460938	76.029709
656.853088	721.256531	8370.202148	6559.072754	76.321846
657.185181	716.649719	8356.232422	6547.704590	76.326874
657.517212	719.027405	8383.948242	6585.450684	76.535995
657.849243	714.346375	8417.086914	6585.673340	76.223869
658.181274	725.417480	8455.500977	6636.421875	76.467537
658.513123	723.931458	8504.465820	6676.842285	76.510307
658.844971	732.327637	8595.116211	6739.480469	76.399773
659.176819	722.073792	8692.080078	6784.359375	76.063751
659.508667	726.829285	8806.061523	6858.438965	75.893471
659.840393	723.485596	8876.203125	6909.781738	75.880165
660.172058	720.885010	8927.917969	6966.400391	76.099556
660.503662	723.559875	8941.515625	6982.821777	76.165672
660.835266	720.885010	8955.410156	6986.462402	76.089111
661.166931	720.513489	8917.664063	6937.942871	75.848663
661.498413	715.089355	8868.624023	6912.828125	76.012909
661.829773	712.860352	8761.034180	6858.066895	76.355293
662.161194	723.782898	8642.446289	6780.494629	76.486542
662.492615	723.782776	8509.073242	6673.498535	76.422531
662.823975	722.965515	8341.297852	6538.119629	76.331062
663.155212	721.999512	8213.571289	6440.336426	76.330269
663.486450	727.275085	8067.121094	6308.820801	76.044456
663.817627	732.773438	7960.347656	6236.970215	76.155518
664.148743	739.089172	7827.568848	6133.392578	76.099579
664.479858	739.980774	7729.935059	6063.770996	76.163445
664.810913	742.284180	7637.279297	5993.851563	76.164917
665.141907	733.962219	7585.416016	5953.728516	76.184799
665.472778	731.956116	7508.066895	5919.549316	76.557091
665.803711	723.485657	7470.395996	5879.351563	76.418175
666.134583	721.033630	7415.411621	5843.166016	76.513939
666.465454	719.844788	7396.390625	5811.216309	76.257568
666.796143	719.027527	7337.617188	5782.980469	76.511055
667.126831	722.593933	7331.821777	5786.919434	76.625069
667.457458	724.154297	7300.464844	5768.789063	76.709190
667.788147	722.371094	7296.081543	5749.692871	76.476166
668.118774	717.244141	7248.453125	5720.863281	76.610916
668.449219	716.798340	7240.279785	5695.154785	76.314407
668.779663	719.398926	7239.834473	5688.913574	76.214462
669.110107	721.182190	7235.302246	5673.755859	76.028282
669.440552	718.432922	7229.877441	5664.244629	75.955673
669.770874	722.519714	7202.014160	5650.796387	76.059586
670.101135	722.073792	7183.289551	5633.632813	76.016022
670.431396	725.194580	7157.135254	5604.505859	75.860649
670.761597	725.863281	7111.959473	5577.385254	75.970070
671.091797	724.080017	7069.606934	5540.010254	75.894882
671.421875	723.559875	7003.551270	5533.546875	76.592255
671.751892	722.668274	6973.533203	5509.101563	76.572334
672.081909	727.646545	6932.889160	5470.240723	76.428825
672.411865	728.018066	6904.877441	5427.070801	76.075111
672.741821	728.018066	6862.673340	5388.433105	75.968651
673.071716	734.631042	6814.599121	5361.387207	76.098366
673.401550	731.807556	6768.828613	5328.916504	76.148628
673.731262	733.739319	6746.538574	5322.154785	76.310806
674.060974	732.030457	6720.755371	5310.786621	76.456276
674.390625	729.058350	6699.356934	5297.857910	76.525482
674.720276	730.692932	6650.911621	5254.390625	76.410988
675.049927	721.999573	6617.846191	5197.995117	75.917778
675.379395	732.104736	6587.679688	5168.125977	75.757225
675.708923	720.662109	6539.828613	5137.958984	75.909447
676.038330	718.730225	6487.445313	5140.856934	76.657059
676.367737	712.711731	6442.491699	5113.216309	76.800583
676.697083	719.324646	6426.888184	5093.823242	76.643890
677.026428	723.559875	6402.442871	5065.811035	76.463120
677.355652	717.689941	6383.792969	5036.164551	76.215958
677.684875	721.033508	6388.101563	5023.532715	75.921082
678.013977	719.176025	6390.330566	5021.378418	75.861137
678.343079	725.863281	6408.609863	5041.959961	75.950890
678.672180	723.262695	6409.501465	5041.439941	75.940834
679.001221	723.188416	6473.550781	5063.358887	75.476471
679.330139	719.473206	6499.630859	5091.816895	75.644020
679.659058	725.417480	6541.685547	5128.001953	75.694321
679.987976	729.058289	6555.729004	5174.069824	76.287331
680.316772	730.247131	6605.066406	5197.623535	76.042786
680.645630	723.708496	6635.084473	5222.812500	76.109253
680.974304	721.702332	6674.390625	5227.419434	75.692139
681.302979	722.148193	6706.267090	5256.471680	75.772614
681.631653	725.045959	6755.157715	5278.613770	75.513824
681.960266	721.999512	6774.699219	5301.573730	75.661682
682.288757	723.262695	6773.138672	5310.713379	75.827187
682.617249	721.851013	6737.845215	5308.632813	76.243118
682.945679	724.823059	6715.851563	5290.130859	76.202408
683.274109	722.519592	6682.489746	5260.187012	76.135742
683.602478	725.045959	6630.105469	5216.719727	76.064835
683.930725	722.445313	6549.710449	5156.088867	76.084465
684.259033	726.011902	6450.367676	5094.640137	76.316505
684.587280	726.011902	6365.439941	5033.860840	76.388046
684.915344	734.779602	6301.836426	4982.072266	76.293320
685.243469	738.346191	6244.549316	4917.577148	75.900414
685.571533	737.157410	6189.713379	4874.258301	75.874527
685.899536	729.727051	6131.980469	4830.345703	75.905708
686.227539	729.206970	6087.101563	4806.197266	76.093140
686.555420	728.463867	6055.448730	4777.293457	76.006027
686.883301	730.321472	6039.250488	4771.051758	76.111961
687.211121	725.194519	6040.588379	4771.125977	76.117241
687.538940	719.398926	6055.597656	4760.352051	75.727188
687.866638	713.974854	6056.191895	4768.673828	75.899185
688.194336	720.736389	6044.377441	4749.207031	75.671341
688.521973	721.330811	6028.476563	4759.609375	76.091347
688.849609	727.869446	6025.355957	4742.520020	75.784065
689.177063	726.531982	5999.572754	4725.430176	75.836662
689.504578	728.166687	5932.403809	4685.678223	76.044022
689.832031	728.018066	5852.751465	4634.186035	76.221878
690.159485	722.148193	5780.380371	4593.319824	76.532104
690.486816	733.144958	5720.121094	4539.227539	76.320450
690.814087	734.482422	5644.777832	4482.906250	76.338051
691.141296	737.603088	5562.599121	4414.473145	76.204620
691.468506	731.510254	5482.946777	4346.709473	76.086449
691.795715	728.240967	5401.956543	4290.833496	76.226128
692.122803	729.875671	5345.857910	4245.286133	76.157364
692.449829	724.451477	5302.316406	4210.809570	76.156860
692.776855	724.897278	5254.613770	4156.717285	75.762360
693.103821	719.993347	5185.512207	4111.689453	75.953011
693.430664	722.891113	5121.612793	4071.566162	76.128372
693.757568	723.188293	5070.417969	4029.065186	76.045601
694.084351	725.045898	5030.962891	3989.907471	75.822678
694.411133	718.730225	4988.758789	3951.344482	75.704750
694.737854	726.383362	4961.415527	3938.712891	75.851364
695.064575	724.971680	4940.090820	3926.155518	75.945274
695.391174	734.036621	4920.549316	3909.660400	75.853676
695.717773	727.572205	4905.242676	3908.546143	76.142288
696.044250	723.262695	4912.970215	3898.218018	75.779877
696.370789	720.810730	4919.509277	3903.419189	75.799873
696.697205	716.872620	4939.273438	3894.948486	75.267036
697.023621	724.748718	4967.136719	3913.153076	75.155884
697.349915	720.959290	5023.458008	3955.356689	75.174866
697.676208	723.485596	5101.699219	4020.966064	75.315659
698.002380	715.535217	5191.382324	4100.172363	75.620033
698.328674	718.358704	5299.567383	4180.048340	75.562805
698.654724	712.934570	5407.604004	4255.613770	75.461739
698.980896	716.946960	5507.392090	4337.123535	75.570770
699.306946	709.367981	5573.373047	4392.702148	75.726364
699.632935	712.488770	5629.248535	4429.036621	75.589371
699.958862	716.129578	5641.730957	4440.999512	75.622635
700.284729	718.804504	5646.561035	4430.597168	75.324196
700.610596	721.776672	5595.068848	4401.099121	75.499733
700.936340	721.033630	5517.423340	4338.387207	75.418259
701.262146	736.785828	5412.656250	4266.833984	75.494987
701.587830	734.556641	5290.650879	4174.847168	75.509644
701.913513	734.630920	5156.683105	4069.040039	75.404114
702.239075	729.801270	5021.229492	3963.752930	75.358398
702.564697	731.064453	4890.976563	3877.933350	75.647484
702.890137	732.922058	4776.030273	3794.936768	75.734177
703.215698	728.538269	4666.730957	3711.420654	75.742416
703.541016	723.782898	4564.490234	3639.050049	75.904434
703.866455	722.668274	4484.392090	3586.518311	76.131325
704.191711	720.142029	4405.334473	3547.509033	76.722374
704.517029	730.247131	4360.900879	3497.354736	76.215134
704.842163	733.367859	4303.093262	3449.281006	76.081848
705.167419	735.671204	4267.428223	3412.798096	75.801559
705.492493	730.767273	4229.533691	3383.671875	75.823997
705.817566	724.897278	4203.081543	3354.990967	75.616859
706.142578	726.309082	4180.270996	3317.988281	75.034966
706.467590	731.956116	4158.945801	3301.641357	74.983749
706.792480	728.538147	4144.011230	3293.171143	75.088661
707.117371	728.463867	4132.865723	3299.635498	75.524918
707.442200	723.188416	4142.376465	3298.966553	75.333038
707.766907	725.863281	4149.881348	3298.743896	75.142143
708.091675	717.764343	4159.689453	3302.681641	75.100914
708.416321	713.454773	4148.395020	3303.721924	75.409378
708.741028	717.541321	4147.131836	3302.310303	75.366692
709.065552	720.736328	4169.794434	3309.443115	75.055473
709.390137	720.959290	4177.150879	3326.086914	75.375671
709.714600	715.832458	4204.643066	3356.922607	75.701736
710.039063	710.854187	4228.047852	3385.008789	76.030914
710.363403	716.649719	4266.982422	3401.504150	75.622612
710.687744	717.987244	4309.260254	3433.528564	75.615005
711.012085	725.120300	4353.693359	3456.339844	75.269798
711.336304	722.668274	4392.851074	3498.395264	75.629120
711.660461	730.693054	4418.262207	3515.038818	75.506264
711.984619	732.327637	4435.426270	3536.289063	75.719330
712.308716	736.265625	4452.144531	3533.317139	75.272949
712.632751	731.138855	4451.847656	3535.323486	75.366943
712.956726	735.894104	4416.405273	3530.048096	75.917549
713.280701	731.213074	4382.820313	3507.088623	76.017914
713.604553	734.482422	4335.860840	3481.825439	76.285873
713.928467	728.538147	4287.712402	3444.005127	76.294861
714.252258	727.572266	4221.731934	3399.795654	76.476852
714.575989	719.027405	4162.513184	3346.891846	76.314079
714.899719	720.885010	4115.182129	3287.152344	75.605263
715.223267	721.330811	4087.690186	3274.520752	75.844246
715.546936	724.897278	4077.436279	3260.329102	75.627213
715.870422	725.640381	4053.956299	3246.211670	75.731133
716.193970	729.727051	4034.117920	3218.348389	75.312561
716.517395	730.172852	4006.699951	3186.992432	74.982430
716.840820	734.779602	3978.167725	3165.221436	74.935280
717.164124	733.442139	3936.557861	3128.887695	74.784859
717.487488	727.795166	3893.165283	3105.556641	75.117958
717.810730	727.052063	3860.249268	3092.702148	75.502754
718.133972	730.990173	3808.534424	3056.293945	75.557121
718.457092	739.534973	3754.739502	3030.362061	75.975845
718.780212	738.197571	3693.365234	2982.957031	75.960480
719.103210	728.538147	3653.018799	2960.591797	76.323082
719.426208	717.467102	3607.025391	2909.991943	75.877510
719.749207	707.510559	3586.740967	2879.378906	75.432251
720.072083	717.764343	3550.927002	2828.779053	74.510887
720.394958	725.491882	3506.196533	2799.949219	74.601860
720.717773	728.835449	3441.033203	2762.574951	74.984924
721.040527	722.816895	3397.863281	2737.832275	75.326370
721.363281	723.857117	3369.925537	2715.912842	75.283607
721.685913	727.423645	3346.000000	2694.885254	75.134781
722.008545	728.018066	3314.124023	2679.207520	75.448936
722.331055	726.903503	3286.929443	2654.093018	75.280075
722.653503	724.971680	3257.951172	2632.991211	75.327080
722.976013	725.566101	3249.852539	2631.505127	75.504074
723.298401	728.241028	3238.929688	2622.886230	75.463165
723.620789	726.086182	3230.162109	2612.781006	75.344955
723.943115	719.844727	3206.236328	2600.892578	75.653725
724.265381	724.154297	3182.831299	2594.651123	76.077370
724.587585	721.479431	3189.889893	2592.942139	75.816513
724.909790	733.665039	3196.874756	2590.638672	75.388367
725.231873	733.367859	3202.670654	2589.003906	75.148178
725.553894	737.008728	3195.834717	2586.700439	75.226624
725.875916	768.661682	3217.902344	2621.102783	75.633286
726.197937	761.974426	3239.227295	2638.861328	75.764847
726.519775	765.020813	3243.387939	2640.941650	75.691803
726.841675	722.222412	3225.852539	2617.090576	75.684830
727.163513	720.290527	3227.710205	2619.319580	75.736389
727.485291	716.724060	3247.697998	2641.164795	76.035583
727.806946	718.061462	3280.390869	2662.117920	75.870667
728.128662	721.033630	3307.065674	2684.111572	75.910812
728.450256	724.748718	3330.470703	2706.179443	76.041527
728.771790	729.727051	3334.186279	2707.293701	75.930031
729.093323	723.559875	3326.830078	2703.207275	76.044640
729.414795	721.107910	3316.130615	2693.993896	76.025772
729.736145	715.683777	3311.078125	2705.510742	76.667618
730.057495	720.439209	3317.468018	2700.755615	76.253159
730.378845	719.250427	3323.114990	2694.439697	75.856064
730.700134	714.272156	3319.102539	2676.532471	75.331596
731.021301	719.176086	3317.393555	2682.699707	75.571953
731.342468	724.674500	3314.644531	2682.179688	75.580223
731.663574	737.603088	3332.402588	2687.455322	75.144623
731.984680	731.881775	3347.188721	2680.842285	74.521294
732.305664	730.544250	3357.888672	2687.455078	74.482460
732.626648	729.949890	3357.443115	2695.182617	74.794968
732.947571	736.042786	3363.758545	2708.854248	75.077049
733.268433	735.745605	3353.207764	2715.838623	75.649345
733.589233	735.819824	3335.151611	2707.739990	75.862579
733.909973	734.779602	3319.994141	2695.851563	75.857224
734.230713	736.860107	3308.923096	2669.028076	75.121330
734.551331	726.754944	3278.607422	2647.183105	75.256241
734.871948	717.467102	3233.877686	2619.839844	75.598663
735.192505	713.751953	3176.813232	2592.050293	76.258690
735.513062	720.885010	3146.051514	2557.276611	75.722290
735.833435	731.213135	3088.987061	2517.598877	75.765778
736.153931	738.420471	3058.002930	2485.871826	75.334740
736.474304	736.637207	3001.681641	2452.509766	75.754478
736.794617	728.389587	2982.436768	2419.073486	75.006592
737.114807	722.073792	2954.127686	2405.847900	75.436089
737.434998	728.092346	2942.684814	2393.216553	75.188744
737.755188	729.578430	2935.552002	2399.680908	75.708183
738.075256	725.714661	2941.347656	2400.720947	75.599449
738.395325	720.810730	2971.811768	2413.723877	75.207123
738.715271	721.553711	2992.022217	2435.197266	75.475327
739.035278	724.897400	3010.597656	2441.958984	75.121902
739.355164	719.844727	3020.702881	2451.246826	75.250275
739.675049	723.188416	3026.052734	2444.336670	74.739456
739.994873	721.627991	3021.297119	2445.674072	74.969315
740.314636	719.621887	3006.510742	2432.225342	74.887917
740.634277	719.993408	2990.535889	2426.726807	75.168533
740.953979	721.330872	2961.334961	2405.178955	75.171654
741.273499	731.064453	2925.000977	2392.250244	75.717133
741.593140	720.736389	2894.759766	2359.631348	75.385345
741.912598	717.318420	2862.809570	2328.498535	75.096100
742.232117	719.547546	2828.035889	2299.000488	74.909256
742.551453	727.275085	2777.584229	2272.623047	75.371460
742.870850	733.293640	2745.708252	2263.558105	76.041214
743.190063	729.950012	2716.284424	2238.072266	75.924896
743.509338	730.470032	2693.250732	2211.769043	75.469414
743.828552	726.829163	2677.646973	2191.707275	75.090462
744.147705	724.897278	2661.226074	2172.462891	74.758255
744.466797	722.296692	2632.099609	2159.385742	75.248032
744.785828	724.080017	2606.836670	2130.704834	74.710922
745.104858	723.262634	2580.533447	2118.147705	75.104019
745.423706	725.863281	2572.583252	2102.989746	74.571480
745.742615	728.538147	2561.363525	2092.587402	74.423309
746.061401	732.476257	2561.735107	2087.385986	74.068779
746.380249	730.915833	2546.205811	2079.807373	74.307220
746.698975	723.708496	2533.574219	2066.284180	74.180954
747.017639	719.324646	2514.032471	2058.631104	74.625320
747.336304	711.745789	2510.986084	2061.008789	74.990707
747.654907	709.739563	2503.184326	2068.810547	75.779922
747.973389	716.426819	2502.812744	2063.980713	75.434647
748.291931	729.578430	2508.088135	2048.971680	74.185326
748.610352	737.157410	2516.484375	2043.993530	73.445534
748.928711	735.968445	2526.738281	2047.411499	73.233482
749.247070	725.937561	2524.360596	2061.008789	74.235664
749.565308	714.717834	2517.673584	2071.262695	75.240051
749.883545	712.191589	2506.379639	2057.070801	74.957535
750.201782	715.312317	2501.772705	2047.188599	74.553917
750.519836	722.891174	2502.590088	2027.126831	73.284058
750.837952	724.748779	2494.119629	2033.368286	73.959595
751.155884	727.200684	2471.457275	2024.526367	74.376999
751.473877	730.247131	2457.116943	2015.089844	74.402985
751.791809	724.600098	2443.147705	1999.634888	74.192581
752.109619	727.497986	2432.299561	1995.771118	74.394188
752.427490	722.296692	2413.129639	2003.052734	75.747047
752.745300	728.835388	2405.550537	2000.080688	75.817612
753.062988	729.801270	2411.791992	1995.325195	75.239647
753.380615	733.293518	2413.426514	1979.498657	74.172997
753.698303	727.572205	2415.581299	1988.192261	74.680885
754.015808	725.491699	2410.157471	1996.142578	75.424507
754.333374	724.748718	2403.693115	1997.628540	75.814301
754.650757	722.519714	2401.835449	1980.836304	74.930321
754.968262	722.371094	2401.760986	1962.854980	73.865150
755.285583	721.033691	2393.588135	1956.910767	73.891594
755.602905	726.160461	2377.835938	1953.195679	74.290329
755.920105	722.222473	2359.928711	1953.938599	75.209824
756.237305	722.593994	2361.935059	1951.635254	74.971664
756.554443	724.377197	2355.247803	1946.062500	74.910011
756.871582	725.417480	2360.968994	1940.415527	74.286751
757.188599	725.937561	2356.510742	1948.365845	74.969231
757.505615	722.593994	2360.894531	1964.489624	75.803894
757.822510	721.628113	2371.222656	1972.439941	75.825409
758.139465	719.101746	2379.544678	1975.263306	75.652206
758.456238	724.451477	2395.445313	1973.331665	74.738762
758.773010	732.327637	2400.943604	1986.334595	75.152519
759.089783	731.658936	2425.166504	1992.204590	74.434013
759.406433	724.748718	2453.550293	2009.219849	74.298363
759.723145	723.039795	2465.512939	2010.780273	73.903030
760.039673	732.550537	2470.788574	2021.256836	74.138657
760.356201	730.544373	2453.476074	2025.046265	75.133682
760.672668	732.476257	2455.333496	2022.445679	74.873848
760.989136	726.457703	2451.097900	2011.894897	74.533653
761.305481	723.262695	2456.076416	2002.829956	73.843323
761.621826	719.844727	2453.550049	2007.436646	74.268211
761.938049	725.491699	2462.540771	2015.387085	74.257858
762.254333	734.185242	2485.723389	2031.213257	74.050804
762.570496	732.030457	2531.419678	2062.717773	73.952164
762.886597	735.522644	2611.146240	2119.113525	73.766975
763.202637	741.095276	2735.008789	2201.218018	73.228989
763.518677	742.284180	2876.630127	2309.328369	73.420349
763.834656	739.906494	3025.755615	2419.593750	73.481979
764.150574	736.785828	3140.181641	2511.506104	73.842194
764.466370	741.689758	3206.533936	2561.140381	73.816048
764.782288	735.894226	3229.196045	2582.985352	74.082130
765.097961	732.624817	3205.642334	2568.496338	74.236092
765.413696	730.990234	3156.602539	2531.642334	74.234947
765.729309	731.956116	3058.597412	2464.175537	74.451508
766.044861	725.937561	2940.901611	2378.355713	74.602486
766.360474	721.850891	2814.364258	2275.520752	74.248985
766.675903	724.897278	2689.906982	2187.769287	74.446045
766.991394	735.374023	2575.183838	2107.002441	74.552727
767.306763	737.751648	2483.048096	2043.324829	74.805244
767.622131	730.544373	2411.346191	1984.402710	74.598824
767.937378	726.383362	2353.761719	1942.867676	74.751167
768.252625	728.909668	2307.694092	1914.038086	75.065880
768.567810	732.476257	2260.065674	1879.413086	75.081482
768.882996	734.853943	2213.849609	1846.571289	75.167046
769.197998	733.367859	2180.636475	1814.249634	74.684265
769.513062	735.002502	2154.853271	1787.649048	74.137825
769.828064	729.875671	2131.076172	1761.494629	73.623932
770.142944	731.213135	2107.522217	1741.655640	73.416832
770.457825	726.977844	2073.491699	1730.510254	74.528191
770.772705	722.296692	2054.990234	1714.609497	74.459183
771.087402	719.176025	2016.278687	1692.690308	75.052986
771.402100	725.714661	1992.798950	1676.343750	75.024933
771.716736	732.030457	1962.037598	1660.294312	75.468170
772.031372	731.807434	1963.969360	1652.046875	74.684944
772.345947	727.126465	1956.687866	1634.957153	73.833702
772.660461	727.275085	1953.492798	1625.817871	73.277588
772.974854	729.206848	1926.892578	1617.570313	74.173332
773.289246	733.070618	1915.226929	1604.195801	73.689514
773.603638	730.990173	1890.186890	1588.369263	73.963203
773.917908	724.600098	1884.317017	1576.332153	73.443100
774.232178	721.182129	1864.552612	1569.124878	74.161682
774.546265	727.646545	1863.512329	1559.614136	73.245239
774.860474	725.120300	1844.936523	1546.388306	73.339539
775.174561	728.389587	1838.174927	1531.899048	72.402237
775.488586	729.132568	1832.602173	1532.790894	72.830132
775.802551	729.578369	1808.973999	1522.611328	73.470093
776.116516	725.714661	1789.209473	1519.119141	74.603508
776.430359	715.386536	1762.906372	1510.351440	75.890205
776.744202	717.615662	1764.095215	1500.320679	74.794113
777.057922	714.940735	1762.980591	1490.735474	74.023407
777.371704	718.433044	1755.550415	1480.481812	73.477577
777.685303	717.690002	1749.903320	1474.240356	73.293991
777.998962	721.330811	1741.655884	1471.936890	73.565384
778.312500	720.587830	1745.073730	1471.119629	73.259361
778.626038	728.463867	1741.655884	1479.515747	74.127296
778.939453	732.327637	1741.730103	1478.995728	73.971298
779.252869	732.773438	1738.535034	1482.636597	74.556747
779.566223	726.903503	1740.244141	1481.893555	74.505058
779.879578	719.027405	1734.968750	1485.979980	75.491814
780.192749	723.262695	1721.519897	1480.927368	75.898743
780.505920	719.101746	1713.272095	1475.726440	76.106140
780.819031	719.473206	1701.234985	1461.237305	75.554390
781.132141	724.302979	1712.528931	1462.946289	74.744377
781.445190	732.253357	1708.368164	1446.228149	73.144554
781.758118	735.151184	1701.755249	1447.862793	73.733559
782.071045	729.727051	1679.538696	1435.008423	74.254868
782.383911	728.686768	1666.535645	1433.448120	75.146576
782.696838	726.754944	1669.359253	1423.120117	73.876724
783.009583	725.045959	1666.089844	1408.259399	72.601654
783.322266	719.621826	1659.848633	1395.405151	71.874504
783.634888	717.318420	1638.375000	1387.306152	72.741211
783.947510	714.717834	1625.223511	1382.699219	73.363777
784.260132	715.237976	1621.508423	1377.423828	73.067139
784.572571	712.265869	1609.619751	1372.445679	73.569618
784.885010	715.312256	1605.533203	1360.408569	72.464745
785.197449	721.776611	1585.991577	1364.197998	74.335831
785.509766	733.962219	1583.093750	1357.733765	73.459946
785.822083	728.909668	1575.515015	1362.934814	74.890282
786.134277	726.977783	1572.839966	1361.225952	74.982445
786.446533	720.884949	1571.056641	1357.585083	74.890770
786.758606	724.971680	1561.397461	1358.476685	75.739532
787.070740	726.606262	1571.056763	1352.161011	74.078323
787.382690	726.011902	1574.846313	1361.300171	74.842430
787.694641	722.371033	1590.746948	1366.724243	74.202103
788.006653	717.467102	1608.059570	1383.293823	74.762222
788.318481	721.107910	1639.712524	1405.510376	74.504578
788.630310	720.216309	1681.396362	1423.863159	73.206558
788.942017	715.906738	1709.259766	1434.859985	72.376411
789.253784	715.089355	1716.095703	1434.191040	71.837875
789.565430	724.971680	1701.978149	1428.915649	72.051109
789.877014	735.374023	1678.944336	1430.178711	73.635712
790.188538	738.271790	1664.306641	1434.562622	75.190567
790.500061	737.974609	1644.541992	1426.240845	75.920029
790.811462	738.940613	1629.384277	1409.894165	75.350479
791.122925	743.324402	1600.926392	1387.603394	75.125641
791.434204	740.129395	1587.031860	1368.061890	74.144608
791.745483	735.671204	1567.341675	1349.263184	73.778259
792.056702	728.463867	1560.877319	1326.972290	71.900375
792.367920	725.863281	1532.419312	1312.260376	72.703827
792.678955	721.330811	1520.010742	1310.551392	73.774307
792.990112	722.296692	1512.654785	1306.761963	73.949425
793.301086	724.228577	1512.506226	1314.860962	74.926949
793.612122	730.544250	1498.834473	1302.972534	74.506775
793.922974	722.222412	1485.311401	1303.938354	76.231728
794.233826	720.216309	1477.583984	1304.012695	77.082298
794.544556	719.770508	1471.639648	1303.641235	77.655899
794.855286	722.371094	1468.890503	1292.941650	76.430771
795.166016	717.467041	1471.713989	1281.053223	74.721703
795.476624	717.689941	1483.528198	1285.437134	74.134087
795.787292	726.829163	1494.970703	1293.238892	73.737679
796.097778	728.686768	1515.255371	1311.665894	74.116753
796.408264	721.033630	1543.044556	1320.953735	72.982010
796.718689	719.770508	1557.087769	1324.668823	72.242424
797.029053	727.126465	1567.490234	1318.947632	70.424400
797.339355	735.596985	1553.744141	1315.975464	70.938156
797.649658	734.928223	1546.388306	1318.798950	71.953102
797.959839	731.807556	1526.995239	1315.306763	73.378807
798.270020	731.584656	1510.351563	1301.189331	73.141869
798.580078	727.869446	1499.726196	1300.371948	74.172119
798.890137	730.098572	1487.912109	1295.988159	74.673988
799.200195	724.674500	1478.921387	1298.662964	76.100876
799.510071	724.228577	1459.676880	1282.316406	75.884033
799.820007	717.987122	1450.611938	1270.576416	75.425957
800.129883	719.324646	1439.169312	1264.112183	75.681267
800.439575	719.696106	1444.296265	1262.626099	74.928223
800.749329	722.965515	1443.701782	1261.288696	74.690727
801.058960	727.349365	1444.593628	1257.722168	73.945908
801.368591	727.274963	1441.621460	1251.406372	73.372154
801.678162	728.315247	1434.488281	1243.010132	72.885094
801.987671	726.977783	1432.779297	1236.991699	72.260246
802.297119	721.107910	1423.045532	1235.802734	73.324867
802.606506	717.838562	1413.609253	1233.202271	74.070915
802.915894	713.528992	1397.559937	1225.400391	74.831612
803.225159	728.166687	1391.467163	1214.849487	73.372902
803.534424	736.562927	1390.426758	1201.697876	71.136360
803.843628	745.479248	1389.906738	1197.239746	70.102608
804.152771	735.448303	1380.618774	1202.218018	72.348274
804.461792	721.850891	1370.216431	1213.957886	75.899620
804.770874	717.541321	1375.714844	1213.140503	75.299164
805.079773	719.398926	1393.399048	1210.019897	72.792419
805.388733	727.943665	1412.271973	1210.019897	70.445168
805.697571	727.795105	1425.423462	1221.908325	70.827568
806.006470	728.761047	1423.565918	1232.682129	72.526993
806.315125	728.983948	1425.349121	1230.155762	71.969681
806.623901	726.606262	1414.352173	1229.709961	73.152557
806.932495	724.822998	1407.516479	1223.171509	72.997406
807.241150	727.052185	1401.275024	1224.954712	73.848366
807.549622	728.612488	1404.024292	1226.069214	73.652359
807.858154	728.983948	1397.188354	1233.648071	75.525414
808.166565	727.943787	1393.770386	1237.957642	76.598602
808.474915	728.538269	1378.984009	1228.001099	76.787781
808.783264	736.414246	1376.829468	1211.208618	74.138519
809.091492	732.550537	1361.003052	1192.707275	73.220604
809.399719	733.739319	1353.052612	1184.608276	72.801437
809.707825	730.692932	1347.702759	1177.029419	72.338638
810.015930	725.491699	1346.365234	1180.744507	73.324562
810.323975	721.999512	1341.015503	1177.698120	73.616615
810.632080	713.751953	1334.625488	1174.577515	74.222130
810.939880	721.182190	1329.201416	1168.930542	73.640495
811.247864	732.624817	1326.600708	1162.094604	72.304245
811.555664	733.070740	1324.817505	1160.682861	72.262688
811.863464	727.646545	1315.826782	1151.766479	72.107140
812.171143	718.210144	1307.653687	1150.800415	73.389603
812.478882	721.999512	1293.090210	1144.707642	74.017685
812.786438	722.965515	1290.266846	1137.500366	73.071373
813.094055	721.702332	1294.279175	1135.122681	72.203468
813.401489	712.711731	1294.502075	1127.246582	71.251587
813.708984	714.123474	1297.176880	1130.144409	71.352112
814.016357	718.061523	1283.653809	1119.296265	70.940636
814.323730	725.789001	1287.220337	1125.017578	71.109062
814.630981	725.194580	1274.737427	1122.045410	72.214722
814.938232	722.742615	1281.276245	1131.630493	73.207390
815.245361	722.445374	1267.753052	1128.658325	74.492432
815.552490	718.433044	1281.201782	1132.670654	73.607079
815.859619	718.655945	1281.424683	1134.453979	73.884354
816.166565	727.497986	1293.164551	1143.073120	73.466446
816.473572	731.584534	1281.870605	1149.314453	75.911407
816.780457	726.829285	1286.774414	1148.497192	75.305222
817.087341	718.953125	1286.625854	1145.450684	75.130890
817.394043	724.080078	1297.474121	1145.376465	73.474152
817.700806	723.485657	1305.052979	1148.199829	73.029236
818.007507	726.532043	1316.495605	1150.429077	71.851395
818.314209	723.782898	1326.006226	1158.453735	72.177681
818.620667	726.903503	1326.526367	1171.754028	74.188385
818.927246	727.126465	1334.328247	1184.236816	75.281456
819.233704	726.754944	1346.216675	1198.800171	76.202484
819.540161	731.138855	1382.401978	1213.363403	74.044502
819.846497	729.429871	1421.633911	1241.970093	74.044670
820.152832	728.835449	1480.110352	1272.434082	72.356819
820.458984	728.240967	1535.391602	1311.740356	72.291260
820.765259	722.593933	1597.211304	1358.476685	72.704109
821.071350	720.364807	1687.191895	1423.491577	72.725182
821.377502	713.454773	1844.639282	1554.561523	74.356277
821.683472	716.946960	2144.673584	1765.358398	73.432228
821.989441	714.197754	2659.443115	2132.488281	72.910622
822.295349	717.467102	3376.315674	2630.167725	71.937180
822.601196	724.748718	4171.652344	3202.298828	71.877556
822.907043	733.813660	4845.949219	3693.588135	71.976570
823.212769	733.145020	5235.815430	3987.604248	72.278427
823.518494	724.674500	5296.446777	4050.241455	72.741302
823.824097	720.216309	5065.736816	3905.796875	73.307228
824.129700	719.993347	4701.355957	3655.099365	73.721146
824.435242	727.720886	4320.183105	3377.801514	73.767807
824.740723	734.333801	3988.792969	3133.569092	73.721474
825.046082	738.494690	3683.854736	2903.007568	73.488907
825.351501	726.457764	3363.461670	2675.269775	73.902504
825.656799	723.634277	3038.906982	2440.176025	74.139938
825.962036	716.649841	2743.776611	2223.954834	74.356720
826.267212	727.423645	2531.567871	2065.021240	74.140282
826.572449	730.098572	2424.497559	1971.399780	73.259094
826.877502	725.194580	2434.751465	1968.650391	72.735565
827.182495	717.095520	2540.707275	2029.875977	71.987938
827.487488	707.287598	2679.876221	2126.097900	71.926315
827.792419	720.439209	2798.612061	2210.357422	71.693665
828.097290	717.021301	2824.766602	2244.462402	72.468010
828.402100	720.662109	2752.247070	2207.088135	73.165833
828.706848	724.377197	2608.917236	2119.039307	74.005440
829.011597	730.470032	2442.850586	1993.616211	73.765511
829.316223	734.556641	2290.009766	1884.094116	73.903702
829.620789	724.451477	2150.172119	1775.909180	73.749214
829.925354	725.789001	2013.380859	1690.386719	74.914871
830.229797	720.736328	1890.112671	1607.762207	75.854614
830.534302	721.850891	1746.931274	1517.707397	77.638451
830.838562	722.371094	1629.087280	1412.346191	76.096039
831.142944	720.216309	1526.103516	1329.349976	75.585472
831.447144	722.073792	1458.265137	1263.814941	73.587006
831.751404	721.925232	1405.658813	1227.406616	73.929581
832.055542	726.309082	1370.959473	1189.958130	71.922554
832.359619	720.439148	1357.659302	1181.487671	72.353096
832.663635	714.792175	1369.919312	1190.775513	72.655106
832.967651	720.587830	1399.268921	1217.078613	73.155243
833.271545	730.395752	1466.512695	1263.146362	72.373093
833.575439	735.819824	1558.871094	1331.281860	72.348106
833.879211	725.045959	1690.684082	1435.008423	73.522621
834.183044	718.210144	1810.014282	1527.886841	74.159515
834.486694	707.956360	1907.870972	1602.858398	74.580482
834.790344	715.237976	1942.347290	1620.393677	73.763245
835.093933	714.346375	1931.796265	1610.957397	73.646645
835.397522	717.021301	1888.849487	1568.604858	72.671371
835.700928	721.256531	1820.416626	1517.856079	72.473473
836.004395	727.423645	1760.900269	1469.856445	71.838379
836.307739	736.340027	1673.668945	1428.098267	73.801010
836.611023	727.200684	1602.635376	1382.402344	74.843010
836.914307	725.343201	1516.295776	1331.058960	76.580544
837.217529	720.736389	1456.407593	1271.988281	74.931831
837.520691	724.377258	1389.089478	1224.137329	75.184425
837.823730	723.262695	1330.761841	1180.595825	75.281281
838.126831	726.086243	1281.424805	1143.072998	75.086945
838.429749	727.720886	1242.936035	1114.020630	74.978333
838.732727	725.937561	1211.505859	1083.853760	73.710785
839.035522	730.470032	1186.242920	1066.541260	73.736557
839.338379	734.779602	1169.896240	1056.659058	73.975441
839.641113	738.420410	1177.623779	1064.757935	74.302147
839.943848	741.318298	1200.583374	1082.219116	74.227463
840.246460	731.658936	1226.886597	1097.971191	73.968452
840.549072	723.782898	1253.709839	1116.992798	74.200775
840.851563	713.751953	1267.455811	1121.971069	73.725174
841.154053	720.885071	1279.195679	1123.011230	72.025528
841.456482	724.377258	1262.923340	1112.757446	72.116425
841.758850	728.984070	1241.747070	1107.110474	73.742920
842.061157	724.005676	1219.084839	1091.061157	74.140762
842.363403	725.640381	1197.834106	1069.216187	72.761620
842.665588	719.027527	1173.685913	1042.541504	71.155396
842.967712	721.107910	1154.144165	1029.390015	71.190826
843.269775	723.559875	1130.738647	1017.130066	72.098602
843.571777	726.829285	1108.670776	1005.464417	72.971413
843.873840	728.240967	1080.435913	991.198303	74.662437
844.175659	725.789001	1064.163574	974.182922	73.407974
844.477600	727.720886	1046.999756	963.854919	73.958557
844.779297	730.692932	1034.442505	955.235779	73.923676
845.081116	728.612488	1020.919434	952.783875	76.690407
845.382751	726.234802	1013.191895	944.610535	76.100479
845.684387	718.878845	1015.198059	934.876770	72.893661
845.985962	719.027405	1005.984558	925.811829	72.061081
846.287537	724.748718	1000.560364	922.393982	71.659508
846.588989	725.714661	990.381042	912.808899	70.690598
846.890381	733.442139	995.284973	909.242371	67.139603
847.191711	725.045898	998.257141	905.229980	65.950462
847.493042	729.801270	985.922852	904.189758	68.088165
847.794250	724.525879	976.263489	901.440613	70.277435
848.095459	727.572266	967.198486	900.177490	72.031029
848.396606	725.937561	965.341003	892.301331	69.490967
848.697693	725.640442	962.888977	888.586243	68.681480
848.998657	729.504089	959.099426	876.029114	63.818817
849.299622	731.064453	958.133606	887.323059	68.815430
849.600464	736.117126	958.282227	888.363281	68.528381
849.901367	732.104736	957.985046	897.131042	73.059181
850.202087	725.566101	955.978760	890.443787	71.557564
850.502808	716.129578	953.675476	886.059875	71.535774
850.803467	715.386658	951.743591	883.607910	71.172546
851.104065	718.804504	956.721863	894.084656	73.672707
851.404663	727.720886	953.303894	897.502625	75.263535
851.705139	728.761047	958.430847	902.480957	75.638985
852.005615	732.773438	952.709473	891.186829	72.027031
852.306030	733.665039	957.241943	885.019714	67.696922
852.606384	734.556641	957.019043	881.230286	65.931877
852.906616	730.024231	959.025208	879.669922	65.347183
853.206909	729.504089	956.498962	880.858704	66.677551
853.506958	730.767273	944.833435	879.892822	69.663300
853.807129	726.234863	944.981995	887.768860	73.845078
854.107178	721.182190	943.718933	895.273499	78.230370
854.407166	722.668274	943.347351	894.158936	77.710434
854.707092	733.665039	942.232910	888.586182	74.278526
855.007019	725.491699	931.607605	879.892761	74.909821
855.306763	728.240967	941.564148	882.864929	72.483429
855.606567	722.445313	937.848938	884.722473	75.336319
855.906250	726.977844	943.124512	882.493408	71.949089
856.205933	726.829285	934.282410	883.533691	75.537262
856.505493	729.578430	936.585754	883.607971	74.407776
856.805054	727.869446	939.632263	893.564514	78.245590
857.104492	728.983948	945.799316	892.747131	75.531166
857.403931	727.943787	944.981995	891.484070	75.350922
857.703308	742.804260	939.037781	886.728699	73.343452
858.002563	737.008728	933.836609	879.447083	72.366959
858.301819	735.745605	935.991394	876.846497	70.463852
858.601013	728.686768	939.929443	877.663757	70.524094
858.900208	727.497986	943.124329	879.818542	70.640976
859.199219	728.389465	943.644531	882.493347	71.591293
859.498291	727.126465	949.291565	880.041443	68.829430
859.797302	729.281250	955.087219	881.676086	67.489288
860.096191	726.680664	945.130615	877.366516	68.979576
860.395020	723.114075	938.369080	874.765930	70.452187
860.693787	723.708496	927.297913	869.193176	71.459846
860.992554	724.228699	930.864502	870.233398	70.657990
861.291260	728.018066	925.143127	863.620544	68.790077
861.589844	715.237976	923.731384	872.091064	75.231674
861.888428	712.711731	921.502380	869.416199	75.053391
862.186890	718.655945	923.062683	881.824707	79.825531
862.485413	729.652649	919.719055	877.440918	77.756126
862.783813	735.671204	919.496155	876.029114	76.354111
863.082153	726.829163	926.480652	868.524597	70.971390
863.380371	728.538147	932.499207	867.038391	67.905235
863.678589	718.358704	933.242188	863.917725	67.738579
863.976746	714.569275	927.372314	864.809387	70.600548
864.274902	712.414551	933.093506	866.221130	69.696983
864.572937	718.953125	929.378418	878.704041	75.918114
864.870911	716.203918	934.356689	886.654358	78.133522
865.168884	718.061523	935.099792	886.951599	77.815804
865.466736	714.717834	946.839600	881.973328	72.055069
865.764587	724.674500	941.935608	873.651367	68.570427
866.062317	724.080017	935.396973	872.091003	70.042175
866.360107	728.835449	934.876770	873.799988	70.357025
866.657715	729.281250	936.883057	880.041321	72.619827
866.955322	726.309082	939.780823	888.957703	76.192108
867.252808	724.600098	937.105957	889.477844	77.587387
867.550293	720.364929	938.369080	884.499573	75.289688
867.847717	729.281250	935.471252	879.892883	73.045074
868.145081	731.213074	930.270020	876.400574	72.937668
868.442383	732.996338	935.174011	877.589355	71.517799
868.739624	723.485596	937.848938	877.366516	71.785088
869.036804	722.668213	941.935547	872.165344	68.180305
869.333984	723.708496	936.511475	863.546204	65.712288
869.631042	725.120300	940.226563	859.682434	62.556122
869.928101	718.507324	945.799316	864.735107	64.334770
870.224976	722.668274	949.663086	874.543152	66.906761
870.521851	725.045898	942.307068	876.549255	69.733292
870.818726	732.253357	936.362854	876.697754	70.768089
871.115479	727.052063	936.288574	881.898926	74.005661
871.412231	732.699158	943.941833	883.385010	71.333054
871.708862	730.470032	941.712708	882.344910	71.895927
872.005493	731.138855	943.050110	873.725769	67.286148
872.302063	724.748779	942.455627	878.926941	70.819160
872.598572	726.531982	943.198730	887.025879	74.074081
872.895020	730.692932	944.090332	892.598572	75.870483
873.191406	734.259460	940.672546	888.809143	74.873978
873.487671	732.179016	944.833313	880.561523	69.776398
873.783997	735.151184	942.678650	877.960999	68.814896
874.080200	736.414307	945.725037	882.716309	69.897041
874.376343	734.408142	954.344177	896.165100	73.547272
874.672424	730.024231	953.155273	901.143372	76.689972
874.968445	720.141907	958.728027	898.542786	74.774208
875.264465	721.999512	960.065430	891.706970	71.285912
875.560364	722.742615	967.049988	894.381836	70.255440
875.856201	732.401917	964.375061	898.840027	71.748871
876.152039	735.671204	949.143066	905.898743	79.742378
876.447754	733.888000	950.777649	911.620117	81.945877
876.743469	731.956116	952.932434	906.344543	78.917244
877.039063	734.482422	962.888977	905.750244	74.983757
877.334595	731.956238	954.344055	897.354004	74.373573
877.630127	727.052063	945.427795	901.291992	79.789055
877.925537	721.702332	946.393738	895.645020	77.414040
878.221008	721.999512	959.916809	902.703674	75.952515
878.516296	721.256531	974.108643	903.223816	71.965897
878.811646	718.655945	981.984802	909.019470	72.291176
879.106812	719.919006	981.613281	913.254700	73.878456
879.401978	722.371033	991.718445	921.650879	73.986176
879.697083	727.795105	1010.665527	934.208069	72.970856
879.992126	727.572266	1044.176147	955.087158	71.861053
880.287109	729.132568	1081.699097	975.446106	69.862999
880.582031	727.497864	1141.141235	1024.040161	71.690331
880.876892	726.829285	1255.641602	1099.680298	70.507248
881.171753	726.457703	1465.695679	1245.313599	70.187935
881.466492	733.293640	1784.157227	1456.779175	68.846764
881.761230	736.711487	2160.574707	1725.383423	69.435875
882.055786	731.807556	2526.812744	1999.114624	70.601868
882.350403	717.318420	2775.057861	2201.812500	72.141983
882.644958	717.689941	2875.738281	2284.808838	72.617416
882.939453	729.504089	2826.475342	2262.220703	73.091919
883.233826	735.299744	2706.847900	2178.035889	73.177826
883.528137	733.145020	2567.381836	2082.110596	73.543701
883.822449	730.024231	2455.630615	1998.594360	73.514450
884.116577	725.714661	2333.699707	1915.969849	74.021530
884.410828	727.497986	2222.468506	1838.249390	74.299225
884.704956	718.804504	2075.720703	1728.801392	74.433250
884.999023	721.107910	1916.044312	1599.365845	73.498299
885.292969	721.553711	1722.411499	1454.252930	73.207123
885.586914	722.965515	1553.001099	1324.000122	72.410706
885.880798	722.593994	1423.491333	1230.453003	72.458405
886.174622	718.655945	1331.133179	1161.128540	72.243111
886.468384	715.386536	1251.034912	1107.482056	73.200172
886.762085	718.135803	1192.187134	1073.971558	75.062706
887.055664	712.711670	1156.521851	1045.587891	75.004189
887.349304	712.563171	1128.138184	1026.269165	75.487213
887.642822	714.717834	1108.447998	1006.876160	74.202675
887.936340	717.318420	1080.881714	985.922852	73.881065
888.229736	720.364929	1057.550659	976.709290	76.024673
888.523071	716.203918	1037.711792	954.418518	74.092926
888.816284	714.494934	1023.742920	951.892151	76.765968
889.109619	719.844788	1019.359070	944.461914	74.993797
889.402710	726.309082	1012.448914	940.746765	74.941574
889.695862	732.550598	998.479980	927.446594	73.288628
889.988892	735.968445	989.860840	914.815125	70.441917
890.281921	743.175720	986.145691	905.675903	66.880768
>>>>>End Processed Spectral Data<<<<<
