Jaz Data File
++++++++++++++++++++++++++++++++++++
Date: Fri Jun 04 16:44:55 2021
User: jaz
Dark Spectrum Present: Yes
Reference Spectrum Present: Yes
Processed Spectrum Present: Yes
Spectrometers: JAZA3586
Integration Time (usec): 60600 (JAZA3586)
Spectra Averaged: 10 (JAZA3586)
Boxcar Smoothing: 1 (JAZA3586)
Correct for Electrical Dark: No (JAZA3586)
Strobe/Lamp Enabled: Yes (JAZA3586)
Correct for Detector Non-linearity: No (JAZA3586)
Correct for Stray Light: No (JAZA3586)
Number of Pixels in Processed Spectrum: 2048
>>>>>Begin Processed Spectral Data<<<<<
W	D	R	S	P
191.335022	0.000000	0.000000	0.000000	0.000000
191.713211	232.493210	234.870911	232.418900	-3.125301
192.091385	473.456940	475.314545	463.648956	-527.990784
192.469528	711.374268	717.838623	704.092590	-112.643517
192.847641	721.033630	726.829285	714.717957	-108.972580
193.225739	724.451599	734.110840	725.714661	13.076199
193.603790	736.042725	744.959045	739.832214	42.500599
193.981842	747.039551	755.361511	750.754700	44.642712
194.359863	754.246887	760.488464	763.311829	145.234787
194.737854	757.367676	759.893982	761.825867	176.470734
195.115829	756.401672	756.401672	757.070496	0.000000
195.493774	757.367676	752.983826	749.417236	181.357468
195.871704	756.773254	751.646301	748.154114	168.114288
196.249603	758.556458	750.754700	753.355286	66.666664
196.627457	758.259277	756.847473	757.441895	57.896328
197.005310	753.949707	758.556458	755.361511	30.646421
197.383133	750.085999	758.927979	751.869324	20.168844
197.760910	746.222351	754.321228	750.234619	49.541042
198.138687	744.290344	752.092224	750.606018	80.950668
198.516449	742.952942	748.822754	746.593750	62.025974
198.894180	746.742371	747.782532	747.485352	71.429413
199.271866	757.590515	744.067444	750.160339	54.944439
199.649536	756.030212	737.231689	748.822937	38.339584
200.027191	751.794922	740.723877	741.987000	88.590759
200.404816	744.736145	748.005554	743.101563	-49.996265
200.782410	741.838379	768.958801	760.636902	69.315010
201.159988	745.404846	780.104309	768.290039	65.952583
201.537537	744.290344	791.249695	766.209656	46.677204
201.915070	754.989929	783.968018	756.773132	6.153626
202.292557	752.240723	779.212646	759.893860	28.374458
202.670029	753.355286	767.472839	760.414063	50.000000
203.047485	744.290283	769.850525	759.745300	60.465065
203.424911	742.729980	773.788574	759.819580	55.023739
203.802292	742.729980	777.800964	760.116882	49.576317
204.179688	738.940613	783.447937	756.921814	40.400543
204.557037	741.318298	781.070251	754.172607	32.336296
204.934357	736.488525	786.642883	752.983826	32.889069
205.311661	740.723816	781.887512	755.807312	36.642715
205.688934	734.853821	779.064148	760.488342	57.983109
206.066177	730.098572	777.503723	757.813477	58.463909
206.443390	726.309082	770.890808	757.219055	69.333282
206.820587	731.807556	764.352112	757.441895	78.766899
207.197769	741.021057	764.797913	758.407898	73.125061
207.574921	734.853943	775.200256	760.339783	63.167706
207.952042	723.931396	775.571777	751.274841	52.949734
208.329147	715.832458	773.862793	752.537903	63.252167
208.706223	748.822815	793.255859	766.804138	40.468357
209.083267	752.389343	799.794495	768.587341	34.169277
209.460297	758.407898	802.766602	771.410828	29.313141
209.837280	725.789001	784.711121	743.324402	29.760302
210.214264	728.909729	778.023743	743.027161	28.744204
210.591217	730.990234	770.296326	735.151062	10.585707
210.968124	737.974609	769.701843	748.376953	32.786797
211.345016	739.906494	774.234314	752.686584	37.229542
211.721893	734.333801	774.308655	763.683350	73.420029
212.098724	731.658875	761.825867	759.076660	90.886703
212.475555	731.213074	764.352112	761.454285	91.255547
212.852356	736.191406	768.215820	755.361511	59.860909
213.229126	740.872375	778.915466	754.023987	34.570301
213.605865	742.358459	775.125977	750.754700	25.623669
213.982590	733.888000	766.581238	745.850769	36.590958
214.359283	740.055176	761.231384	750.680420	50.175385
214.735931	732.476257	761.825745	744.959167	42.531952
215.112579	736.117004	777.355042	748.154114	29.189337
215.489197	729.132629	779.361267	747.336731	36.242474
215.865799	731.436035	777.726563	754.692688	50.240631
216.242355	737.454529	769.553284	755.658691	56.712986
216.618896	737.900330	765.020813	761.602966	87.397545
216.995407	740.055115	762.420227	758.482239	82.392273
217.371902	736.488586	764.426453	760.711243	86.701881
217.748367	732.104736	764.129150	754.841309	70.997620
218.124802	728.909668	767.695618	747.708313	48.467667
218.501236	728.612488	756.698914	743.101501	51.587246
218.877609	733.070618	759.150879	739.906494	26.210920
219.253983	733.442139	757.739197	750.085938	68.501289
219.630295	727.943665	767.770020	755.807312	69.962837
220.006592	731.138733	776.612000	755.658691	53.921700
220.382889	728.835266	775.348938	744.216064	33.067265
220.759140	729.578369	773.045593	743.770264	32.649647
221.135391	728.389587	763.386230	746.742371	52.441555
221.511581	737.454529	770.147705	753.726807	49.772705
221.887772	744.959167	774.011475	751.869141	23.784594
222.263931	743.547363	778.915466	755.732910	34.453491
222.640060	736.414307	778.023865	752.315125	38.214340
223.016159	731.733215	769.627502	754.544128	60.196178
223.392212	731.807434	767.770020	747.262512	42.975437
223.768265	734.556641	767.324219	751.720703	52.381237
224.144302	737.305908	770.221985	749.120117	35.891911
224.520294	737.528809	770.073425	756.030212	56.849354
224.896286	743.027161	768.810303	750.457520	28.818670
225.272217	737.603088	772.599792	752.017822	41.188831
225.648148	733.962219	774.160156	749.640137	39.001797
226.024048	726.011902	778.915466	753.875427	52.668522
226.399902	726.309082	781.887512	754.172607	50.133705
226.775772	725.045959	781.738953	752.686523	48.754814
227.151581	731.956055	776.834961	756.550293	54.801331
227.527374	728.538147	766.655518	759.150879	80.311760
227.903137	737.900391	761.825867	763.757629	108.074081
228.278870	741.912781	762.568848	764.575012	109.712227
228.654572	748.005554	771.187988	759.596680	49.999603
229.030273	743.844543	774.903076	750.903320	22.727335
229.405930	731.064453	774.085754	748.822815	41.278069
229.781555	726.829163	767.844299	756.624695	72.645210
230.157181	719.696106	767.027039	765.615234	97.017166
230.532761	719.250305	764.352051	767.175598	106.260391
230.908325	715.980957	772.079590	762.717468	83.311317
231.283859	726.234802	769.107422	765.689514	92.027763
231.659332	731.436035	769.776184	763.757629	84.302216
232.034821	740.055115	758.110657	762.197327	122.633881
232.410263	727.423645	765.763855	750.457520	60.077591
232.785690	735.151123	767.695740	748.154053	39.954163
233.161087	734.482422	775.571777	737.974609	8.499008
233.536469	742.730042	771.856689	744.959045	7.652799
233.911804	741.021057	777.577942	752.463623	31.300714
234.287140	733.442200	772.896912	758.556458	63.653381
234.662430	735.076843	772.228210	755.658691	55.399975
235.037704	734.036560	764.500732	750.977600	55.609718
235.412933	738.791992	771.485168	756.773193	54.999859
235.788162	732.179016	772.822693	764.500671	79.524437
236.163345	733.293640	773.342773	774.160095	102.040794
236.538513	734.854004	771.410889	775.125977	110.162483
236.913635	732.773438	770.221985	764.574951	84.920555
237.288742	726.160461	775.200378	751.051941	50.757587
237.663834	724.228699	776.537781	746.816650	43.181702
238.038879	732.847717	775.348877	751.051941	42.832298
238.413910	735.671204	776.760559	752.760925	41.591602
238.788910	740.426575	775.125977	750.085999	27.837437
239.163879	737.603027	783.224915	743.993164	14.006735
239.538834	730.247131	780.550049	748.525635	36.336864
239.913757	728.315247	779.435547	747.633972	37.790710
240.288651	731.138733	774.903015	751.497742	46.519691
240.663528	736.562805	773.639954	747.559631	29.659309
241.038361	731.138733	774.085754	752.909424	50.691971
241.413177	721.850891	773.416992	756.847473	67.867416
241.787979	715.906738	774.234375	754.023987	65.350235
242.162735	718.210144	772.302429	751.349121	61.263779
242.537476	720.810730	775.200195	753.058105	59.289745
242.912170	718.210144	773.491272	755.435791	67.338799
243.286865	722.965515	769.999023	757.813477	74.091774
243.661514	728.761047	764.797852	752.315125	65.361168
244.036148	734.631042	769.627625	753.281006	53.290813
244.410751	734.928223	773.565674	755.807312	54.038475
244.785339	725.120300	773.342773	755.658691	63.328133
245.159882	729.949951	773.491394	750.977539	48.293274
245.534378	730.990173	783.522217	748.376953	33.097473
245.908890	736.191406	790.952454	753.132385	30.936186
246.283356	727.200684	784.265198	764.946472	66.145813
246.657791	727.423645	782.184753	765.615234	69.742180
247.032196	734.333801	780.327209	772.153870	82.229324
247.406586	737.305969	782.704834	763.386169	57.446812
247.780960	731.361633	779.138367	764.203430	68.740150
248.155289	726.754883	781.887512	759.299500	59.029682
248.529602	721.330811	786.271423	762.866028	63.958771
248.903870	726.309082	782.779114	770.221985	77.763199
249.278122	724.971619	783.968018	765.095154	68.010139
249.652344	734.482361	783.893738	769.553284	70.977425
250.026550	730.618652	788.351807	764.500671	58.687283
250.400711	739.757874	787.014404	767.918640	59.591270
250.774857	740.426575	783.819336	760.339783	45.890621
251.148987	740.055115	782.556213	755.584412	36.538578
251.523071	732.030334	775.274597	749.045715	39.347141
251.897125	732.327637	788.500488	753.875427	38.359795
252.271164	729.801331	791.918396	753.503906	38.157913
252.645187	728.240967	800.314636	759.819641	43.814438
253.019165	721.405090	795.187744	752.760925	42.497570
253.393112	727.572266	799.348633	756.327393	40.062111
253.767044	731.361633	795.930725	753.132324	33.716892
254.140930	729.578430	793.627380	763.386047	52.784031
254.514801	727.126465	785.899902	760.191162	56.257893
254.888657	720.736389	788.426208	758.556458	55.872608
255.262466	724.674500	781.738953	751.423523	46.875107
255.636276	726.160461	787.608887	757.367676	50.786026
256.010010	731.956055	795.113464	761.528564	46.823502
256.383759	737.157227	798.605652	761.974426	40.387039
256.757446	739.609192	800.166016	758.184998	30.674999
257.131134	737.305908	796.153625	764.946533	46.969749
257.504791	735.596924	797.193848	761.751465	42.460793
257.878418	731.658875	797.268250	763.237549	48.131344
258.252014	727.795166	799.794495	759.002258	43.343590
258.625580	721.107910	799.794495	770.667786	62.983894
258.999115	723.782776	799.868835	766.061035	55.566368
259.372650	730.618652	795.039124	760.265442	46.020760
259.746124	735.522644	808.933777	758.853699	31.781357
260.119598	729.801331	816.215393	758.705078	33.447968
260.493042	733.590759	827.658020	763.088928	31.358593
260.866425	734.705322	827.137878	758.184998	25.401955
261.239838	731.510315	824.314270	767.324219	38.590923
261.613159	721.256531	819.707520	769.033203	48.528381
261.986511	723.114075	814.877930	771.856689	53.117443
262.359802	738.123230	817.181335	763.163269	31.672956
262.733063	738.271912	815.472351	760.785583	29.162621
263.106293	736.042786	811.682861	762.122986	34.479343
263.479523	731.510254	813.243347	768.735901	45.545380
263.852692	740.575195	809.528137	768.141541	39.978489
264.225861	737.454529	814.655090	764.054871	34.456150
264.598969	740.500977	809.008057	758.407898	26.138790
264.972076	731.584656	815.175232	751.051941	23.288851
265.345154	732.550476	817.404297	755.287109	26.795061
265.718201	727.274963	818.815918	758.184998	33.766346
266.091217	737.528809	825.949036	765.689514	31.848715
266.464203	741.095276	830.110046	758.407898	19.449156
266.837158	733.590759	832.339050	761.305725	28.066275
267.210114	723.559875	829.292664	759.373840	33.872147
267.583038	722.519714	821.342285	764.723633	42.706760
267.955902	730.470032	824.834473	765.169373	36.771629
268.328766	731.138855	823.274109	767.844299	39.838654
268.701569	734.928223	830.630127	760.414063	26.630442
269.074371	737.008728	832.041931	750.903320	14.620776
269.447144	741.318176	837.837463	748.971436	7.929254
269.819885	739.832214	847.794006	758.556458	17.343397
270.192596	734.631042	849.577332	770.519226	31.221699
270.565277	739.832214	855.595764	771.930969	27.727859
270.937927	737.900208	853.961182	768.215820	26.120419
271.310577	737.974609	863.992004	762.643127	19.575487
271.683136	735.968445	863.620422	769.924805	26.600731
272.055725	724.525818	877.589355	760.265442	23.349535
272.428284	729.652771	889.626465	758.556458	18.067774
272.800812	739.312073	895.199219	753.726807	9.246903
273.173279	753.652527	893.341614	771.782410	12.978740
273.545776	751.572021	885.316895	771.485168	14.888905
273.918152	736.785828	887.991882	774.011414	24.619110
274.290558	731.956116	880.190002	764.649231	22.055088
274.662964	730.395752	876.549133	765.838074	24.250086
275.035278	731.510315	877.812317	762.568848	21.229055
275.407593	729.950012	879.521301	765.318054	23.646278
275.779907	737.231628	885.688477	771.856628	23.323277
276.152161	738.049011	883.830872	769.627625	21.661552
276.524384	742.507141	889.552185	766.655457	16.422394
276.896606	730.618652	889.329285	761.082764	19.194752
277.268799	725.194519	889.849365	764.054871	23.601097
277.640930	718.061462	901.514954	769.181824	27.865570
278.013031	720.216309	912.883301	766.432556	23.987631
278.385162	723.931396	920.759338	766.581116	21.668530
278.757233	727.795166	916.375488	756.476013	15.208823
279.129272	725.268860	912.511719	758.184875	17.579317
279.501282	725.640442	916.895508	756.104492	15.928493
279.873230	722.296692	920.907898	761.974426	19.977591
280.245178	722.371094	927.149353	771.485168	23.984028
280.617126	726.903503	938.443359	772.971191	21.777309
280.988983	737.603088	945.279236	776.834900	18.890862
281.360870	748.154053	958.430847	769.479004	10.141372
281.732697	747.039551	971.359436	768.513000	9.572691
282.104492	746.816650	984.288147	766.135437	8.135202
282.476288	742.432800	986.145691	767.621399	10.335358
282.848053	738.271912	991.792786	766.729797	11.225066
283.219757	736.637207	999.371582	761.751526	9.558825
283.591461	735.448425	1004.424133	755.064270	7.292794
283.963135	734.036621	1000.634705	751.423523	6.521766
284.334747	730.618652	1007.024719	754.469910	8.629065
284.706360	733.962341	1021.811035	754.098328	6.995337
285.077942	738.197510	1034.368164	754.618469	5.544425
285.449524	736.785828	1040.015259	752.389343	5.145779
285.821014	736.785828	1047.073853	761.008484	7.806507
286.192535	740.278015	1058.888062	763.906250	7.416036
286.563995	743.770264	1065.055176	765.392334	6.729874
286.935425	736.265686	1069.439087	762.791748	7.961638
287.306824	735.076843	1064.312134	760.562683	7.740920
287.678223	730.172852	1065.575317	760.191162	8.949938
288.049561	726.977844	1063.717773	761.082764	10.127970
288.420898	721.776672	1065.278198	769.330383	13.843814
288.792145	728.686829	1067.804321	770.444885	12.313743
289.163452	738.569031	1068.621704	770.965027	9.815402
289.534668	729.504150	1076.275024	766.655457	10.713503
289.905914	723.857117	1090.243774	769.033203	12.330167
290.277039	716.426941	1115.952515	763.683350	11.828131
290.648193	727.349365	1135.196899	764.872253	9.200224
291.019318	735.225403	1150.874756	764.277832	6.989649
291.390381	731.584534	1153.401001	766.506897	8.279042
291.761475	727.497864	1157.487671	764.946533	8.709199
292.132507	721.405090	1147.754028	775.348877	12.652497
292.503510	730.098572	1143.890503	781.293152	12.372059
292.874481	738.569031	1145.450806	785.528320	11.541262
293.245422	736.488586	1145.079224	781.590332	11.038370
293.616364	735.448303	1150.429077	779.361145	10.581898
293.987213	725.045898	1164.175049	781.070129	12.758031
294.358093	726.234802	1189.289429	773.342712	10.173294
294.728943	727.423645	1212.992065	774.680176	9.732208
295.099731	728.538147	1231.121826	764.054932	7.066840
295.470490	731.435974	1243.307495	768.141602	7.170867
295.841248	724.748779	1259.356812	762.568848	7.074355
296.211975	725.863281	1269.907837	764.723572	7.142851
296.582642	719.398926	1292.941650	764.649231	7.889614
296.953308	719.993347	1321.845337	766.506836	7.728393
297.323883	725.714661	1338.489380	765.615234	6.511459
297.694519	725.714661	1352.904053	763.609070	6.041940
298.065063	733.665039	1352.458130	758.928040	4.082625
298.435608	726.977844	1351.863647	757.813477	4.934603
298.806122	733.590759	1329.572876	753.652527	3.366169
299.176575	731.658875	1305.721802	759.968262	4.931408
299.547028	732.773376	1285.734253	766.581238	6.113970
299.917450	734.036621	1284.173950	765.912537	5.794174
300.287872	734.333801	1278.675537	765.912415	5.801248
300.658234	739.386414	1277.783813	762.940369	4.374827
301.028564	727.349304	1273.845825	769.999084	7.804218
301.398865	722.296814	1280.235840	762.123047	7.138098
301.769135	720.290588	1286.477295	761.974426	7.362207
302.139374	731.064453	1286.180054	762.494568	5.661904
302.509583	732.030457	1279.344238	770.370605	7.005149
302.879791	735.002502	1280.533081	769.181824	6.265336
303.249939	728.686829	1287.369019	764.797913	6.463618
303.620087	734.556702	1289.078003	764.723633	5.440176
303.990173	728.612488	1289.375122	770.519226	7.473169
304.360260	732.922058	1287.814819	778.320984	8.181567
304.730286	725.343079	1291.009766	779.361145	9.549452
305.100281	724.822998	1305.201538	779.732727	9.461020
305.470276	723.931335	1309.511108	772.153870	8.235007
305.840179	730.024231	1325.932007	772.228271	7.082311
306.210144	730.990234	1327.417969	770.296387	6.590262
306.579987	729.875671	1335.294067	775.348877	7.511038
306.949890	730.470032	1344.804810	778.989746	7.897927
307.319702	739.534973	1354.315796	782.110535	6.925323
307.689484	733.888000	1367.615845	775.497498	6.565831
308.059265	740.723816	1384.631226	769.479004	4.465734
308.429016	738.866211	1411.157227	758.630798	2.939886
308.798737	744.141785	1441.101196	761.231445	2.452031
309.168396	736.339905	1464.878296	768.513000	4.416115
309.538055	732.030457	1477.732544	772.153809	5.380614
309.907684	731.510315	1496.605469	773.416992	5.477316
310.277313	733.144958	1502.326660	769.033203	4.665770
310.646851	737.603088	1507.007813	778.395325	5.301792
311.016388	739.609314	1514.586548	777.577942	4.899322
311.385895	738.197510	1523.057129	769.033142	3.928809
311.755371	734.408142	1534.574097	759.522461	3.138639
312.124817	736.339905	1533.608032	761.677246	3.178020
312.494232	733.887939	1535.540039	766.432556	4.059693
312.863617	730.172852	1531.750610	766.209656	4.495734
313.232971	720.662109	1521.199585	757.070374	4.547977
313.602295	720.067688	1518.524780	748.599854	3.573412
313.971619	720.067688	1534.722656	748.154053	3.447639
314.340820	721.702332	1544.902222	756.624573	4.242255
314.710083	719.770508	1562.660522	764.054871	5.253872
315.079285	718.804504	1563.849487	773.862793	6.515427
315.448486	724.748779	1585.694336	770.221985	5.281775
315.817596	727.052063	1582.053589	777.355042	5.883379
316.186707	731.287415	1573.731812	771.410828	4.762737
316.555786	731.807556	1546.908203	770.890808	4.794899
316.924866	732.847717	1531.230469	767.175598	4.299677
317.293884	735.819824	1529.521484	765.243713	3.707172
317.662872	734.259460	1542.078735	769.924805	4.415015
318.031830	736.934387	1548.468750	768.141541	3.845451
318.400757	735.522644	1553.892700	772.748230	4.548748
318.769684	734.482422	1564.443726	768.141418	4.055490
319.138550	724.525818	1577.075195	772.005188	5.569105
319.507416	716.278259	1599.366089	773.268372	6.453505
319.876190	720.662109	1605.013062	774.011414	6.032594
320.244995	734.408142	1605.235962	772.971191	4.428321
320.613770	737.380188	1582.870972	768.141541	3.638283
320.982483	738.197510	1565.484009	769.033142	3.727322
321.351166	732.921936	1557.087891	769.999084	4.498748
321.719818	738.420410	1548.320190	771.930969	4.137618
322.088440	736.339905	1559.465454	773.342712	4.495403
322.457062	735.225403	1573.731567	771.856628	4.368629
322.825623	736.339905	1601.817993	771.930969	4.112301
323.194183	733.367859	1620.913940	774.011475	4.579325
323.562653	734.259521	1658.065308	774.903076	4.399578
323.931183	726.532043	1690.758423	772.896912	4.808505
324.299591	725.120300	1739.055176	762.791687	3.715365
324.668060	721.776611	1760.974609	756.253113	3.317607
325.036407	717.541321	1786.980469	762.717468	4.224284
325.404755	717.764343	1797.160034	771.856689	5.011354
325.773102	713.677673	1811.797485	777.057861	5.771700
326.141388	720.513489	1822.422729	771.039368	4.585303
326.509674	714.643555	1831.784790	771.782410	5.114738
326.877899	721.479431	1843.896362	776.240540	4.878856
327.246124	717.838562	1849.171753	783.299316	5.786160
327.614288	723.336975	1853.852905	783.596497	5.330267
327.982422	722.148132	1849.989258	782.630554	5.362672
328.350525	728.389587	1845.753906	785.305420	5.093758
328.718628	732.030457	1841.592896	780.847229	4.399642
329.086700	734.556641	1834.162720	773.862793	3.574567
329.454712	733.070618	1837.060547	760.934143	2.523893
329.822693	734.333801	1849.766113	761.900085	2.471354
330.190674	726.977844	1868.639160	774.308655	4.145783
330.558563	725.194519	1886.174438	780.327209	4.748806
330.926483	724.897400	1901.183594	779.063965	4.604880
331.294312	729.429871	1923.251587	771.336487	3.510291
331.662231	733.367859	1945.245239	769.850403	3.010415
332.029999	736.562805	1968.873535	773.268372	2.978596
332.397766	743.250183	1986.334595	773.788574	2.456663
332.765503	744.438965	2020.662476	770.890808	2.072665
333.133240	746.519348	2052.909912	767.547058	1.609604
333.500916	742.358459	2091.993164	761.082764	1.387361
333.868561	741.318176	2101.355225	766.952637	1.884835
334.236176	737.751709	2102.841553	767.101318	2.150013
334.603790	732.550537	2107.745117	765.615234	2.404365
334.971344	727.572266	2111.163330	760.636963	2.389774
335.338867	722.371094	2117.181641	765.466614	3.089704
335.706360	721.702332	2117.181641	773.045471	3.679248
336.073853	721.553711	2118.221924	777.800842	4.027236
336.441284	723.634216	2126.766846	773.416992	3.547974
336.808655	728.018066	2115.398438	771.559509	3.138393
337.176086	727.572266	2095.856689	772.748291	3.301655
337.543396	729.058289	2051.572266	784.488098	4.191246
337.910706	730.247131	2024.377563	782.853516	4.064999
338.277954	732.401917	2044.290649	782.927795	3.851385
338.645264	727.646545	2117.999023	778.469666	3.655412
339.012421	726.011902	2220.313965	783.745117	3.863557
339.379669	734.631042	2302.641357	784.116699	3.155952
339.746796	737.380188	2360.597412	780.252930	2.641220
340.113953	739.906494	2380.584717	781.441711	2.531588
340.481018	733.367859	2393.810791	768.884583	2.138991
340.848114	734.556641	2386.380615	768.141541	2.033201
341.215118	728.686707	2387.420898	764.723633	2.172556
341.582153	735.596924	2398.269043	774.754456	2.355096
341.949066	736.265625	2423.829102	776.017578	2.355583
342.316010	744.216003	2450.652344	782.704895	2.255513
342.682922	736.488586	2455.036377	785.379700	2.844908
343.049835	737.528809	2457.562500	783.893738	2.695583
343.416656	734.705322	2478.292725	777.875183	2.475922
343.783478	735.671204	2527.629883	778.098083	2.367626
344.150269	736.860046	2592.644531	779.286926	2.286196
344.516998	734.705322	2651.864014	781.961853	2.464925
344.883728	737.380188	2707.368408	779.435547	2.134803
345.250427	729.504150	2748.457764	777.429382	2.373766
345.617065	730.990173	2776.766846	771.113586	1.961280
345.983704	726.754944	2789.101563	769.776184	2.086033
346.350281	731.287415	2780.184814	771.930969	1.983679
346.716827	733.590820	2770.897217	774.011414	1.984021
347.083405	724.971619	2756.185547	778.766846	2.648427
347.449860	737.825989	2747.566406	781.516052	2.173916
347.816376	737.677429	2722.823486	782.927734	2.279445
348.182770	749.194336	2706.179443	780.550049	1.602246
348.549194	732.550537	2703.355713	775.868958	2.198006
348.915558	732.327637	2721.783203	777.726563	2.281977
349.281921	729.727051	2748.160400	779.138367	2.448003
349.648193	728.240967	2759.454834	781.813232	2.637451
350.014526	720.364807	2790.884766	784.710999	3.107731
350.380737	715.163757	2813.769531	784.933899	3.324595
350.746948	716.055359	2855.304932	784.190918	3.185022
351.113159	722.742493	2868.382080	776.389160	2.500265
351.479309	728.092346	2905.310547	771.187927	1.979387
351.845428	729.206848	2930.721924	773.194153	1.998047
352.211517	726.606262	2972.406006	781.293152	2.435074
352.577576	725.343201	2998.857666	787.608826	2.738739
352.943604	730.767334	3033.334229	778.915466	2.091063
353.309601	733.293640	3063.426758	774.531555	1.769767
353.675537	730.692932	3110.906250	771.262207	1.704439
354.041473	728.761047	3169.679688	776.686340	1.963412
354.407379	724.451477	3246.508545	772.079529	1.888461
354.773254	727.497864	3320.440186	771.039307	1.679229
355.139038	721.999512	3392.513672	777.132141	2.064495
355.504913	725.268860	3464.067139	785.156799	2.186650
355.870636	727.795166	3530.270752	788.054626	2.150223
356.236389	739.312073	3608.808594	782.704895	1.512210
356.602081	740.872498	3683.037354	778.395325	1.275348
356.967804	739.980774	3761.055420	779.584229	1.310906
357.333405	731.584656	3832.757080	778.023865	1.497473
357.699036	733.144958	3928.756592	777.875183	1.399739
358.064606	733.219238	4038.501221	774.160095	1.238649
358.430176	734.705261	4137.026855	778.469543	1.286307
358.795654	732.773438	4203.750488	782.333313	1.427836
359.161163	728.686829	4199.069824	776.091980	1.365992
359.526581	726.011963	4174.252930	776.686340	1.469572
359.892029	727.423645	4179.230957	783.670715	1.629496
360.257416	725.714661	4270.400391	792.735657	1.890746
360.622772	726.903564	4427.104980	791.769836	1.753047
360.988098	722.816895	4578.459473	782.853516	1.557111
361.353394	728.092285	4752.402344	788.872009	1.510314
361.718658	733.887939	4895.211914	790.506653	1.360594
362.083893	731.287415	5043.445801	795.930725	1.499094
362.449097	734.185242	5158.986328	794.221863	1.356821
362.814209	729.578430	5184.397949	788.203308	1.315988
363.179382	732.847839	5088.027344	789.094910	1.291498
363.544434	738.717773	4874.258301	779.732727	0.991768
363.909546	732.476257	4660.786621	786.048523	1.363748
364.274536	731.138855	4469.308594	783.968018	1.413236
364.639587	728.612488	4334.895020	783.745117	1.528794
365.004517	730.321472	4243.576660	775.348877	1.281644
365.369507	739.534973	4205.607910	770.742188	0.900362
365.734344	737.825989	4162.884277	775.274597	1.093371
366.099274	740.129395	4139.924805	776.909241	1.081825
366.464081	729.875671	4120.308594	776.463379	1.374093
366.828918	725.863281	4125.583984	778.543884	1.549557
367.193665	727.052063	4141.707520	785.305481	1.705982
367.558411	727.795105	4153.818848	790.283691	1.823939
367.923126	731.361633	4167.640137	787.608887	1.636865
368.287781	738.420410	4172.469238	783.224915	1.304714
368.652435	745.627747	4163.255859	779.435547	0.989218
369.017059	745.107666	4160.209473	782.110413	1.083503
369.381653	739.906555	4139.701660	787.683105	1.405277
369.746185	740.723877	4129.671387	792.364258	1.523788
370.110687	733.367859	4132.940430	786.494324	1.562740
370.475220	725.863281	4151.367188	780.550049	1.596459
370.839661	716.798340	4210.065918	772.896790	1.605902
371.204041	717.838562	4259.625977	781.070129	1.785301
371.568451	732.996338	4324.566895	784.636719	1.437822
371.932770	738.197510	4363.353027	792.289856	1.492139
372.297150	739.460693	4388.244629	788.351868	1.339931
372.661377	725.937561	4401.321777	793.107239	1.827555
373.025696	728.315247	4417.965332	793.255859	1.760075
373.389862	721.702332	4438.175781	791.918457	1.889321
373.754059	728.909668	4438.027344	786.865906	1.562534
374.118225	727.423645	4428.813477	775.200195	1.290773
374.482361	734.036560	4435.203613	774.531555	1.094114
374.846436	735.448303	4495.388672	780.327148	1.193605
375.210510	736.934326	4583.362793	789.020691	1.354149
375.574524	739.089172	4689.987793	792.958679	1.363475
375.938538	733.888000	4794.605957	794.444763	1.491282
376.302460	734.482361	4895.583496	796.822449	1.498163
376.666412	735.299744	5010.381348	793.478821	1.360888
377.030304	736.488525	5120.423340	786.791565	1.147440
377.394196	732.104675	5242.651855	782.481995	1.116878
377.757996	737.231628	5324.384766	787.608826	1.098224
378.121796	744.810486	5376.396484	793.478760	1.050791
378.485565	744.438965	5383.083496	797.342468	1.140495
378.849304	736.860107	5362.873047	793.404480	1.222313
379.212982	730.172852	5298.304199	788.574768	1.278464
379.576630	731.138855	5198.069824	782.556335	1.151070
379.940277	733.144958	5100.361328	790.952454	1.323669
380.303864	735.076843	5015.953613	785.974121	1.188945
380.667450	734.110840	5002.504883	798.457031	1.507504
381.030945	730.990234	4996.115234	791.398254	1.416325
381.394501	729.281250	5027.916992	799.720215	1.638635
381.757935	728.612488	5030.889160	794.741882	1.537079
382.121399	733.145020	5052.437012	792.438477	1.372759
382.484741	736.191406	5087.061523	788.648987	1.205680
382.848145	732.996338	5127.927734	790.358093	1.305180
383.211487	730.767273	5193.389160	791.323975	1.356976
383.574768	726.606262	5257.289063	795.484924	1.520271
383.938019	733.070618	5326.464844	792.587097	1.295697
384.301270	733.739441	5397.869629	796.896667	1.354105
384.664459	737.454590	5468.978027	798.308411	1.286136
385.027649	739.534973	5524.853027	797.639648	1.214228
385.390778	734.556702	5561.335938	800.760437	1.371592
385.753876	725.268860	5587.787598	798.754211	1.511261
386.116943	719.547546	5622.412598	800.017395	1.641282
386.479980	730.024231	5642.251465	796.450928	1.352273
386.842987	741.764099	5688.170410	795.484924	1.086058
387.205994	742.284180	5729.037109	793.404480	1.025122
387.568909	738.271790	5799.847656	801.726318	1.253652
387.931793	732.327637	5834.843750	813.020325	1.581429
388.294678	734.631042	5888.416016	815.992432	1.578673
388.657471	736.488586	5893.171875	813.466125	1.492772
389.020294	739.757874	5897.035645	810.939941	1.380226
389.383057	738.494812	5875.414063	825.874756	1.701018
389.745819	732.401917	5886.261719	829.589905	1.885732
390.108521	736.562805	5913.604980	828.995422	1.785433
390.471191	738.197571	5987.238770	826.394836	1.680255
390.833801	741.912659	6064.587891	826.989258	1.598380
391.196442	736.414307	6193.279785	836.574402	1.835488
391.558960	735.076843	6315.136719	842.890076	1.932116
391.921509	734.556641	6464.187988	854.555603	2.094357
392.284027	728.835449	6590.874512	862.431641	2.279006
392.646484	721.702393	6713.027832	869.490417	2.466700
393.008911	722.668274	6747.281250	872.091003	2.480205
393.371307	730.767273	6732.867188	892.821472	2.699958
393.733673	730.247070	6663.021973	900.994873	2.878043
394.096008	735.374023	6633.449219	912.437439	3.002054
394.458344	735.151123	6643.257813	916.375488	3.067385
394.820587	739.089172	6673.053223	936.883057	3.333251
395.182831	740.500977	6717.857422	954.567139	3.581285
395.545013	739.683594	6707.678223	958.579407	3.667829
395.907196	744.587585	6671.642090	963.632019	3.695671
396.269287	728.018066	6585.079590	983.545105	4.362717
396.631409	722.073914	6503.420410	992.535828	4.678182
396.993469	716.872620	6401.996582	1014.603699	5.237020
397.355530	724.377258	6338.542480	1021.885254	5.299239
397.717499	727.646545	6305.700684	1050.937622	5.795768
398.079468	733.293640	6304.808594	1059.333862	5.851913
398.441376	729.206970	6325.390625	1078.355347	6.239044
398.803284	728.909668	6335.421875	1099.308716	6.606586
399.165131	722.148132	6375.322266	1121.376709	7.062025
399.526978	724.674500	6388.845215	1145.153442	7.423486
399.888763	719.696106	6401.773438	1157.785034	7.710014
400.250519	719.027405	6404.597168	1193.078735	8.337798
400.612244	724.971680	6422.950684	1220.793823	8.701719
400.973938	732.253418	6442.937500	1254.898560	9.152059
401.335602	733.962341	6463.593750	1278.452637	9.503059
401.697205	733.813660	6488.039063	1318.056030	10.153275
402.058807	727.349304	6538.342285	1364.866699	10.970885
402.420349	731.361633	6624.904785	1412.048828	11.549711
402.781860	729.578430	6701.957031	1456.778931	12.176062
403.143341	731.807434	6814.005371	1507.973633	12.761278
403.504822	728.761047	6916.171875	1567.044434	13.548210
403.866241	724.674500	7044.864746	1636.368774	14.425108
404.227631	721.182190	7164.045410	1717.358765	15.461706
404.588959	723.857117	7287.388184	1807.562134	16.511007
404.950287	723.559875	7416.229004	1892.341797	17.463615
405.311554	734.482422	7498.481934	1979.498901	18.406513
405.672821	732.996338	7574.048340	2070.371094	19.549257
406.034027	735.374023	7571.298828	2166.518799	20.935642
406.395203	733.367859	7527.311035	2255.013184	22.397085
406.756348	732.476257	7456.871582	2337.415039	23.867405
407.117493	734.853821	7432.575684	2427.618408	25.273739
407.478516	730.990173	7420.761230	2519.753662	26.738785
407.839600	739.089172	7428.785645	2634.625732	28.335167
408.200592	737.380188	7439.188965	2749.349365	30.021288
408.561554	734.853943	7440.600098	2873.286377	31.889551
408.922485	726.532043	7436.959473	2991.204834	33.748566
409.283417	724.005676	7442.978027	3110.385986	35.517044
409.644257	724.228577	7506.357910	3244.131104	37.155037
410.005096	726.383362	7611.422363	3401.949951	38.860588
410.365906	728.463867	7686.988281	3563.112549	40.736347
410.726715	734.928223	7795.915527	3728.733398	42.399242
411.087433	735.894104	7866.428223	3865.896484	43.895763
411.448120	739.832214	7952.545410	4014.055908	45.395172
411.808807	727.869446	7969.115723	4137.695801	47.088943
412.169434	727.349304	7936.273926	4242.982422	48.767788
412.530029	729.132568	7913.017090	4340.467285	50.269943
412.890564	740.946777	7894.515625	4458.832031	51.972454
413.251099	746.147949	7913.685547	4590.421875	53.634514
413.611572	746.742371	7935.382324	4709.157715	55.120514
413.972076	739.089172	7956.558594	4809.392090	56.395157
414.332489	741.466797	8003.071777	4912.747070	57.442951
414.692871	737.603027	8108.359375	5061.278809	58.659866
415.053223	743.695862	8230.140625	5220.137207	59.793953
415.413574	731.436035	8394.350586	5401.436523	60.942875
415.773834	729.578430	8527.574219	5557.769043	61.915787
416.134094	726.309082	8657.307617	5705.111816	62.776493
416.494263	730.544373	8783.547852	5859.437988	63.689201
416.854462	725.343201	8967.595703	6073.355469	64.885323
417.214630	727.572266	9191.395508	6290.988281	65.731712
417.574738	729.281250	9421.584961	6497.326660	66.358078
417.934784	734.779602	9645.682617	6667.925781	66.582993
418.294861	737.454529	9932.341797	6892.542969	66.940331
418.654846	733.145020	10260.760742	7166.349121	67.521660
419.014832	730.915833	10619.047852	7456.649902	68.018250
419.374756	729.578430	10983.577148	7751.854004	68.483284
419.734680	736.042786	11393.057617	8055.083984	68.678154
420.094543	730.098572	11828.695313	8389.148438	69.009171
420.454376	721.850891	12215.961914	8678.631836	69.224846
420.814148	721.182190	12568.973633	8946.715820	69.426727
421.173920	728.092346	12917.825195	9227.505859	69.726006
421.533691	733.813660	13299.221680	9535.639648	70.048073
421.893341	725.640381	13622.512695	9794.659180	70.319519
422.253021	725.194580	13851.215820	9973.950195	70.461227
422.612640	722.668274	13919.574219	10074.184570	70.861427
422.972260	725.937500	13909.617188	10087.188477	71.006363
423.331757	725.045898	13827.809570	10076.266602	71.368309
423.691315	729.281189	13823.203125	10095.733398	71.532822
424.050781	736.265686	13913.481445	10211.200195	71.903915
424.410248	740.426575	14050.570313	10318.418945	71.960098
424.769653	739.980774	14181.195313	10397.031250	71.846565
425.128998	739.460693	14215.002930	10431.285156	71.921593
425.488373	739.386414	14168.562500	10404.238281	71.969063
425.847656	739.386414	14044.776367	10331.719727	72.093590
426.206940	733.442139	13902.484375	10241.144531	72.197372
426.566193	732.253357	13650.079102	10091.276367	72.450455
426.925385	730.395691	13400.348633	9941.183594	72.697884
427.284576	737.231628	13045.032227	9728.380859	73.052444
427.643677	734.259460	12777.987305	9526.203125	73.000183
428.002777	741.541199	12500.764648	9351.962891	73.222710
428.361847	736.711426	12205.411133	9156.249023	73.413185
428.720856	743.844482	11948.174805	8988.176758	73.581657
429.079865	743.844543	11741.539063	8843.063477	73.644699
429.438812	738.717590	11657.725586	8730.570313	73.192116
429.797760	733.144958	11581.565430	8708.501953	73.516296
430.156616	730.247131	11476.796875	8625.727539	73.469910
430.515503	728.538147	11371.957031	8587.759766	73.841141
430.874268	731.436035	11335.622070	8538.422852	73.621750
431.233093	729.801331	11340.081055	8545.629883	73.662796
431.591827	732.476257	11404.354492	8595.858398	73.683212
431.950562	737.751709	11442.471680	8646.311523	73.879181
432.309204	732.773438	11497.231445	8722.098633	74.219482
432.667877	744.364685	11605.268555	8771.213867	73.905899
433.026459	741.243958	11706.617188	8859.187500	74.032532
433.385010	737.974609	11859.754883	8952.661133	73.861252
433.743561	726.531982	11977.747070	9079.198242	74.237900
434.102051	718.433044	12134.155273	9189.241211	74.203003
434.460510	725.343201	12280.531250	9292.075195	74.137543
434.818939	730.024231	12342.871094	9363.852539	74.347214
435.177338	739.386414	12373.409180	9366.006836	74.149933
435.535675	735.299805	12342.722656	9339.852539	74.129745
435.894012	732.847717	12310.920898	9329.523438	74.249626
436.252289	723.708496	12328.531250	9357.907227	74.401825
436.610535	726.160461	12297.843750	9363.703125	74.643791
436.968719	731.956055	12400.901367	9418.538086	74.441879
437.326935	733.813660	12475.946289	9497.746094	74.636635
437.685028	735.374023	12613.480469	9585.200195	74.505363
438.043152	735.745544	12696.774414	9652.963867	74.552269
438.401215	740.129395	12857.045898	9795.772461	74.735542
438.759277	738.123230	13038.270508	9951.957031	74.908318
439.117249	733.367859	13365.276367	10211.719727	75.034996
439.475250	732.476257	13613.297852	10398.368164	75.040955
439.833130	734.185242	13922.398438	10630.639648	75.040146
440.191071	732.922058	14134.829102	10750.415039	74.746773
440.548889	721.033630	14418.293945	10909.200195	74.381058
440.906708	725.640381	14724.272461	11115.835938	74.222931
441.264496	730.767273	14952.976563	11308.875000	74.377388
441.622223	742.432800	15113.842773	11452.500977	74.523438
441.979950	735.448425	15173.656250	11502.135742	74.570801
442.337616	728.761047	15207.834961	11551.398438	74.746750
442.695251	733.145020	15132.342773	11492.179688	74.719688
443.052887	732.179016	14966.574219	11385.851563	74.844574
443.410461	733.665039	14809.573242	11270.161133	74.854820
443.768005	728.241028	14685.932617	11174.683594	74.843628
444.125458	725.491760	14623.815430	11124.157227	74.819565
444.482941	725.045959	14659.480469	11121.333008	74.608604
444.840393	724.525879	14737.497070	11195.190430	74.721230
445.197754	732.253235	14952.678711	11371.585938	74.817261
445.555084	735.522644	15113.768555	11529.032227	75.068336
445.912415	731.733215	15435.350586	11767.992188	75.058121
446.269714	729.281250	15657.217773	11965.859375	75.272148
446.626953	727.943665	15979.765625	12199.911133	75.217033
446.984161	725.714661	16236.481445	12401.272461	75.273895
447.341309	723.411316	16475.587891	12546.088867	75.054245
447.698456	724.897400	16646.558594	12666.385742	75.001526
448.055542	733.813721	16759.869141	12753.245117	74.999313
448.412598	739.014893	16761.505859	12761.046875	75.032227
448.769653	739.237793	16652.949219	12677.976563	75.021713
449.126617	726.457703	16395.265625	12489.840820	75.075165
449.483582	724.971680	16182.315430	12313.000977	74.967789
449.840515	724.302917	15936.745117	12149.684570	75.105507
450.197388	736.637207	15763.842773	12043.727539	75.244133
450.554230	745.181946	15605.949219	11969.277344	75.528374
450.911041	743.918762	15497.245117	11875.061523	75.448357
451.267822	743.101563	15395.449219	11780.846680	75.330902
451.624573	734.779602	15259.699219	11655.497070	75.186081
451.981262	732.327637	15128.554688	11589.589844	75.417412
452.337921	733.516541	14997.484375	11481.553711	75.350960
452.694580	733.442200	14929.051758	11451.832031	75.504967
453.051147	729.801331	14923.331055	11442.098633	75.473099
453.407715	727.200684	14879.937500	11433.627930	75.649170
453.764221	727.646484	14941.608398	11461.269531	75.514648
454.120728	735.076721	14783.046875	11357.914063	75.618309
454.477142	736.637207	14772.124023	11357.617188	75.672340
454.833557	738.717712	14607.320313	11234.571289	75.680687
455.189911	732.401917	14507.457031	11127.500977	75.463211
455.546265	725.491699	14342.133789	10971.688477	75.247604
455.902557	722.668274	14188.773438	10890.401367	75.506119
456.258820	726.606262	14185.653320	10884.903320	75.475601
456.615051	731.881775	14232.538086	10901.101563	75.323891
456.971252	735.373962	14261.367188	10882.080078	75.016350
457.327393	735.299622	14389.019531	11004.604492	75.212509
457.683502	735.968445	14555.382813	11172.379883	75.519928
458.039612	733.888000	14904.307617	11437.863281	75.537460
458.395630	733.516541	15246.620117	11706.096680	75.604645
458.751648	735.225403	15576.301758	11978.936523	75.760750
459.107605	737.380188	16111.132813	12423.266602	76.011932
459.463562	738.866272	16667.140625	12820.636719	75.851097
459.819458	740.575256	17215.791016	13244.088867	75.892868
460.175323	742.655762	17660.123047	13572.506836	75.837898
460.531158	743.621643	18130.904297	13933.617188	75.860008
460.886932	735.819824	18530.058594	14190.184570	75.610794
461.242676	732.104736	18757.498047	14360.336914	75.605743
461.598419	732.104736	18672.199219	14319.323242	75.736610
461.954102	733.293518	18365.552734	14112.910156	75.881462
462.309723	739.906494	17864.603516	13738.424805	75.905098
462.665344	739.757874	17335.046875	13299.444336	75.682243
463.020905	743.175781	16877.863281	12958.839844	75.710571
463.376373	736.785828	16502.783203	12694.395508	75.844292
463.731873	739.237793	16202.301758	12495.710938	76.029381
464.087341	733.219238	15911.035156	12290.561523	76.146278
464.442749	731.807434	15761.092773	12184.383789	76.201736
464.798126	730.098450	15654.839844	12103.617188	76.205803
465.153503	736.042725	15715.471680	12136.161133	76.105164
465.508820	733.070618	15743.557617	12137.051758	75.973427
465.864105	728.984070	15824.472656	12237.286133	76.236694
466.219330	728.240967	16062.539063	12437.829102	76.362076
466.574524	727.572266	16225.930664	12561.469727	76.355812
466.929657	724.228577	16432.417969	12696.031250	76.213768
467.284790	727.274963	16591.425781	12808.600586	76.154884
467.639893	731.733215	16792.265625	12978.159180	76.251678
467.994934	739.460693	16982.554688	13121.637695	76.230408
468.349945	734.036560	17060.796875	13184.944336	76.260735
468.704926	727.200684	17089.552734	13215.184570	76.321449
469.059875	726.011902	16946.369141	13114.356445	76.375290
469.414764	722.519714	16758.310547	12966.495117	76.354050
469.769653	727.795166	16572.404297	12832.971680	76.399338
470.124451	728.984070	16469.718750	12743.734375	76.329033
470.479248	736.637207	16350.090820	12631.834961	76.185562
470.834015	736.860046	16250.524414	12565.036133	76.243599
471.188721	734.779602	16298.524414	12609.320313	76.296165
471.543365	733.888000	16350.090820	12663.710938	76.393875
471.898010	730.841614	16459.093750	12713.343750	76.184578
472.252625	729.949951	16569.951172	12811.944336	76.275208
472.607178	727.423645	16796.796875	13013.601563	76.457108
472.961700	729.875671	16999.869141	13174.690430	76.489365
473.316193	731.213074	17254.802734	13383.778320	76.572739
473.670654	734.408020	17428.667969	13507.714844	76.513168
474.025055	732.773438	17646.375000	13688.940430	76.602058
474.379456	734.333801	17798.029297	13813.620117	76.649788
474.733795	728.315247	17956.291016	13984.069336	76.943184
475.088104	729.504211	18069.232422	14074.793945	76.963661
475.442383	730.395813	18108.984375	14087.127930	76.857407
475.796570	735.894226	18190.345703	14100.129883	76.566345
476.150787	740.946777	18343.410156	14222.284180	76.587791
476.504944	735.968445	18557.996094	14367.026367	76.484329
476.859070	740.426575	18754.677734	14552.856445	76.675011
477.213135	739.014893	18972.605469	14693.661133	76.532631
477.567200	735.819824	19349.025391	14946.067383	76.344978
477.921173	723.857117	19735.769531	15210.436523	76.197380
478.275146	721.850891	20180.992188	15559.583008	76.250710
478.629089	728.018066	20446.771484	15820.088867	76.536636
478.983002	730.024231	20806.619141	16122.054688	76.666534
479.336823	726.234863	21153.166016	16390.583984	76.684792
479.690643	725.789001	21535.156250	16661.865234	76.581261
480.044403	730.692932	21958.162109	16971.929688	76.510468
480.398163	734.482422	22479.248047	17382.230469	76.559792
480.751862	737.974670	23208.828125	17977.394531	76.719025
481.105499	733.590820	24134.490234	18684.755859	76.711433
481.459137	737.305969	25326.750000	19668.748047	76.990120
481.812744	731.733215	26823.578125	20844.068359	77.082840
482.166290	733.739319	28599.117188	22250.322266	77.216187
482.519806	726.606262	30795.359375	23930.158203	77.168320
482.873291	732.401917	33357.984375	25937.818359	77.256599
483.226715	737.974609	36385.003906	28282.291016	77.269592
483.580139	741.020996	39471.390625	30670.007813	77.275238
483.933502	733.590759	42743.679688	33202.023438	77.287224
484.286804	737.157288	45771.738281	35627.265625	77.474037
484.640106	735.819885	48453.996094	37870.757813	77.821365
484.993347	735.225403	50259.996094	39487.066406	78.247391
485.346558	735.002502	51084.683594	40298.378906	78.577209
485.699738	732.104736	50835.324219	40158.539063	78.690422
486.052887	733.442200	49701.832031	39222.398438	78.599594
486.405975	717.541443	48061.750000	37835.167969	78.399506
486.759064	718.433044	46186.347656	36230.156250	78.102821
487.112061	721.182190	44464.605469	34803.097656	77.913231
487.464996	729.355469	43265.503906	33797.410156	77.741066
487.817963	732.327637	42831.800781	33401.375000	77.599655
488.170868	728.761047	42879.355469	33368.011719	77.434853
488.523743	725.863281	43141.425781	33530.289063	77.340538
488.876587	715.906738	43246.636719	33588.246094	77.290794
489.229401	722.965515	43096.917969	33438.453125	77.206596
489.582153	723.634216	42479.605469	32969.605469	77.224808
489.934845	730.024231	41547.105469	32284.384766	77.306755
490.287537	726.532043	40461.171875	31524.044922	77.507973
490.640198	724.377197	39570.136719	30788.148438	77.392677
490.992798	724.302917	38779.035156	30154.048828	77.335320
491.345337	719.101624	38500.769531	29859.960938	77.129623
491.697876	723.114075	38423.644531	29805.345703	77.140114
492.050354	728.909668	38833.500000	30106.494141	77.097229
492.402832	738.123230	39176.855469	30340.250000	77.011200
492.755219	736.785828	39319.218750	30477.638672	77.083923
493.107605	734.110840	38994.363281	30234.296875	77.103996
493.459930	729.652649	38206.832031	29679.107422	77.245552
493.812225	739.237732	36878.593750	28696.750000	77.360291
494.164490	742.432800	35216.812500	27412.056641	77.360710
494.516724	744.884766	33341.707031	25945.095703	77.308800
494.868896	736.711426	31560.970703	24536.837891	77.212326
495.221039	730.990173	30085.986328	23418.583984	77.286995
495.573120	733.442139	28892.908203	22507.929688	77.325638
495.925201	735.448303	28211.775391	21958.681641	77.241882
496.277222	737.900330	27742.406250	21602.699219	77.264137
496.629211	737.603210	27568.615234	21497.931641	77.374374
496.981140	738.346191	27503.968750	21432.099609	77.314674
497.333069	740.723816	27593.357422	21504.841797	77.326187
497.684967	736.414246	27740.697266	21556.257813	77.098305
498.036804	736.042786	27868.275391	21649.359375	77.079231
498.388580	733.888000	27873.849609	21605.447266	76.903419
498.740326	737.231628	27763.509766	21571.119141	77.087517
499.092072	732.699158	27540.080078	21390.490234	77.060089
499.443756	729.504150	27258.623047	21199.085938	77.158920
499.795410	723.857178	26959.255859	20970.531250	77.173111
500.147003	724.451599	26673.337891	20760.701172	77.214294
500.498566	738.866211	26364.908203	20549.085938	77.305023
500.850098	736.785828	26077.802734	20295.416016	77.181709
501.201599	740.575195	25765.804688	20079.568359	77.277977
501.553009	727.869446	25509.162109	19798.628906	76.956276
501.904449	732.773438	25280.087891	19636.277344	77.008438
502.255859	736.711487	25023.593750	19457.505859	77.081917
502.607178	732.699158	24917.267578	19419.091797	77.265770
502.958405	732.847717	24788.427734	19316.255859	77.251968
503.309692	722.296814	24759.968750	19279.996094	77.202568
503.660919	725.194580	24733.294922	19252.876953	77.172630
504.012115	721.479492	24780.773438	19308.900391	77.256721
504.363251	730.841614	24891.263672	19384.167969	77.206131
504.714294	736.414307	24945.208984	19430.755859	77.221283
505.065369	739.534973	25017.875000	19470.878906	77.152489
505.416443	741.987000	25022.259766	19486.037109	77.198677
505.767395	738.791931	25036.822266	19502.236328	77.222084
506.118317	743.918884	25007.250000	19475.710938	77.202065
506.469238	736.488586	25048.710938	19519.994141	77.259514
506.820160	731.436035	25062.234375	19524.970703	77.241753
507.170929	726.532043	25101.462891	19556.251953	77.250351
507.521729	730.321472	25167.744141	19590.207031	77.176247
507.872498	735.522644	25247.843750	19707.830078	77.399063
508.223236	734.853943	25381.140625	19827.310547	77.465858
508.573883	725.491760	25516.818359	19910.751953	77.386986
508.924500	728.612488	25699.750000	20010.986328	77.218643
509.275116	725.714661	25864.482422	20120.435547	77.150642
509.625702	732.327637	26051.351563	20295.341797	77.266068
509.976196	727.943787	26294.470703	20510.224609	77.375710
510.326660	732.773438	26534.095703	20716.638672	77.452873
510.677124	730.321472	26772.234375	20942.369141	77.613525
511.027557	730.915833	26994.328125	21099.076172	77.553368
511.377869	730.395752	27267.539063	21311.507813	77.555870
511.728180	729.578430	27411.539063	21419.990234	77.544571
512.078430	729.355469	27527.375000	21562.353516	77.740814
512.428650	722.148132	27614.310547	21606.560547	77.659851
512.778931	725.789001	27784.314453	21683.021484	77.451492
513.129028	725.937561	27881.203125	21684.580078	77.180771
513.479126	724.971619	27908.177734	21721.732422	77.241669
513.829285	724.377197	27864.708984	21717.199219	77.349174
514.179382	725.120300	27810.244141	21705.310547	77.460197
514.529297	725.937561	27789.812500	21719.353516	77.569885
514.879272	722.816895	27827.705078	21759.328125	77.611504
515.229187	725.863281	27740.845703	21703.898438	77.653336
515.579163	730.618652	27706.148438	21660.357422	77.587868
515.928955	730.247070	27660.302734	21650.400391	77.683289
516.278748	718.878845	27825.328125	21806.435547	77.795349
516.628540	728.612488	28056.632813	22033.505859	77.959885
516.978333	734.853943	28445.533203	22341.789063	77.973312
517.327942	740.798157	28919.662109	22706.318359	77.950340
517.677612	740.129395	29482.205078	23095.884766	77.780586
518.027222	734.556702	30041.257813	23507.896484	77.706940
518.376831	735.374023	30692.150391	24008.992188	77.690659
518.726379	729.727051	31317.630859	24483.265625	77.656639
519.075867	737.528809	31868.662109	24861.244141	77.490639
519.425293	745.999329	32288.025391	25186.468750	77.485413
519.774658	737.231628	32550.164063	25393.548828	77.504066
520.124084	733.590820	32664.666016	25560.208984	77.750648
520.473389	736.117004	32584.416016	25492.150391	77.731102
520.822693	740.426575	32304.521484	25317.462891	77.863907
521.171997	733.293518	31940.437500	25031.322266	77.860466
521.521240	723.931396	31562.681641	24717.099609	77.802010
521.870361	721.479431	31208.630859	24409.335938	77.697838
522.219482	727.795166	30827.603516	24124.458984	77.730278
522.568604	727.200745	30478.306641	23888.697266	77.850876
522.917664	730.618652	30279.025391	23748.859375	77.900108
523.266724	728.018066	30288.240234	23741.353516	77.852379
523.615662	731.138733	30502.603516	23894.046875	77.802383
523.964600	739.163391	30844.322266	24149.796875	77.762863
524.313538	734.333801	31343.189453	24454.955078	77.495941
524.662354	728.463867	31895.109375	24905.525391	77.573517
525.011169	724.080017	32609.009766	25475.281250	77.626648
525.359985	729.875671	33483.554688	26219.720703	77.822845
525.708740	728.463867	34550.539063	27085.570313	77.928711
526.057434	726.086182	35766.949219	28068.744141	78.030777
526.406067	729.949890	37105.218750	29166.195313	78.174667
526.754700	734.928223	38622.253906	30339.062500	78.137306
527.103333	732.327637	40365.027344	31701.703125	78.140968
527.451782	724.674500	42284.789063	33261.910156	78.289574
527.800293	722.519714	44306.562500	34904.964844	78.428810
528.148743	726.606262	46385.703125	36626.410156	78.625740
528.497131	732.104736	48377.761719	38309.144531	78.867714
528.845642	732.699158	50168.894531	39901.824219	79.231674
529.193909	724.005676	51668.550781	41365.292969	79.775543
529.542175	719.844727	52793.050781	42600.648438	80.426781
529.890503	729.355530	53513.781250	43432.988281	80.901955
530.238770	738.420410	53608.296875	43603.660156	81.076866
530.586914	742.358459	53213.078125	43172.925781	80.865227
530.934998	737.454407	52172.625000	42090.484375	80.398354
531.283142	735.522644	50752.406250	40757.125000	80.016182
531.631226	735.522644	48864.144531	38981.437500	79.466049
531.979248	734.185242	46854.558594	37210.953125	79.090355
532.327148	741.541199	44944.531250	35508.968750	78.654015
532.675110	739.237793	43469.023438	34288.175781	78.514175
533.023071	739.386414	42631.484375	33567.292969	78.363007
533.370850	735.076843	42328.250000	33281.375000	78.249138
533.718689	739.014893	42441.191406	33346.613281	78.191597
534.066467	737.900330	42708.683594	33593.746094	78.282661
534.414246	730.395752	42891.839844	33803.578125	78.444138
534.761963	730.990173	42937.613281	33878.105469	78.535339
535.109619	729.949951	42820.214844	33752.828125	78.457283
535.457153	733.367859	42378.406250	33435.925781	78.526901
535.804749	727.646484	41703.886719	32878.359375	78.461838
536.152344	727.869446	40831.351563	32185.115234	78.440193
536.499817	725.937561	39928.722656	31386.287109	78.209618
536.847229	723.039856	38978.613281	30603.359375	78.107101
537.194641	719.993469	38085.273438	29918.806641	78.144234
537.542114	729.206970	37455.777344	29470.541016	78.257607
537.889404	731.881836	36969.246094	29083.421875	78.238419
538.236694	737.083008	36643.574219	28807.537109	78.176537
538.583984	736.265625	36306.316406	28564.789063	78.235825
538.931213	738.271790	36154.218750	28448.505859	78.242256
539.278381	742.878601	35940.597656	28366.400391	78.481003
539.625488	743.770264	35887.988281	28291.953125	78.386101
539.972595	748.451355	35977.082031	28381.857422	78.440201
540.319641	745.999329	36400.531250	28657.890625	78.284271
540.666687	736.711487	37052.613281	29185.509766	78.337029
541.013611	732.624817	38078.511719	29964.353516	78.272957
541.360596	731.658936	39244.617188	30889.349609	78.305313
541.707458	733.887939	40666.175781	31990.072266	78.272957
542.054260	728.538147	41932.148438	33022.804688	78.377274
542.401062	726.903503	43179.988281	33960.355469	78.282776
542.747864	730.395752	43931.332031	34584.199219	78.363586
543.094666	735.894226	44241.699219	34880.074219	78.481895
543.441284	738.717773	43901.542969	34699.292969	78.680145
543.787903	740.203796	43228.058594	34188.167969	78.723587
544.134460	738.866272	42162.410156	33304.925781	78.617271
544.481079	728.315247	40880.984375	32256.220703	78.520081
544.827637	722.668274	39324.273438	31009.423828	78.459831
545.174072	730.024170	37727.878906	29730.896484	78.385284
545.520508	730.692932	36259.878906	28615.093750	78.483078
545.866943	731.361633	35089.832031	27654.804688	78.360428
546.213318	723.114075	34202.582031	26986.673828	78.446770
546.559631	729.206970	33466.683594	26368.476563	78.317795
546.905823	727.126465	32866.839844	25863.884766	78.210899
547.252136	726.532043	32367.751953	25447.419922	78.128746
547.598389	722.593994	31992.150391	25151.841797	78.124702
547.944458	726.977783	31666.408203	24944.685547	78.274574
548.290588	732.624817	31230.548828	24641.009766	78.393486
548.636658	729.058289	30727.296875	24241.632813	78.379852
548.982727	730.915833	30104.861328	23729.759766	78.296745
549.328735	729.281189	29516.978516	23282.312500	78.342606
549.674622	739.757874	28773.951172	22750.750000	78.514801
550.020569	737.974609	28087.468750	22226.396484	78.569725
550.366455	740.872375	27320.962891	21608.642578	78.509026
550.712280	741.689758	26753.212891	21136.523438	78.406921
551.058044	743.621643	26222.171875	20746.955078	78.510483
551.403748	741.318176	25829.039063	20396.320313	78.345108
551.749512	738.866211	25526.552734	20112.187500	78.157028
552.095154	739.163513	25256.978516	19928.806641	78.268158
552.440735	745.404846	25167.072266	19860.968750	78.272972
552.786316	747.708313	25117.662109	19851.382813	78.390274
553.131897	743.918884	25201.697266	19854.281250	78.136131
553.477417	734.482422	25276.150391	19866.689453	77.958054
553.822815	723.336975	25288.562500	19907.703125	78.095627
554.168213	722.816895	25250.146484	19905.400391	78.209015
554.513672	723.262695	25159.943359	19875.753906	78.375999
554.859009	729.429871	25043.062500	19753.376953	78.243950
555.204285	736.414246	24923.062500	19607.744141	78.023750
555.549500	738.197510	24706.025391	19469.689453	78.152649
555.894714	741.615417	24454.585938	19323.611328	78.362160
556.239990	732.996338	24162.130859	19136.369141	78.549095
556.585022	736.785828	23896.646484	18910.636719	78.471329
556.930115	729.355469	23668.462891	18667.814453	78.200333
557.275146	732.550537	23423.634766	18476.931641	78.199791
557.620178	726.011902	23210.460938	18303.287109	78.175255
557.965149	734.185242	23025.150391	18205.800781	78.379807
558.310059	735.894226	22845.115234	18043.375000	78.281731
558.654968	741.169617	22753.650391	17934.521484	78.107285
558.999756	730.990051	22655.273438	17807.912109	77.890442
559.344604	724.822998	22598.056641	17786.511719	78.002594
559.689331	721.033691	22506.591797	17755.673828	78.192352
560.033997	729.058350	22414.306641	17724.023438	78.371086
560.378723	737.083008	22384.658203	17736.208984	78.526695
560.723389	743.398682	22356.572266	17721.720703	78.555435
561.067932	737.528809	22394.914063	17754.857422	78.575172
561.412476	734.556702	22386.666016	17697.572266	78.343475
561.757019	728.612488	22399.744141	17702.623047	78.325447
562.101501	734.036621	22420.697266	17721.273438	78.330345
562.445862	736.562927	22448.486328	17750.326172	78.361382
562.790222	739.683594	22434.740234	17745.048828	78.383598
563.134644	741.838379	22415.494141	17704.107422	78.262154
563.478943	737.677429	22390.156250	17719.562500	78.429291
563.823181	739.980774	22400.115234	17681.742188	78.216324
564.167358	746.816650	22416.906250	17692.591797	78.198914
564.511536	748.228333	22418.541016	17723.947266	78.336288
564.855774	742.655701	22439.421875	17763.402344	78.448311
565.199768	735.968445	22512.609375	17802.263672	78.369736
565.543823	735.522644	22649.031250	17848.703125	78.094208
565.887817	732.996399	22832.779297	18027.625000	78.257004
566.231812	729.429871	23003.304688	18199.115234	78.431282
566.575745	724.971680	23205.333984	18330.109375	78.313400
566.919617	726.754944	23406.767578	18461.921875	78.197342
567.263428	725.417480	23585.244141	18590.318359	78.149765
567.607239	722.891174	23729.984375	18694.416016	78.112976
567.950989	723.782776	23769.812500	18762.328125	78.271812
568.294678	728.092346	23791.134766	18749.845703	78.141266
568.638367	732.624817	23680.724609	18706.080078	78.322197
568.981995	731.287354	23566.148438	18586.230469	78.191597
569.325623	734.185242	23420.958984	18487.779297	78.255264
569.669128	736.711487	23318.349609	18401.144531	78.224762
570.012573	739.906494	23166.177734	18292.884766	78.269714
570.356140	736.265625	23073.671875	18270.517578	78.497261
570.699524	730.470032	22994.984375	18237.900391	78.633781
571.042908	734.036621	23052.939453	18260.636719	78.528053
571.386230	735.151123	23157.484375	18294.591797	78.312279
571.729492	742.729980	23284.021484	18399.359375	78.330154
572.072815	738.643311	23464.056641	18551.607422	78.383453
572.416016	731.138733	23554.333984	18613.277344	78.350723
572.759094	735.076843	23770.630859	18707.121094	78.018723
573.102234	730.247131	23845.005859	18774.736328	78.064796
573.445374	737.677429	23925.103516	18848.371094	78.105667
573.788391	733.962219	23931.421875	18853.646484	78.110641
574.131409	736.488525	23940.412109	18861.597656	78.112259
574.474365	734.779541	23915.369141	18833.214844	78.075821
574.817261	730.990173	23753.615234	18762.107422	78.319122
575.160156	729.875671	23602.109375	18630.664063	78.264275
575.502930	726.754883	23383.958984	18477.675781	78.345604
575.845703	729.801270	23229.408203	18320.970703	78.184341
576.188477	732.253357	22996.171875	18112.775391	78.065872
576.531250	730.172852	22784.111328	17954.435547	78.100616
576.873901	731.584656	22512.312500	17786.882813	78.304535
577.216431	727.795105	22235.982422	17651.353516	78.684265
577.559082	725.714661	22011.810547	17445.833984	78.549484
577.901611	718.730225	21758.810547	17204.498047	78.354111
578.244080	720.067688	21529.064453	16955.880859	78.023048
578.586487	721.925293	21209.042969	16754.966797	78.259140
578.928955	744.290344	20903.287109	16545.357422	78.382217
579.271301	747.856934	20549.306641	16326.389648	78.673706
579.613647	753.281006	20205.359375	16021.375977	78.490814
579.955872	739.832214	19894.107422	15766.442383	78.450424
580.298157	737.603210	19630.408203	15543.534180	78.368095
580.640320	734.928223	19378.074219	15399.312500	78.658318
580.982483	728.463867	19154.052734	15221.507813	78.657150
581.324524	727.200684	18983.230469	15059.972656	78.509796
581.666626	733.962219	18851.269531	14926.821289	78.338684
582.008728	739.386414	18739.443359	14869.906250	78.502640
582.350647	737.083008	18625.908203	14781.635742	78.510208
582.692566	735.374023	18522.330078	14696.929688	78.493225
583.034424	736.340027	18424.251953	14609.921875	78.435387
583.376343	739.534973	18320.302734	14569.648438	78.666153
583.718201	739.832214	18259.595703	14508.647461	78.590187
584.059937	735.002502	18183.212891	14466.961914	78.701241
584.401611	740.723816	18101.626953	14411.606445	78.745232
584.743347	737.528809	17992.923828	14360.933594	78.951569
585.085022	734.259521	17924.861328	14280.983398	78.803078
585.426514	730.990173	17864.082031	14202.817383	78.630447
585.768127	731.064453	17822.771484	14148.575195	78.503044
586.109619	729.652649	17729.818359	14075.015625	78.501373
586.451172	734.110840	17648.162109	14031.698242	78.618591
586.792542	731.733215	17613.759766	13974.335938	78.442017
587.133850	738.866272	17574.154297	13978.571289	78.642586
587.475220	734.333801	17584.630859	13963.710938	78.511238
587.816589	738.866272	17548.445313	13978.942383	78.765068
588.157776	736.934387	17600.531250	14003.981445	78.672699
588.498962	735.894226	17649.496094	14059.635742	78.775307
588.840210	729.578430	17705.966797	14076.948242	78.623138
589.181335	731.956055	17745.498047	14096.192383	78.550575
589.522400	737.900330	17772.988281	14104.067383	78.462563
589.863403	738.346130	17851.302734	14170.272461	78.489807
590.204407	739.832214	17858.287109	14145.827148	78.313110
590.545410	731.361633	17939.576172	14187.659180	78.196945
590.886353	734.631042	17900.865234	14187.063477	78.365662
591.227112	735.299744	17899.822266	14200.586914	78.448357
591.567932	732.030334	17830.945313	14121.528320	78.306129
591.908752	736.934387	17788.740234	14069.665039	78.189545
592.249512	731.584656	17771.947266	14075.907227	78.310081
592.590149	735.225403	17634.189453	14028.725586	78.664581
592.930786	728.983948	17551.341797	13970.621094	78.714516
593.271423	725.565979	17446.277344	13893.272461	78.750877
593.612000	726.532043	17410.314453	13878.559570	78.831207
593.952576	732.253357	17373.759766	13871.278320	78.953346
594.292969	734.779602	17390.179688	13865.928711	78.840187
594.633484	734.705261	17444.048828	13889.333008	78.726181
594.973877	729.058350	17536.333984	13925.518555	78.516357
595.314209	734.779602	17655.367188	14025.307617	78.546494
595.654480	737.083008	17833.767578	14143.002930	78.412399
595.994812	740.352356	18015.585938	14273.179688	78.336578
596.335022	736.562927	18210.111328	14408.559570	78.243965
596.675171	737.974609	18322.607422	14559.247070	78.598587
597.015320	732.030457	18506.357422	14676.793945	78.454529
597.355408	735.448303	18642.255859	14785.645508	78.462883
597.695496	728.389587	18793.906250	14844.344727	78.137566
598.035461	729.727051	18765.447266	14872.282227	78.414139
598.375366	721.479431	18709.871094	14858.983398	78.592369
598.715271	725.417480	18658.007813	14810.835938	78.546478
599.055176	728.835449	18552.349609	14702.651367	78.401016
599.395081	732.699158	18359.236328	14554.492188	78.414680
599.734802	737.603210	18065.814453	14339.161133	78.493721
600.074524	739.534973	17735.761719	14124.872070	78.754753
600.414246	737.157227	17355.925781	13854.930664	78.933479
600.753906	733.813660	16984.783203	13571.987305	78.999435
601.093506	729.652649	16683.189453	13290.973633	78.736908
601.433044	721.479431	16467.117188	13077.428711	78.472206
601.772583	715.015137	16339.613281	12940.710938	78.246468
602.112122	718.581604	16307.664063	12924.958008	78.300797
602.451538	729.578430	16353.956055	12931.719727	78.096817
602.790894	735.299744	16447.873047	13021.031250	78.190445
603.130310	731.584534	16562.597656	13105.959961	78.165405
603.469604	734.036621	16716.849609	13258.429688	78.361633
603.808838	730.767273	16909.072266	13436.458008	78.535362
604.148010	734.408020	17175.373047	13639.973633	78.496399
604.487305	734.259460	17460.025391	13832.640625	78.312592
604.826416	737.751709	17725.582031	14017.875977	78.174339
605.165527	737.454407	17931.625000	14186.692383	78.219757
605.504456	739.014832	18074.357422	14326.901367	78.382568
605.843445	738.940613	18183.583984	14417.997070	78.414085
606.182434	743.547363	18226.529297	14471.495117	78.521767
606.521423	735.076843	18188.859375	14441.922852	78.532234
606.860229	734.185242	18043.523438	14349.340820	78.657860
607.199036	728.761047	17812.369141	14166.781250	78.660324
607.537903	738.494812	17545.994141	13946.398438	78.583389
607.876648	741.987000	17260.523438	13690.203125	78.385971
608.215271	742.952942	16972.080078	13482.004883	78.494987
608.553955	739.832275	16715.662109	13303.753906	78.643311
608.892578	736.860107	16497.060547	13168.894531	78.882462
609.231140	734.259521	16367.774414	13062.269531	78.856293
609.569641	728.389587	16284.780273	12976.004883	78.730446
609.908081	723.559875	16276.977539	12949.850586	78.608391
610.246521	730.024231	16296.742188	12932.460938	78.387985
610.584961	729.578369	16346.450195	12970.207031	78.380798
610.923340	736.117004	16345.632813	12960.920898	78.316353
611.261597	728.166687	16306.772461	12941.973633	78.401154
611.599854	733.739319	16209.881836	12845.083008	78.258156
611.938110	730.618652	16106.823242	12772.192383	78.313042
612.276245	727.126404	15946.702148	12634.062500	78.234352
612.614319	722.593933	15718.815430	12483.749023	78.427460
612.952393	722.148193	15421.379883	12253.260742	78.447044
613.290466	726.086182	15099.799805	11998.031250	78.420547
613.628479	732.773438	14790.848633	11751.792969	78.382133
613.966370	731.807434	14517.562500	11516.846680	78.233215
614.304260	735.002502	14272.958008	11348.848633	78.400658
614.642151	725.343201	14073.901367	11181.519531	78.331879
614.979980	721.999512	13890.372070	11067.018555	78.559586
615.317749	717.615723	13730.993164	10941.745117	78.566299
615.655396	722.668274	13619.539063	10844.184570	78.480408
615.993164	728.538269	13566.265625	10784.074219	78.328011
616.330811	733.219238	13534.835938	10770.253906	78.404434
616.668396	731.287415	13507.417969	10768.471680	78.562004
617.005859	731.361633	13465.510742	10739.195313	78.590515
617.343445	732.179016	13441.584961	10716.383789	78.557602
617.680908	737.157227	13431.406250	10729.757813	78.717537
618.018311	741.763977	13497.237305	10761.114258	78.549423
618.355652	745.627747	13544.122070	10788.458008	78.468842
618.692993	740.575195	13542.933594	10766.463867	78.312828
619.030273	734.482422	13492.629883	10766.018555	78.628471
619.367554	723.559875	13473.386719	10733.697266	78.511948
619.704712	727.869385	13477.843750	10751.752930	78.618851
620.041870	734.928223	13506.749023	10724.185547	78.213264
620.379028	739.237793	13474.129883	10718.612305	78.362457
620.716064	739.906555	13430.217773	10684.433594	78.363144
621.053040	731.807556	13309.028320	10658.577148	78.926575
621.389954	731.733215	13212.211914	10609.090820	79.142456
621.726929	724.748718	13144.002930	10527.135742	78.928947
622.063843	727.200684	13111.308594	10468.288086	78.657974
622.400635	728.389587	13083.890625	10409.217773	78.352371
622.737427	732.550537	13034.034180	10409.366211	78.663811
623.074219	733.962219	12977.118164	10359.879883	78.622849
623.410889	733.367859	12920.425781	10322.504883	78.682953
623.747559	731.213074	12908.239258	10287.359375	78.476845
624.084167	731.213074	12870.643555	10262.616211	78.516068
624.420715	734.853943	12891.374023	10280.524414	78.523048
624.757324	735.299622	12900.140625	10288.103516	78.527977
625.093750	735.448303	12951.039063	10338.183594	78.610489
625.430176	733.590820	12964.933594	10346.059570	78.588829
625.766602	738.271912	12992.351563	10354.455078	78.473320
626.102905	744.884766	13065.911133	10379.273438	78.194695
626.439209	741.318298	13180.559570	10455.061523	78.089516
626.775452	740.426575	13276.335938	10559.754883	78.329605
627.111694	732.847717	13331.468750	10650.551758	78.720551
627.447876	739.534973	13427.245117	10727.306641	78.720047
627.783997	740.278015	13467.218750	10758.365234	78.715591
628.120056	739.757874	13571.987305	10805.918945	78.444366
628.456055	729.727051	13564.778320	10770.402344	78.228561
628.792053	726.086182	13567.454102	10751.009766	78.067413
629.128052	725.789063	13479.109375	10678.936523	78.043579
629.463928	731.807434	13392.620117	10652.484375	78.357346
629.799744	734.928223	13295.135742	10570.825195	78.309990
630.135559	737.083008	13162.058594	10488.942383	78.485947
630.471375	741.318298	13013.750000	10347.397461	78.273643
630.807068	745.925049	12869.007813	10225.541992	78.194771
631.142700	747.113831	12754.581055	10114.086914	78.009567
631.478333	748.302734	12611.102539	10020.540039	78.162300
631.813965	739.386414	12485.382813	9931.450195	78.256996
632.149475	737.380188	12328.901367	9829.656250	78.439026
632.484924	731.213135	12246.277344	9786.114258	78.635262
632.820435	734.110840	12173.014648	9727.711914	78.622932
633.155884	732.922058	12131.257813	9672.580078	78.429504
633.491150	735.374023	12065.499023	9604.146484	78.276031
633.826477	738.940613	12005.461914	9555.404297	78.253647
634.161804	742.730042	11929.971680	9507.107422	78.342613
634.497009	741.912781	11865.401367	9445.807617	78.247887
634.832153	740.278015	11784.709961	9404.124023	78.445374
635.167297	739.163391	11728.536133	9344.161133	78.302902
635.502380	731.361633	11644.277344	9305.301758	78.566902
635.837463	728.018066	11572.946289	9217.030273	78.276329
636.172424	720.736328	11495.820313	9161.451172	78.335487
636.507324	725.863281	11415.648438	9084.919922	78.196678
636.842224	725.640381	11296.020508	9016.264648	78.432602
637.177124	733.293518	11160.492188	8923.980469	78.551178
637.511963	727.869446	11025.706055	8826.495117	78.643951
637.846741	728.389587	10909.200195	8738.074219	78.674332
638.181396	726.011902	10790.463867	8638.359375	78.616776
638.516113	729.652649	10726.787109	8575.500000	78.480957
638.850769	732.550476	10643.939453	8532.331055	78.695137
639.185303	735.002502	10575.952148	8470.436523	78.604553
639.519836	738.123230	10517.921875	8405.347656	78.398590
639.854370	730.470032	10443.097656	8332.083984	78.265266
640.188843	732.922058	10356.461914	8272.047852	78.340462
640.523254	728.018066	10232.599609	8194.401367	78.555618
640.857605	734.556641	10141.355469	8114.748535	78.455933
641.191895	729.727051	10061.554688	8068.087402	78.637970
641.526184	730.024231	10011.028320	8032.124512	78.677910
641.860413	724.154297	9965.333008	7987.542480	78.598068
642.194580	723.708496	9913.097656	7929.363281	78.412773
642.528748	726.532043	9826.980469	7871.481934	78.512062
642.862793	724.748718	9760.777344	7817.835449	78.497841
643.196838	723.559875	9721.545898	7782.838379	78.453979
643.530823	717.392761	9674.363281	7717.154785	78.148766
643.864746	722.222412	9630.152344	7675.471191	78.056847
644.198669	717.838562	9561.050781	7633.563965	78.203773
644.532532	730.247131	9523.750977	7629.478027	78.458267
644.866333	730.841553	9486.153320	7606.814941	78.534882
645.200073	740.129395	9466.018555	7588.313965	78.481224
645.533813	736.042725	9446.476563	7560.970703	78.353477
645.867554	738.271790	9426.786133	7537.713379	78.257813
646.201172	740.723816	9421.064453	7527.757813	78.188568
646.534729	736.785828	9451.973633	7537.416504	78.031952
646.868225	735.819824	9471.813477	7556.141113	78.071495
647.201782	729.504089	9469.807617	7567.063965	78.230232
647.535217	731.956055	9455.169922	7574.939941	78.445671
647.868591	730.915833	9452.197266	7587.571777	78.619820
648.201965	726.532043	9470.549805	7592.771973	78.525002
648.535278	725.714661	9470.996094	7603.545410	78.646194
648.868591	732.402039	9476.198242	7592.846191	78.460709
649.201782	727.497986	9447.887695	7579.100098	78.569908
649.534912	724.228699	9401.968750	7524.339355	78.362694
649.868103	721.628113	9325.585938	7477.677246	78.522575
650.201172	734.705322	9271.122070	7431.089844	78.444908
650.534180	738.643311	9229.363281	7407.238281	78.539803
650.867188	735.374023	9196.075195	7379.597656	78.530411
651.200134	722.222473	9172.819336	7371.423828	78.683212
651.533020	718.953125	9137.301758	7347.796387	78.742798
651.865845	719.770447	9087.446289	7337.690918	79.089111
652.198608	729.058289	9041.898438	7286.570313	78.884140
652.531433	733.219238	9007.718750	7235.153809	78.577972
652.864136	734.779602	8990.704102	7199.859375	78.308365
653.196777	1032.807739	9301.288086	7533.850098	78.624390
653.529358	1049.228760	9252.917969	7540.982910	79.132126
653.861938	1054.058472	9207.147461	7496.252441	79.015373
654.194519	761.974365	8818.915039	7097.916016	78.639549
654.526978	746.147949	8797.218750	7059.576172	78.417252
654.859375	737.974670	8733.020508	7007.860840	78.422142
655.191833	738.197571	8686.656250	6972.270020	78.431213
655.524170	737.974609	8614.508789	6912.529785	78.391777
655.856445	737.157227	8589.617188	6885.558594	78.299049
656.188660	750.383118	8579.883789	6878.797363	78.273369
656.520874	751.943542	8543.624023	6848.704590	78.247063
656.853088	748.302673	8541.990234	6853.459473	78.334633
657.185181	722.668274	8496.218750	6826.116699	78.515579
657.517212	719.176025	8535.376953	6863.119629	78.605232
657.849243	722.519714	8550.163086	6879.243652	78.653610
658.181274	727.126404	8616.664063	6920.109375	78.496147
658.513123	721.776550	8655.524414	6952.134277	78.529816
658.844971	720.216248	8719.499023	7020.863770	78.765152
659.176819	722.816833	8791.794922	7081.494629	78.804001
659.508667	729.727051	8872.858398	7141.382813	78.736984
659.840393	735.002441	8953.477539	7170.509766	78.305374
660.172058	734.482422	8992.634766	7212.342285	78.442001
660.503662	731.510254	9014.331055	7238.050781	78.554649
660.835266	729.281189	9049.700195	7257.666504	78.462219
661.166931	728.092468	9034.170898	7240.800293	78.408943
661.498413	736.711609	9018.715820	7193.394531	77.960396
661.829773	733.962341	8922.940430	7128.826172	78.091110
662.161194	729.949951	8820.625000	7049.173828	78.105026
662.492615	726.011902	8686.210938	6958.449707	78.294998
662.823975	730.692932	8530.175781	6854.871582	78.520317
663.155212	738.791992	8390.188477	6748.544434	78.544518
663.486450	733.590759	8227.912109	6642.514160	78.845345
663.817627	734.408142	8093.943848	6533.437988	78.796135
664.148743	732.401917	7973.275879	6423.693359	78.599510
664.479858	733.219238	7872.596191	6349.836426	78.670975
664.810913	728.166687	7809.735840	6283.929688	78.453842
665.141907	726.309082	7743.235840	6239.496582	78.569832
665.472778	727.646545	7669.675781	6177.380371	78.503471
665.803711	739.237793	7590.320313	6145.875000	78.916542
666.134583	739.980774	7524.859375	6125.441895	79.374466
666.465454	740.946777	7516.017578	6099.213379	79.087982
666.796143	734.631042	7478.271484	6062.285156	79.002640
667.126831	733.070618	7469.207031	6029.591309	78.628464
667.457458	725.194641	7437.703125	6007.523438	78.693810
667.788147	721.776672	7430.644043	5989.096191	78.512794
668.118774	721.256592	7399.882324	5953.505371	78.343193
668.449219	729.429871	7381.158203	5939.907715	78.332695
668.779663	728.389648	7373.728027	5920.365723	78.129593
669.110107	729.801331	7351.585938	5914.496582	78.297554
669.440552	729.652771	7332.415527	5894.806641	78.227158
669.770874	734.408020	7282.781250	5879.871094	78.576202
670.101135	732.327637	7272.973145	5868.429199	78.525909
670.431396	732.550476	7234.187500	5838.931152	78.539925
670.761597	726.903503	7202.979980	5804.677246	78.408180
671.091797	724.971680	7160.404785	5773.023926	78.441528
671.421875	725.640381	7135.587402	5759.946777	78.538971
671.751892	739.312073	7107.724121	5731.042969	78.382660
672.081909	743.918762	7072.355957	5707.935059	78.439842
672.411865	742.581360	7011.947754	5670.188965	78.598175
672.741821	727.943787	6970.635254	5655.179688	78.928070
673.071716	730.470032	6930.884277	5618.400391	78.832321
673.401550	721.479309	6921.298828	5580.951660	78.380867
673.731262	725.863281	6887.564941	5558.660645	78.432838
674.060974	722.742493	6849.076172	5536.072754	78.567879
674.390625	735.522644	6822.847168	5525.521484	78.688080
674.720276	734.779602	6801.670410	5499.292969	78.533035
675.049927	732.773499	6770.166504	5476.927734	78.579514
675.379395	728.835449	6700.173828	5437.324707	78.851486
675.708923	730.098572	6642.738281	5391.479980	78.837570
676.038330	726.829163	6602.019531	5343.777832	78.583817
676.367737	727.126465	6584.855469	5317.697754	78.367767
676.697083	724.600159	6556.620605	5293.623535	78.343750
677.026428	731.064453	6526.007813	5283.889160	78.565475
677.355652	729.504089	6500.447754	5275.938965	78.781479
677.684875	734.110840	6497.550293	5292.657227	79.094200
678.013977	734.036621	6505.203125	5275.418457	78.690880
678.343079	736.191406	6500.002441	5269.251953	78.646935
678.672180	729.058289	6512.335938	5250.304688	78.177925
679.001221	726.457703	6513.524902	5262.713379	78.386093
679.330139	723.931396	6543.617676	5284.854980	78.370613
679.659058	724.228577	6568.286621	5292.062500	78.162025
679.987976	730.024231	6618.291504	5327.208008	78.073624
680.316772	734.110901	6648.979004	5344.817871	77.951141
680.645630	737.305908	6702.997559	5383.306152	77.878654
680.974304	737.900391	6745.498535	5426.179199	78.039154
681.302979	737.751770	6789.485840	5463.256348	78.085129
681.631653	734.556702	6791.714355	5500.705078	78.686218
681.960266	730.024231	6805.832031	5501.670410	78.535172
682.288757	735.894226	6832.877441	5509.175781	78.289238
682.617249	740.798157	6862.524902	5507.837891	77.870834
682.945679	743.993164	6859.924316	5490.302246	77.605667
683.274109	737.751770	6825.894531	5474.104004	77.796341
683.602478	739.460693	6754.117676	5410.724121	77.664673
683.930725	734.482422	6685.833496	5372.829590	77.937714
684.259033	731.213074	6613.759277	5323.046875	78.058609
684.587280	730.395813	6547.259277	5291.616699	78.413750
684.915344	733.367920	6477.934082	5237.524414	78.407242
685.243469	735.819885	6400.064941	5176.373047	78.396202
685.571533	738.420410	6328.882813	5138.775879	78.711830
685.899536	742.061218	6260.895996	5097.240723	78.914841
686.227539	740.649597	6209.478516	5063.729980	79.049469
686.555420	738.569031	6175.596191	5024.052734	78.820351
686.883301	736.785828	6159.992188	5013.649902	78.862282
687.211121	737.231628	6153.974121	4998.789551	78.673813
687.538940	736.860046	6170.692871	4997.675293	78.412704
687.866638	727.497986	6162.147949	4987.719238	78.389984
688.194336	722.593994	6172.104004	4999.235840	78.477547
688.521973	717.169922	6159.844238	4992.845703	78.558365
688.849609	721.182190	6150.853027	4982.666016	78.485123
689.177063	722.965515	6122.172363	4945.737793	78.210976
689.504578	725.714661	6070.160645	4915.347656	78.392281
689.832031	729.281250	6011.089844	4871.138184	78.417397
690.159485	727.423645	5931.957520	4828.859863	78.805061
690.486816	723.411316	5848.070313	4778.185059	79.122795
690.814087	728.909668	5758.833496	4713.838867	79.224442
691.141296	734.259460	5673.161621	4655.139648	79.387680
691.468506	737.008728	5588.828125	4584.105957	79.291847
691.795715	728.983948	5530.425781	4537.815918	79.326836
692.122803	729.949951	5468.531250	4468.937012	78.905205
692.449829	730.767334	5419.194824	4420.491699	78.698547
692.776855	733.145020	5357.300293	4352.430176	78.269112
693.103821	731.064514	5303.430664	4310.746582	78.289490
693.430664	725.120300	5250.304199	4256.877441	78.046707
693.757568	728.166687	5193.388184	4218.091309	78.157921
694.084351	731.584656	5128.299316	4166.079590	78.115021
694.411133	738.346130	5082.306152	4140.816895	78.326477
694.737854	737.380188	5041.067871	4120.903320	78.619164
695.064575	738.197510	5031.482910	4117.856934	78.719658
695.391174	743.027161	4998.195313	4086.649414	78.577919
695.717773	740.055176	4981.774902	4066.810547	78.429398
696.044250	736.562805	4946.258301	4046.749023	78.632446
696.370789	735.894104	4954.653809	4049.275391	78.539230
696.697205	740.500977	4971.074707	4053.065186	78.300591
697.023621	744.587585	5024.201172	4085.609375	78.068298
697.349915	748.079773	5088.695801	4129.299805	77.897232
697.676208	744.364685	5144.720215	4194.091309	78.396545
698.002380	740.723877	5218.354492	4249.372559	78.359489
698.328674	734.853943	5296.817871	4314.164551	78.459862
698.654724	730.172852	5396.309082	4369.816895	78.001236
698.980896	731.807434	5491.045410	4465.147949	78.444084
699.306946	728.389587	5572.927246	4535.809570	78.592018
699.632935	724.154297	5642.548828	4580.317383	78.402885
699.958862	717.838623	5674.498535	4581.505859	77.949005
700.284729	711.522888	5668.331543	4576.825195	77.979652
700.610596	719.844788	5622.041504	4578.459473	78.711952
700.936340	726.829285	5573.818848	4527.487793	78.412758
701.262146	733.144958	5480.197266	4457.643066	78.459175
701.587830	732.253235	5376.767578	4364.318848	78.201195
701.913513	731.584656	5227.196289	4272.034668	78.753464
702.239075	731.658936	5084.312500	4171.206543	79.021858
702.564697	731.658875	4955.768555	4078.105225	79.222519
702.890137	729.727051	4831.608398	3961.821045	78.795403
703.215698	730.618652	4741.033691	3876.001221	78.430351
703.541016	734.036621	4649.789551	3784.906250	77.912720
703.866455	729.875671	4593.765625	3744.188477	78.012390
704.191711	735.299744	4517.085449	3681.328125	77.900459
704.517029	724.080017	4444.045898	3620.845947	77.870766
704.842163	729.652771	4353.099121	3564.301514	78.230736
705.167419	729.875671	4307.700195	3536.363525	78.441185
705.492493	736.711487	4273.000977	3524.549561	78.835121
705.817566	737.454590	4239.564941	3501.515625	78.925583
706.142578	730.395752	4204.716797	3482.865479	79.223244
706.467590	730.692932	4180.345703	3460.723389	79.139282
706.792480	727.795166	4172.989746	3456.860107	79.213669
707.117371	732.253357	4170.908691	3446.308594	78.927803
707.442200	736.785828	4170.760254	3450.618408	79.028908
707.766907	733.442200	4175.441406	3437.912354	78.572655
708.091675	728.612488	4179.750488	3435.386475	78.431343
708.416321	725.045959	4186.141113	3427.733154	78.087631
708.741028	729.058350	4195.800293	3430.408203	77.921860
709.065552	729.652771	4203.676270	3433.825928	77.839806
709.390137	732.179016	4200.704102	3442.519531	78.141006
709.714600	735.374023	4214.598633	3469.342529	78.579819
710.039063	734.110840	4234.660645	3499.509766	78.998985
710.363403	729.652771	4284.443359	3530.865234	78.801056
710.687744	730.544373	4330.362793	3569.502686	78.863930
711.012085	729.949951	4390.398926	3595.508545	78.284348
711.336304	734.036560	4430.076660	3625.972656	78.244179
711.660461	725.789001	4471.240723	3645.068359	77.941986
711.984619	725.937500	4495.686035	3667.136719	78.021095
712.308716	727.200684	4521.469238	3678.653320	77.787132
712.632751	733.070557	4514.559082	3683.557373	78.024483
712.956726	737.528809	4488.478027	3687.272461	78.639923
713.280701	741.689758	4440.330078	3673.452393	79.265961
713.604553	741.095276	4406.151367	3633.105713	78.907669
713.928467	738.791992	4346.412109	3589.118408	79.008499
714.252258	739.757874	4300.642090	3534.803467	78.493019
714.575989	741.466797	4242.091309	3494.977295	78.657692
714.899719	740.500916	4186.066895	3437.169678	78.264900
715.223267	738.643311	4144.902832	3403.213135	78.225685
715.546936	742.061218	4107.974609	3380.105225	78.375275
715.870422	747.856934	4090.439209	3356.179688	78.033165
716.193970	734.556702	4054.699951	3329.579102	78.159950
716.517395	732.922058	4033.968994	3300.749756	77.788284
716.840820	722.445313	3996.297607	3276.155518	78.003220
717.164124	724.080078	3976.755859	3255.425049	77.823463
717.487488	713.826233	3931.505859	3238.929932	78.475922
717.810730	729.652771	3906.762939	3220.874268	78.411552
718.133972	736.637207	3850.515625	3192.713623	78.875153
718.457092	743.175842	3798.355469	3137.283936	78.362267
718.780212	731.881775	3750.653076	3081.111084	77.820709
719.103210	730.395752	3699.383789	3029.693359	77.443817
719.426208	729.801331	3665.279053	3001.384033	77.383751
719.749207	741.838379	3619.360107	2991.873291	78.193497
720.072083	743.250183	3579.236328	2964.158447	78.311676
720.394958	737.900391	3531.088623	2931.985596	78.551285
720.717773	725.640442	3484.723389	2889.409912	78.423500
721.040527	721.702332	3443.782471	2857.459717	78.460487
721.363281	726.309082	3411.238037	2826.624268	78.226097
721.685913	732.030457	3384.340576	2799.503662	77.949905
722.008545	736.711426	3350.755615	2780.184814	78.172874
722.331055	730.470032	3300.526611	2757.968018	78.889236
722.653503	726.829285	3272.589111	2740.061279	79.081772
722.976013	726.457703	3265.604492	2734.785889	79.094604
723.298401	734.259460	3287.672119	2725.349365	77.977600
723.620789	730.990173	3272.588867	2705.213623	77.676445
723.943115	729.801331	3264.415771	2690.278564	77.348145
724.265381	725.789063	3232.985596	2682.179443	78.030991
724.587585	733.962341	3231.128174	2679.133057	77.895134
724.909790	737.900391	3222.583252	2682.476807	78.262558
725.231873	743.844543	3233.877197	2683.888672	77.912399
725.553894	742.581360	3238.261475	2693.696777	78.179710
725.875916	835.757019	3340.798828	2804.853516	78.605331
726.197937	838.357666	3336.637939	2813.695557	79.067909
726.519775	838.431946	3339.833252	2813.101318	78.942528
726.841675	738.569031	3239.895752	2712.123779	78.900314
727.163513	732.922058	3254.384766	2718.439697	78.744675
727.485291	733.813660	3248.217773	2746.823242	80.059113
727.806946	741.318176	3283.288818	2756.259521	79.266899
728.128662	740.129395	3305.876953	2766.736328	78.987000
728.450256	736.562805	3345.703125	2779.367920	78.294182
728.771790	727.423645	3356.402344	2788.506836	78.398628
729.093323	728.389587	3355.139404	2795.268555	78.685791
729.414795	729.801331	3347.931885	2783.305664	78.433990
729.736145	731.287415	3340.873047	2777.881592	78.426018
730.057495	726.903564	3340.650391	2775.652344	78.383598
730.378845	728.463867	3350.904297	2775.503906	78.058594
730.700134	730.024231	3346.000000	2768.296631	77.916336
731.021301	730.024231	3345.257080	2757.894287	77.540710
731.342468	727.200745	3336.489502	2760.345947	77.919518
731.663574	727.646484	3350.235352	2762.129639	77.575378
731.984680	734.631042	3358.928955	2782.488281	78.034477
732.305664	735.671204	3389.838623	2780.927734	77.058311
732.626648	735.671204	3396.749023	2793.336670	77.324516
732.947571	730.321472	3410.792236	2792.296143	76.925842
733.268433	725.863281	3406.482422	2797.646240	77.287476
733.589233	727.423584	3387.981201	2795.045654	77.713860
733.909973	734.556702	3360.637451	2784.791748	78.072052
734.230713	735.522705	3327.498779	2771.268799	78.540314
734.551331	739.460693	3301.195313	2734.860352	77.892517
734.871948	736.339905	3263.746826	2692.582031	77.401154
735.192505	740.203613	3207.500000	2656.693604	77.675713
735.513062	734.185242	3172.057373	2630.836182	77.799446
735.833435	724.971680	3124.503906	2601.784180	78.215767
736.153931	725.863281	3078.956055	2566.118896	78.205826
736.474304	728.835449	3029.693359	2539.146729	78.679840
736.794617	734.779602	2991.353271	2515.295654	78.903519
737.114807	730.395752	2980.356445	2500.509521	78.673096
737.434998	729.206848	2971.217529	2476.658447	77.941269
737.755188	735.968445	2978.350342	2473.240234	77.474396
738.075256	736.265625	2983.551514	2469.822510	77.140022
738.395325	735.374023	2984.591797	2479.110352	77.526344
738.715271	723.114075	2992.913818	2484.608643	77.605728
739.035278	725.640381	3000.938477	2491.370361	77.604340
739.355164	721.033630	3009.185791	2507.716797	78.084106
739.675049	726.680603	3026.944336	2521.760010	78.037979
739.994873	725.863281	3031.699463	2534.762939	78.448753
740.314636	736.860107	3038.089600	2524.657715	77.688805
740.634277	741.764099	3019.885498	2513.438232	77.769081
740.953979	739.014832	2996.405518	2490.924316	77.607719
741.273499	735.076843	2963.266602	2478.441406	78.241295
741.593140	738.494812	2921.062744	2452.286865	78.521820
741.912598	739.609314	2885.546143	2418.033203	78.214043
742.232117	736.340027	2846.166016	2385.042969	78.144028
742.551453	735.448425	2809.608643	2363.866943	78.509773
742.870850	739.460693	2774.909424	2354.133057	79.327583
743.190063	738.866272	2732.854248	2337.043457	80.149788
743.509338	730.098572	2705.882080	2308.214111	79.872894
743.828552	726.234802	2678.910400	2264.821045	78.793747
744.147705	728.389587	2667.467529	2237.254883	77.813545
744.466797	733.144958	2644.359619	2196.982666	76.592010
744.785828	737.008606	2626.155518	2191.187256	76.975418
745.104858	740.649475	2588.186768	2180.487549	77.932831
745.423706	739.609314	2575.406494	2189.849854	78.997864
745.742615	737.083008	2559.356934	2178.778564	79.115196
746.061401	731.956055	2565.078369	2171.125732	78.509201
746.380249	729.652649	2552.447021	2151.806641	78.020538
746.698975	730.618652	2544.571045	2131.745117	77.241631
747.017639	736.191406	2539.146729	2115.844482	76.521759
747.336304	742.729980	2535.357422	2113.838135	76.485954
747.654907	745.330566	2532.236816	2125.132080	77.217339
747.973389	742.952881	2532.236572	2123.571777	77.160423
748.291931	745.776367	2538.403809	2118.890625	76.597862
748.610352	744.216064	2535.282959	2104.104492	75.926163
748.928711	736.562805	2543.233643	2096.748291	75.286850
749.247070	733.219238	2532.013916	2105.218994	76.273285
749.565308	735.448425	2534.540283	2120.896729	77.008202
749.883545	738.717712	2523.840576	2124.166016	77.610809
750.201782	733.590820	2525.252441	2111.460449	76.904572
750.519836	735.374023	2504.596191	2101.875244	77.237404
750.837952	742.432800	2487.878174	2091.770264	77.306198
751.155884	746.073547	2464.472656	2087.460693	78.060280
751.473877	739.609192	2465.364502	2084.414307	77.925598
751.791809	732.179016	2447.828857	2077.801514	78.432236
752.109619	729.281189	2445.005371	2065.689941	77.891815
752.427490	724.377197	2429.550537	2042.581665	77.306183
752.745300	724.897278	2433.860107	2033.070923	76.547806
753.062988	724.525818	2424.126221	2025.566528	76.549805
753.380615	730.470032	2417.439209	2026.532349	76.827850
753.698303	733.070618	2410.974609	2022.817383	76.866539
754.015808	737.454529	2416.398682	2024.229126	76.641899
754.333374	737.974609	2413.872314	2018.953491	76.435387
754.650757	739.386414	2408.894287	2014.123901	76.354095
754.968262	737.677429	2392.696289	2005.504517	76.605003
755.285583	733.962219	2399.309326	1999.932007	76.018364
755.602905	731.956116	2386.009033	1999.857788	76.654236
755.920105	722.296692	2372.560303	2002.681274	77.586662
756.237305	722.148132	2352.647217	2002.978516	78.554497
756.554443	724.377258	2356.362305	1998.891724	78.095955
756.871582	731.287354	2356.065186	1991.758789	77.578079
757.188599	732.699036	2357.253906	1979.052856	76.719704
757.505615	730.395691	2352.944336	1989.678223	77.611389
757.822510	728.389587	2369.885010	2000.154907	77.476028
758.139465	731.881836	2377.910156	2015.015503	77.953316
758.456238	735.596924	2398.937744	2002.532593	76.168137
758.773010	735.299744	2415.656006	2008.402710	75.763878
759.089783	736.488586	2430.962158	2023.188843	75.935097
759.406433	735.968445	2435.643311	2049.269287	77.267769
759.723145	736.934387	2438.020752	2062.494873	77.924347
760.039673	731.658936	2450.949463	2066.952881	77.665405
760.356201	724.005676	2451.915527	2055.361572	77.050079
760.672668	725.714661	2440.770264	2056.625000	77.601585
760.989136	718.135742	2431.110840	2046.222656	77.531013
761.305481	718.433044	2431.556641	2052.241211	77.858253
761.621826	716.575439	2446.565674	2048.749023	77.004684
761.938049	724.525879	2447.977539	2069.850830	78.059921
762.254333	736.117004	2461.351807	2084.488525	78.155830
762.570496	734.928223	2505.933594	2104.401611	77.327454
762.886597	731.807434	2576.521240	2144.673828	76.590004
763.202637	716.352539	2681.362549	2220.239502	76.533295
763.518677	719.547546	2796.680420	2321.068604	77.102486
763.834656	724.080078	2932.951416	2435.420166	77.475769
764.150574	735.596985	3069.594482	2534.540039	77.075623
764.466370	738.420410	3161.878174	2605.350586	77.035805
764.782288	736.562805	3207.722656	2630.836182	76.655235
765.097961	727.572205	3192.119141	2632.470947	77.292046
765.413696	727.572205	3154.447998	2600.743896	77.184486
765.729309	723.411316	3083.488525	2541.673096	77.042473
766.044861	733.442139	2973.074951	2460.831787	77.128250
766.360474	732.179016	2830.785156	2366.690186	77.885559
766.675903	739.014893	2695.405273	2263.483887	77.922539
766.991394	727.795166	2585.437500	2179.373291	78.140884
767.306763	724.674500	2504.373291	2099.423584	77.246162
767.622131	728.241028	2426.057861	2040.501343	77.291039
767.937378	737.528809	2356.510986	1971.028320	76.189812
768.252625	745.999329	2300.783691	1933.802612	76.396652
768.567810	740.426575	2245.948242	1900.143555	77.030907
768.882996	734.631042	2199.509033	1871.611206	77.616035
769.197998	725.343079	2150.246338	1831.413452	77.624237
769.513062	731.138855	2128.327148	1802.732544	76.696449
769.828064	732.996338	2101.281006	1787.500610	77.067612
770.142944	735.225403	2085.529053	1769.444946	76.591621
770.457825	732.327637	2054.544678	1745.891113	76.656364
770.772705	733.962219	2037.380737	1717.953247	75.493103
771.087402	734.036621	2007.288086	1715.129761	77.054153
771.402100	735.522644	1976.600952	1707.030762	78.279350
771.716736	737.900330	1953.567017	1697.074219	78.901054
772.031372	740.946777	1944.799316	1678.349976	77.866943
772.345947	740.203674	1936.477539	1670.622437	77.776398
772.660461	731.064453	1924.291870	1663.935181	78.180466
772.974854	726.754883	1898.508789	1642.313110	78.135712
773.289246	729.652771	1887.363403	1619.056274	76.824333
773.603638	727.795227	1863.437988	1592.232910	76.118797
773.917908	725.268860	1855.264648	1590.375366	76.558380
774.232178	720.736389	1844.564941	1579.081421	76.376862
774.546265	727.349304	1840.478394	1579.453003	76.550301
774.860474	730.321472	1826.583618	1561.620483	75.830307
775.174561	722.891113	1810.757324	1558.871094	76.845848
775.488586	730.024231	1804.961792	1555.750488	76.816208
775.802551	739.386414	1805.630493	1552.183960	76.229965
776.116516	747.411072	1795.748047	1551.515015	76.702820
776.430359	743.770203	1779.773071	1539.032227	76.762527
776.744202	736.488586	1768.256226	1532.196289	77.120827
777.057922	736.488586	1758.968262	1521.868286	76.811279
777.371704	739.906494	1752.355347	1513.546387	76.412735
777.685303	744.290344	1732.070679	1506.859253	77.200249
777.998962	740.055176	1720.702515	1499.280273	77.420807
778.312500	729.504089	1710.448608	1496.382446	78.177544
778.626038	729.429871	1712.752075	1494.227905	77.776955
778.939453	735.894104	1723.823120	1490.066772	76.338753
779.252869	740.426575	1724.937622	1493.559082	76.498123
779.566223	732.476257	1716.318726	1495.713867	77.577217
779.879578	729.875671	1707.253540	1492.221680	77.999107
780.192749	725.566101	1698.263062	1484.642944	78.038368
780.505920	730.692871	1700.120605	1486.426147	77.956642
780.819031	728.835388	1683.328125	1488.357910	79.573418
781.132141	740.946716	1678.944336	1494.227905	80.307365
781.445190	735.671204	1665.569824	1483.602539	80.431496
781.758118	735.745605	1669.433472	1474.983398	79.173973
782.071045	724.600159	1657.990845	1452.023804	77.933456
782.383911	727.869446	1651.526489	1433.522461	76.397728
782.696838	729.132629	1634.213989	1420.667969	76.405876
783.009583	735.374023	1635.254395	1412.197632	75.212624
783.322266	731.807434	1626.635254	1407.739258	75.537643
783.634888	732.104736	1621.136841	1395.107910	74.575844
783.947510	726.606262	1612.071899	1389.460938	74.859444
784.260132	729.132568	1600.629272	1382.996582	75.027710
784.572571	725.194519	1590.078247	1384.036743	76.176971
784.885010	725.937561	1578.858398	1383.516602	77.097313
785.197449	729.281250	1577.818359	1385.374146	77.320473
785.509766	729.355530	1572.394165	1390.278198	78.397675
785.822083	731.733215	1563.180664	1383.219360	78.355659
786.134277	730.915833	1559.242676	1373.188599	77.538567
786.446533	743.398743	1549.063110	1361.077271	76.666977
786.758606	738.791992	1544.530762	1358.402344	76.899658
787.070740	736.191406	1543.936157	1363.157715	77.619362
787.382690	721.033691	1550.474976	1363.826416	77.497070
787.694641	722.668274	1569.422241	1369.696289	76.412750
788.006653	720.736511	1588.294922	1381.064575	76.113380
788.318481	724.451477	1619.650757	1405.956055	76.128815
788.630310	723.782776	1634.065430	1425.646362	77.103920
788.942017	723.857117	1664.603882	1447.193970	76.889648
789.253784	728.538147	1677.161011	1448.828735	75.930130
789.565430	732.327637	1685.334106	1454.550171	75.783592
789.877014	736.042725	1665.941040	1448.531616	76.620087
790.188538	730.321472	1652.046509	1441.546997	77.162437
790.500061	732.847839	1632.950806	1432.705078	77.753021
790.811462	733.665039	1605.904663	1418.141602	78.473457
791.122925	735.522644	1584.876953	1402.018066	78.470833
791.434204	727.349365	1555.899048	1376.383667	78.333778
791.745483	731.436035	1543.267578	1354.315796	76.725250
792.056702	724.748718	1520.976685	1345.250854	77.930214
792.367920	729.652649	1513.620728	1334.254028	77.120667
792.678955	724.451477	1496.679688	1326.154907	77.917824
792.990112	734.036621	1488.432251	1308.842407	76.194206
793.301086	737.751709	1475.057617	1304.607178	76.881989
793.612122	741.466797	1466.290039	1294.947754	76.360817
793.922974	743.250061	1462.723267	1295.987915	76.825356
794.233826	736.042786	1461.237305	1290.638184	76.475395
794.544556	732.624817	1454.921753	1290.043823	77.173111
794.855286	726.754883	1450.240601	1288.409180	77.631706
795.166016	736.860046	1459.008179	1291.084106	76.746590
795.476624	738.346130	1469.113403	1301.932251	77.122520
795.787292	741.169678	1475.949219	1300.446167	76.114868
796.097778	730.247131	1481.967773	1305.573120	76.534546
796.408264	732.699036	1497.274048	1309.362549	75.422752
796.718689	735.968445	1513.843628	1325.783447	75.823860
797.029053	739.089172	1519.119141	1330.910278	75.871582
797.339355	737.231628	1515.106812	1332.693604	76.549812
797.649658	726.457703	1509.385376	1323.628784	76.274109
797.959839	729.949890	1498.834473	1326.898071	77.638206
798.270020	729.504089	1488.134888	1323.257202	78.266411
798.580078	738.717590	1477.658203	1325.040405	79.346405
798.890137	730.470032	1466.215698	1312.780518	79.145622
799.200195	721.925293	1465.621216	1297.399902	77.380363
799.510071	719.027527	1454.475708	1278.749878	76.106293
799.820007	721.405090	1450.834961	1267.975952	74.931244
800.129883	727.126465	1439.912476	1271.616821	76.389038
800.439575	726.606262	1432.853516	1270.427856	77.001587
800.749329	731.956116	1423.045532	1275.109009	78.593719
801.058960	735.522644	1415.986938	1260.768555	77.189339
801.368591	735.745544	1400.383423	1252.669556	77.775284
801.678162	732.624817	1393.919067	1240.409546	76.786507
801.987671	724.228699	1388.866577	1233.796753	76.668526
802.297119	723.336975	1391.095581	1235.877197	76.755318
802.606506	725.566101	1389.758179	1234.836914	76.675232
802.915894	729.355530	1383.293823	1230.973145	76.707176
803.225159	726.754883	1376.755249	1228.521240	77.194778
803.534424	728.835449	1364.569580	1226.069214	78.214104
803.843628	729.801331	1355.058716	1234.836792	80.772408
804.152771	737.083008	1360.557129	1230.230103	79.096642
804.461792	741.987000	1366.278442	1220.347778	76.624596
804.770874	741.912659	1369.101929	1210.391357	74.694946
805.079773	744.810486	1367.690308	1211.357300	74.901581
805.388733	737.751648	1371.405273	1221.982544	76.418861
805.697571	742.581360	1385.968750	1224.583252	74.916283
806.006470	738.420410	1389.981079	1233.945435	76.052017
806.315125	744.141785	1395.256470	1238.254883	75.887260
806.623901	740.129395	1394.810669	1244.199097	76.994675
806.932495	737.008728	1393.844727	1242.713013	76.990952
807.241150	733.442200	1392.061523	1244.644897	77.617325
807.549622	732.624817	1385.671509	1245.833618	78.586845
807.858154	727.795166	1388.643555	1246.130981	78.434906
808.166565	719.176025	1379.950195	1241.672852	79.073433
808.474915	721.999512	1373.114258	1236.025879	78.945587
808.783264	726.086243	1358.625366	1222.131226	78.421234
809.091492	726.086182	1359.219727	1212.397461	76.810219
809.399719	723.485596	1358.625244	1204.967163	75.807198
809.707825	727.795166	1358.179565	1199.988892	74.905678
810.015930	737.231628	1349.114380	1185.648560	73.284782
810.323975	738.569031	1338.117676	1183.122192	74.147972
810.632080	742.358459	1329.647095	1181.041748	74.696373
810.939880	736.860046	1310.402710	1183.345093	77.846878
811.247864	732.773438	1299.480225	1167.295776	76.674988
811.555664	722.371094	1296.285278	1157.710815	75.854500
811.863464	718.284424	1292.198608	1149.017212	75.051773
812.171143	718.581604	1294.204834	1152.138062	75.319489
812.478882	720.439209	1287.740479	1154.664307	76.542236
812.786438	729.132629	1293.981812	1165.735352	77.295448
813.094055	725.714661	1288.334839	1165.883911	78.235596
813.401489	734.110901	1280.235962	1158.750854	77.755074
813.708984	733.219238	1275.926392	1145.599365	75.985756
814.016357	746.073547	1280.161499	1141.066772	73.956589
814.323730	734.928223	1279.195679	1140.769653	74.566544
814.630981	727.795166	1272.062622	1141.066772	75.931717
814.938232	720.662109	1261.363037	1145.227661	78.521332
815.245361	728.984070	1269.164917	1145.599365	77.125153
815.552490	736.860046	1269.313477	1150.280396	77.644417
815.859619	737.528809	1267.604492	1136.237305	75.217278
816.166565	730.767273	1262.254761	1135.419922	76.135872
816.473572	728.909668	1259.579712	1126.800781	74.979004
816.780457	731.658875	1264.186523	1134.602539	75.666245
817.087341	741.169617	1262.477539	1140.026611	76.510826
817.394043	736.562927	1276.892212	1140.992554	74.848732
817.700806	735.076843	1284.768433	1149.240112	75.344666
818.007507	735.299744	1296.656860	1152.286499	74.281906
818.314209	739.312073	1305.573120	1155.258667	73.454918
818.620667	735.522644	1308.842407	1161.574341	74.313103
818.927246	725.268860	1319.541992	1172.794189	75.306335
819.233704	726.903503	1334.030884	1196.125244	77.285553
819.540161	734.853943	1358.699585	1210.762817	76.286316
819.846497	742.358582	1394.662109	1232.756470	75.179405
820.152832	743.175781	1444.816406	1264.780884	74.340782
820.458984	738.717590	1505.967407	1312.557495	74.791794
820.765259	737.380188	1568.307617	1361.968872	75.167656
821.071350	739.014832	1650.932129	1436.420288	76.476830
821.377502	728.018066	1792.850464	1544.456421	76.672943
821.683472	730.395752	2050.680908	1743.438965	76.729126
821.989441	727.646484	2488.546875	2068.885010	76.167770
822.295349	735.374023	3109.420654	2513.735352	74.908440
822.601196	736.934387	3827.333252	3035.563232	74.379684
822.907043	738.717590	4476.516113	3516.153564	74.306732
823.212769	738.420410	4881.540527	3850.069580	75.104004
823.518494	732.550537	5014.765137	3968.582764	75.569122
823.824097	726.457703	4883.917969	3873.401123	75.693886
824.129700	730.693054	4620.960449	3662.232422	75.355728
824.435242	729.281250	4293.359863	3422.085938	75.554024
824.740723	736.414246	4002.390381	3200.738037	75.454430
825.046082	736.191406	3729.030518	2994.696533	75.463631
825.351501	741.318298	3429.665039	2765.547607	75.296440
825.656799	733.665100	3091.141846	2531.122314	76.244965
825.962036	731.510254	2774.612061	2295.434082	76.546547
826.267212	729.875671	2542.787598	2115.472900	76.429375
826.572449	739.757874	2401.018066	1992.204590	75.391365
826.877502	740.129395	2360.745850	1965.752808	75.626991
827.182495	734.705322	2435.643311	2017.913208	75.441193
827.487488	727.572266	2562.923828	2111.237549	75.389656
827.792419	728.463867	2680.024902	2194.531006	75.122795
828.097290	739.312073	2706.773682	2222.468506	75.384262
828.402100	738.940613	2667.095947	2195.125244	75.522163
828.706848	734.556641	2561.363281	2125.726563	76.153099
829.011597	728.240967	2438.169678	2027.869995	76.004868
829.316223	728.389587	2297.068604	1923.548828	76.188896
829.620789	736.934387	2162.060547	1828.069946	76.564133
829.925354	739.460693	2024.972046	1725.606323	76.712326
830.229797	737.157288	1901.703735	1622.102905	75.990585
830.534302	739.832214	1773.234375	1522.388550	75.726219
830.838562	733.813660	1646.250977	1426.389282	75.903915
831.142944	733.516418	1537.917603	1352.235229	76.916695
831.447144	726.531982	1456.779175	1285.214111	76.505890
831.751404	722.296692	1396.445313	1244.273315	77.427528
832.055542	721.627930	1365.163696	1216.781372	76.942642
832.359619	721.107910	1345.250732	1201.177856	76.916679
832.663635	724.525818	1348.222900	1205.784546	77.162254
832.967651	727.497864	1365.163940	1232.384888	79.177338
833.271545	726.234863	1429.807251	1273.251587	77.748466
833.575439	726.457703	1521.348267	1341.535767	77.378960
833.879211	727.275085	1644.913696	1409.151245	74.307701
834.183044	729.949890	1764.689819	1494.004883	73.840286
834.486694	731.064453	1861.729004	1561.100220	73.411316
834.790344	735.671204	1913.072144	1608.133789	74.100723
835.093933	732.773438	1907.350708	1611.105957	74.778610
835.397522	738.643372	1861.580078	1578.784180	74.816399
835.700928	742.432800	1784.305542	1535.019897	76.073311
836.004395	748.451355	1722.634277	1498.834473	77.026924
836.307739	750.234619	1667.576050	1458.042358	77.158592
836.611023	748.228333	1613.855103	1414.129272	76.927025
836.914307	741.020996	1549.731812	1365.906860	77.269386
837.217529	745.404968	1473.422852	1309.659668	77.505608
837.520691	740.352295	1400.457642	1264.706543	79.434937
837.823730	739.757874	1337.820435	1197.685425	76.568504
838.126831	732.996338	1284.991211	1150.057495	75.555260
838.429749	734.036621	1241.078369	1103.023804	72.772545
838.732727	736.117004	1200.360474	1083.928101	74.919975
839.035522	735.299805	1182.379272	1063.420410	73.392006
839.338379	727.052185	1169.524902	1058.962280	75.012558
839.641113	729.578430	1167.964478	1058.590820	75.050835
839.943848	731.807434	1181.710571	1078.058228	76.961189
840.246460	733.516541	1202.143677	1094.256226	76.977974
840.549072	730.321472	1224.285889	1113.426392	77.557190
840.851563	720.810730	1239.815063	1123.977295	77.680771
841.154053	723.931396	1245.833618	1125.686157	76.978935
841.456482	730.172852	1244.421997	1121.971069	76.188408
841.758850	736.191345	1229.709961	1109.562622	75.654953
842.061157	735.299622	1202.589478	1092.324341	76.403267
842.363403	731.807434	1175.914795	1076.423584	77.597488
842.665588	730.470032	1147.159668	1062.528931	79.689743
842.967712	729.801270	1144.633423	1054.206909	78.201660
843.269775	725.417419	1131.778931	1035.185425	76.229660
843.571777	729.949890	1116.621216	1005.241516	71.195251
843.873840	731.064453	1084.596802	986.220032	72.173195
844.175659	736.488586	1059.408203	975.223206	73.930046
844.477600	735.596924	1042.838745	982.281982	80.290192
844.779297	731.658875	1032.807739	968.461670	78.633133
845.081116	733.219238	1026.269165	959.916809	77.358002
845.382751	737.380188	1013.786316	952.709473	77.903221
845.684387	745.999329	1009.699646	948.697083	76.866707
845.985962	739.237732	1000.337585	938.294739	76.237885
846.287537	736.934387	992.684387	930.418640	75.653664
846.588989	734.556702	981.093079	924.400085	77.004211
846.890381	737.825989	982.430481	931.458801	79.161591
847.191711	735.819824	974.554443	922.988342	78.400238
847.493042	732.624817	981.390320	920.090637	75.358444
847.794250	735.819824	969.353271	915.335266	76.869263
848.095459	736.637207	976.114807	922.616882	77.660576
848.396606	739.683594	966.975586	927.000793	82.412582
848.697693	733.590820	967.124207	919.570496	79.637299
848.998657	732.476257	965.786804	907.607727	75.063675
849.299622	738.271790	970.467834	904.189880	71.456039
849.600464	736.860107	974.034424	904.338379	70.613998
849.901367	727.869446	967.272766	904.487061	73.774086
850.202087	718.730286	956.053040	894.158936	73.919861
850.502808	719.398987	947.582581	888.214783	73.982445
850.803467	729.058350	948.622803	894.827637	75.499146
851.104065	732.401917	949.217285	910.134094	81.973976
851.404663	730.395813	957.167664	914.963684	81.389236
851.705139	723.039734	962.443115	910.356995	78.243362
852.005615	722.371094	964.746521	889.775146	69.068077
852.306030	727.349304	960.585510	880.338684	65.594185
852.606384	729.504150	955.830139	882.270508	67.498375
852.906616	727.200684	955.458679	896.090820	73.990898
853.206909	728.984070	951.372070	899.434387	76.645462
853.506958	735.745605	942.752930	896.685303	77.745895
853.807129	742.952942	940.226746	893.415955	76.271156
854.107178	748.525574	937.774658	900.028870	80.054970
854.407166	749.714417	944.016052	899.137207	76.902489
854.707092	750.680420	950.628967	903.520996	76.439957
855.007019	748.079773	950.108887	903.075256	76.719383
855.306763	745.776428	946.393738	904.041199	78.888893
855.606567	741.912659	936.511414	902.926697	82.741554
855.906250	737.083008	942.827209	903.743958	81.003960
856.205933	735.745605	945.576416	897.056702	76.876747
856.505493	743.101563	946.319519	886.877258	70.749504
856.805054	747.188171	946.542297	875.583252	64.405533
857.104492	742.061340	946.616699	882.344727	68.579666
857.403931	735.522644	947.062500	890.295166	73.164711
857.703308	731.213074	944.461914	894.976318	76.794434
858.002563	735.299805	943.124512	894.753418	76.725052
858.301819	728.761169	938.814941	893.193054	78.280853
858.601013	727.869446	936.139954	888.511902	77.131638
858.900208	724.971680	935.322693	886.802979	76.933929
859.199219	726.383484	935.471252	878.926941	72.956665
859.498291	732.253235	939.855164	884.202393	73.192558
859.797302	725.937683	938.071960	878.926941	72.119064
860.096191	735.745605	941.192627	882.864929	71.609375
860.395020	725.863281	932.945007	885.836975	77.251480
860.693787	736.860107	935.842773	886.802979	75.354744
860.992554	722.445313	926.406311	879.892822	77.194908
861.291260	723.931458	927.149353	872.908386	73.308960
861.589844	720.513489	924.177246	876.697815	76.687347
861.888428	728.686768	935.917175	888.734863	77.231956
862.186890	728.983948	938.369141	894.679016	79.134094
862.485413	724.154297	943.644592	896.759521	78.639114
862.783813	720.290588	944.016113	891.781250	76.652252
863.082153	716.278259	944.610535	889.552185	75.886742
863.380371	728.315247	937.551758	883.459290	74.147690
863.678589	729.949951	930.715881	886.059998	77.757240
863.976746	734.928162	928.263977	879.447021	74.750175
864.274902	729.206848	936.139954	879.075500	72.423721
864.572937	729.578430	943.644531	877.217834	68.969070
864.870911	731.213074	946.690979	883.756592	70.793114
865.168884	733.145020	938.146179	891.929871	77.455589
865.466736	729.429871	934.579651	894.456238	80.441895
865.764587	732.922058	929.304138	889.849426	79.909210
866.062317	733.590759	939.483582	880.264343	71.237831
866.360107	734.408142	942.455750	878.035217	69.035675
866.657715	726.829163	946.022278	883.236511	71.355957
866.955322	726.011902	934.282410	886.431458	77.024612
867.252808	727.869446	928.486816	883.682312	77.666687
867.550293	735.968445	930.121399	892.078552	80.405731
867.847717	733.739319	935.322693	891.112549	78.068558
868.145081	734.259460	936.139954	896.165100	80.198753
868.442383	727.943787	933.167908	883.162109	75.633568
868.739624	726.680603	932.424988	888.511902	78.656487
869.036804	723.634216	937.180237	881.750427	74.043152
869.333984	727.497986	938.889221	885.911316	74.938454
869.631042	724.451477	942.901550	890.295166	75.918350
869.928101	723.262695	933.539368	896.982422	82.614838
870.224976	717.318542	942.752869	902.703796	82.234703
870.521851	715.832520	951.372009	901.960754	79.022095
870.818726	720.810730	959.025146	902.406555	76.232086
871.115479	725.491882	957.241943	891.261047	71.529289
871.412231	719.621887	950.926208	889.403564	73.401863
871.708862	717.912903	944.833435	891.855530	76.653542
872.005493	720.587830	939.483643	897.576843	80.855370
872.302063	731.361633	939.335022	896.759521	79.528389
872.598572	730.544373	949.068665	894.604797	75.076515
872.895020	724.971680	951.149109	898.096985	76.544022
873.191406	726.383362	951.892151	895.719238	75.090591
873.487671	724.228699	952.412292	894.530457	74.633659
873.783997	724.154297	965.266663	896.462341	71.463791
874.080200	725.491760	967.644287	898.840027	71.586395
874.376343	736.785828	970.096252	908.350769	73.535049
874.672424	745.553467	958.356445	913.626221	78.980453
874.968445	744.141785	954.418457	916.152527	81.802101
875.264465	735.894226	952.189453	905.898743	78.598366
875.560364	735.596985	960.288391	902.034973	74.074036
875.856201	732.847717	967.792969	900.623230	71.410469
876.152039	730.098633	975.074646	904.115540	71.034264
876.447754	725.640442	966.529785	899.880310	72.331909
876.743469	730.172852	964.226379	898.840027	72.063507
877.039063	739.609314	962.294617	892.524353	68.668671
877.334595	737.974670	958.430847	893.193054	70.407822
877.630127	735.374084	961.254333	893.415833	69.967049
877.925537	727.943787	961.402832	906.195984	76.352661
878.221008	725.417480	967.941467	915.260925	78.278214
878.516296	723.336914	966.232605	916.969910	79.718582
878.811646	720.587708	965.266602	917.712891	80.564850
879.106812	727.572205	977.675232	922.394043	77.896637
879.401978	719.844727	994.690613	923.805847	74.209267
879.697083	725.714661	1013.934875	936.957336	73.292107
879.992126	724.823059	1037.191650	951.074890	72.431046
880.287109	734.705322	1076.646362	985.699951	73.402893
880.582031	734.779602	1136.608643	1029.167114	73.261879
880.876892	728.538147	1242.861572	1114.838013	75.108353
881.171753	734.556641	1417.473022	1265.746826	77.782608
881.466492	736.265625	1695.810913	1479.738647	77.481804
881.761230	739.163513	2037.083374	1735.414185	76.757484
882.055786	737.157227	2387.940674	1985.740234	75.635788
882.350403	732.401917	2656.693604	2177.589844	75.102333
882.644958	734.259521	2799.132080	2277.229736	74.724716
882.939453	729.875671	2814.289795	2292.239014	74.954552
883.233826	734.779602	2752.544189	2242.381592	74.716446
883.528137	726.829285	2647.182861	2167.484619	75.020317
883.822449	725.045959	2534.614258	2094.519287	75.679558
884.116577	724.228699	2434.008545	2030.916382	76.424332
884.410828	729.281250	2326.789795	1958.396606	76.939514
884.704956	736.042725	2203.298584	1845.456665	75.611488
884.999023	737.974609	2006.396362	1702.943970	76.076378
885.292969	737.677429	1802.360962	1545.199585	75.846207
885.586914	734.185242	1602.561157	1402.092407	76.914520
885.880798	730.692932	1461.088867	1294.873535	77.243118
886.174622	730.692932	1352.086670	1203.035278	76.013374
886.468384	730.024231	1271.542480	1146.193726	76.852348
886.762085	728.538147	1221.685181	1098.491333	75.018837
887.055664	729.504089	1182.230591	1078.429688	77.072052
887.349304	725.343079	1148.868652	1052.052246	77.140366
887.642822	721.033508	1101.686523	1028.943970	80.890060
887.936340	720.885010	1076.200562	1006.281738	80.322044
888.229736	716.352539	1059.185181	994.764832	81.209389
888.523071	720.662109	1054.801392	989.117737	80.342430
888.816284	725.343201	1037.860352	980.350098	81.597725
889.109619	734.185120	1018.021545	964.597900	81.178017
889.402710	736.191406	1008.659363	950.777649	78.756508
889.695862	735.299744	999.594482	940.746765	77.734055
889.988892	724.823059	986.220032	932.647705	79.505379
890.281921	704.166870	958.950989	921.056458	85.126808
>>>>>End Processed Spectral Data<<<<<
