Jaz Data File
++++++++++++++++++++++++++++++++++++
Date: Fri Jun 04 16:45:18 2021
User: jaz
Dark Spectrum Present: Yes
Reference Spectrum Present: Yes
Processed Spectrum Present: Yes
Spectrometers: JAZA3586
Integration Time (usec): 60600 (JAZA3586)
Spectra Averaged: 10 (JAZA3586)
Boxcar Smoothing: 1 (JAZA3586)
Correct for Electrical Dark: No (JAZA3586)
Strobe/Lamp Enabled: Yes (JAZA3586)
Correct for Detector Non-linearity: No (JAZA3586)
Correct for Stray Light: No (JAZA3586)
Number of Pixels in Processed Spectrum: 2048
>>>>>Begin Processed Spectral Data<<<<<
W	D	R	S	P
191.335022	0.000000	0.000000	0.000000	0.000000
191.713211	232.493210	234.870911	233.013306	21.873898
192.091385	473.456940	475.314545	468.330048	-275.994751
192.469528	711.374268	717.838623	706.916077	-68.965744
192.847641	721.033630	726.829285	716.724121	-74.357597
193.225739	724.451599	734.110840	727.720886	33.846210
193.603790	736.042725	744.959045	742.729980	75.000168
193.981842	747.039551	755.361511	749.045715	24.106874
194.359863	754.246887	760.488464	759.522461	84.523087
194.737854	757.367676	759.893982	755.955994	-55.879299
195.115829	756.401672	756.401672	763.534851	0.000000
195.493774	757.367676	752.983826	755.658691	38.983643
195.871704	756.773254	751.646301	760.116882	-65.216667
196.249603	758.556458	750.754700	756.253113	29.523407
196.627457	758.259277	756.847473	759.076660	-57.896328
197.005310	753.949707	758.556458	755.287109	29.031361
197.383133	750.085999	758.927979	755.510071	61.344543
197.760910	746.222351	754.321228	755.212891	111.009705
198.138687	744.290344	752.092224	758.779358	185.711823
198.516449	742.952942	748.822754	752.835205	168.357407
198.894180	746.742371	747.782532	750.383118	350.017609
199.271866	757.590515	744.067444	745.479187	89.560486
199.649536	756.030212	737.231689	745.553467	55.731750
200.027191	751.794922	740.723877	746.370850	48.993317
200.404816	744.736145	748.005554	748.451355	113.635513
200.782410	741.838379	768.958801	765.318054	86.575623
201.159988	745.404846	780.104309	773.788574	81.798752
201.537537	744.290344	791.249695	771.187927	57.278439
201.915070	754.989929	783.968018	762.420227	25.641090
202.292557	752.240723	779.212646	756.624573	16.253384
202.670029	753.355286	767.472839	762.717468	66.315895
203.047485	744.290283	769.850525	759.745300	60.465065
203.424911	742.729980	773.788574	772.971191	97.368256
203.802292	742.729980	777.800964	774.680115	91.101334
204.179688	738.940613	783.447937	775.348877	81.802856
204.557037	741.318298	781.070251	758.853699	44.112049
204.934357	736.488525	786.642883	755.658691	38.222332
205.311661	740.723816	781.887512	755.138489	35.017925
205.688934	734.853821	779.064148	764.872253	67.899139
206.066177	730.098572	777.503723	758.705078	60.344723
206.443390	726.309082	770.890808	760.934143	77.666489
206.820587	731.807556	764.352112	754.321228	69.177994
207.197769	741.021057	764.797913	758.556458	73.749870
207.574921	734.853943	775.200256	754.098328	47.698002
207.952042	723.931396	775.571777	756.921814	63.884922
208.329147	715.832458	773.862793	759.745300	75.672218
208.706223	748.822815	793.255859	784.265137	79.765686
209.083267	752.389343	799.794495	786.865784	72.727203
209.460297	758.407898	802.766602	784.413818	58.626423
209.837280	725.789001	784.711121	763.460449	63.934307
210.214264	728.909729	778.023743	762.048767	67.473694
210.591217	730.990234	770.296326	762.197327	79.395050
210.968124	737.974609	769.701843	764.277771	82.904053
211.345016	739.906494	774.234314	767.621399	80.735992
211.721893	734.333801	774.308655	780.847351	116.357025
212.098724	731.658875	761.825867	786.271423	181.034119
212.475555	731.213074	764.352112	784.859680	161.883408
212.852356	736.191406	768.215820	774.160095	118.561699
213.229126	740.872375	778.915466	757.367676	43.359516
213.605865	742.358459	775.125977	751.423401	27.664413
213.982590	733.888000	766.581238	750.457520	50.681793
214.359283	740.055176	761.231384	762.048645	103.859337
214.735931	732.476257	761.825745	755.138489	77.215088
215.112579	736.117004	777.355042	753.503906	42.162292
215.489197	729.132629	779.361267	755.212891	51.923092
215.865799	731.436035	777.726563	763.534729	69.341820
216.242355	737.454529	769.553284	763.609070	81.481483
216.618896	737.900330	765.020813	761.974365	88.766983
216.995407	740.055115	762.420227	759.002258	84.717407
217.371902	736.488586	764.426453	751.943542	55.319027
217.748367	732.104736	764.129150	744.290344	38.050995
218.124802	728.909668	767.695618	747.708252	48.467510
218.501236	728.612488	756.698914	749.714539	75.132561
218.877609	733.070618	759.150879	756.104492	88.319183
219.253983	733.442139	757.739197	754.767090	87.767624
219.630295	727.943665	767.770020	757.664856	74.626945
220.006592	731.138733	776.612000	752.760925	47.549240
220.382889	728.835266	775.348938	756.698914	59.904209
220.759140	729.578369	773.045593	759.522400	68.888756
221.135391	728.389587	763.386230	754.098328	73.460587
221.511581	737.454529	770.147705	746.147949	26.590933
221.887772	744.959167	774.011475	748.525635	12.276021
222.263931	743.547363	778.915466	764.500732	59.243690
222.640060	736.414307	778.023865	772.228210	86.071342
223.016159	731.733215	769.627502	766.804138	92.549370
223.392212	731.807434	767.770020	762.123047	84.297646
223.768265	734.556641	767.324219	755.658691	64.399178
224.144302	737.305908	770.221985	754.469910	52.144737
224.520294	737.528809	770.073425	750.829041	40.867687
224.896286	743.027161	768.810303	754.469788	44.380264
225.272217	737.603088	772.599792	759.225159	61.783161
225.648148	733.962219	774.160156	763.237549	72.827942
226.024048	726.011902	778.915466	763.906250	71.629105
226.399902	726.309082	781.887512	765.169434	69.919846
226.775772	725.045959	781.738953	761.900085	65.006493
227.151581	731.956055	776.834961	754.247009	49.669113
227.527374	728.538147	766.655518	754.321228	67.641289
227.903137	737.900391	761.825867	752.983826	63.043407
228.278870	741.912781	762.568848	758.779358	81.654350
228.654572	748.005554	771.187988	754.469910	27.884714
229.030273	743.844543	774.903076	762.791809	61.005024
229.405930	731.064453	774.085754	763.014648	74.265991
229.781555	726.829163	767.844299	762.940369	88.043610
230.157181	719.696106	767.027039	749.788757	63.579250
230.532761	719.250305	764.352051	747.708313	63.097355
230.908325	715.980957	772.079590	741.763977	45.960159
231.283859	726.234802	769.107422	754.618469	66.204651
231.659332	731.436035	769.776184	754.395508	59.883629
232.034821	740.055115	758.110657	761.008484	116.049515
232.410263	727.423645	765.763855	751.349121	62.403091
232.785690	735.151123	767.695740	751.126221	49.086758
233.161087	734.482422	775.571777	752.909424	44.846169
233.536469	742.730042	771.856689	750.160217	25.509890
233.911804	741.021057	777.577942	751.646301	29.064960
234.287140	733.442200	772.896912	752.017883	47.081028
234.662430	735.076843	772.228210	756.178711	56.799706
235.037704	734.036560	764.500732	758.630676	80.731277
235.412933	738.791992	771.485168	760.711243	67.045341
235.788162	732.179016	772.822693	758.482178	64.716492
236.163345	733.293640	773.342773	756.401672	57.699207
236.538513	734.854004	771.410889	746.965332	33.130089
236.913635	732.773438	770.221985	747.039612	38.095402
237.288742	726.160461	775.200378	745.850769	40.151592
237.663834	724.228699	776.537781	748.228333	45.880432
238.038879	732.847717	775.348877	756.550293	55.769245
238.413910	735.671204	776.760559	754.915588	46.835449
238.788910	740.426575	775.125977	763.534729	66.595253
239.163879	737.603027	783.224915	759.373779	47.719971
239.538834	730.247131	780.550049	763.906250	66.912857
239.913757	728.315247	779.435547	764.500671	70.784843
240.288651	731.138733	774.903015	766.358215	80.475403
240.663528	736.562805	773.639954	765.243713	77.354675
241.038361	731.138733	774.085754	758.705078	64.186859
241.413177	721.850891	773.416992	757.962097	70.028961
241.787979	715.906738	774.234375	761.900146	78.853546
242.162735	718.210144	772.302429	770.816406	97.252800
242.537476	720.810730	775.200195	765.689514	82.513741
242.912170	718.210144	773.491272	766.135315	86.693550
243.286865	722.965515	769.999023	769.033203	97.946526
243.661514	728.761047	764.797852	769.627625	113.402336
244.036148	734.631042	769.627625	767.472839	93.842873
244.410751	734.928223	773.565674	758.185059	60.192471
244.785339	725.120300	773.342773	766.506897	85.824295
245.159882	729.949951	773.491394	768.958801	89.590164
245.534378	730.990173	783.522217	769.999084	74.257362
245.908890	736.191406	790.952454	769.553223	60.922531
246.283356	727.200684	784.265198	767.918640	71.354248
246.657791	727.423645	782.184753	757.887695	55.630814
247.032196	734.333801	780.327209	752.166443	38.772167
247.406586	737.305969	782.704834	751.943542	32.242157
247.780960	731.361633	779.138367	762.791748	65.785400
248.155289	726.754883	781.887512	765.020813	69.407051
248.529602	721.330811	786.271423	757.516296	55.720886
248.903870	726.309082	782.779114	757.144714	54.605305
249.278122	724.971619	783.968018	753.132385	47.733025
249.652344	734.482361	783.893738	755.064209	41.654068
250.026550	730.618652	788.351807	753.949707	40.411884
250.400711	739.757874	787.014404	759.150879	41.037727
250.774857	740.426575	783.819336	761.900085	49.486389
251.148987	740.055115	782.556213	763.534851	55.245010
251.523071	732.030334	775.274597	759.150879	62.714779
251.897125	732.327637	788.500488	766.061035	60.052849
252.271164	729.801331	791.918396	761.900085	51.674614
252.645187	728.240967	800.314636	759.522461	43.402111
253.019165	721.405090	795.187744	749.863037	38.569969
253.393112	727.572266	799.348633	755.064270	38.302307
253.767044	731.361633	795.930725	752.315125	32.451271
254.140930	729.578430	793.627380	756.773193	42.459343
254.514801	727.126465	785.899902	753.801086	45.385506
254.888657	720.736389	788.426208	759.968201	57.958218
255.262466	724.674500	781.738953	751.646301	47.265503
255.636276	726.160461	787.608887	752.315125	42.563602
256.010010	731.956055	795.113464	757.962097	41.176552
256.383759	737.157227	798.605652	765.986755	46.916626
256.757446	739.609192	800.166016	765.243713	42.331352
257.131134	737.305908	796.153625	761.157043	40.530266
257.504791	735.596924	797.193848	764.723572	47.285881
257.878418	731.658875	797.268250	764.129150	49.490299
258.252014	727.795166	799.794495	768.438660	56.449821
258.625580	721.107910	799.794495	763.163269	53.446671
258.999115	723.782776	799.868835	764.277771	53.222622
259.372650	730.618652	795.039124	757.218994	41.291752
259.746124	735.522644	808.933777	758.482178	31.275274
260.119598	729.801331	816.215393	761.305664	36.457417
260.493042	733.590759	827.658020	773.788574	42.733055
260.866425	734.705322	827.137878	780.029968	49.035370
261.239838	731.510315	824.314270	777.206482	49.239460
261.613159	721.256531	819.707520	772.302429	51.849045
261.986511	723.114075	814.877930	767.547058	48.421009
262.359802	738.123230	817.181335	777.875183	50.281944
262.733063	738.271912	815.472351	772.971191	44.946999
263.106293	736.042786	811.682861	771.262207	46.561855
263.479523	731.510254	813.243347	757.590515	31.909060
263.852692	740.575195	809.528137	755.955872	22.306047
264.225861	737.454529	814.655090	749.342957	15.399405
264.598969	740.500977	809.008057	749.491516	13.123519
264.972076	731.584656	815.175232	753.281006	25.955498
265.345154	732.550476	817.404297	760.785583	33.274998
265.718201	727.274963	818.815918	764.872253	41.071552
266.091217	737.528809	825.949036	764.575012	30.588253
266.464203	741.095276	830.110046	762.048767	23.539343
266.837158	733.590759	832.339050	766.804016	33.634258
267.210114	723.559875	829.292664	762.940369	37.245300
267.583038	722.519714	821.342285	767.249939	45.263165
267.955902	730.470032	824.834473	758.630798	29.842562
268.328766	731.138855	823.274109	759.968262	31.290310
268.701569	734.928223	830.630127	751.794922	17.624205
269.074371	737.008728	832.041931	758.482178	22.595734
269.447144	741.318176	837.837463	757.219055	16.474302
269.819885	739.832214	847.794006	761.231445	19.821115
270.192596	734.631042	849.577332	760.265442	22.301197
270.565277	739.832214	855.595764	763.906250	20.795868
270.937927	737.900208	853.961182	768.587341	26.440527
271.310577	737.974609	863.992004	770.444824	25.766455
271.683136	735.968445	863.620422	766.655457	24.039589
272.055725	724.525818	877.589355	769.181702	29.174736
272.428284	729.652771	889.626465	764.129150	21.551281
272.800812	739.312073	895.199219	766.209656	17.254522
273.173279	753.652527	893.341614	757.070496	2.446840
273.545776	751.572021	885.316895	757.813477	4.666687
273.918152	736.785828	887.991882	766.952637	19.950794
274.290558	731.956116	880.190002	779.584167	32.130341
274.662964	730.395752	876.549133	782.704834	35.790539
275.035278	731.510315	877.812317	778.543945	32.148315
275.407593	729.950012	879.521301	771.262207	27.620405
275.779907	737.231628	885.688477	765.392334	18.968950
276.152161	738.049011	883.830872	759.373840	14.627903
276.524384	742.507141	889.552185	759.002258	11.217731
276.896606	730.618652	889.329285	759.448181	18.164837
277.268799	725.194519	889.849365	758.333557	20.126368
277.640930	718.061462	901.514954	759.002258	22.316717
278.013031	720.216309	912.883301	765.392334	23.447725
278.385162	723.931396	920.759338	765.986755	21.366560
278.757233	727.795166	916.375488	765.986816	20.252193
279.129272	725.268860	912.511719	769.776184	23.769838
279.501282	725.640442	916.895508	769.627625	22.999226
279.873230	722.296692	920.907898	765.020813	21.511435
280.245178	722.371094	927.149353	764.054871	20.355568
280.617126	726.903503	938.443359	761.751526	16.473501
280.988983	737.603088	945.279236	769.330383	15.277293
281.360870	748.154053	958.430847	766.135315	8.551234
281.732697	747.039551	971.359436	770.444885	10.433909
282.104492	746.816650	984.288147	765.392273	7.822254
282.476288	742.432800	986.145691	761.751465	7.926813
282.848053	738.271912	991.792786	761.231384	9.056246
283.219757	736.637207	999.371582	755.881592	7.324654
283.591461	735.448425	1004.424133	756.327393	7.762399
283.963135	734.036621	1000.634705	755.584473	8.082523
284.334747	730.618652	1007.024719	767.027039	13.172065
284.706360	733.962341	1021.811035	766.952698	11.461006
285.077942	738.197510	1034.368164	769.850403	10.687384
285.449524	736.785828	1040.015259	772.302490	11.712802
285.821014	736.785828	1047.073853	775.794739	12.571839
286.192535	740.278015	1058.888062	778.395325	11.963625
286.563995	743.770264	1065.055176	768.290222	7.631843
286.935425	736.265686	1069.439087	767.249939	9.299738
287.306824	735.076843	1064.312134	768.884583	10.268565
287.678223	730.172852	1065.575317	774.903137	13.336302
288.049561	726.977844	1063.717773	774.457275	14.099733
288.420898	721.776672	1065.278198	762.048767	11.723993
288.792145	728.686829	1067.804321	765.912415	10.977194
289.163452	738.569031	1068.621704	765.689514	8.217017
289.534668	729.504150	1076.275024	773.045471	12.556222
289.905914	723.857117	1090.243774	769.107422	12.350424
290.277039	716.426941	1115.952515	768.884583	13.129983
290.648193	727.349365	1135.196899	770.147705	10.493711
291.019318	735.225403	1150.874756	766.729736	7.579546
291.390381	731.584534	1153.401001	767.249817	8.455166
291.761475	727.497864	1157.487671	765.466553	8.830137
292.132507	721.405090	1147.754028	768.141541	10.962019
292.503510	730.098572	1143.890503	769.330383	9.481048
292.874481	738.569031	1145.450806	777.355042	9.532501
293.245422	736.488586	1145.079224	781.961914	11.129313
293.616364	735.448303	1150.429077	782.333313	11.298116
293.987213	725.045898	1164.175049	776.760681	11.776669
294.358093	726.234802	1189.289429	769.181824	9.274720
294.728943	727.423645	1212.992065	764.054932	7.544001
295.099731	728.538147	1231.121826	755.955872	5.455355
295.470490	731.435974	1243.307495	748.748535	3.382208
295.841248	724.748779	1259.356812	752.909424	5.267531
296.211975	725.863281	1269.907837	762.643066	6.760436
296.582642	719.398926	1292.941650	765.912415	8.109856
296.953308	719.993347	1321.845337	767.918640	7.962970
297.323883	725.714661	1338.489380	763.906311	6.232576
297.694519	725.714661	1352.904053	767.398499	6.646132
298.065063	733.665039	1352.458130	772.971252	6.352077
298.435608	726.977844	1351.863647	772.005310	7.205711
298.806122	733.590759	1329.572876	773.342773	6.670001
299.176575	731.658875	1305.721802	763.906250	5.617394
299.547028	732.773376	1285.734253	761.454285	5.186788
299.917450	734.036621	1284.173950	759.373840	4.605617
300.287872	734.333801	1278.675537	761.751465	5.036848
300.658234	739.386414	1277.783813	765.243713	4.802642
301.028564	727.349304	1273.845825	767.770020	7.396335
301.398865	722.296814	1280.235840	768.810303	8.336661
301.769135	720.290588	1286.477295	768.661621	8.543301
302.139374	731.064453	1286.180054	764.649353	6.050073
302.509583	732.030457	1279.344238	761.082764	5.308163
302.879791	735.002502	1280.533081	767.992920	6.047400
303.249939	728.686829	1287.369019	772.302490	7.806882
303.620087	734.556702	1289.078003	767.175598	5.882352
303.990173	728.612488	1289.375122	757.590576	5.167621
304.360260	732.922058	1287.814819	759.002258	4.700043
304.730286	725.343079	1291.009766	765.020813	7.014331
305.100281	724.822998	1305.201538	769.330383	7.668682
305.470276	723.931335	1309.511108	767.026917	7.359472
305.840179	730.024231	1325.932007	764.872253	5.847888
306.210144	730.990234	1327.417969	759.448059	4.771379
306.579987	729.875671	1335.294067	759.225159	4.847802
306.949890	730.470032	1344.804810	758.482178	4.559752
307.319702	739.534973	1354.315796	762.940369	3.807112
307.689484	733.888000	1367.615845	769.033203	5.545788
308.059265	740.723816	1384.631226	774.085754	5.181170
308.429016	738.866211	1411.157227	771.782410	4.896123
308.798737	744.141785	1441.101196	771.856689	3.976545
309.168396	736.339905	1464.878296	770.667786	4.711884
309.538055	732.030457	1477.732544	772.451111	5.420483
309.907684	731.510315	1496.605469	768.884583	4.884918
310.277313	733.144958	1502.326660	767.249939	4.433930
310.646851	737.603088	1507.007813	767.324219	3.862873
311.016388	739.609314	1514.586548	772.674011	4.266538
311.385895	738.197510	1523.057129	773.714294	4.525240
311.755371	734.408142	1534.574097	777.206360	5.348668
312.124817	736.339905	1533.608032	767.026917	3.849020
312.494232	733.887939	1535.540039	767.472839	4.189461
312.863617	730.172852	1531.750610	765.540955	4.412311
313.232971	720.662109	1521.199585	776.834961	7.016892
313.602295	720.067688	1518.524780	770.965027	6.374461
313.971619	720.067688	1534.722656	768.141602	5.901138
314.340820	721.702332	1544.902222	763.757629	5.108759
314.710083	719.770508	1562.660522	776.314758	6.708378
315.079285	718.804504	1563.849487	783.968018	7.711248
315.448486	724.748779	1585.694336	786.048523	7.120049
315.817596	727.052063	1582.053589	785.454102	6.830636
316.186707	731.287415	1573.731812	779.658447	5.741748
316.555786	731.807556	1546.908203	770.444885	4.740191
316.924866	732.847717	1531.230469	764.426453	3.955338
317.293884	735.819824	1529.521484	762.568848	3.370161
317.662872	734.259460	1542.078735	770.444885	4.479396
318.031830	736.934387	1548.468750	766.655457	3.662330
318.400757	735.522644	1553.892700	768.364441	4.013074
318.769684	734.482422	1564.443726	767.175598	3.939121
319.138550	724.525818	1577.075195	765.615234	4.819594
319.507416	716.278259	1599.366089	765.689636	5.595296
319.876190	720.662109	1605.013062	760.785645	4.537060
320.244995	734.408142	1605.235962	770.593567	4.155291
320.613770	737.380188	1582.870972	767.398499	3.550401
320.982483	738.197510	1565.484009	771.559509	4.032702
321.351166	732.921936	1557.087891	757.590576	2.993164
321.719818	738.420410	1548.320190	759.893982	2.651386
322.088440	736.339905	1559.465454	757.441895	2.563642
322.457062	735.225403	1573.731567	771.336609	4.306612
322.825623	736.339905	1601.817993	768.810303	3.751730
323.194183	733.367859	1620.913940	768.290100	3.934696
323.562653	734.259521	1658.065308	763.534729	3.168979
323.931183	726.532043	1690.758423	761.305664	3.606375
324.299591	725.120300	1739.055176	758.407898	3.283011
324.668060	721.776611	1760.974609	753.726807	3.074505
325.036407	717.541321	1786.980469	760.265442	3.995002
325.404755	717.764343	1797.160034	767.175598	4.577677
325.773102	713.677673	1811.797485	775.497559	5.629612
326.141388	720.513489	1822.422729	783.373596	5.704654
326.509674	714.643555	1831.784790	787.980408	6.564690
326.877899	721.479431	1843.896362	793.404480	6.408051
327.246124	717.838562	1849.171753	787.980286	6.199917
327.614288	723.336975	1853.852905	783.745056	5.343409
327.982422	722.148132	1849.989258	776.389160	4.809279
328.350525	728.389587	1845.753906	780.847351	4.694777
328.718628	732.030457	1841.592896	781.144531	4.426436
329.086700	734.556641	1834.162720	790.358093	5.074677
329.454712	733.070618	1837.060547	784.488098	4.657423
329.822693	734.333801	1849.766113	781.516052	4.229952
330.190674	726.977844	1868.639160	771.113708	3.865933
330.558563	725.194519	1886.174438	769.404724	3.808007
330.926483	724.897400	1901.183594	768.661682	3.720547
331.294312	729.429871	1923.251587	763.980530	2.894122
331.662231	733.367859	1945.245239	763.460449	2.483138
332.029999	736.562805	1968.873535	763.534851	2.188737
332.397766	743.250183	1986.334595	769.256042	2.092043
332.765503	744.438965	2020.662476	769.479004	1.962042
333.133240	746.519348	2052.909912	768.736023	1.700615
333.500916	742.358459	2091.993164	767.324219	1.849816
333.868561	741.318176	2101.355225	761.305664	1.469628
334.236176	737.751709	2102.841553	763.683411	1.899633
334.603790	732.550537	2107.745117	762.048645	2.145013
334.971344	727.572266	2111.163330	769.107422	3.001982
335.338867	722.371094	2117.181641	770.221985	3.430637
335.706360	721.702332	2117.181641	776.612061	3.934829
336.073853	721.553711	2118.221924	777.577942	4.011277
336.441284	723.634216	2126.766846	782.704895	4.209914
336.808655	728.018066	2115.398438	784.934021	4.102405
337.176086	727.572266	2095.856689	784.934021	4.192239
337.543396	729.058289	2051.572266	782.184753	4.017082
337.910706	730.247131	2024.377563	778.098145	3.697542
338.277954	732.401917	2044.290649	776.537781	3.364300
338.645264	727.646545	2117.999023	774.903076	3.398888
339.012421	726.011902	2220.313965	777.577942	3.450845
339.379669	734.631042	2302.641357	781.738953	3.004311
339.746796	737.380188	2360.597412	781.887512	2.741920
340.113953	739.906494	2380.584717	779.212646	2.395726
340.481018	733.367859	2393.810791	781.516052	2.899720
340.848114	734.556641	2386.380615	771.782288	2.253609
341.215118	728.686707	2387.420898	766.804016	2.297976
341.582153	735.596924	2398.269043	759.596741	1.443449
341.949066	736.265625	2423.829102	770.073425	2.003350
342.316010	744.216003	2450.652344	768.810242	1.441263
342.682922	736.488586	2455.036377	778.841125	2.464437
343.049835	737.528809	2457.562500	785.676941	2.799255
343.416656	734.705322	2478.292725	802.617981	3.894996
343.783478	735.671204	2527.629883	799.125732	3.541071
344.150269	736.860046	2592.644531	793.107239	3.030912
344.516998	734.705322	2651.864014	779.658508	2.344782
344.883728	737.380188	2707.368408	773.862976	1.851929
345.250427	729.504150	2748.457764	769.033203	1.957898
345.617065	730.990173	2776.766846	765.540955	1.688883
345.983704	726.754944	2789.101563	766.804016	1.941918
346.350281	731.287415	2780.184814	769.924744	1.885762
346.716827	733.590820	2770.897217	767.324219	1.655784
347.083405	724.971619	2756.185547	764.872253	1.964374
347.449860	737.825989	2747.566406	777.429382	1.970572
347.816376	737.677429	2722.823486	787.088684	2.489049
348.182770	749.194336	2706.179443	796.971008	2.441341
348.549194	732.550537	2703.355713	778.766846	2.345047
348.915558	732.327637	2721.783203	774.977356	2.143789
349.281921	729.727051	2748.160400	776.760681	2.330205
349.648193	728.240967	2759.454834	781.144531	2.604530
350.014526	720.364807	2790.884766	778.766785	2.820643
350.380737	715.163757	2813.769531	774.159973	2.811210
350.746948	716.055359	2855.304932	777.503662	2.872423
351.113159	722.742493	2868.382080	781.813232	2.753060
351.479309	728.092346	2905.310547	776.314758	2.214864
351.845428	729.206848	2930.721924	774.159973	2.041918
352.211517	726.606262	2972.406006	776.166199	2.206783
352.577576	725.343201	2998.857666	779.881348	2.398848
352.943604	730.767334	3033.334229	774.085754	1.881310
353.309601	733.293640	3063.426758	775.274597	1.801655
353.675537	730.692932	3110.906250	775.348877	1.876132
354.041473	728.761047	3169.679688	779.138367	2.063867
354.407379	724.451477	3246.508545	772.748352	1.914979
354.773254	727.497864	3320.440186	777.726563	1.937131
355.139038	721.999512	3392.513672	779.509827	2.153530
355.504913	725.268860	3464.067139	782.110413	2.075419
355.870636	727.795166	3530.270752	781.441711	1.914256
356.236389	739.312073	3608.808594	782.036133	1.488904
356.602081	740.872498	3683.037354	788.203308	1.608707
356.967804	739.980774	3761.055420	780.698730	1.347797
357.333405	731.584656	3832.757080	781.293152	1.602894
357.699036	733.144958	3928.756592	777.503601	1.388111
358.064606	733.219238	4038.501221	782.407654	1.488176
358.430176	734.705261	4137.026855	784.710999	1.469753
358.795654	732.773438	4203.750488	791.026794	1.678299
359.161163	728.686829	4199.069824	793.330139	1.862714
359.526581	726.011963	4174.252930	789.986511	1.855281
359.892029	727.423645	4179.230957	788.351868	1.765111
360.257416	725.714661	4270.400391	790.506653	1.827863
360.622772	726.903564	4427.104980	789.392090	1.688787
360.988098	722.816895	4578.459473	782.779114	1.555181
361.353394	728.092285	4752.402344	776.389099	1.200127
361.718658	733.887939	4895.211914	778.395264	1.069547
362.083893	731.287415	5043.445801	772.971191	0.966657
362.449097	734.185242	5158.986328	770.370605	0.817785
362.814209	729.578430	5184.397949	769.181824	0.889001
363.179382	732.847839	5088.027344	778.395325	1.045823
363.544434	738.717773	4874.258301	786.642883	1.158860
363.909546	732.476257	4660.786621	787.980408	1.412927
364.274536	731.138855	4469.308594	785.602722	1.456966
364.639587	728.612488	4334.895020	782.184753	1.485526
365.004517	730.321472	4243.576660	776.389160	1.311254
365.369507	739.534973	4205.607910	776.240540	1.058996
365.734344	737.825989	4162.884277	781.293152	1.269093
366.099274	740.129395	4139.924805	785.454102	1.333160
366.464081	729.875671	4120.308594	783.522217	1.582292
366.828918	725.863281	4125.583984	784.190918	1.715660
367.193665	727.052063	4141.707520	778.395325	1.503615
367.558411	727.795105	4153.818848	782.704834	1.602725
367.923126	731.361633	4167.640137	773.416992	1.223863
368.287781	738.420410	4172.469238	780.698730	1.231151
368.652435	745.627747	4163.255859	773.937195	0.828336
369.017059	745.107666	4160.209473	780.252930	1.029113
369.381653	739.906555	4139.701660	779.361267	1.160503
369.746185	740.723877	4129.671387	785.082581	1.308923
370.110687	733.367859	4132.940430	780.995911	1.401001
370.475220	725.863281	4151.367188	781.293152	1.618152
370.839661	716.798340	4210.065918	773.416992	1.620793
371.204041	717.838562	4259.625977	773.788574	1.579711
371.568451	732.996338	4324.566895	775.423157	1.181289
371.932770	738.197510	4363.353027	786.791504	1.340466
372.297150	739.460693	4388.244629	785.379822	1.258478
372.661377	725.937561	4401.321777	783.373596	1.562722
373.025696	728.315247	4417.965332	784.933899	1.534526
373.389862	721.702332	4438.175781	787.385925	1.767364
373.754059	728.909668	4438.027344	785.379700	1.522465
374.118225	727.423645	4428.813477	784.042297	1.529659
374.482361	734.036560	4435.203613	795.633484	1.664257
374.846436	735.448303	4495.388672	798.679932	1.681719
375.210510	736.934326	4583.362793	792.735657	1.450731
375.574524	739.089172	4689.987793	786.420105	1.197979
375.938538	733.888000	4794.605957	789.243591	1.363197
376.302460	734.482361	4895.583496	794.073242	1.432094
376.666412	735.299744	5010.381348	798.902832	1.487763
377.030304	736.488525	5120.423340	801.354797	1.479636
377.394196	732.104675	5242.651855	798.382751	1.469402
377.757996	737.231628	5324.384766	787.088684	1.086884
378.121796	744.810486	5376.396484	789.837891	0.972181
378.485565	744.438965	5383.083496	795.633484	1.103653
378.849304	736.860107	5362.873047	793.924561	1.233556
379.212982	730.172852	5298.304199	790.506653	1.320755
379.576630	731.138855	5198.069824	787.831726	1.269168
379.940277	733.144958	5100.361328	796.227966	1.444467
380.303864	735.076843	5015.953613	797.268250	1.452773
380.667450	734.110840	5002.504883	795.782227	1.444838
381.030945	730.990234	4996.115234	798.902832	1.592277
381.394501	729.281250	5027.916992	798.902832	1.619620
381.757935	728.612488	5030.889160	802.915222	1.727056
382.121399	733.145020	5052.437012	802.320801	1.601554
382.484741	736.191406	5087.061523	803.138184	1.538699
382.848145	732.996338	5127.927734	802.320801	1.577373
383.211487	730.767273	5193.389160	797.936829	1.505159
383.574768	726.606262	5257.289063	797.193848	1.557990
383.938019	733.070618	5326.464844	801.206238	1.483339
384.301270	733.739441	5397.869629	801.800720	1.459249
384.664459	737.454590	5468.978027	802.172119	1.367795
385.027649	739.534973	5524.853027	803.806824	1.343105
385.390778	734.556702	5561.335938	812.425964	1.613276
385.753876	725.268860	5587.787598	828.698242	2.127074
386.116943	719.547546	5622.412598	836.277100	2.380844
386.479980	730.024231	5642.251465	833.825134	2.113113
386.842987	741.764099	5688.170410	830.407227	1.792071
387.205994	742.284180	5729.037109	827.509338	1.709031
387.568909	738.271790	5799.847656	844.078918	2.090399
387.931793	732.327637	5834.843750	845.713562	2.222157
388.294678	734.631042	5888.416016	851.137634	2.260602
388.657471	736.488586	5893.171875	843.112976	2.067693
389.020294	739.757874	5897.035645	855.744385	2.248987
389.383057	738.494812	5875.414063	866.295410	2.487884
389.745819	732.401917	5886.261719	887.397461	3.007368
390.108521	736.562805	5913.604980	893.044434	3.022607
390.471191	738.197571	5987.238770	912.288818	3.316630
390.833801	741.912659	6064.587891	922.096741	3.385216
391.196442	736.414307	6193.279785	948.474304	3.886114
391.558960	735.076843	6315.136719	972.994141	4.263705
391.921509	734.556641	6464.187988	1007.173340	4.758015
392.284027	728.835449	6590.874512	1033.030762	5.189240
392.646484	721.702393	6713.027832	1069.290405	5.801521
393.008911	722.668274	6747.281250	1101.686401	6.291162
393.371307	730.767273	6732.867188	1144.633423	6.895356
393.733673	730.247070	6663.021973	1169.153320	7.397993
394.096008	735.374023	6633.449219	1205.041504	7.963064
394.458344	735.151123	6643.257813	1235.134155	8.462661
394.820587	739.089172	6673.053223	1277.783813	9.078158
395.182831	740.500977	6717.857422	1315.604004	9.621361
395.545013	739.683594	6707.678223	1359.962769	10.393427
395.907196	744.587585	6671.642090	1416.953003	11.344006
396.269287	728.018066	6585.079590	1460.122681	12.499520
396.631409	722.073914	6503.420410	1510.351563	13.634845
396.993469	716.872620	6401.996582	1557.459351	14.785724
397.355530	724.377258	6338.542480	1629.087280	16.114775
397.717499	727.646545	6305.700684	1697.445679	17.385975
398.079468	733.293640	6304.808594	1760.751587	18.441267
398.441376	729.206970	6325.390625	1821.234009	19.513783
398.803284	728.909668	6335.421875	1886.397461	20.645416
399.165131	722.148132	6375.322266	1965.232788	21.989145
399.526978	724.674500	6388.845215	2042.581665	23.267433
399.888763	719.696106	6401.773438	2115.770264	24.569786
400.250519	719.027405	6404.597168	2191.633057	25.900759
400.612244	724.971680	6422.950684	2267.718994	27.075342
400.973938	732.253418	6442.937500	2353.761475	28.394287
401.335602	733.962341	6463.593750	2434.602783	29.681498
401.697205	733.813660	6488.039063	2524.063232	31.111910
402.058807	727.349304	6538.342285	2634.848633	32.825703
402.420349	731.361633	6624.904785	2741.919189	34.114582
402.781860	729.578430	6701.957031	2860.134766	35.673500
403.143341	731.807434	6814.005371	2961.186523	36.654171
403.504822	728.761047	6916.171875	3098.349365	38.296932
403.866241	724.674500	7044.864746	3236.700928	39.746056
404.227631	721.182190	7164.045410	3385.603516	41.354618
404.588959	723.857117	7287.388184	3522.023193	42.632019
404.950287	723.559875	7416.229004	3644.697021	43.646820
405.311554	734.482422	7498.481934	3755.779297	44.667313
405.672821	732.996338	7574.048340	3849.624023	45.557728
406.034027	735.374023	7571.298828	3939.901611	46.877747
406.395203	733.367859	7527.311035	4000.829834	48.093746
406.756348	732.476257	7456.871582	4061.163818	49.501663
407.117493	734.853821	7432.575684	4129.150879	50.678383
407.478516	730.990173	7420.761230	4199.887207	51.853748
407.839600	739.089172	7428.785645	4279.837402	52.928387
408.200592	737.380188	7439.188965	4339.278809	53.745174
408.561554	734.853943	7440.600098	4401.544434	54.679829
408.922485	726.532043	7436.959473	4459.946777	55.636021
409.283417	724.005676	7442.978027	4534.620605	56.714256
409.644257	724.228577	7506.357910	4646.446289	57.831657
410.005096	726.383362	7611.422363	4770.457520	58.737129
410.365906	728.463867	7686.988281	4880.425781	59.667274
410.726715	734.928223	7795.915527	4976.721680	60.073658
411.087433	735.894104	7866.428223	5049.612793	60.496433
411.448120	739.832214	7952.545410	5139.296387	60.995968
411.808807	727.869446	7969.115723	5213.152832	61.940765
412.169434	727.349304	7936.273926	5246.068848	62.682297
412.530029	729.132568	7913.017090	5271.926270	63.235897
412.890564	740.946777	7894.515625	5293.400391	63.638916
413.251099	746.147949	7913.685547	5356.780762	64.326591
413.611572	746.742371	7935.382324	5414.513672	64.932610
413.972076	739.089172	7956.558594	5491.789063	65.849945
414.332489	741.466797	8003.071777	5545.212402	66.152672
414.692871	737.603027	8108.359375	5655.551270	66.722435
415.053223	743.695862	8230.140625	5745.903809	66.816872
415.413574	731.436035	8394.350586	5893.246094	67.360924
415.773834	729.578430	8527.574219	5996.972656	67.548050
416.134094	726.309082	8657.307617	6120.463379	68.013557
416.494263	730.544373	8783.547852	6215.720215	68.113419
416.854462	725.343201	8967.595703	6368.560547	68.466927
417.214630	727.572266	9191.395508	6548.447266	68.773590
417.574738	729.281250	9421.584961	6752.259766	69.290932
417.934784	734.779602	9645.682617	6953.619629	69.789108
418.294861	737.454529	9932.341797	7158.769531	69.835709
418.654846	733.145020	10260.760742	7392.601074	69.896355
419.014832	730.915833	10619.047852	7620.189453	69.672142
419.374756	729.578430	10983.577148	7907.815918	70.004272
419.734680	736.042786	11393.057617	8215.725586	70.185532
420.094543	730.098572	11828.695313	8539.909180	70.367546
420.454376	721.850891	12215.961914	8796.921875	70.253983
420.814148	721.182190	12568.973633	9064.932617	70.424522
421.173920	728.092346	12917.825195	9335.468750	70.611687
421.533691	733.813660	13299.221680	9635.354492	70.841637
421.893341	725.640381	13622.512695	9900.688477	71.141655
422.253021	725.194580	13851.215820	10094.618164	71.380531
422.612640	722.668274	13919.574219	10167.956055	71.571991
422.972260	725.937500	13909.617188	10163.349609	71.584053
423.331757	725.045898	13827.809570	10112.080078	71.641632
423.691315	729.281189	13823.203125	10151.832031	71.961258
424.050781	736.265686	13913.481445	10224.053711	72.001465
424.410248	740.426575	14050.570313	10325.922852	72.016472
424.769653	739.980774	14181.195313	10413.006836	71.965416
425.128998	739.460693	14215.002930	10477.204102	72.262352
425.488373	739.386414	14168.562500	10443.842773	72.263977
425.847656	739.386414	14044.776367	10374.591797	72.415802
426.206940	733.442139	13902.484375	10266.778320	72.392021
426.566193	732.253357	13650.079102	10125.529297	72.715614
426.925385	730.395691	13400.348633	9934.719727	72.646866
427.284576	737.231628	13045.032227	9658.461914	72.484360
427.643677	734.259460	12777.987305	9480.878906	72.623856
428.002777	741.541199	12500.764648	9288.880859	72.686256
428.361847	736.711426	12205.411133	9123.706055	73.129425
428.720856	743.844482	11948.174805	8945.230469	73.198357
429.079865	743.844543	11741.539063	8793.281250	73.192039
429.438812	738.717590	11657.725586	8707.684570	72.982521
429.797760	733.144958	11581.565430	8663.176758	73.098488
430.156616	730.247131	11476.796875	8580.329102	73.047462
430.515503	728.538147	11371.957031	8524.304688	73.244949
430.874268	731.436035	11335.622070	8488.714844	73.152992
431.233093	729.801331	11340.081055	8530.397461	73.519234
431.591827	732.476257	11404.354492	8570.818359	73.448578
431.950562	737.751709	11442.471680	8589.246094	73.346100
432.309204	732.773438	11497.231445	8627.661133	73.342178
432.667877	744.364685	11605.268555	8696.166992	73.214920
433.026459	741.243958	11706.617188	8804.426758	73.533134
433.385010	737.974609	11859.754883	8885.639648	73.258644
433.743561	726.531982	11977.747070	8991.520508	73.458633
434.102051	718.433044	12134.155273	9063.520508	73.101707
434.460510	725.343201	12280.531250	9179.581055	73.164001
434.818939	730.024231	12342.871094	9237.463867	73.258865
435.177338	739.386414	12373.409180	9288.434570	73.483162
435.535675	735.299805	12342.722656	9297.574219	73.765511
435.894012	732.847717	12310.920898	9283.828125	73.854950
436.252289	723.708496	12328.531250	9310.577148	73.993973
436.610535	726.160461	12297.843750	9277.364258	73.897667
436.968719	731.956055	12400.901367	9352.260742	73.873894
437.326935	733.813660	12475.946289	9423.442383	74.003838
437.685028	735.374023	12613.480469	9521.967773	73.973015
438.043152	735.745544	12696.774414	9579.848633	73.940987
438.401215	740.129395	12857.045898	9691.377930	73.873978
438.759277	738.123230	13038.270508	9850.907227	74.086784
439.117249	733.367859	13365.276367	10083.994141	74.023857
439.475250	732.476257	13613.297852	10265.960938	74.013016
439.833130	734.185242	13922.398438	10480.473633	73.901505
440.191071	732.922058	14134.829102	10640.223633	73.924568
440.548889	721.033630	14418.293945	10815.503906	73.697006
440.906708	725.640381	14724.272461	11013.223633	73.489914
441.264496	730.767273	14952.976563	11174.460938	73.432289
441.622223	742.432800	15113.842773	11313.257813	73.554543
441.979950	735.448425	15173.656250	11387.114258	73.774155
442.337616	728.761047	15207.834961	11439.721680	73.975456
442.695251	733.145020	15132.342773	11408.811523	74.140701
443.052887	732.179016	14966.574219	11295.722656	74.211395
443.410461	733.665039	14809.573242	11164.132813	74.101563
443.768005	728.241028	14685.932617	11041.680664	73.890724
444.125458	725.491760	14623.815430	10986.846680	73.831604
444.482941	725.045959	14659.480469	10997.098633	73.717041
444.840393	724.525879	14737.497070	11077.421875	73.880814
445.197754	732.253235	14952.678711	11262.954102	74.053345
445.555084	735.522644	15113.768555	11431.770508	74.391884
445.912415	731.733215	15435.350586	11661.885742	74.336487
446.269714	729.281250	15657.217773	11813.835938	74.253761
446.626953	727.943665	15979.765625	12029.461914	74.099464
446.984161	725.714661	16236.481445	12242.488281	74.250191
447.341309	723.411316	16475.587891	12412.343750	74.205193
447.698456	724.897400	16646.558594	12557.679688	74.318764
448.055542	733.813721	16759.869141	12648.625977	74.346504
448.412598	739.014893	16761.505859	12676.637695	74.505409
448.769653	739.237793	16652.949219	12591.784180	74.480095
449.126617	726.457703	16395.265625	12408.256836	74.554482
449.483582	724.971680	16182.315430	12248.653320	74.551498
449.840515	724.302917	15936.745117	12090.241211	74.714752
450.197388	736.637207	15763.842773	11958.206055	74.675018
450.554230	745.181946	15605.949219	11850.911133	74.731873
450.911041	743.918762	15497.245117	11738.046875	74.519653
451.267822	743.101563	15395.449219	11658.914063	74.498726
451.624573	734.779602	15259.699219	11543.745117	74.416695
451.981262	732.327637	15128.554688	11470.706055	74.591621
452.337921	733.516541	14997.484375	11352.266602	74.444572
452.694580	733.442200	14929.051758	11306.868164	74.483772
453.051147	729.801331	14923.331055	11308.578125	74.532387
453.407715	727.200684	14879.937500	11312.441406	74.792885
453.764221	727.646484	14941.608398	11356.206055	74.775490
454.120728	735.076721	14783.046875	11237.171875	74.758804
454.477142	736.637207	14772.124023	11179.215820	74.401253
454.833557	738.717712	14607.320313	11054.239258	74.380394
455.189911	732.401917	14507.457031	10976.221680	74.364998
455.546265	725.491699	14342.133789	10890.251953	74.649529
455.902557	722.668274	14188.773438	10809.039063	74.901917
456.258820	726.606262	14185.653320	10806.810547	74.895378
456.615051	731.881775	14232.538086	10840.172852	74.872589
456.971252	735.373962	14261.367188	10839.875977	74.704323
457.327393	735.299622	14389.019531	10933.719727	74.693344
457.683502	735.968445	14555.382813	11062.487305	74.724724
458.039612	733.888000	14904.307617	11337.852539	74.831688
458.395630	733.516541	15246.620117	11603.039063	74.894539
458.751648	735.225403	15576.301758	11880.114258	75.094879
459.107605	737.380188	16111.132813	12288.406250	75.134720
459.463562	738.866272	16667.140625	12684.812500	74.998367
459.819458	740.575256	17215.791016	13067.323242	74.819954
460.175323	742.655762	17660.123047	13388.459961	74.749992
460.531158	743.621643	18130.904297	13754.918945	74.832260
460.886932	735.819824	18530.058594	14028.500977	74.702164
461.242676	732.104736	18757.498047	14189.291992	74.656837
461.598419	732.104736	18672.199219	14143.522461	74.756676
461.954102	733.293518	18365.552734	13937.481445	74.886528
462.309723	739.906494	17864.603516	13599.997070	75.096748
462.665344	739.757874	17335.046875	13194.007813	75.046898
463.020905	743.175781	16877.863281	12857.342773	75.081512
463.376373	736.785828	16502.783203	12566.968750	75.036057
463.731873	739.237793	16202.301758	12356.319336	75.127945
464.087341	733.219238	15911.035156	12158.897461	75.278801
464.442749	731.807434	15761.092773	12078.872070	75.499695
464.798126	730.098450	15654.839844	11983.171875	75.398781
465.153503	736.042725	15715.471680	12041.573242	75.473709
465.508820	733.070618	15743.557617	12018.316406	75.182411
465.864105	728.984070	15824.472656	12106.811523	75.372368
466.219330	728.240967	16062.539063	12276.518555	75.310112
466.574524	727.572266	16225.930664	12407.959961	75.365318
466.929657	724.228577	16432.417969	12537.023438	75.201508
467.284790	727.274963	16591.425781	12636.588867	75.070602
467.639893	731.733215	16792.265625	12779.324219	75.013649
467.994934	739.460693	16982.554688	12936.549805	75.090919
468.349945	734.036560	17060.796875	13021.403320	75.259064
468.704926	727.200684	17089.552734	13055.507813	75.345566
469.059875	726.011902	16946.369141	12950.293945	75.363831
469.414764	722.519714	16758.310547	12830.890625	75.508415
469.769653	727.795166	16572.404297	12693.356445	75.518188
470.124451	728.984070	16469.718750	12634.434570	75.634659
470.479248	736.637207	16350.090820	12515.031250	75.437469
470.834015	736.860046	16250.524414	12480.924805	75.701424
471.188721	734.779602	16298.524414	12505.445313	75.628754
471.543365	733.888000	16350.090820	12564.887695	75.761055
471.898010	730.841614	16459.093750	12638.149414	75.706490
472.252625	729.949951	16569.951172	12727.238281	75.740448
472.607178	727.423645	16796.796875	12919.608398	75.872185
472.961700	729.875671	16999.869141	13049.192383	75.718018
473.316193	731.213074	17254.802734	13236.879883	75.683716
473.670654	734.408020	17428.667969	13344.026367	75.532661
474.025055	732.773438	17646.375000	13550.290039	75.782303
474.379456	734.333801	17798.029297	13692.430664	75.939568
474.733795	728.315247	17956.291016	13820.307617	75.992630
475.088104	729.504211	18069.232422	13911.104492	76.019646
475.442383	730.395813	18108.984375	13918.757813	75.888573
475.796570	735.894226	18190.345703	13982.805664	75.894173
476.150787	740.946777	18343.410156	14069.444336	75.719505
476.504944	735.968445	18557.996094	14213.664063	75.623802
476.859070	740.426575	18754.677734	14388.350586	75.761810
477.213135	739.014893	18972.605469	14556.645508	75.781189
477.567200	735.819824	19349.025391	14856.754883	75.865150
477.921173	723.857117	19735.769531	15112.132813	75.680321
478.275146	721.850891	20180.992188	15443.747070	75.655434
478.629089	728.018066	20446.771484	15642.059570	75.633789
478.983002	730.024231	20806.619141	15943.581055	75.777573
479.336823	726.234863	21153.166016	16200.445313	75.753967
479.690643	725.789001	21535.156250	16514.669922	75.873909
480.044403	730.692932	21958.162109	16834.544922	75.863266
480.398163	734.482422	22479.248047	17210.369141	75.769440
480.751862	737.974670	23208.828125	17759.984375	75.751503
481.105499	733.590820	24134.490234	18426.851563	75.609329
481.459137	737.305969	25326.750000	19380.601563	75.818291
481.812744	731.733215	26823.578125	20544.109375	75.933212
482.166290	733.739319	28599.117188	21973.541016	76.222908
482.519806	726.606262	30795.359375	23631.830078	76.176170
482.873291	732.401917	33357.984375	25656.802734	76.395264
483.226715	737.974609	36385.003906	27945.476563	76.324738
483.580139	741.020996	39471.390625	30373.986328	76.510925
483.933502	733.590759	42743.679688	32821.890625	76.382370
484.286804	737.157288	45771.738281	35247.875000	76.631592
484.640106	735.819885	48453.996094	37471.605469	76.984894
484.993347	735.225403	50259.996094	39106.707031	77.479370
485.346558	735.002502	51084.683594	39944.847656	77.875061
485.699738	732.104736	50835.324219	39767.781250	77.910515
486.052887	733.442200	49701.832031	38800.433594	77.737885
486.405975	717.541443	48061.750000	37351.457031	77.377815
486.759064	718.433044	46186.347656	35832.636719	77.228531
487.112061	721.182190	44464.605469	34446.074219	77.097054
487.464996	729.355469	43265.503906	33471.593750	76.975090
487.817963	732.327637	42831.800781	33020.128906	76.694077
488.170868	728.761047	42879.355469	33030.457031	76.634026
488.523743	725.863281	43141.425781	33184.933594	76.526321
488.876587	715.906738	43246.636719	33253.441406	76.503586
489.229401	722.965515	43096.917969	33098.667969	76.404724
489.582153	723.634216	42479.605469	32687.849609	76.550041
489.934845	730.024231	41547.105469	31991.630859	76.589523
490.287537	726.532043	40461.171875	31160.185547	76.592247
490.640198	724.377197	39570.136719	30397.687500	76.387520
490.992798	724.302917	38779.035156	29806.015625	76.420753
491.345337	719.101624	38500.769531	29575.306641	76.376205
491.697876	723.114075	38423.644531	29516.009766	76.372658
492.050354	728.909668	38833.500000	29784.392578	76.251923
492.402832	738.123230	39176.855469	30043.484375	76.239151
492.755219	736.785828	39319.218750	30192.833984	76.345749
493.107605	734.110840	38994.363281	29964.501953	76.398842
493.459930	729.652649	38206.832031	29387.396484	76.467186
493.812225	739.237732	36878.593750	28393.892578	76.522270
494.164490	742.432800	35216.812500	27156.158203	76.618423
494.516724	744.884766	33341.707031	25737.794922	76.672844
494.868896	736.711426	31560.970703	24378.947266	76.700096
495.221039	730.990173	30085.986328	23225.693359	76.629898
495.573120	733.442139	28892.908203	22285.615234	76.536156
495.925201	735.448303	28211.775391	21727.378906	76.400063
496.277222	737.900330	27742.406250	21370.576172	76.404564
496.629211	737.603210	27568.615234	21294.267578	76.615318
496.981140	738.346191	27503.968750	21221.822266	76.529045
497.333069	740.723816	27593.357422	21302.146484	76.571342
497.684967	736.414246	27740.697266	21312.101563	76.194160
498.036804	736.042786	27868.275391	21397.697266	76.151695
498.388580	733.888000	27873.849609	21395.318359	76.129181
498.740326	737.231628	27763.509766	21352.000000	76.276756
499.092072	732.699158	27540.080078	21214.541016	76.403740
499.443756	729.504150	27258.623047	20986.802734	76.358734
499.795410	723.857178	26959.255859	20784.849609	76.465363
500.147003	724.451599	26673.337891	20538.759766	76.358994
500.498566	738.866211	26364.908203	20305.669922	76.355156
500.850098	736.785828	26077.802734	20001.400391	76.021477
501.201599	740.575195	25765.804688	19750.853516	75.964447
501.553009	727.869446	25509.162109	19522.076172	75.840302
501.904449	732.773438	25280.087891	19411.806641	76.094002
502.255859	736.711487	25023.593750	19284.974609	76.371529
502.607178	732.699158	24917.267578	19234.001953	76.500443
502.958405	732.847717	24788.427734	19135.847656	76.501999
503.309692	722.296814	24759.968750	19093.867188	76.428246
503.660919	725.194580	24733.294922	19072.396484	76.420883
504.012115	721.479492	24780.773438	19113.185547	76.443260
504.363251	730.841614	24891.263672	19189.197266	76.399147
504.714294	736.414307	24945.208984	19252.279297	76.484047
505.065369	739.534973	25017.875000	19313.654297	76.504898
505.416443	741.987000	25022.259766	19315.138672	76.494827
505.767395	738.791931	25036.822266	19365.294922	76.658493
506.118317	743.918884	25007.250000	19371.240234	76.771492
506.469238	736.488586	25048.710938	19411.958984	76.815155
506.820160	731.436035	25062.234375	19387.587891	76.677109
507.170929	726.532043	25101.462891	19399.996094	76.609299
507.521729	730.321472	25167.744141	19446.880859	76.589745
507.872498	735.522644	25247.843750	19503.794922	76.566689
508.223236	734.853943	25381.140625	19613.466797	76.598206
508.573883	725.491760	25516.818359	19736.361328	76.683548
508.924500	728.612488	25699.750000	19909.935547	76.813972
509.275116	725.714661	25864.482422	20027.556641	76.781181
509.625702	732.327637	26051.351563	20170.513672	76.773048
509.976196	727.943787	26294.470703	20333.904297	76.686050
510.326660	732.773438	26534.095703	20512.083984	76.660065
510.677124	730.321472	26772.234375	20687.064453	76.633171
511.027557	730.915833	26994.328125	20851.869141	76.612106
511.377869	730.395752	27267.539063	21051.076172	76.574486
511.728180	729.578430	27411.539063	21210.677734	76.760101
512.078430	729.355469	27527.375000	21317.154297	76.825821
512.428650	722.148132	27614.310547	21415.529297	76.949486
512.778931	725.789001	27784.314453	21490.947266	76.741646
513.129028	725.937561	27881.203125	21532.556641	76.620941
513.479126	724.971619	27908.177734	21563.986328	76.661354
513.829285	724.377197	27864.708984	21552.617188	76.742760
514.179382	725.120300	27810.244141	21529.212891	76.810036
514.529297	725.937561	27789.812500	21481.214844	76.689972
514.879272	722.816895	27827.705078	21478.093750	76.573929
515.229187	725.863281	27740.845703	21435.443359	76.659607
515.579163	730.618652	27706.148438	21455.951172	76.830124
515.928955	730.247070	27660.302734	21482.626953	77.060295
516.278748	718.878845	27825.328125	21613.396484	77.083199
516.628540	728.612488	28056.632813	21795.587891	77.089287
516.978333	734.853943	28445.533203	22082.468750	77.037498
517.327942	740.798157	28919.662109	22442.986328	77.015839
517.677612	740.129395	29482.205078	22852.470703	76.933701
518.027222	734.556702	30041.257813	23247.166016	76.817276
518.376831	735.374023	30692.150391	23746.406250	76.814110
518.726379	729.727051	31317.630859	24226.103516	76.815910
519.075867	737.528809	31868.662109	24625.478516	76.733315
519.425293	745.999329	32288.025391	24976.783203	76.820633
519.774658	737.231628	32550.164063	25192.931641	76.873451
520.124084	733.590820	32664.666016	25335.740234	77.047668
520.473389	736.117004	32584.416016	25266.712891	77.023254
520.822693	740.426575	32304.521484	25060.375000	77.049408
521.171997	733.293518	31940.437500	24800.912109	77.122147
521.521240	723.931396	31562.681641	24478.064453	77.026901
521.870361	721.479431	31208.630859	24203.515625	77.022728
522.219482	727.795166	30827.603516	23917.671875	77.043274
522.568604	727.200745	30478.306641	23647.435547	77.039940
522.917664	730.618652	30279.025391	23476.462891	76.978241
523.266724	728.018066	30288.240234	23469.703125	76.933403
523.615662	731.138733	30502.603516	23662.296875	77.023949
523.964600	739.163391	30844.322266	23966.195313	77.152992
524.313538	734.333801	31343.189453	24332.283203	77.095169
524.662354	728.463867	31895.109375	24750.312500	77.075500
525.011169	724.080017	32609.009766	25281.724609	77.019600
525.359985	729.875671	33483.554688	25996.587891	77.141602
525.708740	728.463867	34550.539063	26848.099609	77.226593
526.057434	726.086182	35766.949219	27774.060547	77.189804
526.406067	729.949890	37105.218750	28845.134766	77.292030
526.754700	734.928223	38622.253906	30017.705078	77.289116
527.103333	732.327637	40365.027344	31379.750000	77.328629
527.451782	724.674500	42284.789063	32865.355469	77.335403
527.800293	722.519714	44306.562500	34497.265625	77.493378
528.148743	726.606262	46385.703125	36218.707031	77.732811
528.497131	732.104736	48377.761719	37906.796875	78.023254
528.845642	732.699158	50168.894531	39507.496094	78.434021
529.193909	724.005676	51668.550781	40991.324219	79.041473
529.542175	719.844727	52793.050781	42151.859375	79.564941
529.890503	729.355530	53513.781250	42947.121094	79.981483
530.238770	738.420410	53608.296875	43074.550781	80.076088
530.586914	742.358459	53213.078125	42679.332031	79.924522
530.934998	737.454407	52172.625000	41639.613281	79.521774
531.283142	735.522644	50752.406250	40309.003906	79.120247
531.631226	735.522644	48864.144531	38607.839844	78.689804
531.979248	734.185242	46854.558594	36839.066406	78.284019
532.327148	741.541199	44944.531250	35182.562500	77.915588
532.675110	739.237793	43469.023438	33951.734375	77.726807
533.023071	739.386414	42631.484375	33244.296875	77.591988
533.370850	735.076843	42328.250000	32967.375000	77.494209
533.718689	739.014893	42441.191406	33074.222656	77.538414
534.066467	737.900330	42708.683594	33350.699219	77.703568
534.414246	730.395752	42891.839844	33529.250000	77.793480
534.761963	730.990173	42937.613281	33546.042969	77.748589
535.109619	729.949951	42820.214844	33432.433594	77.696075
535.457153	733.367859	42378.406250	33109.144531	77.742218
535.804749	727.646484	41703.886719	32606.337891	77.797989
536.152344	727.869446	40831.351563	31890.505859	77.705566
536.499817	725.937561	39928.722656	31138.787109	77.578285
536.847229	723.039856	38978.613281	30313.431641	77.349228
537.194641	719.993469	38085.273438	29646.490234	77.415436
537.542114	729.206970	37455.777344	29147.173828	77.377129
537.889404	731.881836	36969.246094	28860.365234	77.622879
538.236694	737.083008	36643.574219	28612.640625	77.633759
538.583984	736.265625	36306.316406	28390.474609	77.745766
538.931213	738.271790	36154.218750	28210.736328	77.570892
539.278381	742.878601	35940.597656	28021.859375	77.502129
539.625488	743.770264	35887.988281	27953.203125	77.422218
539.972595	748.451355	35977.082031	28046.453125	77.488121
540.319641	745.999329	36400.531250	28381.708984	77.509666
540.666687	736.711487	37052.613281	28886.890625	77.514748
541.013611	732.624817	38078.511719	29686.462891	77.528854
541.360596	731.658936	39244.617188	30587.013672	77.520287
541.707458	733.887939	40666.175781	31689.443359	77.520111
542.054260	728.538147	41932.148438	32671.873047	77.525574
542.401062	726.903503	43179.988281	33661.066406	77.577789
542.747864	730.395752	43931.332031	34302.667969	77.711906
543.094666	735.894226	44241.699219	34567.632813	77.763733
543.441284	738.717773	43901.542969	34348.589844	77.867638
543.787903	740.203796	43228.058594	33791.835938	77.790779
544.134460	738.866272	42162.410156	32914.542969	77.674850
544.481079	728.315247	40880.984375	31887.533203	77.601868
544.827637	722.668274	39324.273438	30687.841797	77.626755
545.174072	730.024170	37727.878906	29465.189453	77.667114
545.520508	730.692932	36259.878906	28322.712891	77.660149
545.866943	731.361633	35089.832031	27405.818359	77.635757
546.213318	723.114075	34202.582031	26748.906250	77.736580
546.559631	729.206970	33466.683594	26145.568359	77.636902
546.905823	727.126465	32866.839844	25652.343750	77.552704
547.252136	726.532043	32367.751953	25235.283203	77.458298
547.598389	722.593994	31992.150391	24924.697266	77.398293
547.944458	726.977783	31666.408203	24670.435547	77.388168
548.290588	732.624817	31230.548828	24343.429688	77.417747
548.636658	729.058289	30727.296875	23946.208984	77.395050
548.982727	730.915833	30104.861328	23485.603516	77.465546
549.328735	729.281189	29516.978516	23003.826172	77.375221
549.674622	739.757874	28773.951172	22540.771484	77.765793
550.020569	737.974609	28087.468750	22033.283203	77.863632
550.366455	740.872375	27320.962891	21475.939453	78.009766
550.712280	741.689758	26753.212891	20953.443359	77.703079
551.058044	743.621643	26222.171875	20506.806641	77.567932
551.403748	741.318176	25829.039063	20172.148438	77.451553
551.749512	738.866211	25526.552734	19921.005859	77.385757
552.095154	739.163513	25256.978516	19744.537109	77.516586
552.440735	745.404846	25167.072266	19686.431641	77.558289
552.786316	747.708313	25117.662109	19643.111328	77.535652
553.131897	743.918884	25201.697266	19694.380859	77.482353
553.477417	734.482422	25276.150391	19704.708984	77.298035
553.822815	723.336975	25288.562500	19748.771484	77.448647
554.168213	722.816895	25250.146484	19700.326172	77.372910
554.513672	723.262695	25159.943359	19643.857422	77.427025
554.859009	729.429871	25043.062500	19551.275391	77.412727
555.204285	736.414246	24923.062500	19441.232422	77.335304
555.549500	738.197510	24706.025391	19295.673828	77.426605
555.894714	741.615417	24454.585938	19120.394531	77.505173
556.239990	732.996338	24162.130859	18909.744141	77.581818
556.585022	736.785828	23896.646484	18747.095703	77.765190
556.930115	729.355469	23668.462891	18536.224609	77.626686
557.275146	732.550537	23423.634766	18353.291016	77.654907
557.620178	726.011902	23210.460938	18160.251953	77.539101
557.965149	734.185242	23025.150391	18026.210938	77.574142
558.310059	735.894226	22845.115234	17907.697266	77.668060
558.654968	741.169617	22753.650391	17766.001953	77.341728
558.999756	730.990051	22655.273438	17650.609375	77.172966
559.344604	724.822998	22598.056641	17601.572266	77.157082
559.689331	721.033691	22506.591797	17572.148438	77.349937
560.033997	729.058350	22414.306641	17543.839844	77.540184
560.378723	737.083008	22384.658203	17542.353516	77.631187
560.723389	743.398682	22356.572266	17556.394531	77.790497
561.067932	737.528809	22394.914063	17585.818359	77.794662
561.412476	734.556702	22386.666016	17509.138672	77.473198
561.757019	728.612488	22399.744141	17515.380859	77.461426
562.101501	734.036621	22420.697266	17528.533203	77.441597
562.445862	736.562927	22448.486328	17580.173828	77.577698
562.790222	739.683594	22434.740234	17550.525391	77.486969
563.134644	741.838379	22415.494141	17542.130859	77.514809
563.478943	737.677429	22390.156250	17529.349609	77.550804
563.823181	739.980774	22400.115234	17535.814453	77.542610
564.167358	746.816650	22416.906250	17524.669922	77.424011
564.511536	748.228333	22418.541016	17580.619141	77.674889
564.855774	742.655701	22439.421875	17591.986328	77.658257
565.199768	735.968445	22512.609375	17667.181641	77.749428
565.543823	735.522644	22649.031250	17729.892578	77.552025
565.887817	732.996399	22832.779297	17892.986328	77.647774
566.231812	729.429871	23003.304688	18037.505859	77.705727
566.575745	724.971680	23205.333984	18180.017578	77.645752
566.919617	726.754944	23406.767578	18315.619141	77.552269
567.263428	725.417480	23585.244141	18437.328125	77.480515
567.607239	722.891174	23729.984375	18541.796875	77.449615
567.950989	723.782776	23769.812500	18572.113281	77.446442
568.294678	728.092346	23791.134766	18599.902344	77.491119
568.638367	732.624817	23680.724609	18553.685547	77.658112
568.981995	731.287354	23566.148438	18500.931641	77.818054
569.325623	734.185242	23420.958984	18378.480469	77.773491
569.669128	736.711487	23318.349609	18277.056641	77.675255
570.012573	739.906494	23166.177734	18164.414063	77.696854
570.356140	736.265625	23073.671875	18110.619141	77.781425
570.699524	730.470032	22994.984375	18041.888672	77.753410
571.042908	734.036621	23052.939453	18089.814453	77.762680
571.386230	735.151123	23157.484375	18138.185547	77.614738
571.729492	742.729980	23284.021484	18268.289063	77.748688
572.072815	738.643311	23464.056641	18355.296875	77.519615
572.416016	731.138733	23554.333984	18459.023438	77.674858
572.759094	735.076843	23770.630859	18581.029297	77.471344
573.102234	730.247131	23845.005859	18660.162109	77.569122
573.445374	737.677429	23925.103516	18718.564453	77.545853
573.788391	733.962219	23931.421875	18713.363281	77.505905
574.131409	736.488525	23940.412109	18723.841797	77.518585
574.474365	734.779541	23915.369141	18703.035156	77.514229
574.817261	730.990173	23753.615234	18609.490234	77.656219
575.160156	729.875671	23602.109375	18475.742188	77.586945
575.502930	726.754883	23383.958984	18302.544922	77.572632
575.845703	729.801270	23229.408203	18154.234375	77.443275
576.188477	732.253357	22996.171875	17993.294922	77.529213
576.531250	730.172852	22784.111328	17839.189453	77.578056
576.873901	731.584656	22512.312500	17657.076172	77.708565
577.216431	727.795105	22235.982422	17494.650391	77.955688
577.559082	725.714661	22011.810547	17275.160156	77.747681
577.901611	718.730225	21758.810547	17050.318359	77.621323
578.244080	720.067688	21529.064453	16805.044922	77.298187
578.586487	721.925293	21209.042969	16599.822266	77.501862
578.928955	744.290344	20903.287109	16386.275391	77.593079
579.271301	747.856934	20549.306641	16133.350586	77.698830
579.613647	753.281006	20205.359375	15851.296875	77.616463
579.955872	739.832214	19894.107422	15586.852539	77.512825
580.298157	737.603210	19630.408203	15356.812500	77.379768
580.640320	734.928223	19378.074219	15194.683594	77.560707
580.982483	728.463867	19154.052734	15024.381836	77.587303
581.324524	727.200684	18983.230469	14889.671875	77.576950
581.666626	733.962219	18851.269531	14749.460938	77.359726
582.008728	739.386414	18739.443359	14684.745117	77.473969
582.350647	737.083008	18625.908203	14620.398438	77.608879
582.692566	735.374023	18522.330078	14565.339844	77.753410
583.034424	736.340027	18424.251953	14492.968750	77.774185
583.376343	739.534973	18320.302734	14432.336914	77.885117
583.718201	739.832214	18259.595703	14384.190430	77.879807
584.059937	735.002502	18183.212891	14294.579102	77.713272
584.401611	740.723816	18101.626953	14225.848633	77.675255
584.743347	737.528809	17992.923828	14161.577148	77.796242
585.085022	734.259521	17924.861328	14101.465820	77.758804
585.426514	730.990173	17864.082031	14037.417969	77.665070
585.768127	731.064453	17822.771484	13992.167969	77.587944
586.109619	729.652649	17729.818359	13963.561523	77.845764
586.451172	734.110840	17648.162109	13933.765625	78.039581
586.792542	731.733215	17613.759766	13881.457031	77.891853
587.133850	738.866272	17574.154297	13866.374023	77.976143
587.475220	734.333801	17584.630859	13872.913086	77.972389
587.816589	738.866272	17548.445313	13871.054688	78.123245
588.157776	736.934387	17600.531250	13917.122070	78.157623
588.498962	735.894226	17649.496094	13931.092773	78.015305
588.840210	729.578430	17705.966797	13962.151367	77.946930
589.181335	731.956055	17745.498047	13965.049805	77.779762
589.522400	737.900330	17772.988281	13976.043945	77.711037
589.863403	738.346130	17851.302734	14023.524414	77.632278
590.204407	739.832214	17858.287109	14030.433594	77.639023
590.545410	731.361633	17939.576172	14092.179688	77.642097
590.886353	734.631042	17900.865234	14092.328125	77.813789
591.227112	735.299744	17899.822266	14087.721680	77.790810
591.567932	732.030334	17830.945313	14021.219727	77.719490
591.908752	736.934387	17788.740234	13966.682617	77.585609
592.249512	731.584656	17771.947266	13937.258789	77.496437
592.590149	735.225403	17634.189453	13874.176758	77.750038
592.930786	728.983948	17551.341797	13815.402344	77.791817
593.271423	725.565979	17446.277344	13751.352539	77.902107
593.612000	726.532043	17410.314453	13712.417969	77.835381
593.952576	732.253357	17373.759766	13710.262695	77.985786
594.292969	734.779602	17390.179688	13718.659180	77.955978
594.633484	734.705261	17444.048828	13764.504883	77.979126
594.973877	729.058350	17536.333984	13803.809570	77.792213
595.314209	734.779602	17655.367188	13896.614258	77.785919
595.654480	737.083008	17833.767578	14012.007813	77.646194
595.994812	740.352356	18015.585938	14163.733398	77.703033
596.335022	736.562927	18210.111328	14314.344727	77.704781
596.675171	737.974609	18322.607422	14440.139648	77.921249
597.015320	732.030457	18506.357422	14574.254883	77.877632
597.355408	735.448303	18642.255859	14662.675781	77.776169
597.695496	728.389587	18793.906250	14747.456055	77.601242
598.035461	729.727051	18765.447266	14732.296875	77.637985
598.375366	721.479431	18709.871094	14735.567383	77.906281
598.715271	725.417480	18658.007813	14704.210938	77.951889
599.055176	728.835449	18552.349609	14608.286133	77.871574
599.395081	732.699158	18359.236328	14438.208008	77.754974
599.734802	737.603210	18065.814453	14180.526367	77.578247
600.074524	739.534973	17735.761719	13967.127930	77.826645
600.414246	737.157227	17355.925781	13699.043945	77.995468
600.753906	733.813660	16984.783203	13454.364258	78.275642
601.093506	729.652649	16683.189453	13179.520508	78.038292
601.433044	721.479431	16467.117188	13006.320313	78.020599
601.772583	715.015137	16339.613281	12876.364258	77.834641
602.112122	718.581604	16307.664063	12830.816406	77.696907
602.451538	729.578430	16353.956055	12786.383789	77.166626
602.790894	735.299744	16447.873047	12844.786133	77.068764
603.130310	731.584534	16562.597656	12969.243164	77.301804
603.469604	734.036621	16716.849609	13132.932617	77.576439
603.808838	730.767273	16909.072266	13322.032227	77.828087
604.148010	734.408020	17175.373047	13519.305664	77.762451
604.487305	734.259460	17460.025391	13739.167969	77.753738
604.826416	737.751709	17725.582031	13889.483398	77.418549
605.165527	737.454407	17931.625000	14029.541992	77.305786
605.504456	739.014832	18074.357422	14152.215820	77.374886
605.843445	738.940613	18183.583984	14244.351563	77.418678
606.182434	743.547363	18226.529297	14294.506836	77.509422
606.521423	735.076843	18188.859375	14269.540039	77.544579
606.860229	734.185242	18043.523438	14157.640625	77.550369
607.199036	728.761047	17812.369141	13999.524414	77.681274
607.537903	738.494812	17545.994141	13808.269531	77.761559
607.876648	741.987000	17260.523438	13620.729492	77.965393
608.215271	742.952942	16972.080078	13385.710938	77.901649
608.553955	739.832275	16715.662109	13193.488281	77.953110
608.892578	736.860107	16497.060547	13006.692383	77.853271
609.231140	734.259521	16367.774414	12892.265625	77.768860
609.569641	728.389587	16284.780273	12797.750977	77.584587
609.908081	723.559875	16276.977539	12798.718750	77.636688
610.246521	730.024231	16296.742188	12797.307617	77.519768
610.584961	729.578369	16346.450195	12822.717773	77.436378
610.923340	736.117004	16345.632813	12827.546875	77.461914
611.261597	728.166687	16306.772461	12809.416992	77.550262
611.599854	733.739319	16209.881836	12765.950195	77.746834
611.938110	730.618652	16106.823242	12693.504883	77.801292
612.276245	727.126404	15946.702148	12561.620117	77.758369
612.614319	722.593933	15718.815430	12346.586914	77.512810
612.952393	722.148193	15421.379883	12092.543945	77.353676
613.290466	726.086182	15099.799805	11878.403320	77.588280
613.628479	732.773438	14790.848633	11639.297852	77.581917
613.966370	731.807434	14517.562500	11419.659180	77.528229
614.304260	735.002502	14272.958008	11235.909180	77.566414
614.642151	725.343201	14073.901367	11095.921875	77.690628
614.979980	721.999512	13890.372070	10992.122070	77.990829
615.317749	717.615723	13730.993164	10857.856445	77.921669
615.655396	722.668274	13619.539063	10771.888672	77.919838
615.993164	728.538269	13566.265625	10725.821289	77.874245
616.330811	733.219238	13534.835938	10709.547852	77.930214
616.668396	731.287415	13507.417969	10701.226563	78.035667
617.005859	731.361633	13465.510742	10680.496094	78.129562
617.343445	732.179016	13441.584961	10673.214844	78.217941
617.680908	737.157227	13431.406250	10673.661133	78.275635
618.018311	741.763977	13497.237305	10688.223633	77.977974
618.355652	745.627747	13544.122070	10662.812500	77.487122
618.692993	740.575195	13542.933594	10663.480469	77.508415
619.030273	734.482422	13492.629883	10663.629883	77.825935
619.367554	723.559875	13473.386719	10681.461914	78.102257
619.704712	727.869385	13477.843750	10704.421875	78.247627
620.041870	734.928223	13506.749023	10668.682617	77.778687
620.379028	739.237793	13474.129883	10640.448242	77.748680
620.716064	739.906555	13430.217773	10554.702148	77.340858
621.053040	731.807556	13309.028320	10529.140625	77.897438
621.389954	731.733215	13212.211914	10463.977539	77.979736
621.726929	724.748718	13144.002930	10435.965820	78.194847
622.063843	727.200684	13111.308594	10363.743164	77.813789
622.400635	728.389587	13083.890625	10337.588867	77.772636
622.737427	732.550537	13034.034180	10319.533203	77.933548
623.074219	733.962219	12977.118164	10292.784180	78.074821
623.410889	733.367859	12920.425781	10266.778320	78.225693
623.747559	731.213074	12908.239258	10226.803711	77.979553
624.084167	731.213074	12870.643555	10209.118164	78.075371
624.420715	734.853943	12891.374023	10199.608398	77.857437
624.757324	735.299622	12900.140625	10179.917969	77.638649
625.093750	735.448303	12951.039063	10201.614258	77.492493
625.430176	733.590820	12964.933594	10222.047852	77.574944
625.766602	738.271912	12992.351563	10258.084961	77.686890
626.102905	744.884766	13065.911133	10329.563477	77.791237
626.439209	741.318298	13180.559570	10391.532227	77.578796
626.775452	740.426575	13276.335938	10484.485352	77.729172
627.111694	732.847717	13331.468750	10510.937500	77.612381
627.447876	739.534973	13427.245117	10561.165039	77.410583
627.783997	740.278015	13467.218750	10581.301758	77.324348
628.120056	739.757874	13571.987305	10641.784180	77.165283
628.456055	729.727051	13564.778320	10657.907227	77.352089
628.792053	726.086182	13567.454102	10688.372070	77.579628
629.128052	725.789063	13479.109375	10620.163086	77.582733
629.463928	731.807434	13392.620117	10578.850586	77.775757
629.799744	734.928223	13295.135742	10470.367188	77.510185
630.135559	737.083008	13162.058594	10394.875977	77.728867
630.471375	741.318298	13013.750000	10280.970703	77.732376
630.807068	745.925049	12869.007813	10162.903320	77.678085
631.142700	747.113831	12754.581055	10064.304688	77.594971
631.478333	748.302734	12611.102539	9947.796875	77.549095
631.813965	739.386414	12485.382813	9870.002930	77.733864
632.149475	737.380188	12328.901367	9755.426758	77.798645
632.484924	731.213135	12246.277344	9668.270508	77.611877
632.820435	734.110840	12173.014648	9613.360352	77.623253
633.155884	732.922058	12131.257813	9580.072266	77.617912
633.491150	735.374023	12065.499023	9561.050781	77.895668
633.826477	738.940613	12005.461914	9498.489258	77.748474
634.161804	742.730042	11929.971680	9453.758789	77.865738
634.497009	741.912781	11865.401367	9392.680664	77.770279
634.832153	740.278015	11784.709961	9356.496094	78.014137
635.167297	739.163391	11728.536133	9292.297852	77.830963
635.502380	731.361633	11644.277344	9237.833984	77.948669
635.837463	728.018066	11572.946289	9163.159180	77.779594
636.172424	720.736328	11495.820313	9086.034180	77.635567
636.507324	725.863281	11415.648438	9014.480469	77.537735
636.842224	725.640381	11296.020508	8945.156250	77.759888
637.177124	733.293518	11160.492188	8875.609375	78.087288
637.511963	727.869446	11025.706055	8799.894531	78.385635
637.846741	728.389587	10909.200195	8698.025391	78.280952
638.181396	726.011902	10790.463867	8600.836914	78.243950
638.516113	729.652649	10726.787109	8496.144531	77.687180
638.850769	732.550476	10643.939453	8436.999023	77.733292
639.185303	735.002502	10575.952148	8389.074219	77.777779
639.519836	738.123230	10517.921875	8332.307617	77.651749
639.854370	730.470032	10443.097656	8253.174805	77.452827
640.188843	732.922058	10356.461914	8161.485840	77.191597
640.523254	728.018066	10232.599609	8082.873047	77.382202
640.857605	734.556641	10141.355469	8029.894531	77.553886
641.191895	729.727051	10061.554688	7964.136719	77.524033
641.526184	730.024231	10011.028320	7929.363770	77.570694
641.860413	724.154297	9965.333008	7883.295410	77.470001
642.194580	723.708496	9913.097656	7844.583984	77.490196
642.528748	726.532043	9826.980469	7786.702637	77.580467
642.862793	724.748718	9760.777344	7723.842285	77.457634
643.196838	723.559875	9721.545898	7686.468750	77.382965
643.530823	717.392761	9674.363281	7658.976563	77.499237
643.864746	722.222412	9630.152344	7629.923340	77.545532
644.198669	717.838562	9561.050781	7588.091309	77.689568
644.532532	730.247131	9523.750977	7553.837402	77.598083
644.866333	730.841553	9486.153320	7519.212402	77.534317
645.200073	740.129395	9466.018555	7532.066406	77.836624
645.533813	736.042725	9446.476563	7520.253418	77.886032
645.867554	738.271790	9426.786133	7501.306152	77.838783
646.201172	740.723816	9421.064453	7475.448730	77.585953
646.534729	736.785828	9451.973633	7475.894531	77.326035
646.868225	735.819824	9471.813477	7495.584473	77.378311
647.201782	729.504089	9469.807617	7482.730469	77.265350
647.535217	731.956055	9455.169922	7479.980957	77.357094
647.868591	730.915833	9452.197266	7482.135254	77.410866
648.201965	726.532043	9470.549805	7524.116699	77.739830
648.535278	725.714661	9470.996094	7525.825684	77.757484
648.868591	732.402039	9476.198242	7527.014160	77.707809
649.201782	727.497986	9447.887695	7473.070313	77.354027
649.534912	724.228699	9401.968750	7442.606934	77.420830
649.868103	721.628113	9325.585938	7410.878906	77.746208
650.201172	734.705322	9271.122070	7388.514160	77.946152
650.534180	738.643311	9229.363281	7368.750000	78.086510
650.867188	735.374023	9196.075195	7328.254395	77.923569
651.200134	722.222473	9172.819336	7312.948730	77.991249
651.533020	718.953125	9137.301758	7262.645020	77.731300
651.865845	719.770447	9087.446289	7249.270996	78.032425
652.198608	729.058289	9041.898438	7220.144043	78.085060
652.531433	733.219238	9007.718750	7207.586426	78.244812
652.864136	734.779602	8990.704102	7158.546875	77.807968
653.196777	1032.807739	9301.288086	7469.281250	77.843491
653.529358	1049.228760	9252.917969	7460.958984	78.156670
653.861938	1054.058472	9207.147461	7432.353027	78.231628
654.194519	761.974365	8818.915039	7044.195313	77.972786
654.526978	746.147949	8797.218750	6994.783691	77.612480
654.859375	737.974670	8733.020508	6942.697754	77.607101
655.191833	738.197571	8686.656250	6934.524902	77.956337
655.524170	737.974609	8614.508789	6889.347656	78.097458
655.856445	737.157227	8589.617188	6885.855957	78.302834
656.188660	750.383118	8579.883789	6865.646484	78.105408
656.520874	751.943542	8543.624023	6825.671387	77.951447
656.853088	748.302673	8541.990234	6827.157715	77.997162
657.185181	722.668274	8496.218750	6794.018066	78.102661
657.517212	719.176025	8535.376953	6804.717285	77.858040
657.849243	722.519714	8550.163086	6782.278809	77.414856
658.181274	727.126404	8616.664063	6824.482422	77.284073
658.513123	721.776550	8655.524414	6866.760254	77.453728
658.844971	720.216248	8719.499023	6943.292480	77.795425
659.176819	722.816833	8791.794922	6977.917480	77.520355
659.508667	729.727051	8872.858398	7035.056152	77.431259
659.840393	735.002441	8953.477539	7083.724121	77.249390
660.172058	734.482422	8992.634766	7159.958496	77.807671
660.503662	731.510254	9014.331055	7191.091309	77.987701
660.835266	729.281189	9049.700195	7210.855957	77.899620
661.166931	728.092468	9034.170898	7170.509766	77.562691
661.498413	736.711609	9018.715820	7162.782715	77.590775
661.829773	733.962341	8922.940430	7117.011719	77.946838
662.161194	729.949951	8820.625000	7035.279297	77.933289
662.492615	726.011902	8686.210938	6929.322754	77.929092
662.823975	730.692932	8530.175781	6817.497559	78.041130
663.155212	738.791992	8390.188477	6717.486328	78.138603
663.486450	733.590759	8227.912109	6604.396973	78.336731
663.817627	734.408142	8093.943848	6486.404785	78.157059
664.148743	732.401917	7973.275879	6390.925293	78.146965
664.479858	733.219238	7872.596191	6305.180176	78.045479
664.810913	728.166687	7809.735840	6228.871094	77.676353
665.141907	726.309082	7743.235840	6163.113281	77.481270
665.472778	727.646545	7669.675781	6106.123535	77.477013
665.803711	739.237793	7590.320313	6064.143066	77.723564
666.134583	739.980774	7524.859375	6035.388184	78.047195
666.465454	740.946777	7516.017578	6017.925781	77.888176
666.796143	734.631042	7478.271484	6001.133301	78.095833
667.126831	733.070618	7469.207031	5994.520020	78.107819
667.457458	725.194641	7437.703125	5968.960449	78.119316
667.788147	721.776672	7430.644043	5939.016113	77.766319
668.118774	721.256592	7399.882324	5922.521484	77.879265
668.449219	729.429871	7381.158203	5912.193848	77.916054
668.779663	728.389648	7373.728027	5906.992188	77.928352
669.110107	729.801331	7351.585938	5872.664063	77.665810
669.440552	729.652771	7332.415527	5861.964844	77.729767
669.770874	734.408020	7282.781250	5839.970703	77.966888
670.101135	732.327637	7272.973145	5834.472656	78.006752
670.431396	732.550476	7234.187500	5821.543457	78.272484
670.761597	726.903503	7202.979980	5782.980469	78.073151
671.091797	724.971680	7160.404785	5755.934082	78.175972
671.421875	725.640381	7135.587402	5711.873047	77.788979
671.751892	739.312073	7107.724121	5706.449219	77.996475
672.081909	743.918762	7072.355957	5662.016113	77.714249
672.411865	742.581360	7011.947754	5634.970215	78.036415
672.741821	727.943787	6970.635254	5583.106934	77.773560
673.071716	730.470032	6930.884277	5552.642090	77.771774
673.401550	721.479309	6921.298828	5508.878418	77.218361
673.731262	725.863281	6887.564941	5491.564941	77.343918
674.060974	722.742493	6849.076172	5461.918457	77.357460
674.390625	735.522644	6822.847168	5459.095215	77.596855
674.720276	734.779602	6801.670410	5449.658691	77.714912
675.049927	732.773499	6770.166504	5425.064941	77.720490
675.379395	728.835449	6700.173828	5384.346680	77.964287
675.708923	730.098572	6642.738281	5335.083984	77.883751
676.038330	726.829163	6602.019531	5308.780762	77.988136
676.367737	727.126465	6584.855469	5280.322754	77.729721
676.697083	724.600159	6556.620605	5270.366211	77.944962
677.026428	731.064453	6526.007813	5261.078613	78.171844
677.355652	729.504089	6500.447754	5243.022949	78.211105
677.684875	734.110840	6497.550293	5228.459473	77.980324
678.013977	734.036621	6505.203125	5211.814941	77.588791
678.343079	736.191406	6500.002441	5212.335449	77.659454
678.672180	729.058289	6512.335938	5206.540527	77.421188
679.001221	726.457703	6513.524902	5223.109375	77.701736
679.330139	723.931396	6543.617676	5255.728516	77.870117
679.659058	724.228577	6568.286621	5279.653809	77.949692
679.987976	730.024231	6618.291504	5309.598145	77.774559
680.316772	734.110901	6648.979004	5329.957031	77.699890
680.645630	737.305908	6702.997559	5364.879395	77.569771
680.974304	737.900391	6745.498535	5394.229004	77.507324
681.302979	737.751770	6789.485840	5420.606445	77.380379
681.631653	734.556702	6791.714355	5435.095703	77.603050
681.960266	730.024231	6805.832031	5449.510254	77.676682
682.288757	735.894226	6832.877441	5471.355469	77.668922
682.617249	740.798157	6862.524902	5488.444824	77.554047
682.945679	743.993164	6859.924316	5474.476074	77.346893
683.274109	737.751770	6825.894531	5432.494629	77.112892
683.602478	739.460693	6754.117676	5381.374512	77.176704
683.930725	734.482422	6685.833496	5321.709473	77.078751
684.259033	731.213074	6613.759277	5271.703613	77.185806
684.587280	730.395813	6547.259277	5218.502930	77.156822
684.915344	733.367920	6477.934082	5175.184082	77.322052
685.243469	735.819885	6400.064941	5129.413574	77.567154
685.571533	738.420410	6328.882813	5068.263184	77.450531
685.899536	742.061218	6260.895996	5016.770996	77.456749
686.227539	740.649597	6209.478516	4945.960449	76.896004
686.555420	738.569031	6175.596191	4922.703613	76.956291
686.883301	736.785828	6159.992188	4914.530762	77.034592
687.211121	737.231628	6153.974121	4923.744141	77.288383
687.538940	736.860046	6170.692871	4930.282715	77.172462
687.866638	727.497986	6162.147949	4929.614258	77.320824
688.194336	722.593994	6172.104004	4943.434082	77.453568
688.521973	717.169922	6159.844238	4936.970215	77.531746
688.849609	721.182190	6150.853027	4933.998047	77.588791
689.177063	722.965515	6122.172363	4924.561035	77.818756
689.504578	725.714661	6070.160645	4897.218262	78.053062
689.832031	729.281250	6011.089844	4864.747559	78.296410
690.159485	727.423645	5931.957520	4789.627930	78.051262
690.486816	723.411316	5848.070313	4730.705566	78.196304
690.814087	728.909668	5758.833496	4667.325195	78.299706
691.141296	734.259460	5673.161621	4619.994141	78.676079
691.468506	737.008728	5588.828125	4567.462402	78.948807
691.795715	728.983948	5530.425781	4493.085938	78.395241
692.122803	729.949951	5468.531250	4426.732910	78.014557
692.449829	730.767334	5419.194824	4377.693359	77.785690
692.776855	733.145020	5357.300293	4334.598145	77.883484
693.103821	731.064514	5303.430664	4297.446289	77.998604
693.430664	725.120300	5250.304199	4228.642090	77.422745
693.757568	728.166687	5193.388184	4180.345215	77.312592
694.084351	731.584656	5128.299316	4143.491211	77.601265
694.411133	738.346130	5082.306152	4134.946289	78.191330
694.737854	737.380188	5041.067871	4106.414063	78.282494
695.064575	738.197510	5031.482910	4078.030518	77.792015
695.391174	743.027161	4998.195313	4048.309326	77.676895
695.717773	740.055176	4981.774902	4029.288086	77.544800
696.044250	736.562805	4946.258301	4026.538818	78.152359
696.370789	735.894104	4954.653809	4021.857666	77.889328
696.697205	740.500977	4971.074707	4049.944336	78.226822
697.023621	744.587585	5024.201172	4081.820313	77.979759
697.349915	748.079773	5088.695801	4129.150879	77.893806
697.676208	744.364685	5144.720215	4157.459961	77.564079
698.002380	740.723877	5218.354492	4209.323730	77.465073
698.328674	734.853943	5296.817871	4275.304199	77.608025
698.654724	730.172852	5396.309082	4345.297363	77.475761
698.980896	731.807434	5491.045410	4402.882324	77.135773
699.306946	728.389587	5572.927246	4456.454590	76.953987
699.632935	724.154297	5642.548828	4504.528809	76.861961
699.958862	717.838623	5674.498535	4535.363770	77.018097
700.284729	711.522888	5668.331543	4554.385254	77.526947
700.610596	719.844788	5622.041504	4550.149902	78.134460
700.936340	726.829285	5573.818848	4505.716797	77.963593
701.262146	733.144958	5480.197266	4421.011719	77.687508
701.587830	732.253235	5376.767578	4322.709473	77.305313
701.913513	731.584656	5227.196289	4227.899414	77.771721
702.239075	731.658936	5084.312500	4127.070313	78.007851
702.564697	731.658875	4955.768555	4018.811279	77.818817
702.890137	729.727051	4831.608398	3911.072266	77.558197
703.215698	730.618652	4741.033691	3825.252686	77.164932
703.541016	734.036621	4649.789551	3758.231689	77.231506
703.866455	729.875671	4593.765625	3712.238281	77.185493
704.191711	735.299744	4517.085449	3654.579346	77.193153
704.517029	724.080017	4444.045898	3609.106201	77.555176
704.842163	729.652771	4353.099121	3561.552002	78.154854
705.167419	729.875671	4307.700195	3519.422607	77.967682
705.492493	736.711487	4273.000977	3490.221680	77.864388
705.817566	737.454590	4239.564941	3450.246826	77.461647
706.142578	730.395752	4204.716797	3437.912354	77.929375
706.467590	730.692932	4180.345703	3425.949951	78.131256
706.792480	727.795166	4172.989746	3416.439209	78.040413
707.117371	732.253357	4170.908691	3406.631104	77.773941
707.442200	736.785828	4170.760254	3402.024414	77.613815
707.766907	733.442200	4175.441406	3415.398682	77.918571
708.091675	728.612488	4179.750488	3412.203857	77.759605
708.416321	725.045959	4186.141113	3415.547607	77.735558
708.741028	729.058350	4195.800293	3423.720703	77.728958
709.065552	729.652771	4203.676270	3450.321045	78.314621
709.390137	732.179016	4200.704102	3462.506836	78.717255
709.714600	735.374023	4214.598633	3466.296631	78.492279
710.039063	734.110840	4234.660645	3480.413818	78.453476
710.363403	729.652771	4284.443359	3508.946045	78.184441
710.687744	730.544373	4330.362793	3543.942383	78.153885
711.012085	729.949951	4390.398926	3579.162109	77.837776
711.336304	734.036560	4430.076660	3599.372314	77.524475
711.660461	725.789001	4471.240723	3632.659912	77.610687
711.984619	725.937500	4495.686035	3644.102539	77.410072
712.308716	727.200684	4521.469238	3660.968994	77.321053
712.632751	733.070557	4514.559082	3653.539063	77.230659
712.956726	737.528809	4488.478027	3642.319092	77.441475
713.280701	741.689758	4440.330078	3624.263672	77.936043
713.604553	741.095276	4406.151367	3592.313721	77.794678
713.928467	738.791992	4346.412109	3567.199463	78.400925
714.252258	739.757874	4300.642090	3523.360596	78.171669
714.575989	741.466797	4242.091309	3482.865967	78.311714
714.899719	740.500916	4186.066895	3427.956055	77.997498
715.223267	738.643311	4144.902832	3392.142334	77.900673
715.546936	742.061218	4107.974609	3366.210693	77.962479
715.870422	747.856934	4090.439209	3337.009766	77.459656
716.193970	734.556702	4054.699951	3306.248291	77.457245
716.517395	732.922058	4033.968994	3267.982422	76.795647
716.840820	722.445313	3996.297607	3242.125000	76.963753
717.164124	724.080078	3976.755859	3215.227539	76.587639
717.487488	713.826233	3931.505859	3196.949219	77.171234
717.810730	729.652771	3906.762939	3188.552734	77.394234
718.133972	736.637207	3850.515625	3163.735596	77.944550
718.457092	743.175842	3798.355469	3125.321045	77.970711
718.780212	731.881775	3750.653076	3073.903564	77.581955
719.103210	730.395752	3699.383789	3045.222656	77.966866
719.426208	729.801331	3665.279053	3004.579102	77.492592
719.749207	741.838379	3619.360107	2970.325439	77.444664
720.072083	743.250183	3579.236328	2924.406250	76.909966
720.394958	737.900391	3531.088623	2901.892578	77.473915
720.717773	725.640442	3484.723389	2863.998291	77.502487
721.040527	721.702332	3443.782471	2821.571533	77.142075
721.363281	726.309082	3411.238037	2796.828857	77.116371
721.685913	732.030457	3384.340576	2784.123047	77.370010
722.008545	736.711426	3350.755615	2772.903076	77.894310
722.331055	730.470032	3300.526611	2736.643555	78.059509
722.653503	726.829285	3272.589111	2708.185547	77.829659
722.976013	726.457703	3265.604492	2688.049561	77.253975
723.298401	734.259460	3287.672119	2685.671875	76.423698
723.620789	730.990173	3272.588867	2685.597656	76.904648
723.943115	729.801331	3264.415771	2683.442627	77.078438
724.265381	725.789063	3232.985596	2679.950439	77.942093
724.587585	733.962341	3231.128174	2678.315674	77.862404
724.909790	737.900391	3222.583252	2668.804932	77.712311
725.231873	743.844543	3233.877197	2658.328369	76.885895
725.553894	742.581360	3238.261475	2657.288330	76.720848
725.875916	835.757019	3340.798828	2773.348877	77.347687
726.197937	838.357666	3336.637939	2791.107422	78.163757
726.519775	838.431946	3339.833252	2770.674072	77.246384
726.841675	738.569031	3239.895752	2662.712158	76.924904
727.163513	732.922058	3254.384766	2667.764893	76.734940
727.485291	733.813660	3248.217773	2692.359131	77.893028
727.806946	741.318176	3283.288818	2715.318604	77.656303
728.128662	740.129395	3305.876953	2735.083252	77.753319
728.450256	736.562805	3345.703125	2757.448242	77.454071
728.771790	727.423645	3356.402344	2770.599854	77.717491
729.093323	728.389587	3355.139404	2774.017822	77.876785
729.414795	729.801331	3347.931885	2778.030273	78.232498
729.736145	731.287415	3340.873047	2775.949951	78.351997
730.057495	726.903564	3340.650391	2774.017822	78.321060
730.378845	728.463867	3350.904297	2770.897217	77.882927
730.700134	730.024231	3346.000000	2765.175537	77.797028
731.021301	730.024231	3345.257080	2755.144775	77.435577
731.342468	727.200745	3336.489502	2757.151123	77.797081
731.663574	727.646484	3350.235352	2759.528564	77.476196
731.984680	734.631042	3358.928955	2763.615234	77.315315
732.305664	735.671204	3389.838623	2758.860107	76.226875
732.626648	735.671204	3396.749023	2779.367432	76.799568
732.947571	730.321472	3410.792236	2794.525391	77.009003
733.268433	725.863281	3406.482422	2806.042236	77.600693
733.589233	727.423584	3387.981201	2787.243408	77.420609
733.909973	734.556702	3360.637451	2767.701904	77.421272
734.230713	735.522705	3327.498779	2740.804443	77.364975
734.551331	739.460693	3301.195313	2706.847900	76.799026
734.871948	736.339905	3263.746826	2672.891846	76.622086
735.192505	740.203613	3207.500000	2640.644531	77.025238
735.513062	734.185242	3172.057373	2621.474365	77.415428
735.833435	724.971680	3124.503906	2604.979248	78.348923
736.153931	725.863281	3078.956055	2571.765625	78.445793
736.474304	728.835449	3029.693359	2538.924072	78.670158
736.794617	734.779602	2991.353271	2491.964844	77.869614
737.114807	730.395752	2980.356445	2468.410889	77.246468
737.434998	729.206848	2971.217529	2451.321045	76.811150
737.755188	735.968445	2978.350342	2459.791748	76.874649
738.075256	736.265625	2983.551514	2466.032959	76.971397
738.395325	735.374023	2984.591797	2476.063965	77.390900
738.715271	723.114075	2992.913818	2483.791260	77.569717
739.035278	725.640381	3000.938477	2494.045166	77.721893
739.355164	721.033630	3009.185791	2494.193604	77.493095
739.675049	726.680603	3026.944336	2494.267822	76.842804
739.994873	725.863281	3031.699463	2506.528076	77.224251
740.314636	736.860107	3038.089600	2505.190430	76.842850
740.634277	741.764099	3019.885498	2497.388672	77.064575
740.953979	739.014832	2996.405518	2466.404541	76.521523
741.273499	735.076843	2963.266602	2449.389404	76.937454
741.593140	738.494812	2921.062744	2430.665039	77.531158
741.912598	739.609314	2885.546143	2413.649658	78.009766
742.232117	736.340027	2846.166016	2375.458008	77.689720
742.551453	735.448425	2809.608643	2345.216797	77.610611
742.870850	739.460693	2774.909424	2311.409180	77.228600
743.190063	738.866272	2732.854248	2294.468018	78.014603
743.509338	730.098572	2705.882080	2259.768555	77.420929
743.828552	726.234802	2678.910400	2239.335205	77.488571
744.147705	728.389587	2667.467529	2213.700928	76.598846
744.466797	733.144958	2644.359619	2201.812500	76.844719
744.785828	737.008606	2626.155518	2187.843506	76.798416
745.104858	740.649475	2588.186768	2180.859131	77.952942
745.423706	739.609314	2575.406494	2172.462891	78.050758
745.742615	737.083008	2559.356934	2157.305420	77.936821
746.061401	731.956055	2565.078369	2146.308350	77.155373
746.380249	729.652649	2552.447021	2130.036133	76.826195
746.698975	730.618652	2544.571045	2124.166260	76.823822
747.017639	736.191406	2539.146729	2113.763672	76.406342
747.336304	742.729980	2535.357422	2106.853760	76.096336
747.654907	745.330566	2532.236816	2100.760742	75.853455
747.973389	742.952881	2532.236572	2108.711182	76.329895
748.291931	745.776367	2538.403809	2111.831787	76.204086
748.610352	744.216064	2535.282959	2111.831787	76.357605
748.928711	736.562805	2543.233643	2109.677246	76.002472
749.247070	733.219238	2532.013916	2110.345947	76.558304
749.565308	735.448425	2534.540283	2105.293213	76.140900
749.883545	738.717712	2523.840576	2093.330322	75.883438
750.201782	733.590820	2525.252441	2085.974365	75.482086
750.519836	735.374023	2504.596191	2074.606201	75.696098
750.837952	742.432800	2487.878174	2071.857178	76.165337
751.155884	746.073547	2464.472656	2059.522705	76.434464
751.473877	739.609192	2465.364502	2061.306152	76.586578
751.791809	732.179016	2447.828857	2049.269043	76.769165
752.109619	729.281189	2445.005371	2042.284668	76.527657
752.427490	724.377197	2429.550537	2033.888306	76.796364
752.745300	724.897278	2433.860107	2037.826538	76.826080
753.062988	724.525818	2424.126221	2040.872681	77.450378
753.380615	730.470032	2417.439209	2033.888306	77.263901
753.698303	733.070618	2410.974609	2026.532227	77.087936
754.015808	737.454529	2416.398682	2028.538452	76.898567
754.333374	737.974609	2413.872314	2035.820313	77.441818
754.650757	739.386414	2408.894287	2029.132935	77.253105
754.968262	737.677429	2392.696289	2021.331055	77.561272
755.285583	733.962219	2399.309326	2007.807983	76.491302
755.602905	731.956116	2386.009033	2010.260132	77.283134
755.920105	722.296692	2372.560303	1999.337524	77.384041
756.237305	722.148132	2352.647217	2001.715332	78.477028
756.554443	724.377258	2356.362305	1984.922852	77.240021
756.871582	731.287354	2356.065186	1983.511108	77.070457
757.188599	732.699036	2357.253906	1971.102539	76.230331
757.505615	730.395691	2352.944336	1981.802124	77.125977
757.822510	728.389587	2369.885010	1988.712402	76.778938
758.139465	731.881836	2377.910156	1995.919800	76.793205
758.456238	735.596924	2398.937744	2005.727539	76.360214
758.773010	735.299744	2415.656006	2012.340698	75.998230
759.089783	736.488586	2430.962158	2036.340332	76.711243
759.406433	735.968445	2435.643311	2037.752075	76.590164
759.723145	736.934387	2438.020752	2050.903564	77.242943
760.039673	731.658936	2450.949463	2052.538330	76.827003
760.356201	724.005676	2451.915527	2060.042969	77.321007
760.672668	725.714661	2440.770264	2055.213135	77.519264
760.989136	718.135742	2431.110840	2043.473633	77.370529
761.305481	718.433044	2431.556641	2045.331055	77.454887
761.621826	716.575439	2446.565674	2042.804688	76.661079
761.938049	724.525879	2447.977539	2050.458008	76.934685
762.254333	736.117004	2461.351807	2053.429932	76.355576
762.570496	734.928223	2505.933594	2070.445313	75.410110
762.886597	731.807434	2576.521240	2118.147705	75.152054
763.202637	716.352539	2681.362549	2200.103760	75.508583
763.518677	719.547546	2796.680420	2303.458740	76.254684
763.834656	724.080078	2932.951416	2405.699219	76.130241
764.150574	735.596985	3069.594482	2503.853271	75.760849
764.466370	738.420410	3161.878174	2593.387939	76.542183
764.782288	736.562805	3207.722656	2626.675537	76.486870
765.097961	727.572205	3192.119141	2626.823975	77.062920
765.413696	727.572205	3154.447998	2587.220947	76.627274
765.729309	723.411316	3083.488525	2539.889893	76.966911
766.044861	733.442139	2973.074951	2457.785645	76.992241
766.360474	732.179016	2830.785156	2348.040527	76.996895
766.675903	739.014893	2695.405273	2235.620361	76.498306
766.991394	727.795166	2585.437500	2138.283691	75.928963
767.306763	724.674500	2504.373291	2075.126221	75.880913
767.622131	728.241028	2426.057861	2031.510742	76.761505
767.937378	737.528809	2356.510986	1986.408813	77.139824
768.252625	745.999329	2300.783691	1950.223511	77.452805
768.567810	740.426575	2245.948242	1909.059937	77.623146
768.882996	734.631042	2199.509033	1873.766113	77.763138
769.197998	725.343079	2150.246338	1838.472290	78.119629
769.513062	731.138855	2128.327148	1810.682983	77.265480
769.828064	732.996338	2101.281006	1791.884399	77.387993
770.142944	735.225403	2085.529053	1776.132324	77.086876
770.457825	732.327637	2054.544678	1755.401855	77.375664
770.772705	733.962219	2037.380737	1733.854126	76.713036
771.087402	734.036621	2007.288086	1703.464233	76.137955
771.402100	735.522644	1976.600952	1694.547852	77.273544
771.716736	737.900330	1953.567017	1671.662720	76.810722
772.031372	740.946777	1944.799316	1662.449097	76.546112
772.345947	740.203674	1936.477539	1639.860962	75.204956
772.660461	731.064453	1924.291870	1641.421509	76.293678
772.974854	726.754883	1898.508789	1629.533081	77.045036
773.289246	729.652771	1887.363403	1618.610474	76.785828
773.603638	727.795227	1863.437988	1601.966675	76.975914
773.917908	725.268860	1855.264648	1591.267090	76.637291
774.232178	720.736389	1844.564941	1582.573608	76.687599
774.546265	727.349304	1840.478394	1570.313843	75.729263
774.860474	730.321472	1826.583618	1561.694458	75.837059
775.174561	722.891113	1810.757324	1558.350952	76.798035
775.488586	730.024231	1804.961792	1548.394409	76.131882
775.802551	739.386414	1805.630493	1545.793823	75.630653
776.116516	747.411072	1795.748047	1529.967285	74.647400
776.430359	743.770203	1779.773071	1523.800171	75.292252
776.744202	736.488586	1768.256226	1510.574219	75.025192
777.057922	736.488586	1758.968262	1510.648560	75.713974
777.371704	739.906494	1752.355347	1503.292603	75.399971
777.685303	744.290344	1732.070679	1494.599243	75.959084
777.998962	740.055176	1720.702515	1493.484741	76.829819
778.312500	729.504089	1710.448608	1494.747681	78.010895
778.626038	729.429871	1712.752075	1494.747925	77.829834
778.939453	735.894104	1723.823120	1490.586914	76.391403
779.252869	740.426575	1724.937622	1490.884155	76.226425
779.566223	732.476257	1716.318726	1495.862427	77.592316
779.879578	729.875671	1707.253540	1494.896484	78.272781
780.192749	725.566101	1698.263062	1494.525024	79.054314
780.505920	730.692871	1700.120605	1469.856445	76.247414
780.819031	728.835388	1683.328125	1451.652344	75.727867
781.132141	740.946716	1678.944336	1451.577759	75.760429
781.445190	735.671204	1665.569824	1458.339478	77.714737
781.758118	735.745605	1669.433472	1458.265137	77.383415
782.071045	724.600159	1657.990845	1438.723633	76.508530
782.383911	727.869446	1651.526489	1436.791626	76.751671
782.696838	729.132629	1634.213989	1433.002319	77.768661
783.009583	735.374023	1635.254395	1426.760742	76.830956
783.322266	731.807434	1626.635254	1417.398804	76.617126
783.634888	732.104736	1621.136841	1409.597046	76.205605
783.947510	726.606262	1612.071899	1407.739380	76.923721
784.260132	729.132568	1600.629272	1393.176147	76.195763
784.572571	725.194519	1590.078247	1377.795410	75.455330
784.885010	725.937561	1578.858398	1366.427124	75.093674
785.197449	729.281250	1577.818359	1367.244263	75.183868
785.509766	729.355530	1572.394165	1367.095703	75.647797
785.822083	731.733215	1563.180664	1358.550903	75.388733
786.134277	730.915833	1559.242676	1356.990601	75.583061
786.446533	743.398743	1549.063110	1358.328003	76.325737
786.758606	738.791992	1544.530762	1361.002930	77.222412
787.070740	736.191406	1543.936157	1356.916260	76.846657
787.382690	721.033691	1550.474976	1365.015259	77.640404
787.694641	722.668274	1569.422241	1375.566284	77.105988
788.006653	720.736511	1588.294922	1391.615601	77.329559
788.318481	724.451477	1619.650757	1403.875610	75.896416
788.630310	723.782776	1634.065430	1413.534790	75.773392
788.942017	723.857117	1664.603882	1417.993164	73.785645
789.253784	728.538147	1677.161011	1431.367554	74.089447
789.565430	732.327637	1685.334106	1443.330444	74.606293
789.877014	736.042725	1665.941040	1449.794556	76.755898
790.188538	730.321472	1652.046509	1434.637085	76.412766
790.500061	732.847839	1632.950806	1422.005493	76.564316
790.811462	733.665039	1605.904663	1412.791992	77.860138
791.122925	735.522644	1584.876953	1401.646484	78.427086
791.434204	727.349365	1555.899048	1385.522827	79.436813
791.745483	731.436035	1543.267578	1365.981079	78.162155
792.056702	724.748718	1520.976685	1345.325073	77.939529
792.367920	729.652649	1513.620728	1330.464478	76.637283
792.678955	724.451477	1496.679688	1318.576172	76.936417
792.990112	734.036621	1488.432251	1310.402710	76.401039
793.301086	737.751709	1475.057617	1313.300659	78.061081
793.612122	741.466797	1466.290039	1306.910522	78.011261
793.922974	743.250061	1462.723267	1306.687622	78.312515
794.233826	736.042786	1461.237305	1295.913696	77.202858
794.544556	732.624817	1454.921753	1294.873535	77.841766
794.855286	726.754883	1450.240601	1283.059448	76.892265
795.166016	736.860046	1459.008179	1279.121460	75.090050
795.476624	738.346130	1469.113403	1283.133667	74.550072
795.787292	741.169678	1475.949219	1304.384155	76.650810
796.097778	730.247131	1481.967773	1310.031250	77.127602
796.408264	732.699036	1497.274048	1319.541992	76.754135
796.718689	735.968445	1513.843628	1322.662842	75.422691
797.029053	739.089172	1519.119141	1334.402710	76.319313
797.339355	737.231628	1515.106812	1329.052734	76.081757
797.649658	726.457703	1509.385376	1333.213745	77.498352
797.959839	729.949890	1498.834473	1329.870117	78.024742
798.270020	729.504089	1488.134888	1334.402588	79.735558
798.580078	738.717590	1477.658203	1318.427368	78.451469
798.890137	730.470032	1466.215698	1303.046997	77.822678
799.200195	721.925293	1465.621216	1284.248413	75.611969
799.510071	719.027527	1454.475708	1272.285645	75.227341
799.820007	721.405090	1450.834961	1269.387695	75.124786
800.129883	727.126465	1439.912476	1263.071899	75.190231
800.439575	726.606262	1432.853516	1258.465210	75.307755
800.749329	731.956116	1423.045532	1254.750122	75.647812
801.058960	735.522644	1415.986938	1250.143188	75.627853
801.368591	735.745544	1400.383423	1251.926514	77.663490
801.678162	732.624817	1393.919067	1244.496216	77.404480
801.987671	724.228699	1388.866577	1243.976196	78.200104
802.297119	723.336975	1391.095581	1235.505615	76.699669
802.606506	725.566101	1389.758179	1222.874146	74.874130
802.915894	729.355530	1383.293823	1217.301392	74.616501
803.225159	726.754883	1376.755249	1209.128052	74.211212
803.534424	728.835449	1364.569580	1215.815430	76.601204
803.843628	729.801331	1355.058716	1218.118774	78.098625
804.152771	737.083008	1360.557129	1222.354126	77.833405
804.461792	741.987000	1366.278442	1220.124878	76.588890
804.770874	741.912659	1369.101929	1219.901978	76.211334
805.079773	744.810486	1367.690308	1224.285767	76.977173
805.388733	737.751648	1371.405273	1235.431274	78.541275
805.697571	742.581360	1385.968750	1240.186646	77.341476
806.006470	738.420410	1389.981079	1250.663452	78.617859
806.315125	744.141785	1395.256470	1252.669556	78.101105
806.623901	740.129395	1394.810669	1248.285767	77.618896
806.932495	737.008728	1393.844727	1239.592285	76.515839
807.241150	733.442200	1392.061523	1232.459229	75.767143
807.549622	732.624817	1385.671509	1228.892700	75.992714
807.858154	727.795166	1388.643555	1225.994873	75.387901
808.166565	719.176025	1379.950195	1215.072388	75.047783
808.474915	721.999512	1373.114258	1208.682495	74.746117
808.783264	726.086243	1358.625366	1199.245972	74.803238
809.091492	726.086182	1359.219727	1197.016724	74.380920
809.399719	723.485596	1358.625244	1195.976563	74.391663
809.707825	727.795166	1358.179565	1197.611206	74.528503
810.015930	737.231628	1349.114380	1192.410034	74.389809
810.323975	738.569031	1338.117676	1188.769165	75.089844
810.632080	742.358459	1329.647095	1176.434937	73.911949
810.939880	736.860046	1310.402710	1170.862427	75.670464
811.247864	732.773438	1299.480225	1155.853149	74.655838
811.555664	722.371094	1296.285278	1161.945923	76.592430
811.863464	718.284424	1292.198608	1166.701294	78.133087
812.171143	718.581604	1294.204834	1170.787964	78.559433
812.478882	720.439209	1287.740479	1162.094604	77.852005
812.786438	729.132629	1293.981812	1155.184448	75.427536
813.094055	725.714661	1288.334839	1146.862549	74.854744
813.401489	734.110901	1280.235962	1142.255737	74.734680
813.708984	733.219238	1275.926392	1135.271362	74.082703
814.016357	746.073547	1280.161499	1146.490967	74.972191
814.323730	734.928223	1279.195679	1142.032837	74.798630
814.630981	727.795166	1272.062622	1143.370239	76.354935
814.938232	720.662109	1261.363037	1133.042358	76.267715
815.245361	728.984070	1269.164917	1129.847290	74.209076
815.552490	736.860046	1269.313477	1124.274536	72.760262
815.859619	737.528809	1267.604492	1124.497437	73.002525
816.166565	730.767273	1262.254761	1135.271362	76.107925
816.473572	728.909668	1259.579712	1138.020508	77.093262
816.780457	731.658875	1264.186523	1149.388794	78.442863
817.087341	741.169617	1262.477539	1152.658203	78.933884
817.394043	736.562927	1276.892212	1160.162720	78.396599
817.700806	735.076843	1284.768433	1158.305054	76.993759
818.007507	735.299744	1296.656860	1157.264771	75.168732
818.314209	739.312073	1305.573120	1156.373169	73.651733
818.620667	735.522644	1308.842407	1165.289551	74.961121
818.927246	725.268860	1319.541992	1177.920898	76.169022
819.233704	726.903503	1334.030884	1199.765991	77.885216
819.540161	734.853943	1358.699585	1219.158936	77.632187
819.846497	742.358582	1394.662109	1247.468384	77.434776
820.152832	743.175781	1444.816406	1284.099487	77.094124
820.458984	738.717590	1505.967407	1329.498535	76.999817
820.765259	737.380188	1568.307617	1375.343384	76.777245
821.071350	739.014832	1650.932129	1441.770020	77.063477
821.377502	728.018066	1792.850464	1543.416138	76.575249
821.683472	730.395752	2050.680908	1724.937866	75.327827
821.989441	727.646484	2488.546875	2042.730469	74.682472
822.295349	735.374023	3109.420654	2491.295898	73.963242
822.601196	736.934387	3827.333252	3019.737061	73.867577
822.907043	738.717590	4476.516113	3491.707764	73.652718
823.212769	738.420410	4881.540527	3814.107422	74.236008
823.518494	732.550537	5014.765137	3933.957764	74.760544
823.824097	726.457703	4883.917969	3853.487549	75.214905
824.129700	730.693054	4620.960449	3656.362305	75.204834
824.435242	729.281250	4293.359863	3413.169678	75.303848
824.740723	736.414246	4002.390381	3200.812500	75.456711
825.046082	736.191406	3729.030518	2994.548096	75.458672
825.351501	741.318298	3429.665039	2781.745361	75.898956
825.656799	733.665100	3091.141846	2538.775391	76.569588
825.962036	731.510254	2774.612061	2301.526855	76.844757
826.267212	729.875671	2542.787598	2106.927979	75.958038
826.572449	739.757874	2401.018066	1990.718384	75.301895
826.877502	740.129395	2360.745850	1971.548340	75.984604
827.182495	734.705322	2435.643311	2023.263062	75.755714
827.487488	727.572266	2562.923828	2111.385986	75.397743
827.792419	728.463867	2680.024902	2186.580322	74.715393
828.097290	739.312073	2706.773682	2209.242676	74.712036
828.402100	738.940613	2667.095947	2183.608154	74.924850
828.706848	734.556641	2561.363281	2099.051758	74.692917
829.011597	728.240967	2438.169678	2000.749512	74.418808
829.316223	728.389587	2297.068604	1890.112671	74.057419
829.620789	736.934387	2162.060547	1795.228027	74.259644
829.925354	739.460693	2024.972046	1700.640625	74.770241
830.229797	737.157288	1901.703735	1611.180176	75.052650
830.534302	739.832214	1773.234375	1524.691772	75.949097
830.838562	733.813660	1646.250977	1431.887695	76.506523
831.142944	733.516418	1537.917603	1350.897705	76.750420
831.447144	726.531982	1456.779175	1278.601196	75.600319
831.751404	722.296692	1396.445313	1241.747192	77.052818
832.055542	721.627930	1365.163696	1220.199341	77.473770
832.359619	721.107910	1345.250732	1209.499634	78.249992
832.663635	724.525818	1348.222900	1215.815308	78.770531
832.967651	727.497864	1365.163940	1226.366333	78.233498
833.271545	726.234863	1429.807251	1273.028442	77.716751
833.575439	726.457703	1521.348267	1329.795776	75.902031
833.879211	727.275085	1644.913696	1413.906372	74.825890
834.183044	729.949890	1764.689819	1486.574585	73.122208
834.486694	731.064453	1861.729004	1559.093872	73.233871
834.790344	735.671204	1913.072144	1589.929688	72.554596
835.093933	732.773438	1907.350708	1601.520874	73.962563
835.397522	738.643372	1861.580078	1574.103149	74.399536
835.700928	742.432800	1784.305542	1543.713379	76.907715
836.004395	748.451355	1722.634277	1492.221680	76.348114
836.307739	750.234619	1667.576050	1446.228149	75.870720
836.611023	748.228333	1613.855103	1398.897461	75.167397
836.914307	741.020996	1549.731812	1353.647095	75.753418
837.217529	745.404968	1473.422852	1299.331665	76.086960
837.520691	740.352295	1400.457642	1238.180542	75.416481
837.823730	739.757874	1337.820435	1183.567993	74.207977
838.126831	732.996338	1284.991211	1141.289917	73.966911
838.429749	734.036621	1241.078369	1110.454224	74.237991
838.732727	736.117004	1200.360474	1084.299683	75.000015
839.035522	735.299805	1182.379272	1071.370850	75.170319
839.338379	727.052185	1169.524902	1059.854004	75.214088
839.641113	729.578430	1167.964478	1064.980835	76.508461
839.943848	731.807434	1181.710571	1072.262573	75.672989
840.246460	733.516541	1202.143677	1091.878540	76.470604
840.549072	730.321472	1224.285889	1101.909546	75.225677
840.851563	720.810730	1239.815063	1120.336426	76.979263
841.154053	723.931396	1245.833618	1124.348755	76.722679
841.456482	730.172852	1244.421997	1122.193970	76.231750
841.758850	736.191345	1229.709961	1100.200317	73.757904
842.061157	735.299622	1202.589478	1082.070435	74.208931
842.363403	731.807434	1175.914795	1066.764282	75.422493
842.665588	730.470032	1147.159668	1050.863403	76.890167
842.967712	729.801270	1144.633423	1039.272095	74.601456
843.269775	725.417419	1131.778931	1031.024536	75.205727
843.571777	729.949890	1116.621216	1017.278564	74.308243
843.873840	731.064453	1084.596802	1005.984558	77.763779
844.175659	736.488586	1059.408203	985.402649	77.082359
844.477600	735.596924	1042.838745	975.148926	77.968552
844.779297	731.658875	1032.807739	958.876648	75.450317
845.081116	733.219238	1026.269165	955.012878	75.684593
845.382751	737.380188	1013.786316	959.916809	80.510742
845.684387	745.999329	1009.699646	958.282166	80.501549
845.985962	739.237732	1000.337585	955.310059	82.754669
846.287537	736.934387	992.684387	944.461853	81.144661
846.588989	734.556702	981.093079	940.003723	83.333351
846.890381	737.825989	982.430481	933.019226	79.799530
847.191711	735.819824	974.554443	929.155518	80.983521
847.493042	732.624817	981.390320	930.641602	79.599777
847.794250	735.819824	969.353271	928.041016	82.309921
848.095459	736.637207	976.114807	923.211243	77.908760
848.396606	739.683594	966.975586	909.019531	74.501495
848.697693	733.590820	967.124207	906.047363	73.846634
848.998657	732.476257	965.786804	905.230042	74.044563
849.299622	738.271790	970.467834	906.790344	72.575981
849.600464	736.860107	974.034424	905.378662	71.052612
849.901367	727.869446	967.272766	895.273438	69.925507
850.202087	718.730286	956.053040	894.456116	74.045082
850.502808	719.398987	947.582581	898.096985	78.313255
850.803467	729.058350	948.622803	901.663513	78.612526
851.104065	732.401917	949.217285	906.716125	80.397537
851.404663	730.395813	957.167664	901.960693	75.655281
851.705139	723.039734	962.443115	897.576843	72.905029
852.005615	722.371094	964.746521	885.836975	67.443260
852.306030	727.349304	960.585510	885.911316	67.983444
852.606384	729.504150	955.830139	888.957764	70.453072
852.906616	727.200684	955.458679	900.400391	75.878922
853.206909	728.984070	951.372070	900.920471	77.313705
853.506958	735.745605	942.752930	905.452881	81.981293
853.807129	742.952942	940.226746	893.861755	76.497139
854.107178	748.525574	937.774658	888.957703	74.204918
854.407166	749.714417	944.016052	888.660461	71.510483
854.707092	750.680420	950.628967	892.449951	70.903008
855.007019	748.079773	950.108887	886.877258	68.701721
855.306763	745.776428	946.393738	880.412903	67.111099
855.606567	741.912659	936.511414	885.688477	73.883217
855.906250	737.083008	942.827209	892.375671	75.478516
856.205933	735.745605	945.576416	897.428223	77.053802
856.505493	743.101563	946.319519	887.768860	71.188248
856.805054	747.188171	946.542297	888.660461	70.965317
857.104492	742.061340	946.616699	889.403503	72.030457
857.403931	735.522644	947.062500	891.038269	73.515991
857.703308	731.213074	944.461914	886.282898	72.717781
858.002563	735.299805	943.124512	884.648193	71.862671
858.301819	728.761169	938.814941	887.843201	75.733955
858.601013	727.869446	936.139954	897.205322	81.305740
858.900208	724.971680	935.322693	890.369446	78.629410
859.199219	726.383484	935.471252	891.186829	78.820175
859.498291	732.253235	939.855164	889.849426	75.912682
859.797302	725.937683	938.071960	894.604797	79.509598
860.096191	735.745605	941.192627	898.022644	78.987289
860.395020	725.863281	932.945007	892.672852	80.552528
860.693787	736.860107	935.842773	892.152771	78.043312
860.992554	722.445313	926.406311	889.998047	82.149399
861.291260	723.931458	927.149353	887.248779	80.365623
861.589844	720.513489	924.177246	881.898987	79.241150
861.888428	728.686768	935.917175	874.394470	70.311935
862.186890	728.983948	938.369141	873.651428	69.091553
862.485413	724.154297	943.644592	875.211731	68.821922
862.783813	720.290588	944.016113	881.081726	71.869820
863.082153	716.278259	944.610535	879.595642	71.526192
863.380371	728.315247	937.551758	879.224121	72.123589
863.678589	729.949951	930.715881	875.137390	72.316772
863.976746	734.928162	928.263977	879.298340	74.673271
864.274902	729.206848	936.139954	886.802979	76.158005
864.572937	729.578430	943.644531	896.908142	78.167313
864.870911	731.213074	946.690979	897.799805	77.310356
865.168884	733.145020	938.146179	889.923645	76.476944
865.466736	729.429871	934.579651	890.815247	78.667099
865.764587	732.922058	929.304138	888.066101	79.001122
866.062317	733.590759	939.483582	891.632629	76.759293
866.360107	734.408142	942.455750	880.412903	70.178535
866.657715	726.829163	946.022278	882.864929	71.186440
866.955322	726.011902	934.282410	887.248779	77.417046
867.252808	727.869446	928.486816	891.261230	81.444489
867.550293	735.968445	930.121399	891.112549	79.908188
867.847717	733.739319	935.322693	883.385010	74.235138
868.145081	734.259460	936.139954	888.363281	76.334183
868.442383	727.943787	933.167908	898.542786	83.128143
868.739624	726.680603	932.424988	900.920410	84.687515
869.036804	723.634216	937.180237	894.976257	80.236588
869.333984	727.497986	938.889221	880.635925	72.442902
869.631042	724.451477	942.901550	875.286133	69.047653
869.928101	723.262695	933.539368	868.524597	69.081322
870.224976	717.318542	942.752869	875.286072	70.072525
870.521851	715.832520	951.372009	884.945374	71.798088
870.818726	720.810730	959.025146	891.186829	71.522163
871.115479	725.491882	957.241943	885.688477	69.124725
871.412231	719.621887	950.926208	885.316895	71.635071
871.708862	717.912903	944.833435	886.728699	74.394234
872.005493	720.587830	939.483643	891.335449	78.004059
872.302063	731.361633	939.335022	888.957764	75.777061
872.598572	730.544373	949.068665	892.449951	74.090424
872.895020	724.971680	951.149109	896.685242	75.919846
873.191406	726.383362	951.892151	901.886414	77.825371
873.487671	724.228699	952.412292	902.778015	78.248093
873.783997	724.154297	965.266663	904.784180	74.915230
874.080200	725.491760	967.644287	907.384827	75.115082
874.376343	736.785828	970.096252	911.471497	74.872635
874.672424	745.553467	958.356445	910.802734	77.653641
874.968445	744.141785	954.418457	904.189880	76.113098
875.264465	735.894226	952.189453	899.731628	75.747116
875.560364	735.596985	960.288391	893.267273	70.171928
875.856201	732.847717	967.792969	888.066101	66.065765
876.152039	730.098633	975.074646	886.877258	63.997540
876.447754	725.640442	966.529785	891.929871	69.031456
876.743469	730.172852	964.226379	898.468506	71.904770
877.039063	739.609314	962.294617	898.245605	71.237885
877.334595	737.974670	958.430847	905.155762	75.834160
877.630127	735.374084	961.254333	913.849121	79.013123
877.925537	727.943787	961.402832	917.267090	81.094864
878.221008	725.417480	967.941467	915.483887	78.370148
878.516296	723.336914	966.232605	915.038086	78.923248
878.811646	720.587708	965.266602	918.678894	80.959656
879.106812	727.572205	977.675232	929.749939	80.837776
879.401978	719.844727	994.690613	937.774597	79.291664
879.697083	725.714661	1013.934875	949.885925	77.777771
879.992126	724.823059	1037.191650	962.963196	76.236900
880.287109	734.705322	1076.646362	984.882507	73.163834
880.582031	734.779602	1136.608643	1029.092651	73.243347
880.876892	728.538147	1242.861572	1111.494385	74.458252
881.171753	734.556641	1417.473022	1260.991577	77.086296
881.466492	736.265625	1695.810913	1467.255859	76.180901
881.761230	739.163513	2037.083374	1710.225586	74.816795
882.055786	737.157227	2387.940674	1957.356567	73.916382
882.350403	732.401917	2656.693604	2150.989502	73.719986
882.644958	734.259521	2799.132080	2252.932861	73.548042
882.939453	729.875671	2814.289795	2267.421875	73.763947
883.233826	734.779602	2752.544189	2224.994873	73.854767
883.528137	726.829285	2647.182861	2160.648926	74.664352
883.822449	725.045959	2534.614258	2080.402100	74.899422
884.116577	724.228699	2434.008545	2011.226196	75.272705
884.410828	729.281250	2326.789795	1923.846069	74.776741
884.704956	736.042725	2203.298584	1825.246460	74.234070
884.999023	737.974609	2006.396362	1686.225952	74.758362
885.292969	737.677429	1802.360962	1541.781372	75.525154
885.586914	734.185242	1602.561157	1397.411499	76.375481
885.880798	730.692932	1461.088867	1290.192505	76.602226
886.174622	730.692932	1352.086670	1205.041626	76.336250
886.468384	730.024231	1271.542480	1149.314453	77.428642
886.762085	728.538147	1221.685181	1107.259155	76.796776
887.055664	729.504089	1182.230591	1075.234741	76.366341
887.349304	725.343079	1148.868652	1047.445557	76.052666
887.642822	721.033508	1101.686523	1018.764709	78.215904
887.936340	720.885010	1076.200562	999.966125	78.544579
888.229736	716.352539	1059.185181	976.412109	75.856133
888.523071	720.662109	1054.801392	960.511230	71.781181
888.816284	725.343201	1037.860352	956.276062	73.894463
889.109619	734.185120	1018.021545	946.616699	74.842957
889.402710	736.191406	1008.659363	944.239014	76.356728
889.695862	735.299744	999.594482	923.731445	71.296043
889.988892	724.823059	986.220032	926.703613	77.231407
890.281921	704.166870	958.950989	935.545593	90.813637
>>>>>End Processed Spectral Data<<<<<
