Jaz Data File
++++++++++++++++++++++++++++++++++++
Date: Fri Jun 04 16:21:09 2021
User: jaz
Dark Spectrum Present: Yes
Reference Spectrum Present: Yes
Processed Spectrum Present: Yes
Spectrometers: JAZA3586
Integration Time (usec): 62000 (JAZA3586)
Spectra Averaged: 10 (JAZA3586)
Boxcar Smoothing: 1 (JAZA3586)
Correct for Electrical Dark: No (JAZA3586)
Strobe/Lamp Enabled: Yes (JAZA3586)
Correct for Detector Non-linearity: No (JAZA3586)
Correct for Stray Light: No (JAZA3586)
Number of Pixels in Processed Spectrum: 2048
>>>>>Begin Processed Spectral Data<<<<<
W	D	R	S	P
191.335022	0.000000	0.000000	0.000000	0.000000
191.713211	303.749542	300.480194	299.588593	127.271538
192.091385	607.053284	601.406250	601.629150	96.052788
192.469528	910.802795	909.242432	907.013367	242.855469
192.847641	907.979248	918.307373	914.517883	63.309025
193.225739	908.647949	930.121521	924.251648	72.664665
193.603790	914.220703	935.099792	931.681946	83.630287
193.981842	924.920227	939.855164	940.598206	104.975197
194.359863	935.694275	945.204895	949.217285	142.188522
194.737854	945.205017	947.879700	952.560852	275.017120
195.115829	950.257507	948.102600	943.273132	324.114868
195.493774	951.074890	953.452454	936.882996	-596.909180
195.871704	949.143005	961.105774	933.242188	-132.919220
196.249603	946.913879	966.901367	942.604309	-21.561340
196.627457	949.365906	957.762146	946.690918	-31.859352
197.005310	944.833435	947.359680	950.851990	238.241119
197.383133	956.944763	942.009827	948.771484	54.725903
197.760910	960.734192	944.684753	945.650818	93.980698
198.138687	968.684570	944.016052	948.622864	81.325142
198.516449	956.944641	947.211121	952.932434	41.220512
198.894180	948.251282	949.143005	954.344177	683.271729
199.271866	934.430969	947.211121	949.960266	121.511055
199.649536	933.093567	944.907715	946.839539	116.351784
200.027191	929.824219	943.718811	944.833313	108.021118
200.404816	931.830383	947.136780	936.660156	31.553951
200.782410	931.458984	965.118103	928.858337	-7.726426
201.159988	936.437256	969.724915	927.298035	-27.455284
201.537537	941.341248	981.984802	932.424866	-21.937998
201.915070	946.839600	973.068542	935.322693	-43.909153
202.292557	940.375244	978.566895	936.511536	-10.116632
202.670029	941.192566	976.337708	938.368958	-8.034136
203.047485	933.093567	979.309875	944.238953	24.115698
203.424911	932.945007	975.000305	944.164734	26.678509
203.802292	925.291809	979.904297	938.220459	23.673431
204.179688	928.709717	975.223145	927.743713	-2.076827
204.557037	928.486816	975.148865	931.533203	6.528618
204.934357	934.876892	970.765076	933.836609	-2.898679
205.311661	927.297913	970.765076	931.830383	10.427344
205.688934	928.783997	966.306946	920.759277	-21.386164
206.066177	925.663269	965.266785	919.942078	-14.446171
206.443390	929.081238	964.597961	927.000732	-5.857819
206.820587	932.276184	970.467834	932.127625	-0.388984
207.197769	929.229736	971.285156	928.263855	-2.296687
207.574921	925.291687	978.121033	923.285461	-3.797559
207.952042	918.010071	975.371826	918.381531	0.647574
208.329147	927.892334	969.947754	917.118469	-25.618256
208.706223	951.074768	988.820557	938.591980	-33.070679
209.083267	955.904480	987.706055	938.889160	-53.504646
209.460297	953.972656	996.696594	940.226624	-32.174076
209.837280	933.390808	967.644287	920.387878	-37.960903
210.214264	932.127625	966.083984	919.644775	-36.761448
210.591217	923.954346	963.632019	917.935791	-15.168618
210.968124	929.229797	965.712402	915.186523	-38.493069
211.345016	924.400146	970.987976	919.719055	-10.047885
211.721893	925.217529	969.576172	923.062744	-4.857645
212.098724	922.171082	971.210938	925.217529	6.212187
212.475555	928.709717	971.582336	924.845947	-9.012208
212.852356	934.876770	971.136536	919.050293	-43.647488
213.229126	932.722107	970.987976	917.861511	-38.835117
213.605865	925.811951	968.907532	915.409485	-24.138126
213.982590	920.684998	973.588623	916.152588	-8.567295
214.359283	919.570496	967.718689	915.335266	-8.796238
214.735931	923.731445	966.752747	916.672668	-16.407633
215.112579	924.251648	958.505127	916.003906	-24.078552
215.489197	925.143250	962.220276	920.759338	-11.823793
215.865799	923.508606	961.254333	920.239258	-8.661505
216.242355	921.205261	959.471008	919.347473	-4.854964
216.618896	921.502441	958.133606	919.124695	-6.491048
216.995407	924.177246	959.173828	914.815125	-26.751532
217.371902	926.332031	965.638123	920.164856	-15.690126
217.748367	932.350525	968.238770	916.003967	-45.548500
218.124802	935.842773	964.895203	920.685059	-52.173656
218.501236	933.093567	959.619690	916.226868	-63.585239
218.877609	924.697449	963.780701	922.468262	-5.703689
219.253983	920.462158	971.136658	921.799622	2.639322
219.630295	927.000793	973.291321	931.087402	8.828176
220.006592	928.561218	971.582336	926.480652	-4.836152
220.382889	928.783997	966.009705	927.892395	-2.395123
220.759140	928.263855	963.706299	927.297913	-2.725383
221.135391	928.635437	966.975586	923.434143	-13.566181
221.511581	925.737610	972.028137	919.273254	-13.964748
221.887772	921.502380	975.074646	922.691162	2.219025
222.263931	926.257751	973.588562	934.282410	16.954407
222.640060	931.310303	974.182922	933.985168	6.239100
223.016159	931.458923	975.668945	927.743835	-8.403271
223.392212	927.743835	973.588562	924.400146	-7.293509
223.768265	918.827454	969.278992	924.994568	12.223838
224.144302	921.056580	971.210876	927.075012	11.999834
224.520294	919.496155	971.730957	926.629150	13.655638
224.896286	924.474426	970.542175	924.102844	-0.806599
225.272217	925.960510	966.604065	921.650940	-10.603331
225.648148	925.886230	969.353333	921.948181	-9.059838
226.024048	925.143127	972.696960	924.474426	-1.406198
226.399902	916.375488	972.845520	925.366150	15.921121
226.775772	914.815125	968.758972	917.564392	5.096536
227.151581	920.610779	966.678406	916.672668	-8.548542
227.527374	921.428040	964.746521	920.536316	-2.058529
227.903137	918.084473	963.706299	924.102844	13.191869
228.278870	912.511719	956.573242	929.750000	39.123207
228.654572	915.260925	960.362610	921.650940	14.168017
229.030273	921.948059	960.659851	920.016296	-4.990114
229.405930	920.610657	969.873352	916.152588	-9.049583
229.781555	920.685059	972.994080	914.072083	-12.642133
230.157181	920.090576	977.600830	919.644775	-0.775167
230.532761	928.635437	978.789734	924.400146	-8.444522
230.908325	931.533203	969.576172	929.304138	-5.859335
231.283859	937.180176	962.517517	919.644775	-69.207733
231.659332	931.533203	957.687805	912.734619	-71.874863
232.034821	931.235901	958.728027	913.477722	-64.593689
232.410263	923.880066	963.037598	921.205139	-6.831193
232.785690	922.765442	971.805237	922.988464	0.454779
233.161087	924.474426	977.675110	923.880066	-1.117204
233.536469	926.257751	974.182922	921.799561	-9.302400
233.911804	926.480530	970.319275	916.672607	-22.372726
234.287140	919.793274	968.461670	907.161865	-25.954027
234.662430	926.480652	972.176758	913.849121	-27.642466
235.037704	929.304199	971.730957	922.171082	-16.812780
235.412933	937.997559	968.981750	929.601379	-27.098267
235.788162	930.567322	966.901367	917.341492	-36.400654
236.163345	927.892395	963.037537	914.369324	-38.477783
236.538513	915.929688	967.718689	920.982239	9.756031
236.913635	909.391052	971.582336	927.520935	29.151806
237.288742	914.517883	977.452332	932.499207	28.571512
237.663834	927.743713	975.743347	925.737549	-4.179542
238.038879	927.966614	974.703125	928.783936	1.748786
238.413910	927.297913	974.108643	929.006897	3.650839
238.788910	923.285645	977.229309	932.201965	16.528950
239.163879	936.139954	981.464600	933.242188	-6.393356
239.538834	928.040955	980.721619	925.811829	-4.231393
239.913757	927.075012	984.213867	921.130859	-10.402996
240.288651	915.781006	988.449036	918.455872	3.680939
240.663528	924.548645	992.535645	923.434265	-1.639107
241.038361	920.833679	991.272644	928.486816	10.864920
241.413177	928.783997	986.888855	929.824219	1.790250
241.787979	920.016357	985.625671	924.325867	6.568441
242.162735	922.022522	990.232422	921.056580	-1.416132
242.537476	916.598389	997.439697	920.313538	4.595607
242.912170	926.332031	1002.715149	926.554932	0.291819
243.286865	931.458923	998.034180	926.183350	-7.924226
243.661514	930.492981	987.185974	919.273193	-19.790430
244.036148	924.474426	981.167419	916.226807	-14.547864
244.410751	915.483887	981.761902	916.598389	1.681556
244.785339	924.846008	988.894836	928.338196	5.452383
245.159882	928.115295	991.495422	930.270020	3.399684
245.534378	934.876892	998.851379	927.669495	-11.266049
245.908890	931.310303	991.198242	916.672668	-24.441706
246.283356	926.926453	995.656433	911.620056	-22.270334
246.657791	913.106140	998.628601	916.598328	4.083357
247.032196	909.985352	1005.167175	923.508545	14.207747
247.406586	910.877014	1015.643860	929.452698	17.730497
247.780960	925.737610	1020.622253	928.338196	2.740787
248.155289	922.988342	1024.485962	919.273254	-3.660271
248.529602	918.158691	1014.009216	915.335144	-2.945782
248.903870	916.375488	997.885559	915.335205	-1.276263
249.278122	921.502441	993.724609	918.530212	-4.115397
249.652344	929.155579	993.204529	924.177246	-7.772700
250.026550	934.356750	998.034180	920.982239	-21.003536
250.400711	936.660095	1001.377747	924.474426	-18.828972
250.774857	929.006897	1000.114563	924.697449	-6.060455
251.148987	927.892395	995.210632	927.298035	-0.882911
251.523071	929.006897	994.913391	921.428040	-11.499409
251.897125	931.681824	992.164307	917.489990	-23.464371
252.271164	928.263855	997.439758	921.428040	-9.881787
252.645187	922.839783	994.244690	927.669434	6.763752
253.019165	916.895569	996.770996	925.068848	10.232533
253.393112	916.449768	1009.105225	923.880066	8.019278
253.767044	919.050354	1010.962830	920.610779	1.697729
254.140930	930.418701	1008.362244	929.452820	-1.239206
254.514801	930.938782	996.399475	928.412598	-3.859085
254.888657	932.127686	996.473816	931.161621	-1.501356
255.262466	932.945007	1002.640930	923.137024	-14.072536
255.636276	928.709717	1012.077332	922.914063	-6.951925
256.010010	923.657166	1014.529358	913.477600	-11.202068
256.383759	921.205139	1020.250671	913.031738	-8.252165
256.757446	923.285645	1015.049500	912.585938	-11.660046
257.131134	917.935791	1015.272400	928.932617	11.297729
257.504791	918.381653	1008.287903	929.229797	12.066063
257.878418	915.335205	1007.173340	925.886230	11.488719
258.252014	921.948181	1017.501465	918.976074	-3.110418
258.625580	930.938782	1027.160767	919.124695	-12.277949
258.999115	934.356689	1035.259766	921.428040	-12.812940
259.372650	934.951172	1044.547607	921.576660	-12.203419
259.746124	924.103027	1050.937622	919.124695	-3.925059
260.119598	922.319641	1058.813721	918.084473	-3.102822
260.493042	930.195740	1056.064575	914.963806	-12.101434
260.866425	933.093567	1063.346191	919.644836	-10.325113
261.239838	929.601318	1071.668091	924.177246	-3.817974
261.613159	913.923523	1076.200562	929.452820	9.569620
261.986511	915.409485	1066.541260	933.167908	11.750291
262.359802	923.285645	1058.070679	932.350525	6.725435
262.733063	936.808655	1047.817017	928.338196	-7.630469
263.106293	929.378418	1045.959473	916.152527	-11.344803
263.479523	926.331970	1050.491943	911.694397	-11.789285
263.852692	919.347595	1052.720947	908.796631	-7.910849
264.225861	923.062683	1054.652954	919.942078	-2.371456
264.598969	917.489990	1048.634399	919.793457	1.756435
264.972076	915.112305	1046.479492	925.811951	8.144839
265.345154	917.564270	1052.126587	922.765442	3.865252
265.718201	921.873840	1053.612671	922.616882	0.564027
266.091217	929.155518	1062.826172	929.007019	-0.111093
266.464203	920.016296	1062.157349	931.087402	7.788816
266.837158	922.542542	1066.764160	934.876892	8.552359
267.210114	921.502258	1066.764160	925.217468	2.557594
267.583038	932.350586	1068.918945	926.257751	-4.461381
267.955902	936.288574	1071.073730	931.979004	-3.197363
268.328766	935.471252	1072.782715	934.579590	-0.649372
268.701569	928.709717	1065.203735	934.282410	4.082738
269.074371	923.137024	1062.900391	925.663269	1.807516
269.447144	924.920227	1070.405029	918.753174	-4.238967
269.819885	925.366028	1088.757813	911.843018	-8.276432
270.192596	926.109070	1096.708130	912.808899	-7.796157
270.565277	921.725281	1100.869019	920.982239	-0.414774
270.937927	921.948059	1102.355103	924.994629	1.688720
271.310577	926.109070	1112.906128	925.366150	-0.397715
271.683136	925.886169	1123.011230	919.867676	-3.053135
272.055725	925.514648	1135.568481	920.982239	-2.157737
272.428284	914.963684	1148.868652	918.753113	1.620072
272.800812	925.068848	1154.144165	925.366028	0.129730
273.173279	935.768494	1149.091675	926.852234	-4.179696
273.545776	941.043945	1142.552856	932.201965	-4.387886
273.918152	931.830383	1134.008179	929.155518	-1.323026
274.290558	924.771667	1134.528198	929.006897	2.019117
274.662964	925.960449	1130.292969	927.446594	0.727317
275.035278	927.520813	1128.509766	925.811951	-0.850227
275.407593	921.948181	1129.624390	926.406433	2.146732
275.779907	921.799561	1134.602661	929.007019	3.386914
276.152161	921.130859	1134.974121	930.715820	4.482236
276.524384	924.623047	1145.079224	928.635437	1.820040
276.896606	921.205139	1146.268066	924.697266	1.551622
277.268799	917.935791	1159.122437	928.486816	4.374631
277.640930	926.257813	1159.196777	918.976074	-3.126029
278.013031	935.842773	1159.345337	916.078308	-8.843060
278.385162	940.821045	1164.249390	911.620117	-13.069482
278.757233	937.626038	1164.472290	919.941956	-7.795625
279.129272	925.217468	1174.057251	921.205139	-1.612415
279.501282	920.387878	1173.537231	920.239258	-0.058709
279.873230	918.753174	1179.704346	917.564270	-0.455604
280.245178	924.994568	1182.750732	913.180481	-4.583435
280.617126	933.019226	1195.828003	908.127930	-9.471257
280.988983	928.263855	1205.487427	913.774902	-5.226450
281.360870	937.328796	1221.759644	916.672668	-7.262267
281.732697	926.852112	1223.468628	923.657043	-1.077171
282.104492	928.041016	1235.579956	921.650879	-2.077830
282.476288	918.976074	1237.214600	925.737549	2.124656
282.848053	929.675598	1254.081299	928.412415	-0.389384
283.219757	933.762390	1263.666382	928.783997	-1.509043
283.591461	939.780762	1269.610596	928.040955	-3.559353
283.963135	937.848938	1269.684937	924.474426	-4.030458
284.334747	946.245117	1264.557983	922.393982	-7.492985
284.706360	943.198730	1269.982056	923.805664	-5.934534
285.077942	934.579590	1271.839722	924.771667	-2.908118
285.449524	923.582825	1285.882935	920.016357	-0.984396
285.821014	922.616943	1290.043823	919.867676	-0.748249
286.192535	929.304199	1304.607056	918.307312	-2.930137
286.563995	929.081238	1312.557495	922.245422	-1.782592
286.935425	930.790222	1321.696777	923.582825	-1.843765
287.306824	926.480652	1318.798950	926.777832	0.075750
287.678223	931.310242	1304.978638	924.474426	-1.829380
288.049561	928.635437	1304.458618	924.548767	-1.087392
288.420898	929.304138	1305.276001	925.440430	-1.027659
288.792145	926.777832	1309.585449	934.802551	2.096280
289.163452	926.554871	1313.374878	929.155579	0.672330
289.534668	923.508484	1324.594604	924.028625	0.129683
289.905914	919.793457	1340.866821	918.455994	-0.317632
290.277039	924.028625	1363.232056	927.669434	0.828957
290.648193	933.836609	1370.439453	932.721985	-0.255295
291.019318	930.567200	1371.851074	938.814880	1.869019
291.390381	922.468262	1366.278320	936.288574	3.114015
291.761475	919.644775	1367.838745	935.619873	3.564327
292.132507	917.192688	1376.903809	929.229797	2.618407
292.503510	924.251465	1372.965698	922.765442	-0.331174
292.874481	927.297852	1382.253540	926.109131	-0.261283
293.245422	935.545593	1391.169922	927.298035	-1.810166
293.616364	927.297913	1400.903442	928.338196	0.219652
293.987213	925.143127	1399.566040	920.907959	-0.892699
294.358093	924.028625	1417.175781	919.347595	-0.949216
294.728943	927.595215	1430.773071	916.152527	-2.274084
295.099731	926.406311	1455.887573	922.171082	-0.799883
295.470490	927.149353	1470.302246	926.332031	-0.150477
295.841248	924.771667	1500.692017	929.749939	0.864403
296.211975	918.530273	1518.078735	925.663269	1.189728
296.582642	915.855286	1530.264648	918.530273	0.435375
296.953308	919.719055	1535.688843	920.016296	0.048256
297.323883	926.852112	1548.022949	917.192810	-1.555015
297.694519	931.458923	1553.224121	922.542542	-1.434043
298.065063	930.790222	1568.456055	923.582764	-1.130288
298.435608	926.109131	1559.242676	929.452820	0.528117
298.806122	920.387878	1542.152954	929.452820	1.457937
299.176575	926.257751	1508.345093	928.858337	0.446769
299.547028	927.743835	1490.809937	930.047180	0.409072
299.917450	926.703613	1487.540405	924.102966	-0.463708
300.287872	924.251526	1481.447632	926.703552	0.440065
300.658234	922.393982	1473.942993	918.158691	-0.767890
301.028564	924.325867	1469.187866	913.774902	-1.936447
301.398865	916.821289	1477.138184	907.830627	-1.604567
301.769135	921.428040	1489.695313	912.586121	-1.555944
302.139374	925.291748	1499.057251	921.353760	-0.686341
302.509583	924.102966	1495.490845	921.130859	-0.520156
302.879791	924.325867	1494.153442	915.186584	-1.603868
303.249939	915.186584	1486.574585	915.112305	-0.013000
303.620087	920.164856	1487.391968	914.666443	-0.969350
303.990173	918.753113	1489.695190	921.576599	0.494531
304.360260	931.681702	1487.986328	918.455872	-2.377444
304.730286	936.437195	1490.661133	919.421875	-3.070116
305.100281	934.951172	1481.596191	924.845947	-1.848590
305.470276	933.985168	1493.930298	930.641541	-0.597135
305.840179	930.938782	1498.017212	933.539368	0.458594
306.210144	931.607605	1503.961304	922.468262	-1.596800
306.579987	928.932617	1503.664185	923.508484	-0.943768
306.949890	925.663269	1509.608398	922.691223	-0.508960
307.319702	920.536377	1523.280151	927.000732	1.072488
307.689484	917.415710	1536.134399	925.366150	1.284985
308.059265	918.901672	1544.159180	928.561096	1.544871
308.429016	921.130798	1559.837036	930.641602	1.489073
308.798737	924.845886	1583.762573	930.195801	0.811926
309.168396	925.663269	1603.304077	927.595215	0.285099
309.538055	931.756104	1621.805542	924.251526	-1.087542
309.907684	930.864502	1627.303833	915.409485	-2.219148
310.277313	930.270081	1642.313110	912.660339	-2.473129
310.646851	923.582825	1664.232056	911.842957	-1.585078
311.016388	923.508606	1677.235352	913.774841	-1.291418
311.385895	919.496155	1685.037109	918.084412	-0.184411
311.755371	924.697327	1683.253906	923.434265	-0.166509
312.124817	922.468262	1685.557251	930.790222	1.090562
312.494232	933.093567	1682.585083	930.047119	-0.406469
312.863617	924.920349	1680.950562	927.298035	0.314496
313.232971	924.548828	1677.903931	926.926453	0.315605
313.602295	919.050354	1676.343628	924.177246	0.677002
313.971619	929.527039	1670.622437	921.650940	-1.062765
314.340820	931.161804	1674.485962	923.582764	-1.019614
314.710083	937.923157	1689.643921	929.006897	-1.186113
315.079285	931.681824	1706.139160	934.208191	0.326211
315.448486	930.715881	1711.265991	930.938782	0.028557
315.817596	924.400208	1709.111206	928.783997	0.558650
316.186707	923.508545	1703.612793	926.034851	0.323842
316.555786	928.189636	1687.043335	929.378418	0.156655
316.924866	931.384583	1668.170532	930.715881	-0.090759
317.293884	936.511536	1645.285156	932.796387	-0.524166
317.662872	931.904602	1651.898071	926.852234	-0.701724
318.031830	928.115234	1650.932129	919.421875	-1.202706
318.400757	923.136963	1666.238647	917.638672	-0.739911
318.769684	919.347473	1674.708984	917.118469	-0.295091
319.138550	912.288818	1692.690430	921.799500	1.218691
319.507416	919.644775	1701.903809	916.598328	-0.389442
319.876190	921.130859	1704.578735	916.969910	-0.531107
320.244995	929.972839	1711.934570	917.044189	-1.653361
320.613770	929.898621	1707.253540	926.406311	-0.449255
320.982483	928.041016	1702.052368	929.898621	0.239997
321.351166	919.644775	1692.318726	927.446594	1.009717
321.719818	919.644836	1682.213501	920.239258	0.077950
322.088440	919.050293	1677.903931	924.697449	0.744169
322.457062	922.691162	1682.510742	931.756165	1.193047
322.825623	917.861511	1707.253540	933.242188	1.948421
323.194183	922.914063	1730.584839	921.725281	-0.147186
323.562653	920.462097	1757.110840	917.564270	-0.346361
323.931183	922.468262	1772.491333	913.774902	-1.022720
324.299591	922.765625	1801.915161	918.530273	-0.481756
324.668060	932.201965	1837.877563	913.700623	-2.042822
325.036407	927.669495	1859.425659	916.375488	-1.212120
325.404755	926.554932	1877.852661	920.164856	-0.671722
325.773102	922.988464	1874.211914	916.524109	-0.679583
326.141388	926.480652	1885.505859	923.137024	-0.348649
326.509674	925.737549	1876.069336	920.462097	-0.555117
326.877899	926.034851	1879.190063	929.601318	0.374175
327.246124	924.994568	1879.413086	923.434265	-0.163482
327.614288	926.406311	1889.815430	926.034851	-0.038557
327.982422	924.920227	1887.957886	928.338196	0.354915
328.350525	927.223633	1887.140625	932.201965	0.518621
328.718628	923.136963	1884.762817	927.743835	0.479071
329.086700	924.920227	1887.140625	936.139954	1.166025
329.454712	929.006897	1894.942261	931.756104	0.284616
329.822693	942.455627	1908.242554	931.533203	-1.130935
330.190674	943.941711	1923.623047	917.489990	-2.700033
330.558563	936.734375	1938.037720	920.462097	-1.625110
330.926483	930.567200	1944.947876	925.366150	-0.512732
331.294312	922.171082	1959.437012	927.446594	0.508598
331.662231	923.731445	1978.978638	926.703552	0.281650
332.029999	917.861511	1999.263306	928.858215	1.016893
332.397766	923.954285	2021.554077	930.344421	0.582192
332.765503	921.428040	2045.033813	925.217468	0.337256
333.133240	928.486816	2081.293701	922.468262	-0.522078
333.500916	927.966614	2104.624756	916.895508	-0.940894
333.868561	931.087402	2113.838135	918.158691	-1.093105
334.236176	922.542542	2115.621338	912.288757	-0.859439
334.603790	924.177246	2118.816406	910.356934	-1.156861
334.971344	917.415710	2132.264893	914.294983	-0.256882
335.338867	920.536377	2141.107178	913.997803	-0.535698
335.706360	913.700500	2143.484863	918.753174	0.410858
336.073853	919.421875	2141.255859	916.078308	-0.273651
336.441284	925.588928	2141.255859	919.867676	-0.470627
336.808655	935.768372	2139.472900	917.712891	-1.499993
337.176086	934.282410	2127.064209	925.811829	-0.710153
337.543396	931.756104	2098.606201	922.914063	-0.757770
337.910706	918.678894	2079.287109	927.149353	0.729829
338.277954	922.096741	2083.968506	924.548767	0.211041
338.645264	930.195801	2127.807129	932.424805	0.186121
339.012421	936.957275	2185.986084	930.047180	-0.553237
339.379669	932.276184	2252.264404	930.047180	-0.168865
339.746796	924.177246	2292.239014	925.514709	0.097763
340.113953	925.663269	2331.322021	923.359863	-0.163867
340.481018	931.013123	2336.523438	922.319641	-0.618528
340.848114	932.499207	2340.089600	920.833557	-0.828767
341.215118	930.864563	2341.130127	924.400085	-0.458387
341.582153	929.601379	2353.241455	929.601318	-0.000004
341.949066	933.465027	2364.981201	933.985168	0.036335
342.316010	935.619873	2378.132813	932.276306	-0.231788
342.682922	934.653870	2392.621826	923.211426	-0.784821
343.049835	930.270020	2407.111084	912.957581	-1.172261
343.416656	932.499023	2431.333740	922.616882	-0.659322
343.783478	932.424805	2471.457031	922.468262	-0.646935
344.150269	936.139954	2536.620850	928.189636	-0.496746
344.516998	935.248352	2602.229736	927.595215	-0.459102
344.883728	934.951172	2660.780518	928.858337	-0.353038
345.250427	929.378418	2693.993896	923.954346	-0.307380
345.617065	923.731445	2715.838867	922.171082	-0.087069
345.983704	917.787170	2711.454834	924.251526	0.360399
346.350281	913.106140	2709.077148	940.078064	1.501802
346.716827	920.016296	2692.507568	936.288574	0.918046
347.083405	925.737549	2677.498535	936.511475	0.615034
347.449860	933.167786	2662.489502	927.000732	-0.356617
347.816376	931.384583	2643.393555	928.412598	-0.173596
348.182770	935.619873	2615.753174	927.075134	-0.508575
348.549194	929.749939	2609.808594	923.731506	-0.358228
348.915558	926.926453	2600.298096	916.821289	-0.603880
349.281921	918.827454	2627.567139	912.660339	-0.360916
349.648193	923.657166	2643.468018	916.821289	-0.397478
350.014526	924.920227	2685.523438	919.570496	-0.303858
350.380737	933.019226	2714.055420	916.969910	-0.901122
350.746948	931.458801	2749.646484	911.322937	-1.107469
351.113159	930.195801	2768.073486	917.118469	-0.711545
351.479309	929.006897	2790.215820	923.434143	-0.299416
351.845428	930.641602	2800.023682	932.350586	0.091420
352.211517	932.647766	2832.642578	932.722107	0.003913
352.577576	934.208069	2862.066406	928.783997	-0.281352
352.943604	928.189636	2904.567627	927.892395	-0.015040
353.309601	929.155518	2938.226807	920.982239	-0.406819
353.675537	926.183411	2978.573242	928.709656	0.123088
354.041473	936.362854	3030.585205	933.390808	-0.141916
354.407379	936.734375	3086.832275	932.127625	-0.214258
354.773254	937.031555	3160.466064	930.195801	-0.307441
355.139038	928.338196	3218.348389	920.313477	-0.350423
355.504913	927.520813	3284.700439	922.765442	-0.201740
355.870636	930.344421	3338.644287	917.044128	-0.552269
356.236389	934.951172	3406.854248	925.440430	-0.384754
356.602081	937.923279	3479.893555	928.338196	-0.377073
356.967804	931.013123	3539.632813	932.424805	0.054116
357.333405	927.595032	3609.031494	924.920227	-0.099753
357.699036	925.588928	3686.380859	924.102966	-0.053824
358.064606	927.669434	3780.819580	922.022461	-0.197921
358.430176	931.681824	3852.373047	913.552002	-0.620737
358.795654	925.663330	3906.911377	916.524109	-0.306557
359.161163	925.737610	3932.545654	924.102966	-0.054365
359.526581	922.468262	3941.833252	937.997559	0.514323
359.892029	931.384583	3947.257813	935.248352	0.128114
360.257416	931.236023	4002.167725	931.161804	-0.002417
360.622772	933.093567	4109.163574	929.824402	-0.102931
360.988098	924.771667	4225.595703	928.932617	0.126058
361.353394	929.229797	4368.257324	933.390808	0.120994
361.718658	929.824280	4496.874512	938.963440	0.256211
362.083893	934.356750	4633.220215	940.523865	0.166730
362.449097	932.721985	4708.711914	937.774658	0.133811
362.814209	931.087402	4742.594238	927.297913	-0.099422
363.179382	925.589050	4675.944336	923.434143	-0.057459
363.544434	927.966614	4524.589844	920.016296	-0.221049
363.909546	927.298035	4308.591797	919.421875	-0.232933
364.274536	932.127686	4124.023926	916.672668	-0.484195
364.639587	926.480652	4000.087158	916.746887	-0.316689
365.004517	925.811829	3936.186768	919.198975	-0.219669
365.369507	926.257629	3890.267578	921.650940	-0.155421
365.734344	927.446533	3873.326416	921.650940	-0.196736
366.099274	939.037781	3858.911865	915.781067	-0.796497
366.464081	937.774597	3854.602295	916.672668	-0.723455
366.828918	942.975769	3840.707764	912.065918	-1.066691
367.193665	925.291748	3830.676758	919.867676	-0.186690
367.558411	928.783997	3840.410400	921.873840	-0.237330
367.923126	925.663391	3843.159912	930.567200	0.168083
368.287781	930.864502	3849.029541	931.681824	0.028008
368.652435	927.446594	3840.856201	934.951172	0.257587
369.017059	929.081238	3835.952148	931.979004	0.099687
369.381653	939.483582	3827.852783	936.883057	-0.090034
369.746185	937.403137	3817.970703	931.830383	-0.193460
370.110687	939.557922	3832.237305	927.223633	-0.426397
370.475220	927.000732	3859.431885	917.341370	-0.329398
370.839661	928.486755	3913.747314	920.536438	-0.266319
371.204041	922.468262	3951.790283	921.873840	-0.019622
371.568451	928.115295	3987.083984	925.663330	-0.080157
371.932770	931.384583	4016.656494	923.508545	-0.255279
372.297150	928.486816	4056.705322	921.873840	-0.211398
372.661377	924.845947	4085.089111	913.031799	-0.373837
373.025696	919.496277	4114.438965	915.260925	-0.132564
373.389862	916.375488	4117.484863	916.524109	0.004643
373.754059	920.313477	4129.967773	916.969910	-0.104172
374.118225	916.375488	4131.677246	912.734619	-0.113236
374.482361	917.861511	4152.184570	913.700500	-0.128652
374.846436	913.923523	4190.228027	927.297913	0.408216
375.210510	918.455872	4246.177734	932.424805	0.419775
375.574524	919.793396	4304.356934	932.945007	0.388576
375.938538	919.273254	4384.604004	925.068909	0.167247
376.302460	926.257629	4469.457520	921.056458	-0.146793
376.666412	929.749939	4588.861816	926.257751	-0.095438
377.030304	936.957275	4686.049316	924.474426	-0.332957
377.394196	935.471252	4778.630859	926.926514	-0.222336
377.757996	934.653992	4840.896484	924.920349	-0.249182
378.121796	930.716003	4889.193359	923.657166	-0.178322
378.485565	929.527100	4931.322754	925.811829	-0.092840
378.849304	930.418701	4902.270508	927.446472	-0.074832
379.212982	927.595215	4845.949219	934.356750	0.172561
379.576630	924.994568	4716.959473	936.214294	0.295882
379.940277	925.514709	4672.823730	934.876892	0.249837
380.303864	928.338196	4617.691406	922.765442	-0.151050
380.667450	930.121582	4618.582520	917.861511	-0.332390
381.030945	931.756165	4608.105957	911.248535	-0.557826
381.394501	933.687988	4634.037598	921.873840	-0.319271
381.757935	932.796387	4664.278809	925.143066	-0.205101
382.121399	925.440430	4673.046875	933.242188	0.208180
382.484741	919.198975	4700.761719	927.966614	0.231852
382.848145	916.821350	4710.197754	923.136963	0.166491
383.211487	920.610779	4740.587891	918.455872	-0.056412
383.574768	923.954407	4792.971191	920.610657	-0.086424
383.938019	926.703613	4845.577637	922.914063	-0.096700
384.301270	928.115295	4929.762695	920.610657	-0.187539
384.664459	922.096863	4990.021973	919.198914	-0.071239
385.027649	920.685059	5054.070801	917.861511	-0.068311
385.390778	921.353760	5103.630859	917.861511	-0.083501
385.753876	927.818054	5128.373535	925.886230	-0.045990
386.116943	936.065735	5165.302246	923.731445	-0.291643
386.479980	931.310303	5172.658203	926.703613	-0.108614
386.842987	936.288574	5209.289551	922.691223	-0.318215
387.205994	932.127625	5229.574219	929.081238	-0.070888
387.568909	932.201965	5277.127441	929.229797	-0.068406
387.931793	933.390808	5307.071777	928.858337	-0.103631
388.294678	924.920227	5378.625488	923.359863	-0.035035
388.657471	931.310242	5411.318848	928.858337	-0.054730
389.020294	929.378418	5417.708496	930.195801	0.018211
389.383057	933.465088	5417.857422	932.053406	-0.031480
389.745819	933.390808	5427.293945	922.394043	-0.244704
390.108521	928.338196	5455.306152	923.880066	-0.098479
390.471191	933.167786	5500.556152	921.502380	-0.255406
390.833801	932.945007	5558.883301	929.378418	-0.077100
391.196442	928.115295	5669.742676	925.068848	-0.064249
391.558960	922.022461	5762.473145	927.446533	0.112057
391.921509	916.747070	5887.599121	922.691223	0.119580
392.284027	926.406311	6022.458496	921.873840	-0.088941
392.646484	926.480652	6118.457031	923.508545	-0.057244
393.008911	930.641602	6127.447754	926.926453	-0.071489
393.371307	925.514648	6090.296875	931.979004	0.125162
393.733673	932.127625	6054.557129	927.000732	-0.100087
394.096008	934.133789	6050.024902	925.663269	-0.165573
394.458344	937.551758	6063.919434	924.771667	-0.249301
394.820587	927.149414	6087.547363	921.948242	-0.100790
395.182831	924.994629	6120.687012	924.474426	-0.010012
395.545013	913.106140	6106.569824	917.415710	0.082981
395.907196	920.685059	6049.430176	923.434143	0.053602
396.269287	918.084473	5982.260254	918.901672	0.016137
396.631409	926.852234	5909.369141	921.056458	-0.116322
396.993469	928.115234	5853.270996	921.353699	-0.137286
397.355530	930.344421	5793.234375	926.480652	-0.079454
397.717499	926.703430	5772.429688	928.709717	0.041403
398.079468	929.155518	5796.355469	925.143127	-0.082437
398.441376	923.211243	5818.126465	922.839783	-0.007589
398.803284	918.678894	5830.831543	920.907898	0.045377
399.165131	914.889404	5820.503418	927.446472	0.255973
399.526978	919.570496	5825.109863	921.428040	0.037866
399.888763	925.291809	5842.720215	928.412537	0.063463
400.250519	926.629333	5875.115723	932.647766	0.121622
400.612244	926.777832	5921.183594	935.471375	0.174066
400.973938	932.127625	5915.091309	929.527100	-0.052188
401.335602	931.087402	5913.232910	919.198975	-0.238621
401.697205	936.362976	5933.295410	921.279480	-0.301855
402.058807	934.505371	6006.929688	926.554993	-0.156737
402.420349	927.595215	6088.662109	930.121521	0.048949
402.781860	918.678894	6144.537598	931.310303	0.241710
403.143341	921.279480	6226.196777	936.140076	0.280129
403.504822	930.492981	6330.442871	938.220520	0.143104
403.866241	935.099792	6465.153809	937.180359	0.037623
404.227631	936.511475	6580.992188	927.372253	-0.161914
404.588959	927.446533	6709.535645	929.081238	0.028272
404.950287	926.034729	6810.364746	924.623047	-0.023991
405.311554	920.610657	6887.564941	926.034851	0.090904
405.672821	926.109070	6922.264160	923.285645	-0.047087
406.034027	931.904785	6929.843750	928.338196	-0.059464
406.395203	931.384583	6891.205566	925.663269	-0.095998
406.756348	940.449524	6853.980469	919.421875	-0.355585
407.117493	933.167786	6806.946777	924.251526	-0.151798
407.478516	931.681824	6802.414063	931.384583	-0.005063
407.839600	922.839844	6793.200684	939.037781	0.275927
408.200592	924.623047	6805.832031	932.722107	0.137711
408.561554	924.400146	6803.156738	928.783997	0.074571
408.922485	924.251526	6828.048828	926.109131	0.031465
409.283417	925.366028	6852.568359	928.709717	0.056413
409.644257	925.886230	6915.948730	926.703552	0.013645
410.005096	928.932617	6987.650879	928.338196	-0.009811
410.365906	937.105896	7062.325684	923.657166	-0.219563
410.726715	939.409241	7167.611816	923.359863	-0.257689
411.087433	935.545471	7219.475098	930.270020	-0.083951
411.448120	930.047119	7289.542969	925.366028	-0.073608
411.808807	924.177246	7289.097168	927.669434	0.054866
412.169434	916.747009	7269.853027	912.883240	-0.060817
412.530029	911.099915	7244.292969	916.969910	0.092686
412.890564	916.226807	7222.373047	913.849182	-0.037703
413.251099	923.657166	7237.234375	924.177246	0.008237
413.611572	926.703552	7274.459473	924.325867	-0.037457
413.972076	930.121399	7351.734375	919.644714	-0.163147
414.332489	931.236023	7413.404785	918.827393	-0.191427
414.692871	925.589050	7507.769531	927.446533	0.028220
415.053223	926.554932	7577.688965	927.818054	0.018991
415.413574	924.920227	7716.263184	923.508545	-0.020786
415.773834	922.245361	7823.110840	917.564270	-0.067833
416.134094	917.415710	7943.406738	927.818054	0.148055
416.494263	915.706726	8029.598145	932.350586	0.233963
416.854462	925.663269	8212.902344	937.997498	0.169258
417.214630	924.102966	8396.950195	937.403137	0.177980
417.574738	923.880066	8646.681641	930.864502	0.090439
417.934784	921.799561	8856.958008	933.762268	0.150756
418.294861	925.663330	9120.139648	933.316467	0.093394
418.654846	932.721985	9392.680664	941.861328	0.108031
419.014832	933.613586	9702.449219	934.356689	0.008474
419.374756	935.396912	10059.918945	933.019226	-0.026058
419.734680	933.390808	10443.620117	927.075012	-0.066411
420.094543	935.694153	10801.386719	922.691162	-0.131800
420.454376	934.282410	11115.835938	923.657043	-0.104359
420.814148	936.065674	11421.442383	927.818115	-0.078658
421.173920	936.882996	11789.463867	928.338196	-0.078735
421.533691	934.876953	12149.683594	927.298035	-0.067580
421.893341	928.041016	12432.628906	931.236023	0.027772
422.253021	915.260925	12600.774414	931.756104	0.141159
422.612640	920.536377	12696.700195	929.304016	0.074452
422.972260	924.102844	12676.266602	921.725159	-0.020232
423.331757	929.749939	12593.643555	924.548767	-0.044592
423.691315	934.951172	12530.410156	932.573425	-0.020506
424.050781	941.861328	12596.838867	931.161682	-0.091803
424.410248	944.759094	12696.031250	939.855164	-0.041731
424.769653	930.938782	12819.374023	940.003723	0.076250
425.128998	920.684998	12916.710938	945.873596	0.209975
425.488373	924.697266	12891.819336	936.883118	0.101828
425.847656	928.338196	12791.510742	934.579651	0.052612
426.206940	941.341125	12636.515625	928.263977	-0.111817
426.566193	934.282410	12440.579102	932.573425	-0.014853
426.925385	935.694153	12241.151367	927.669434	-0.070981
427.284576	931.013123	11888.063477	927.892273	-0.028483
427.643677	935.322571	11644.721680	931.607422	-0.034691
428.002777	927.372131	11372.477539	937.997559	0.101726
428.361847	926.480652	11176.838867	939.112061	0.123229
428.720856	920.833679	10940.852539	933.167908	0.123096
429.079865	931.607483	10773.077148	921.279480	-0.104944
429.438812	931.087402	10656.125000	926.257751	-0.049662
429.797760	945.204895	10629.747070	929.304138	-0.164187
430.156616	942.530029	10527.655273	940.969666	-0.016279
430.515503	943.421692	10481.661133	934.876892	-0.089585
430.874268	931.384583	10443.395508	931.384583	0.000000
431.233093	930.121521	10468.064453	921.799622	-0.087250
431.591827	919.050476	10512.868164	923.582825	0.047242
431.950562	922.765564	10548.534180	926.777832	0.041683
432.309204	917.564392	10618.824219	936.882996	0.199135
432.667877	922.022461	10694.241211	937.180176	0.155110
433.026459	924.177246	10777.906250	934.356689	0.103305
433.385010	930.121399	10894.710938	938.814941	0.087244
433.743561	933.316467	11039.526367	951.149170	0.176453
434.102051	929.304199	11186.571289	968.461670	0.381753
434.460510	928.932617	11315.190430	984.956848	0.539407
434.818939	929.898621	11388.229492	999.445862	0.664994
435.177338	925.291748	11413.195313	1002.566589	0.736800
435.535675	924.102966	11400.043945	1003.383972	0.756791
435.894012	918.010071	11346.545898	989.489319	0.685420
436.252289	921.502380	11363.559570	981.390320	0.573526
436.610535	924.548828	11345.059570	968.164490	0.418556
436.968719	927.595154	11445.666992	965.192383	0.357454
437.326935	928.932617	11500.500977	955.384338	0.250216
437.685028	931.161804	11616.786133	943.644531	0.116818
438.043152	921.056580	11712.116211	940.300964	0.178336
438.401215	921.651062	11899.803711	942.530029	0.190187
438.759277	916.375488	12058.217773	933.316467	0.152048
439.117249	927.966736	12325.484375	923.657166	-0.037811
439.475250	924.177246	12531.897461	920.833679	-0.028805
439.833130	922.171082	12807.188477	935.694153	0.113783
440.191071	920.313660	13004.684570	942.975891	0.187533
440.548889	925.143250	13235.989258	939.929382	0.120107
440.906708	928.561096	13521.682617	935.619812	0.056052
441.264496	931.161682	13704.245117	930.790222	-0.002908
441.622223	931.384583	13894.831055	930.864502	-0.004012
441.979950	930.418640	13970.323242	922.988464	-0.056980
442.337616	938.517761	14040.984375	930.344299	-0.062381
442.695251	934.356689	13956.426758	927.966614	-0.049071
443.052887	935.768494	13845.047852	931.013123	-0.036837
443.410461	929.527039	13708.851563	921.428040	-0.063376
443.768005	930.047180	13600.073242	929.898621	-0.001173
444.125458	929.155579	13500.581055	932.722107	0.028370
444.482941	934.208191	13532.382813	938.814941	0.036567
444.840393	940.003723	13634.176758	933.242188	-0.053265
445.197754	942.752930	13833.679688	930.938782	-0.091647
445.555084	930.121399	14026.718750	930.567322	0.003405
445.912415	928.858398	14312.934570	933.167908	0.032199
446.269714	926.480652	14550.257813	936.437195	0.073082
446.626953	929.601379	14821.684570	934.802490	0.037439
446.984161	923.880066	15074.015625	934.653992	0.076140
447.341309	924.400146	15293.358398	931.458923	0.049125
447.698456	927.743835	15447.758789	933.613708	0.040426
448.055542	930.121399	15537.887695	935.322571	0.035606
448.412598	943.867432	15473.317383	927.595032	-0.111996
448.769653	939.632141	15350.496094	922.022461	-0.122197
449.126617	941.043945	15107.598633	915.186523	-0.182524
449.483582	928.412415	14952.379883	929.229797	0.005828
449.840515	931.607483	14736.829102	933.985168	0.017223
450.197388	933.465088	14580.571289	934.430969	0.007078
450.554230	928.263916	14438.132813	926.629211	-0.012100
450.911041	920.685059	14341.019531	924.177246	0.026022
451.267822	919.050293	14253.416992	929.081238	0.075226
451.624573	922.022400	14112.018555	928.338196	0.047883
451.981262	928.709717	13984.514648	923.508545	-0.039838
452.337921	926.703552	13833.457031	918.158691	-0.066205
452.694580	924.251526	13788.652344	921.428040	-0.021948
453.051147	928.561035	13798.980469	929.601379	0.008083
453.407715	929.750000	13790.659180	932.573486	0.021954
453.764221	935.396973	13833.458008	944.164734	0.067977
454.120728	927.669434	13702.909180	949.217285	0.168669
454.477142	925.291748	13653.200195	954.269836	0.227674
454.833557	923.880066	13507.416992	940.226746	0.129905
455.189911	927.149414	13394.922852	931.533203	0.035161
455.546265	934.728271	13279.903320	927.743835	-0.056576
455.902557	927.818115	13175.804688	930.047180	0.018199
456.258820	925.217529	13163.098633	930.492981	0.043108
456.615051	920.685059	13219.346680	930.344421	0.078540
456.971252	929.007019	13229.598633	932.053406	0.024766
457.327393	928.783997	13389.497070	933.019287	0.033989
457.683502	930.567322	13539.886719	935.842773	0.041838
458.039612	927.075012	13878.484375	939.929504	0.099252
458.395630	937.848938	14193.082031	943.867493	0.045405
458.751648	941.712708	14541.785156	936.734375	-0.036605
459.107605	941.266907	15005.136719	934.059509	-0.051248
459.463562	930.938782	15519.831055	931.979004	0.007130
459.819458	918.976074	16065.956055	936.511475	0.115768
460.175323	915.409485	16568.169922	932.721985	0.110603
460.531158	918.307373	17088.658203	936.585876	0.113037
460.886932	922.616943	17426.214844	941.786926	0.116156
461.242676	928.412537	17620.443359	945.650696	0.103272
461.598419	933.910950	17466.564453	942.009827	0.048987
461.954102	941.712708	17108.648438	939.855164	-0.011490
462.309723	940.078064	16534.806641	942.975830	0.018582
462.665344	933.019287	15938.083008	935.545593	0.016836
463.020905	926.257751	15508.316406	924.697449	-0.010700
463.376373	927.223633	15212.293945	921.428040	-0.040571
463.731873	931.161621	14979.132813	931.384583	0.001587
464.087341	925.366028	14767.963867	938.443359	0.094472
464.442749	924.474426	14626.639648	939.409241	0.108996
464.798126	919.198975	14533.092773	929.155518	0.073135
465.153503	920.833679	14563.184570	925.291748	0.032678
465.508820	918.976074	14587.036133	927.669434	0.063603
465.864105	924.623047	14732.965820	935.471252	0.078563
466.219330	928.115295	14954.983398	933.019226	0.034961
466.574524	927.818054	15113.247070	927.966614	0.001047
466.929657	925.886230	15266.906250	929.081238	0.022279
467.284790	934.653992	15436.910156	942.752930	0.055846
467.639893	943.570313	15642.953125	941.564148	-0.013648
467.994934	946.245117	15899.445313	941.341125	-0.032796
468.349945	941.786926	16043.666992	937.254578	-0.030012
468.704926	933.687988	16107.195313	944.238953	0.069535
469.059875	931.904785	15902.937500	946.022278	0.094299
469.414764	924.474426	15624.229492	948.548523	0.163772
469.769653	925.143250	15393.889648	939.260742	0.097572
470.124451	921.056458	15305.914063	932.053223	0.076447
470.479248	923.508362	15217.715820	928.189636	0.032749
470.834015	923.434143	15178.559570	932.053284	0.060463
471.188721	923.508484	15214.448242	938.740540	0.106585
471.543365	924.325867	15295.214844	937.105957	0.088930
471.898010	921.428040	15383.858398	934.951172	0.093505
472.252625	919.347656	15477.108398	937.254578	0.123006
472.607178	922.468262	15668.140625	937.031555	0.098763
472.961700	926.183411	15818.379883	934.653992	0.056879
473.316193	919.941956	16058.378906	928.040955	0.053500
473.670654	916.301086	16204.234375	924.474426	0.053463
474.025055	922.393860	16499.884766	930.864441	0.054377
474.379456	926.777832	16730.447266	928.932617	0.013635
474.733795	922.914063	16914.046875	934.208008	0.070626
475.088104	919.867676	16981.589844	929.081238	0.057363
475.442383	927.223694	16910.705078	935.991394	0.054855
475.796570	931.236023	16933.884766	937.477478	0.039003
476.150787	931.384583	17053.291016	941.341125	0.061758
476.504944	929.304138	17292.695313	939.037781	0.059484
476.859070	933.019226	17536.037109	935.174072	0.012979
477.213135	930.418640	17753.669922	930.790222	0.002209
477.567200	932.424805	18115.822266	930.121399	-0.013405
477.921173	941.118225	18475.892578	929.749817	-0.064834
478.275146	940.523865	18923.193359	934.653870	-0.032643
478.629089	939.334961	19183.849609	931.756165	-0.041540
478.983002	926.777832	19558.111328	935.545593	0.047059
479.336823	927.743835	19873.896484	937.180176	0.049806
479.690643	927.149414	20247.416016	940.152344	0.067302
480.044403	929.304199	20659.945313	939.409363	0.051216
480.398163	927.000732	21212.238281	935.322693	0.041025
480.751862	924.920227	21985.431641	930.567322	0.026814
481.105499	930.938721	22850.166016	933.316467	0.010848
481.459137	933.390808	23982.392578	936.585754	0.013862
481.812744	935.991394	25318.951172	942.084167	0.024988
482.166290	929.824219	26972.781250	941.118225	0.043367
482.519806	929.601318	28870.916016	951.223450	0.077384
482.873291	926.852112	31187.601563	958.950928	0.106074
483.226715	925.291809	33941.855469	969.947754	0.135253
483.580139	927.149353	37022.292969	963.929199	0.101897
483.933502	931.161621	40346.375000	972.473938	0.104813
484.286804	929.972839	43622.089844	974.851746	0.105122
484.640106	925.960449	46609.652344	982.207703	0.123123
484.993347	923.657043	48754.843750	979.309814	0.116352
485.346558	923.508484	49736.753906	973.142761	0.101682
485.699738	920.313477	49204.011719	981.910461	0.127573
486.052887	923.359924	47486.574219	981.390320	0.124627
486.405975	929.155579	45002.855469	983.916687	0.124249
486.759064	934.876770	42535.558594	977.303711	0.101986
487.112061	929.452698	40696.566406	975.000305	0.114536
487.464996	923.136963	39811.101563	976.634949	0.137570
487.817963	923.434265	39886.816406	977.155090	0.137875
488.170868	930.270020	40368.593750	974.628845	0.112476
488.523743	931.161682	40950.085938	972.548340	0.103418
488.876587	925.068848	41257.851563	970.319275	0.112193
489.229401	920.387878	41102.035156	979.309875	0.146639
489.582153	919.273254	40407.082031	977.823792	0.148275
489.934845	920.759338	39245.355469	977.526611	0.148122
490.287537	922.096741	37904.714844	974.182922	0.140840
490.640198	928.263916	36727.464844	979.235535	0.142382
490.992798	925.886230	35873.800781	990.232239	0.184120
491.345337	925.886230	35634.468750	984.808289	0.169762
491.697876	920.759277	35845.785156	987.185852	0.190198
492.050354	925.960510	36486.425781	975.891907	0.140413
492.402832	924.548828	37223.953125	975.743347	0.141034
492.755219	921.650940	37681.140625	968.907471	0.128556
493.107605	916.152527	37530.750000	960.288391	0.120542
493.459930	910.208313	36629.832031	959.322449	0.137499
493.812225	906.641785	35027.640625	960.585632	0.158096
494.164490	918.232971	33023.917969	962.888977	0.139091
494.516724	924.623047	30919.890625	959.991150	0.117912
494.868896	936.214294	29047.609375	952.783752	0.058942
495.221039	933.019348	27691.583984	950.183167	0.064143
495.573120	934.059570	26697.562500	946.393799	0.047875
495.925201	936.808777	26197.728516	956.201721	0.076771
496.277222	939.632141	25905.421875	966.455505	0.107440
496.629211	941.638367	25887.515625	969.353271	0.111100
496.981140	932.276184	25918.201172	966.232483	0.135902
497.333069	927.966614	26096.228516	951.669250	0.094177
497.684967	921.650879	26243.201172	955.533020	0.133808
498.036804	926.852112	26369.291016	950.331787	0.092285
498.388580	927.669434	26345.443359	957.910645	0.118977
498.740326	925.960510	26247.880859	956.350342	0.120014
499.092072	922.691223	26043.697266	954.344238	0.126002
499.443756	918.678894	25738.906250	945.650818	0.108669
499.795410	922.171082	25425.052734	941.044006	0.077023
500.147003	925.217529	25117.958984	938.146179	0.053440
500.498566	926.629211	24800.984375	940.003723	0.056020
500.850098	929.304138	24462.982422	943.050110	0.058410
501.201599	923.062683	24171.046875	942.158508	0.082140
501.553009	925.068848	23908.015625	943.124451	0.078561
501.904449	915.929626	23714.453125	940.449524	0.107550
502.255859	928.486816	23504.328125	943.198730	0.065167
502.607178	922.096741	23458.484375	938.814941	0.074183
502.958405	925.217468	23385.517578	927.669495	0.010917
503.309692	917.787170	23373.554688	932.424866	0.065185
503.660919	914.294983	23343.611328	929.749939	0.068905
504.012115	919.719055	23430.843750	940.375183	0.091760
504.363251	927.446594	23559.015625	931.161682	0.016416
504.714294	939.706543	23664.673828	941.935547	0.009809
505.065369	944.164734	23718.468750	946.988220	0.012398
505.416443	930.938782	23790.392578	955.161438	0.105963
505.767395	922.245361	23839.134766	957.762024	0.154980
506.118317	916.524109	23840.546875	952.560852	0.157201
506.469238	920.090637	23802.359375	953.080994	0.144174
506.820160	924.623047	23786.158203	945.502014	0.091328
507.170929	924.771667	23791.431641	944.981934	0.088383
507.521729	930.864441	23841.513672	936.288574	0.023675
507.872498	930.790222	23931.494141	934.653992	0.016798
508.223236	934.059387	24105.365234	928.561035	-0.023729
508.573883	933.093567	24282.869141	932.053223	-0.004455
508.924500	934.653870	24468.330078	932.201843	-0.010419
509.275116	929.527100	24635.958984	934.579590	0.021313
509.625702	930.418762	24848.615234	934.430969	0.016775
509.976196	931.013123	25109.490234	933.093567	0.008605
510.326660	932.201965	25350.083984	935.471375	0.013389
510.677124	930.047180	25587.255859	935.619934	0.022601
511.027557	933.390808	25796.490234	938.071960	0.018828
511.377869	932.573425	26015.240234	937.180237	0.018367
511.728180	929.749939	26157.083984	935.545593	0.022974
512.078430	918.381592	26224.255859	933.762207	0.060779
512.428650	924.845947	26307.474609	935.099670	0.040397
512.778931	931.236023	26442.037109	935.025391	0.014854
513.129028	938.889160	26508.388672	935.842773	-0.011914
513.479126	935.768372	26562.255859	937.031555	0.004929
513.829285	933.687988	26498.951172	939.780823	0.023832
514.179382	928.783997	26468.263672	939.483643	0.041895
514.529297	926.332031	26417.509766	936.288574	0.039059
514.879272	923.954346	26409.562500	935.471191	0.045190
515.229187	919.273254	26335.408203	937.328796	0.071040
515.579163	915.260925	26297.812500	942.307068	0.106554
515.928955	915.260925	26265.195313	943.718811	0.112260
516.278748	925.217529	26442.554688	945.353516	0.078911
516.628540	929.229797	26676.087891	941.861328	0.049060
516.978333	926.629211	27073.312500	936.660156	0.038364
517.327942	927.818054	27473.728516	933.539368	0.021553
517.677612	924.845947	27986.267578	930.864502	0.022240
518.027222	925.960449	28541.013672	934.356750	0.030405
518.376831	917.564270	29249.337891	936.734375	0.067663
518.726379	923.062683	29932.255859	934.208008	0.038420
519.075867	920.759338	30523.779297	935.619812	0.050199
519.425293	927.669495	31030.673828	934.579590	0.022955
519.774658	928.709656	31365.037109	943.570251	0.048825
520.124084	936.288574	31560.380859	940.226746	0.012860
520.473389	933.985168	31456.205078	944.907715	0.035786
520.822693	933.167908	31142.646484	948.177063	0.049684
521.171997	924.028625	30668.521484	945.279236	0.071444
521.521240	924.102966	30138.818359	941.786926	0.060531
521.870361	931.310364	29679.255859	936.882996	0.019384
522.219482	937.551758	29310.195313	940.375183	0.009951
522.568604	941.043945	29056.896484	940.598145	-0.001586
522.917664	935.768494	28899.595703	940.598145	0.017271
523.266724	939.409363	28887.115234	944.239014	0.017281
523.615662	934.208191	29075.173828	946.393738	0.043302
523.964600	929.898499	29436.658203	938.740540	0.031017
524.313538	917.712891	29892.281250	934.430969	0.057699
524.662354	920.090576	30460.625000	925.589050	0.018613
525.011169	917.787170	31172.072266	936.437195	0.061644
525.359985	921.205078	32097.291016	936.808777	0.050050
525.708740	926.777832	33165.765625	940.895325	0.043790
526.057434	932.647766	34412.562500	938.517639	0.017533
526.406067	934.282471	35787.457031	938.963440	0.013431
526.754700	924.474426	37338.457031	943.718811	0.052849
527.103333	917.341309	38947.781250	943.570251	0.068968
527.451782	922.542542	40741.816406	943.793152	0.053368
527.800293	925.068848	42541.949219	942.530029	0.041957
528.148743	926.406311	44529.324219	945.056335	0.042772
528.497131	923.508484	46552.886719	951.149109	0.060576
528.845642	925.960449	48593.980469	957.910645	0.067026
529.193909	928.115295	50525.183594	945.873596	0.035805
529.542175	920.907959	52111.691406	940.300964	0.037884
529.890503	918.827454	53093.378906	929.675598	0.020792
530.238770	914.443604	53298.605469	936.511536	0.042127
530.586914	918.307312	52670.074219	936.808655	0.035750
530.934998	921.428040	51210.917969	935.099670	0.027186
531.283142	926.777832	49138.324219	936.139954	0.019419
531.631226	922.988464	46565.886719	933.687988	0.023442
531.979248	916.003906	44075.113281	944.313293	0.065593
532.327148	921.576660	42014.027344	942.307129	0.050448
532.675110	919.942078	40772.800781	946.022217	0.065441
533.023071	925.514709	40321.929688	941.192566	0.039795
533.370850	912.957520	40415.105469	949.143005	0.091604
533.718689	920.462097	40910.035156	952.932434	0.081197
534.066467	915.038025	41538.863281	955.978821	0.100780
534.414246	919.198975	42031.339844	957.242004	0.092535
534.761963	921.948242	42280.925781	958.133545	0.087491
535.109619	933.836609	42146.437500	959.471008	0.062200
535.457153	933.242188	41470.062500	955.830078	0.055722
535.804749	921.725281	40393.562500	948.697083	0.068332
536.152344	916.524109	39116.152344	953.155273	0.095894
536.499817	914.517883	37982.289063	957.167664	0.115059
536.847229	922.468262	37057.441406	971.433777	0.135507
537.194641	927.000732	36387.675781	967.792969	0.115035
537.542114	935.174011	36048.113281	978.864075	0.124427
537.889404	933.836609	35812.574219	983.693665	0.142944
538.236694	926.554871	35590.261719	995.582092	0.199134
538.583984	927.595154	35256.417969	1002.640869	0.218608
538.931213	920.239197	34902.589844	1012.003113	0.270034
539.278381	921.502258	34569.785156	1026.789307	0.312905
539.625488	920.759277	34287.808594	1043.433105	0.367650
539.972595	933.687988	34234.015625	1068.770264	0.405648
540.319641	932.499084	34562.429688	1096.856812	0.488725
540.666687	930.790222	35368.988281	1126.503540	0.568303
541.013611	929.824219	36658.214844	1146.342407	0.606012
541.360596	929.972839	38163.066406	1159.419800	0.616245
541.707458	923.359863	39796.687500	1160.831421	0.610886
542.054260	918.381592	41292.402344	1160.831421	0.600510
542.401062	924.845947	42722.949219	1160.311279	0.563340
542.747864	930.270020	43708.058594	1164.917969	0.548528
543.094666	933.985168	44075.035156	1161.723022	0.527891
543.441284	927.297852	43580.328125	1165.066650	0.557449
543.787903	923.731384	42492.687500	1173.462769	0.600764
544.134460	927.669434	40987.683594	1197.834106	0.674400
544.481079	929.527100	39369.894531	1223.319946	0.764282
544.827637	933.167969	37708.855469	1241.821411	0.839287
545.174072	928.263916	36107.261719	1256.310425	0.932507
545.520508	936.288574	34747.078125	1255.047363	0.942772
545.866943	936.585876	33621.609375	1247.394165	0.950920
546.213318	939.706543	32794.175781	1232.979370	0.920665
546.559631	940.152344	32075.000000	1214.998169	0.882760
546.905823	940.598145	31545.220703	1200.360474	0.848768
547.252136	937.923157	31158.773438	1179.184204	0.798326
547.598389	926.629211	30875.306641	1165.215332	0.796650
547.944458	923.880066	30659.751953	1144.410522	0.741631
548.290588	926.183411	30301.318359	1126.503540	0.681938
548.636658	929.750000	29876.900391	1092.324341	0.561625
548.982727	930.641602	29235.744141	1066.764160	0.480912
549.328735	930.790222	28531.130859	1041.575439	0.401391
549.674622	927.669434	27717.072266	1038.900513	0.415206
550.020569	927.297913	26944.771484	1032.139160	0.402965
550.366455	926.554932	26182.125000	1029.984253	0.409531
550.712280	926.109131	25535.318359	1014.677979	0.359901
551.058044	935.025452	25069.291016	1003.309570	0.282934
551.403748	932.573425	24693.693359	998.554199	0.277684
551.749512	942.901550	24475.390625	995.210632	0.222285
552.095154	932.721985	24287.033203	988.672058	0.239571
552.440735	933.910889	24254.414063	976.634949	0.183204
552.786316	927.892334	24240.742188	975.148926	0.202706
553.131897	930.418640	24312.296875	976.857849	0.198612
553.477417	924.474426	24392.544922	976.114807	0.220045
553.822815	924.994629	24471.302734	968.684570	0.185549
554.168213	916.301208	24534.757813	961.179993	0.190016
554.513672	918.158691	24539.140625	956.053040	0.160427
554.859009	913.551941	24414.462891	953.006653	0.167886
555.204285	921.279480	24250.476563	957.762024	0.156381
555.549500	920.536377	23971.916016	961.700134	0.178574
555.894714	921.056458	23715.718750	967.570007	0.204055
556.239990	924.400085	23332.837891	961.328613	0.164797
556.585022	928.189636	23083.255859	953.378174	0.113692
556.930115	930.418701	22835.007813	948.474304	0.082428
557.275146	930.567322	22612.695313	941.341125	0.049690
557.620178	938.071960	22420.177734	932.499084	-0.025942
557.965149	937.477356	22268.375000	929.304138	-0.038316
558.310059	935.545593	22128.015625	929.304138	-0.029451
558.654968	926.777832	22001.554688	942.307129	0.073687
558.999756	928.783936	21890.693359	942.752930	0.066640
559.344604	924.400146	21872.343750	939.483582	0.072004
559.689331	928.040955	21813.867188	935.991394	0.038066
560.033997	923.285583	21769.210938	938.146179	0.071288
560.378723	922.468262	21728.568359	946.319519	0.114636
560.723389	916.226868	21726.710938	945.279114	0.139604
561.067932	916.969910	21743.353516	941.861328	0.119519
561.412476	923.285583	21781.544922	944.016052	0.099387
561.757019	926.183411	21813.642578	945.056335	0.090355
562.101501	931.607483	21847.375000	947.582581	0.076378
562.445862	925.440369	21826.794922	941.489807	0.076787
562.790222	926.554871	21842.769531	936.362976	0.046892
563.134644	921.130859	21799.525391	930.790222	0.046265
563.478943	924.994568	21785.259766	930.790283	0.027784
563.823181	928.041016	21731.466797	931.384583	0.016072
564.167358	935.917053	21742.833984	940.598145	0.022498
564.511536	944.684753	21746.845703	940.598145	-0.019645
564.855774	947.210999	21741.421875	943.570313	-0.017508
565.199768	940.300842	21790.164063	939.037781	-0.006058
565.543823	934.653870	21919.302734	939.483643	0.023016
565.887817	932.350586	22224.390625	939.706543	0.034548
566.231812	932.647766	22469.740234	935.396973	0.012765
566.575745	931.830383	22698.587891	937.031555	0.023895
566.919617	927.520935	22869.412109	940.746765	0.060277
567.263428	931.607605	23048.037109	940.375305	0.039643
567.607239	929.155518	23241.443359	945.130676	0.071598
567.950989	933.390808	23309.505859	937.848938	0.019924
568.294678	936.288574	23332.466797	944.610535	0.037158
568.638367	939.780762	23205.037109	945.799316	0.027031
568.981995	933.985291	23033.841797	945.502136	0.052113
569.325623	932.870667	22841.101563	944.239014	0.051891
569.669128	929.304199	22678.822266	938.666321	0.043045
570.012573	934.133789	22542.701172	947.879822	0.063614
570.356140	937.180176	22494.630859	945.056335	0.036536
570.699524	936.511475	22466.468750	944.610535	0.037618
571.042908	934.728210	22538.021484	944.238953	0.044025
571.386230	929.378418	22611.208984	944.090332	0.067854
571.729492	929.378418	22753.572266	947.656921	0.083753
572.072815	931.533203	22931.525391	943.793213	0.055727
572.416016	938.294739	23073.224609	946.616699	0.037597
572.759094	943.273010	23225.023438	943.718933	0.002001
573.102234	934.430969	23331.126953	942.975830	0.038152
573.445374	924.325867	23403.572266	935.842773	0.051234
573.788391	919.941956	23447.783203	935.694153	0.069923
574.131409	927.297913	23405.060547	935.768494	0.037684
574.474365	922.245361	23368.353516	934.653992	0.055282
574.817261	929.675598	23236.318359	941.118225	0.051297
575.160156	933.167908	23069.287109	945.279114	0.054712
575.502930	937.477356	22847.568359	955.384460	0.081730
575.845703	933.093567	22663.296875	959.693909	0.122412
576.188477	929.527039	22479.916016	962.814697	0.154464
576.531250	930.047119	22281.974609	959.396729	0.137456
576.873901	925.514709	22067.166016	956.870422	0.148313
577.216431	927.743835	21885.421875	958.430847	0.146424
577.559082	928.040955	21675.888672	969.278992	0.198758
577.901611	928.858337	21404.978516	969.650574	0.199219
578.244080	918.158691	21076.634766	973.142761	0.272759
578.586487	919.496155	20764.490234	977.155090	0.290547
578.928955	984.659668	20464.753906	1046.479492	0.317349
579.271301	993.724609	20150.156250	1043.804688	0.261427
579.613647	998.628601	19797.216797	1040.906860	0.224901
579.955872	937.625977	19468.873047	967.272949	0.159984
580.298157	935.916992	19189.125000	964.895203	0.158757
580.640320	936.139954	18978.773438	960.362610	0.134252
580.982483	938.591980	18758.910156	969.799133	0.175121
581.324524	935.917175	18542.689453	970.096375	0.194125
581.666626	928.932617	18395.123047	975.148926	0.264604
582.008728	921.725281	18321.416016	976.114807	0.312589
582.350647	919.644775	18258.332031	971.359558	0.298262
582.692566	922.022461	18196.216797	967.644348	0.264104
583.034424	926.406311	18102.892578	959.396790	0.192068
583.376343	932.424866	18032.156250	967.347107	0.204227
583.718201	928.115234	17989.357422	965.935364	0.221673
584.059937	923.434265	17922.037109	965.861023	0.249590
584.401611	925.143250	17826.187500	964.746399	0.234324
584.743347	932.573425	17729.742188	965.489502	0.195962
585.085022	931.756165	17631.142578	973.291321	0.248723
585.426514	928.858337	17563.380859	977.006531	0.289447
585.768127	923.434265	17467.677734	987.185974	0.385341
586.109619	925.737610	17429.486328	990.752441	0.393940
586.451172	925.663269	17406.898438	982.579163	0.345338
586.792542	929.378479	17419.679688	967.792969	0.232952
587.133850	927.075012	17375.765625	964.300598	0.226313
587.475220	925.291809	17367.072266	974.480164	0.299167
587.816589	932.127625	17337.648438	984.659668	0.320210
588.157776	932.796387	17382.154297	983.693665	0.309418
588.498962	929.155518	17406.228516	973.068420	0.266509
588.840210	919.941956	17432.236328	964.895203	0.272241
589.181335	927.223633	17486.625000	958.876648	0.191148
589.522400	938.814880	17508.171875	964.077820	0.152468
589.863403	939.334961	17577.646484	967.644348	0.170146
590.204407	935.694153	17601.273438	971.582336	0.215343
590.545410	930.567200	17729.373047	964.152100	0.199924
590.886353	940.746765	17737.322266	968.684570	0.166330
591.227112	941.935547	17730.041016	968.907532	0.160661
591.567932	943.941833	17627.947266	973.811523	0.179032
591.908752	932.424866	17569.396484	977.898132	0.273327
592.249512	926.183411	17553.869141	976.857849	0.304759
592.590149	918.530212	17491.529297	981.390320	0.379292
592.930786	926.629211	17453.634766	981.018799	0.329095
593.271423	937.105957	17368.185547	978.269592	0.250523
593.612000	935.768494	17313.351563	970.021973	0.209149
593.952576	933.910889	17280.658203	967.421387	0.204998
594.292969	928.858337	17258.886719	967.718567	0.237968
594.633484	932.350586	17301.833984	971.359375	0.238302
594.973877	927.966736	17362.390625	975.371765	0.288450
595.314209	922.171082	17462.402344	969.204590	0.284358
595.654480	926.629211	17604.248047	963.260437	0.219643
595.994812	926.332031	17751.513672	948.399902	0.131160
596.335022	931.236023	17958.820313	951.743591	0.120437
596.675171	924.697449	18112.255859	955.978760	0.182000
597.015320	919.198975	18339.173828	962.071594	0.246112
597.355408	915.855408	18511.927734	958.653625	0.243226
597.695496	917.861572	18673.833984	958.282227	0.227645
598.035461	922.096741	18664.767578	952.560852	0.171700
598.375366	920.239197	18644.187500	954.344177	0.192423
598.715271	913.403320	18582.962891	951.892151	0.217826
599.055176	912.065918	18451.593750	967.198547	0.314334
599.395081	915.781067	18220.291016	970.839417	0.318173
599.734802	925.589050	17899.896484	970.022034	0.261766
600.074524	923.062744	17575.195313	955.607361	0.195438
600.414246	916.895508	17166.603516	956.944763	0.246461
600.753906	924.251465	16780.080078	955.607361	0.197756
601.093506	929.006897	16446.015625	955.607239	0.171427
601.433044	940.077942	16265.683594	954.938538	0.096966
601.772583	930.195801	16125.549805	953.972656	0.156475
602.112122	935.099792	16109.945313	951.594971	0.108701
602.451538	927.075012	16115.516602	943.495911	0.108114
602.790894	931.979004	16229.051758	942.827209	0.070917
603.130310	928.635437	16340.801758	939.409363	0.069905
603.469604	929.601379	16533.544922	943.421692	0.088569
603.808838	924.623047	16763.361328	934.951172	0.065208
604.148010	919.719055	17060.052734	935.917053	0.100357
604.487305	925.737610	17364.916016	924.771667	-0.005876
604.826416	923.880066	17646.748047	929.155457	0.031546
605.165527	922.914124	17881.767578	928.486755	0.032860
605.504456	920.833679	18056.304688	934.430969	0.079352
605.843445	925.960510	18208.701172	941.712708	0.091144
606.182434	929.229797	18246.000000	944.536133	0.088390
606.521423	928.189636	18191.683594	952.783875	0.142464
606.860229	931.013123	18000.427734	955.310120	0.142342
607.199036	931.310303	17748.021484	957.093445	0.153319
607.537903	928.041016	17471.392578	966.381165	0.231756
607.876648	920.759338	17138.218750	965.638123	0.276731
608.215271	926.480652	16793.380859	980.572998	0.340913
608.553955	928.486816	16482.349609	987.706055	0.380737
608.892578	935.471252	16244.803711	1014.232239	0.514464
609.231140	932.647766	16145.980469	1040.758301	0.710630
609.569641	936.511536	16083.863281	1072.634155	0.898656
609.908081	933.762207	16158.239258	1114.317993	1.185957
610.246521	939.483582	16216.196289	1164.249390	1.471297
610.584961	941.935547	16303.206055	1203.183960	1.700695
610.923340	941.564026	16314.574219	1226.143555	1.851163
611.261597	933.687988	16264.270508	1226.366333	1.909114
611.599854	931.236023	16154.600586	1221.611084	1.907430
611.938110	931.904724	16042.106445	1209.945435	1.840086
612.276245	929.378418	15846.690430	1190.478149	1.750314
612.614319	925.886230	15595.620117	1173.834473	1.690203
612.952393	923.285645	15271.067383	1157.413452	1.631805
613.290466	924.994629	14965.906250	1140.918091	1.537817
613.628479	925.514648	14675.456055	1118.776001	1.405543
613.966370	923.434143	14414.801758	1094.256104	1.266158
614.304260	925.960449	14226.592773	1072.411255	1.101081
614.642151	920.610657	14055.622070	1054.058472	1.015970
614.979980	918.530273	13893.643555	1037.191650	0.914531
615.317749	913.700500	13724.456055	1029.389893	0.903065
615.655396	926.777832	13610.476563	1022.479797	0.754527
615.993164	933.465088	13569.683594	1012.746094	0.627411
616.330811	941.563965	13513.434570	999.074402	0.457453
616.668396	932.201904	13482.452148	990.901123	0.467714
617.005859	933.687988	13447.827148	987.780457	0.432251
617.343445	932.201965	13451.022461	981.241699	0.391728
617.680908	931.681824	13433.709961	966.604065	0.279333
618.018311	933.316467	13414.093750	960.882813	0.220870
618.355652	926.034851	13453.175781	958.505066	0.259199
618.692993	930.567322	13486.239258	961.179993	0.243815
619.030273	923.285645	13513.731445	955.087158	0.252585
619.367554	928.412598	13489.879883	950.406067	0.175087
619.704712	921.651062	13487.726563	950.628967	0.230604
620.041870	927.372253	13482.303711	954.344055	0.214830
620.379028	923.954346	13457.262695	954.715637	0.245436
620.716064	927.669434	13413.648438	950.034607	0.179122
621.053040	928.041016	13332.062500	948.399963	0.164132
621.389954	926.554932	13263.629883	954.492737	0.226454
621.726929	926.703552	13178.406250	958.133606	0.256536
622.063843	924.548828	13137.389648	959.916809	0.289597
622.400635	924.920227	13093.700195	957.687744	0.269275
622.737427	920.610779	13063.979492	955.607239	0.288194
623.074219	924.251648	12980.981445	943.198730	0.157149
623.410889	927.446594	12932.239258	939.706543	0.102125
623.747559	932.796387	12877.405273	943.793152	0.092065
624.084167	931.533203	12859.051758	952.783875	0.178165
624.420715	937.254578	12856.823242	954.418457	0.143997
624.757324	937.105957	12863.659180	961.774475	0.206837
625.093750	932.201965	12906.160156	968.833191	0.305924
625.430176	926.109070	12934.468750	966.529785	0.336605
625.766602	922.022461	12978.233398	961.848694	0.330338
626.102905	916.449707	13056.918945	961.997314	0.375172
626.439209	916.078308	13160.348633	959.842529	0.357426
626.775452	916.524109	13270.093750	953.006653	0.295320
627.111694	916.821289	13360.372070	951.074890	0.275272
627.447876	913.774841	13460.011719	954.195496	0.322174
627.783997	918.604492	13539.518555	956.275940	0.298484
628.120056	927.297852	13630.612305	953.749756	0.208228
628.456055	934.653870	13630.463867	956.276062	0.170310
628.792053	938.963379	13642.500000	962.071594	0.181904
629.128052	933.836609	13565.297852	969.204590	0.279999
629.463928	930.790222	13508.828125	973.068359	0.336127
629.799744	922.988464	13378.575195	978.938293	0.449195
630.135559	921.799561	13257.313477	975.669006	0.436702
630.471375	921.799561	13133.452148	979.458496	0.472163
630.807068	927.818115	12979.496094	969.650574	0.347109
631.142700	938.369080	12824.723633	969.279053	0.260046
631.478333	934.430969	12659.325195	965.712585	0.266797
631.813965	929.155518	12539.401367	963.780579	0.298228
632.149475	919.050354	12402.907227	961.105652	0.366212
632.484924	922.765442	12305.050781	949.885986	0.238270
632.820435	920.462097	12240.333008	948.845703	0.250741
633.155884	915.186584	12205.261719	941.489746	0.232976
633.491150	921.130859	12150.203125	945.799316	0.219684
633.826477	924.994629	12064.458008	952.486572	0.246798
634.161804	937.254578	11981.834961	954.418457	0.155405
634.497009	930.641602	11913.625000	949.514404	0.171837
634.832153	924.846008	11878.627930	933.465027	0.078685
635.167297	928.041016	11836.870117	929.229797	0.010897
635.502380	925.960510	11782.182617	925.886230	-0.000684
635.837463	932.647766	11681.725586	929.155518	-0.032489
636.172424	927.298035	11629.043945	934.951111	0.071512
636.507324	930.790222	11540.104492	942.009827	0.105752
636.842224	928.709717	11498.866211	935.174011	0.061156
637.177124	925.737610	11375.078125	930.864502	0.049064
637.511963	924.920227	11268.377930	932.350586	0.071836
637.846741	926.703552	11128.913086	933.390808	0.065547
638.181396	933.762207	11020.059570	929.675598	-0.040516
638.516113	936.659973	10921.682617	919.496155	-0.171896
638.850769	944.536133	10843.962891	920.759277	-0.240184
639.185303	941.043945	10745.882813	922.616882	-0.187938
639.519836	945.279236	10656.644531	927.000732	-0.188218
639.854370	931.384583	10524.905273	925.663269	-0.059637
640.188843	928.932617	10420.510742	925.960449	-0.031314
640.523254	920.016296	10311.063477	925.440369	0.057758
640.857605	929.749939	10222.420898	928.932617	-0.008795
641.191895	923.954285	10147.151367	930.492981	0.070894
641.526184	922.393982	10086.594727	933.687988	0.123240
641.860413	918.901672	10060.738281	937.700378	0.205634
642.194580	922.171082	10009.839844	937.477356	0.168429
642.528748	927.669495	9943.413086	935.545593	0.087359
642.862793	926.926514	9848.007813	938.889160	0.134094
643.196838	928.932678	9772.441406	948.399902	0.220130
643.530823	929.898621	9720.282227	953.229675	0.265416
643.864746	924.994568	9685.731445	947.211121	0.253592
644.198669	929.675598	9665.074219	943.050049	0.153106
644.532532	923.657043	9634.610352	935.471191	0.135624
644.866333	928.263855	9590.548828	941.564148	0.153543
645.200073	930.270020	9561.125000	936.437195	0.071455
645.533813	937.254578	9532.815430	939.186340	0.022474
645.867554	938.146179	9522.635742	934.653992	-0.040680
646.201172	935.396973	9496.629883	930.047180	-0.062489
646.534729	938.666260	9503.317383	936.957336	-0.019953
646.868225	933.985168	9524.196289	937.105957	0.036330
647.201782	929.972839	9531.850586	941.786926	0.137343
647.535217	929.229797	9551.986328	935.396912	0.071521
647.868591	937.031677	9574.797852	932.870605	-0.048173
648.201965	937.403137	9606.301758	933.539307	-0.044571
648.535278	926.332031	9594.413086	928.709717	0.027430
648.868591	919.347595	9576.284180	929.081238	0.112437
649.201782	920.982239	9553.695313	925.886230	0.056807
649.534912	921.725281	9523.008789	924.920227	0.037145
649.868103	924.325867	9498.488281	928.709717	0.051129
650.201172	928.189514	9436.371094	935.174011	0.082092
650.534180	930.864441	9424.186523	940.746765	0.116354
650.867188	932.870605	9384.656250	939.780823	0.081760
651.200134	932.201843	9387.554688	930.418701	-0.021089
651.533020	931.384583	9351.963867	930.270020	-0.013236
651.865845	927.743713	9318.378906	927.223633	-0.006198
652.198608	924.325867	9296.385742	927.595215	0.039051
652.531433	925.143127	9267.778320	926.183411	0.012469
652.864136	919.198975	9250.019531	924.251526	0.060649
653.196777	1179.927246	9487.268555	1187.580444	0.092126
653.529358	1193.598877	9434.885742	1202.663940	0.109996
653.861938	1195.828003	9352.854492	1208.236450	0.152120
654.194519	928.932617	8999.098633	946.913879	0.222812
654.526978	913.923401	8933.935547	940.895325	0.336308
654.859375	920.610657	8892.846680	941.564148	0.262831
655.191833	931.384583	8846.109375	948.994324	0.222493
655.524170	937.254578	8788.525391	940.895325	0.046371
655.856445	945.947937	8740.674805	937.625977	-0.106764
656.188660	952.263672	8731.387695	939.780823	-0.160466
656.520874	943.867493	8701.293945	938.666321	-0.067048
656.853088	933.167908	8690.743164	942.232910	0.116854
657.185181	922.988464	8648.539063	930.790222	0.100986
657.517212	926.034851	8681.306641	932.201965	0.079522
657.849243	926.554932	8706.866211	925.217468	-0.017190
658.181274	926.777832	8766.383789	922.096680	-0.059712
658.513123	933.242188	8839.943359	919.793274	-0.170095
658.844971	932.647766	8919.967773	920.313477	-0.154423
659.176819	935.619873	9013.514648	923.508484	-0.149933
659.508667	928.783997	9118.356445	923.062683	-0.069861
659.840393	932.053406	9232.261719	927.075012	-0.059979
660.172058	928.709717	9312.656250	933.985168	0.062923
660.503662	929.378418	9360.731445	938.369080	0.106634
660.835266	929.675598	9389.189453	938.740662	0.107158
661.166931	935.099792	9378.043945	948.177063	0.154890
661.498413	937.626038	9345.126953	950.331787	0.151124
661.829773	939.780762	9249.424805	951.223450	0.137704
662.161194	942.381531	9118.652344	940.895325	-0.018177
662.492615	938.517761	8943.446289	937.625977	-0.011140
662.823975	936.734375	8776.415039	937.551758	0.010426
663.155212	925.217468	8631.152344	932.499207	0.094495
663.486450	929.378418	8479.351563	931.904785	0.033462
663.817627	929.972839	8331.415039	935.099792	0.069270
664.148743	928.783997	8208.890625	936.585754	0.107165
664.479858	927.892334	8106.130371	932.201965	0.060037
664.810913	923.582764	8055.232422	922.171082	-0.019795
665.141907	933.539368	7977.734375	922.839783	-0.151892
665.472778	930.567200	7909.153809	924.474426	-0.087307
665.803711	931.310303	7844.435547	937.328857	0.087060
666.134583	927.595215	7812.560059	944.313293	0.242820
666.465454	933.093567	7801.636719	950.628967	0.255300
666.796143	938.443359	7766.492188	942.678650	0.062028
667.126831	946.096497	7716.188965	934.356750	-0.173406
667.457458	941.266846	7667.074707	926.480652	-0.219843
667.788147	933.390808	7641.515137	924.400146	-0.134026
668.118774	923.136963	7628.289063	928.709656	0.083111
668.449219	923.880066	7637.057129	926.554932	0.039845
668.779663	928.932617	7644.264160	922.616882	-0.094049
669.110107	925.068909	7625.687988	919.867737	-0.077622
669.440552	922.468262	7601.019531	926.926453	0.066754
669.770874	921.502380	7573.974121	931.087402	0.144082
670.101135	929.304199	7556.586426	927.818054	-0.022425
670.431396	932.201965	7539.349121	920.462097	-0.177684
670.761597	931.681824	7487.782715	915.483826	-0.247068
671.091797	930.641602	7453.306152	923.805725	-0.104802
671.421875	932.499084	7394.013184	927.446594	-0.078194
671.751892	927.595032	7356.267090	933.910950	0.098246
672.081909	922.914001	7335.313965	933.910889	0.171494
672.411865	919.050293	7292.440918	939.112122	0.314775
672.741821	923.731384	7253.877441	936.511536	0.201893
673.071716	920.016296	7227.425781	929.675598	0.153142
673.401550	915.409485	7202.385254	927.000793	0.184370
673.731262	911.174255	7177.345703	923.805847	0.201584
674.060974	917.564270	7109.135254	925.291809	0.124807
674.390625	924.697449	7069.755371	928.338196	0.059247
674.720276	935.768494	7028.220215	936.065674	0.004878
675.049927	935.099792	7015.067871	930.195801	-0.080658
675.379395	936.511414	6976.579590	921.873840	-0.242341
675.708923	929.898438	6915.131348	918.455872	-0.191180
676.038330	927.000732	6857.843750	929.229797	0.037584
676.367737	918.455872	6821.955566	932.796326	0.242914
676.697083	918.827454	6802.935059	933.985168	0.257604
677.026428	924.325867	6766.822754	928.412415	0.069945
677.355652	924.845947	6748.321777	935.768494	0.187561
677.684875	918.753113	6747.876465	934.208069	0.265133
678.013977	915.781067	6747.207031	931.533203	0.270125
678.343079	922.022461	6761.027344	918.901672	-0.053447
678.672180	925.514709	6753.894531	916.301086	-0.158082
679.001221	920.090576	6764.371094	916.969910	-0.053397
679.330139	920.907898	6780.123535	924.400146	0.059603
679.659058	923.359863	6811.775879	922.616882	-0.012618
679.987976	927.520813	6874.562500	920.536438	-0.117443
680.316772	932.499207	6901.459473	918.604492	-0.232783
680.645630	933.390808	6955.923828	921.056458	-0.204803
680.974304	932.573486	6993.075684	921.576660	-0.181451
681.302979	927.000732	7040.925781	924.697449	-0.037673
681.631653	922.839783	7079.042969	925.068909	0.036209
681.960266	924.845947	7101.408203	934.282410	0.152779
682.288757	921.873840	7119.835938	929.229797	0.118683
682.617249	927.446594	7105.940918	930.344421	0.046902
682.945679	932.945007	7082.609375	922.171082	-0.175195
683.274109	937.031677	7058.312500	922.914063	-0.230632
683.602478	935.768494	7009.495605	921.427979	-0.236107
683.930725	928.783997	6964.319824	923.508484	-0.087408
684.259033	922.839844	6871.069824	925.514648	0.044968
684.587280	924.177246	6792.605957	934.505310	0.175994
684.915344	930.121399	6709.684082	940.449524	0.178701
685.243469	928.115234	6635.529785	938.740540	0.186167
685.571533	918.901672	6557.734863	935.396912	0.292529
685.899536	920.313538	6469.166016	925.366028	0.091055
686.227539	923.805725	6419.234863	926.703552	0.052732
686.555420	934.282410	6387.210449	929.155518	-0.094021
686.883301	925.366028	6373.019043	937.848938	0.229143
687.211121	926.332031	6370.417969	940.523865	0.260684
687.538940	925.068848	6369.897949	941.489746	0.301587
687.866638	931.087402	6379.037109	942.084167	0.201851
688.194336	931.681824	6386.021973	942.975891	0.207066
688.521973	924.846008	6385.798828	939.483643	0.268042
688.849609	922.765442	6391.445801	938.220520	0.282611
689.177063	921.576660	6393.229004	934.356750	0.233569
689.504578	926.257751	6377.773926	929.378479	0.057245
689.832031	928.412537	6329.923340	927.669434	-0.013757
690.159485	932.573486	6247.521484	924.771667	-0.146790
690.486816	931.236023	6170.023438	926.629211	-0.087937
690.814087	927.372253	6102.779785	928.338196	0.018664
691.141296	928.709656	6020.229004	939.409363	0.210148
691.468506	921.056580	5914.050781	940.449524	0.388403
691.795715	925.366028	5793.753906	941.266907	0.326615
692.122803	925.811951	5713.582031	927.818054	0.041901
692.449829	934.505310	5668.777344	928.709656	-0.122419
692.776855	935.396973	5606.066406	926.406250	-0.192493
693.103821	931.013123	5545.657715	928.338135	-0.057967
693.430664	929.527039	5471.652344	919.941956	-0.211026
693.757568	925.886230	5427.962402	916.301208	-0.212902
694.084351	925.588928	5369.188965	918.084473	-0.168882
694.411133	925.960449	5329.511230	921.428040	-0.102926
694.737854	926.257629	5303.282715	925.217468	-0.023764
695.064575	926.554932	5280.917480	919.496155	-0.162108
695.391174	928.263855	5268.508301	920.387878	-0.181464
695.717773	927.892395	5248.893066	919.644775	-0.190873
696.044250	931.756104	5241.982422	923.062744	-0.201691
696.370789	928.561035	5223.778809	919.496155	-0.211046
696.697205	930.344299	5227.865234	919.496155	-0.252428
697.023621	924.771667	5253.648438	916.524109	-0.190524
697.349915	932.499207	5299.715820	917.638672	-0.340275
697.676208	926.257751	5387.467285	911.545715	-0.329777
698.002380	926.852234	5461.027344	915.706726	-0.245811
698.328674	923.657166	5562.153809	916.524109	-0.153779
698.654724	929.898499	5634.969238	918.232971	-0.247935
698.980896	932.945007	5766.263184	928.040955	-0.101463
699.306946	931.830383	5852.007813	935.174011	0.067957
699.632935	934.579590	5945.183594	942.158447	0.151256
699.958862	934.802490	5985.604980	930.270020	-0.089738
700.284729	933.316406	6020.601074	927.000793	-0.124145
700.610596	927.520813	5994.520996	916.969910	-0.208228
700.936340	930.047119	5931.809082	923.434265	-0.132210
701.262146	931.384583	5824.292969	922.468262	-0.182229
701.587830	932.721985	5714.770996	935.471191	0.057490
701.913513	929.378418	5571.366699	931.458923	0.044819
702.239075	926.034851	5438.884766	932.499207	0.143243
702.564697	926.183350	5295.554688	924.994629	-0.027206
702.890137	928.040955	5151.109863	927.223633	-0.019354
703.215698	928.412415	5040.993652	922.022461	-0.155376
703.541016	924.845947	4930.803223	925.291687	0.011127
703.866455	924.102966	4849.441406	926.183411	0.053000
704.191711	920.016296	4768.971191	928.486816	0.220073
704.517029	921.725281	4702.024902	928.486816	0.178862
704.842163	922.616882	4660.266602	937.403137	0.395603
705.167419	926.926453	4610.632324	940.226624	0.361054
705.492493	930.641602	4581.580078	941.489746	0.297133
705.817566	928.486816	4544.874512	926.777832	-0.047257
706.142578	928.858398	4506.757324	926.629150	-0.062306
706.467590	929.898621	4479.636719	921.650940	-0.232346
706.792480	929.229797	4456.379395	930.567200	0.037917
707.117371	926.703613	4459.574707	936.139954	0.267101
707.442200	926.926514	4452.367188	942.975830	0.455243
707.766907	931.384583	4469.977051	935.545593	0.117589
708.091675	930.195801	4471.760254	924.102966	-0.172038
708.416321	926.926453	4469.085938	922.245361	-0.132154
708.741028	920.982239	4479.414063	927.223633	0.175397
709.065552	928.783997	4495.760254	935.917053	0.199975
709.390137	927.223633	4513.444336	928.115234	0.024862
709.714600	939.260681	4516.565430	931.979004	-0.203552
710.039063	944.313232	4541.753906	932.573425	-0.326338
710.363403	949.588684	4582.694824	934.653992	-0.411072
710.687744	940.449524	4621.852051	926.034851	-0.391554
711.012085	936.585754	4662.496094	922.691223	-0.372916
711.336304	937.031555	4705.517090	928.561096	-0.224771
711.660461	935.991394	4752.104980	935.619873	-0.009736
711.984619	935.396973	4788.661621	943.347351	0.206328
712.308716	931.310242	4818.457031	944.981995	0.351717
712.632751	927.446472	4817.937012	947.434021	0.513754
712.956726	927.595154	4801.367676	940.746765	0.339504
713.280701	927.892395	4779.002441	931.533203	0.094539
713.604553	931.458923	4755.522949	927.298035	-0.108808
713.928467	935.174072	4705.145020	929.898499	-0.139937
714.252258	929.675598	4643.771484	935.322571	0.152042
714.575989	932.721985	4578.458984	930.641602	-0.057063
714.899719	926.554932	4510.918457	923.582825	-0.082919
715.223267	928.635437	4452.219238	915.781006	-0.364811
715.546936	923.880066	4403.922363	917.415710	-0.185755
715.870422	922.022461	4372.863770	924.102966	0.060290
716.193970	919.273254	4351.687012	935.322693	0.467585
716.517395	920.685059	4323.303223	936.585754	0.467308
716.840820	924.177246	4311.341309	932.945007	0.258853
717.164124	931.384583	4288.678711	929.749817	-0.048693
717.487488	932.127625	4270.697266	926.852051	-0.158019
717.810730	930.195740	4237.483887	925.514648	-0.141539
718.133972	925.886169	4191.713379	927.297913	0.043228
718.457092	928.561035	4124.470215	928.486816	-0.002322
718.780212	931.236023	4061.609619	937.551758	0.201757
719.103210	942.975830	3998.823486	929.081238	-0.454689
719.426208	932.722107	3952.904541	936.734375	0.132849
719.749207	931.607605	3917.387695	937.328857	0.191617
720.072083	922.691223	3859.506104	942.752930	0.683111
720.394958	928.635437	3805.933838	932.499207	0.134285
720.717773	918.678894	3745.377197	916.524109	-0.076230
721.040527	924.846008	3727.618896	913.477722	-0.405609
721.363281	931.904785	3714.392822	914.369202	-0.630212
721.685913	942.604309	3679.544922	925.068848	-0.640696
722.008545	937.105774	3635.037842	933.762268	-0.123928
722.331055	930.195740	3606.134033	937.625977	0.277668
722.653503	922.171082	3591.421875	931.236023	0.339606
722.976013	916.821228	3584.066162	921.353699	0.169931
723.298401	921.056458	3568.759766	918.604492	-0.092607
723.620789	921.130859	3555.385498	928.041016	0.262319
723.943115	928.189514	3539.113037	925.514648	-0.102449
724.265381	929.378418	3538.964600	929.229797	-0.005695
724.587585	926.703552	3531.236572	920.536377	-0.236786
724.909790	923.508545	3523.137695	932.201904	0.334408
725.231873	924.400146	3510.580811	929.006897	0.178129
725.553894	934.208191	3510.506104	931.681824	-0.098062
725.875916	991.569824	3587.632813	987.260254	-0.166004
726.197937	987.185974	3591.570557	992.089905	0.188295
726.519775	981.910461	3602.790283	992.907288	0.419585
726.841675	924.325867	3545.874268	924.697327	0.014169
727.163513	924.548767	3547.212158	918.827454	-0.218149
727.485291	920.462097	3563.112549	915.038025	-0.205251
727.806946	928.783936	3595.657471	921.799500	-0.261896
728.128662	925.366028	3615.867432	927.743713	0.088373
728.450256	933.465027	3640.536133	934.208191	0.027453
728.771790	923.731445	3642.913818	929.675598	0.218601
729.093323	924.400146	3672.560547	916.301086	-0.294708
729.414795	924.474426	3667.285156	909.242371	-0.555345
729.736145	925.143066	3654.133545	907.904968	-0.631666
730.057495	926.852051	3644.622803	912.734680	-0.519447
730.378845	925.663269	3647.594971	918.010193	-0.281163
730.700134	922.393982	3652.201904	920.462158	-0.070768
731.021301	918.901794	3629.019287	922.914124	0.148050
731.342468	923.508545	3621.811768	922.468262	-0.038553
731.663574	931.681824	3637.043701	929.304138	-0.087888
731.984680	938.517639	3659.409180	929.452637	-0.333163
732.305664	935.619934	3672.486084	928.783997	-0.249772
732.626648	929.527039	3687.272217	925.589050	-0.142797
732.947571	921.650940	3693.291016	925.737610	0.147446
733.268433	919.867676	3706.442383	926.777832	0.247980
733.589233	922.616882	3696.708740	921.576660	-0.037498
733.909973	933.019226	3692.176514	929.972839	-0.110410
734.230713	929.378418	3664.387451	931.830505	0.089656
734.551331	929.527039	3623.594971	935.619873	0.226157
734.871948	920.610657	3571.583252	923.805725	0.120524
735.192505	927.446472	3535.175049	919.050354	-0.321971
735.513062	926.331970	3496.983154	915.706787	-0.413327
735.833435	928.040833	3458.197266	921.353760	-0.264295
736.153931	922.022461	3407.968506	924.400146	0.095645
736.474304	922.245361	3355.436768	930.121399	0.323692
736.794617	925.663269	3335.523438	928.338196	0.110999
737.114807	931.756104	3303.424805	931.607605	-0.006261
737.434998	936.585754	3295.102783	928.858337	-0.327639
737.755188	937.923157	3262.483643	927.818054	-0.434710
738.075256	927.669434	3263.003906	923.434265	-0.181352
738.395325	924.623108	3269.691406	921.799561	-0.120404
738.715271	919.644836	3304.910889	921.353760	0.071645
739.035278	927.743835	3323.932373	924.474426	-0.136442
739.355164	925.217468	3344.885498	922.394043	-0.116686
739.675049	929.898621	3344.291260	927.372253	-0.104638
739.994873	926.629211	3347.560547	918.158752	-0.349884
740.314636	924.177246	3343.770752	929.378418	0.214961
740.634277	915.409485	3336.935303	924.920227	0.392758
740.953979	917.489929	3309.666016	924.994568	0.313716
741.273499	918.976013	3280.762451	920.387878	0.059780
741.593140	932.573486	3241.382080	921.428040	-0.482736
741.912598	937.477478	3212.701172	926.554932	-0.480065
742.232117	940.523926	3163.289795	920.313477	-0.909248
742.551453	934.356689	3118.114014	920.759277	-0.622661
742.870850	933.465149	3077.693115	923.508484	-0.464347
743.190063	932.201965	3043.959717	932.573425	0.017590
743.509338	930.344421	3011.192139	930.864441	0.024991
743.828552	928.263916	2970.919922	928.635437	0.018188
744.147705	925.589050	2949.818115	923.657043	-0.095444
744.466797	927.149353	2934.363037	927.892395	0.037019
744.785828	927.223633	2917.718994	929.824280	0.130653
745.104858	926.480652	2888.518311	927.818176	0.068170
745.423706	925.811829	2878.264404	931.979065	0.315871
745.742615	914.740784	2866.227539	930.864563	0.826231
746.061401	924.474426	2857.757080	931.904785	0.384339
746.380249	918.753113	2831.156982	922.468323	0.194269
746.698975	932.276184	2813.472656	922.468323	-0.521363
747.017639	920.610657	2789.695557	933.910889	0.711591
747.336304	921.130859	2779.218994	934.802551	0.735794
747.654907	914.815125	2780.705078	936.585754	1.166769
747.973389	926.034851	2789.770264	934.728210	0.466448
748.291931	930.715820	2786.426514	942.752869	0.648649
748.610352	926.332031	2788.729736	942.232727	0.853776
748.928711	920.090576	2800.246826	938.443359	0.976131
749.247070	918.307373	2816.964844	938.369080	1.056626
749.565308	921.948242	2802.401367	932.201965	0.545279
749.883545	925.812012	2783.825439	922.988464	-0.151966
750.201782	929.081238	2769.633789	917.415710	-0.633806
750.519836	930.938721	2774.834961	923.880066	-0.382812
750.837952	925.365967	2763.244141	930.418701	0.274922
751.155884	923.880066	2745.931396	939.186340	0.840057
751.473877	930.715881	2726.166748	933.167908	0.136569
751.791809	931.681824	2715.095703	926.629211	-0.283311
752.109619	932.870605	2711.083252	924.325867	-0.480524
752.427490	928.412415	2704.619141	929.601318	0.066935
752.745300	931.979065	2707.442383	931.310303	-0.037667
753.062988	930.270081	2693.844971	923.359924	-0.391827
753.380615	924.177307	2694.736572	921.576660	-0.146883
753.698303	919.941956	2689.461426	928.635437	0.491291
754.015808	917.341370	2690.353027	922.988464	0.318503
754.333374	921.205078	2692.433350	924.846008	0.205560
754.650757	925.143250	2683.517090	915.706787	-0.536659
754.968262	928.041016	2678.241455	925.811951	-0.127361
755.285583	931.533264	2662.861084	927.446533	-0.236046
755.602905	929.304199	2656.247803	935.694153	0.370015
755.920105	927.966736	2639.678467	926.406250	-0.091165
756.237305	922.839844	2630.836670	922.765442	-0.004356
756.554443	926.629211	2616.421631	920.536438	-0.360563
756.871582	929.229797	2613.449707	916.078308	-0.780865
757.188599	930.195801	2599.480713	918.084412	-0.725544
757.505615	927.149414	2602.972900	918.827454	-0.496589
757.822510	921.130798	2597.920166	934.653870	0.806486
758.139465	923.062744	2614.861328	931.607483	0.505068
758.456238	924.474426	2634.179932	931.384583	0.404172
758.773010	928.412537	2664.049805	930.047180	0.094181
759.089783	929.527039	2663.752441	931.458801	0.111391
759.406433	926.703613	2676.235352	936.808655	0.577586
759.723145	925.960510	2680.247803	929.155457	0.182122
760.039673	931.681885	2705.956299	929.527039	-0.121449
760.356201	929.824280	2698.749023	915.781067	-0.793884
760.672668	929.750000	2703.504639	918.084473	-0.657674
760.989136	923.508545	2698.154785	913.700500	-0.552676
761.305481	928.041016	2688.049561	917.861511	-0.578378
761.621826	935.991455	2691.244629	919.644714	-0.931304
761.938049	940.300964	2703.133057	925.886230	-0.817703
762.254333	937.254578	2741.473389	933.465149	-0.210032
762.570496	930.864441	2773.869141	929.601379	-0.068533
762.886597	918.901672	2820.754150	921.428040	0.132837
763.202637	921.353699	2891.490234	912.808899	-0.433716
763.518677	923.731445	2983.254150	914.220703	-0.461794
763.834656	920.016296	3101.247070	916.672668	-0.153291
764.150574	923.211243	3244.502686	921.353699	-0.080022
764.466370	923.359863	3375.126953	927.223633	0.157591
764.782288	933.539307	3468.599609	927.000732	-0.257926
765.097961	936.214294	3500.401123	933.167908	-0.118805
765.413696	931.013123	3476.698486	929.155518	-0.072971
765.729309	929.601379	3422.234619	930.864441	0.050672
766.044861	924.325867	3310.409180	920.759277	-0.149475
766.360474	923.731445	3182.608398	922.022461	-0.075656
766.675903	922.171082	3030.733643	922.616882	0.021142
766.991394	918.233093	2895.948486	925.217468	0.353154
767.306763	927.818115	2797.943359	922.171082	-0.301960
767.622131	939.483643	2708.111084	916.003906	-1.327568
767.937378	943.867432	2633.659912	911.545715	-1.912763
768.252625	940.300964	2573.251709	911.991516	-1.733638
768.567810	928.412415	2520.496826	916.375427	-0.756052
768.882996	924.325867	2486.391846	921.650879	-0.171247
769.197998	922.171082	2426.949707	918.307312	-0.256767
769.513062	924.771667	2398.640381	920.016296	-0.322646
769.828064	931.979004	2369.439453	918.530273	-0.935590
770.142944	932.053406	2355.841797	921.279480	-0.756708
770.457825	936.214294	2333.476807	927.000793	-0.659397
770.772705	928.783997	2299.000244	927.372253	-0.103031
771.087402	922.839783	2267.496094	929.675598	0.508369
771.402100	916.375427	2240.672852	924.177246	0.589129
771.716736	923.508484	2217.564697	927.149353	0.281353
772.031372	933.910828	2193.267822	925.663269	-0.654902
772.345947	929.304138	2171.274170	926.109070	-0.257258
772.660461	923.137024	2159.014160	928.115234	0.402808
772.974854	923.508545	2145.565430	927.223633	0.304003
773.289246	931.681824	2121.268311	929.675598	-0.168649
773.603638	926.554932	2095.262451	929.972839	0.292452
773.917908	923.285583	2078.693115	931.087402	0.675244
774.232178	929.750000	2063.832275	926.034668	-0.327607
774.546265	935.917053	2051.126465	926.629150	-0.832839
774.860474	934.728210	2035.894531	929.378418	-0.485830
775.174561	931.384583	2031.733765	929.527039	-0.168814
775.488586	939.929382	2033.442749	924.103027	-1.447294
775.802551	937.477478	2027.646973	925.811951	-1.070065
776.116516	931.087402	2019.027954	926.554993	-0.416605
776.430359	920.684998	2006.842163	924.845947	0.383089
776.744202	924.177246	2007.436646	919.867676	-0.397834
777.057922	931.161682	2000.526367	920.610657	-0.986663
777.371704	929.452820	1991.758789	912.214539	-1.622723
777.685303	927.149353	1976.006470	914.294983	-1.225560
777.998962	922.765442	1962.409180	910.431335	-1.186378
778.312500	926.554932	1954.681641	919.496277	-0.686555
778.626038	925.291809	1943.016113	920.685059	-0.452652
778.939453	931.607483	1943.461914	923.211243	-0.829787
779.252869	930.418640	1946.062500	923.880066	-0.643786
779.566223	934.579590	1946.211060	924.102966	-1.035617
779.879578	930.864502	1946.954102	931.384583	0.051185
780.192749	932.499207	1937.963501	929.155518	-0.332552
780.505920	932.127686	1934.099976	929.081238	-0.304045
780.819031	928.338196	1923.920288	921.056458	-0.731405
781.132141	938.071777	1924.812012	931.384583	-0.677706
781.445190	940.375183	1926.372192	930.790222	-0.972109
781.758118	935.917053	1918.570679	936.511475	0.060491
782.071045	928.932678	1906.904907	926.852112	-0.212743
782.383911	928.338196	1883.425415	921.873840	-0.676834
782.696838	932.573425	1873.617554	921.056580	-1.223837
783.009583	922.616882	1851.549438	921.205139	-0.151975
783.322266	917.787170	1849.023315	924.102966	0.678216
783.634888	921.056458	1834.905640	919.793396	-0.138213
783.947510	931.161621	1825.617798	921.948181	-1.030061
784.260132	927.298035	1818.930542	922.988342	-0.483349
784.572571	927.223633	1807.041992	933.093567	0.667176
784.885010	932.796387	1797.680054	928.115234	-0.541246
785.197449	940.969666	1786.980469	929.452698	-1.361326
785.509766	941.415344	1781.853516	928.338196	-1.555992
785.822083	935.842773	1779.550171	941.266846	0.642885
786.134277	934.430969	1764.020874	938.666260	0.510528
786.446533	932.796387	1754.510132	931.236023	-0.189891
786.758606	929.749817	1752.652710	926.109131	-0.442420
787.070740	936.288574	1760.900024	931.533203	-0.576680
787.382690	941.564026	1777.172485	929.081238	-1.493856
787.694641	939.334961	1786.906250	925.663269	-1.613043
788.006653	927.966736	1812.689331	921.502258	-0.730678
788.318481	922.022461	1836.168823	924.846008	0.308873
788.630310	920.982239	1862.472046	919.719055	-0.134169
788.942017	927.446594	1864.403809	910.431213	-1.816025
789.253784	928.561096	1871.982788	911.768738	-1.779942
789.565430	926.777832	1875.995117	918.753174	-0.845397
789.877014	922.171082	1886.397461	922.691223	0.053944
790.188538	917.638611	1883.648315	924.028625	0.661486
790.500061	927.743835	1876.366577	915.706726	-1.268904
790.811462	930.047180	1851.772461	921.427979	-0.935116
791.122925	938.666260	1824.280273	918.232971	-2.307245
791.434204	935.545593	1790.472656	928.709717	-0.799586
791.745483	931.904785	1772.045410	932.127686	0.026531
792.056702	927.520935	1752.058105	927.000732	-0.063090
792.367920	920.239258	1738.832153	919.867676	-0.045393
792.678955	923.880066	1717.730103	911.397156	-1.572452
792.990112	920.759338	1703.910034	914.740784	-0.768505
793.301086	928.263977	1695.067993	921.576660	-0.872102
793.612122	929.750000	1698.040039	928.709717	-0.135402
793.922974	926.109131	1697.445679	927.669495	0.202294
794.233826	918.381592	1686.969116	931.904785	1.759486
794.544556	922.394043	1674.188965	925.663330	0.434864
794.855286	921.725281	1666.907227	927.372314	0.757806
795.166016	928.115295	1682.139282	920.462158	-1.014973
795.476624	922.393982	1688.455078	918.827454	-0.465567
795.787292	920.907959	1695.588013	909.688171	-1.448312
796.097778	919.198975	1697.445679	908.722229	-1.346199
796.408264	924.028625	1702.869751	914.815125	-1.182976
796.718689	930.864441	1714.683960	925.068848	-0.739404
797.029053	934.208008	1722.485718	922.839783	-1.442160
797.339355	928.263855	1725.012085	930.492981	0.279778
797.649658	928.709717	1723.526001	929.006897	0.037390
797.959839	924.697327	1712.900757	923.136963	-0.197965
798.270020	929.675598	1714.089478	917.489990	-1.553467
798.580078	934.728210	1705.395996	920.982239	-1.783644
798.890137	935.768494	1696.702759	932.870605	-0.380833
799.200195	934.951111	1679.910156	933.762207	-0.159593
799.510071	932.870605	1673.223022	927.818054	-0.682452
799.820007	930.790100	1655.538940	924.028625	-0.932940
800.129883	921.205078	1654.201538	918.307312	-0.395332
800.439575	921.799500	1639.638184	924.548767	0.382992
800.749329	925.886169	1647.439941	929.155518	0.453098
801.058960	934.282410	1633.322266	928.486816	-0.829079
801.368591	938.220398	1628.418457	925.960449	-1.776294
801.678162	939.483643	1618.461914	918.307312	-3.118852
801.987671	933.316467	1609.471313	922.914063	-1.538465
802.297119	927.818115	1601.892456	916.449768	-1.686512
802.606506	918.158691	1589.038086	921.502258	0.498386
802.915894	917.712952	1593.941895	924.102844	0.944930
803.225159	925.217468	1584.208374	935.619812	1.578526
803.534424	943.124451	1584.728516	934.951172	-1.273882
803.843628	947.656921	1581.161987	928.338196	-3.049498
804.152771	939.929443	1583.242310	924.325867	-2.425503
804.461792	928.338196	1583.093750	917.341309	-1.679541
804.770874	932.201904	1579.675781	922.542542	-1.491854
805.079773	928.189514	1581.682007	925.886230	-0.352458
805.388733	929.749817	1585.768555	936.214294	0.985411
805.697571	933.019226	1589.260742	928.709656	-0.656705
806.006470	941.415466	1587.774780	924.697327	-2.586509
806.315125	939.557922	1599.366089	922.393982	-2.601353
806.623901	932.945007	1605.013062	925.143127	-1.160877
806.932495	924.845947	1605.682007	926.034851	0.174624
807.241150	925.291809	1594.833618	925.217468	-0.011103
807.549622	926.332031	1583.613892	924.400146	-0.293920
807.858154	933.093567	1585.025513	927.743713	-0.820615
808.166565	935.619812	1574.326050	926.554871	-1.419266
808.474915	931.979004	1568.010254	930.938721	-0.163558
808.783264	929.081238	1556.493530	922.691162	-1.018481
809.091492	927.446594	1548.542969	922.839783	-0.741723
809.399719	933.465027	1541.484253	916.598328	-2.774040
809.707825	936.882996	1534.276855	924.177246	-2.126863
810.015930	934.876770	1526.549438	924.697449	-1.720431
810.323975	929.972839	1524.171753	933.985168	0.675250
810.632080	923.657043	1522.537109	929.601379	0.992575
810.939880	928.932617	1524.246094	926.257813	-0.449310
811.247864	926.406311	1523.057129	924.177246	-0.373596
811.555664	931.979004	1517.410156	925.886230	-1.040733
811.863464	925.589050	1514.586792	925.440430	-0.025233
812.171143	925.589050	1507.825195	915.112366	-1.799388
812.478882	925.440369	1497.794312	912.586121	-2.245857
812.786438	933.539368	1492.444336	906.047424	-4.918894
813.094055	936.659973	1482.710815	919.644714	-3.116058
813.401489	932.796387	1480.927368	917.044128	-2.873813
813.708984	925.886169	1473.125610	925.440369	-0.081464
814.016357	928.338196	1473.200073	919.941956	-1.540985
814.323730	933.539368	1476.469360	933.242188	-0.054736
814.630981	935.471191	1478.549805	930.047119	-0.998764
814.938232	929.824219	1482.562134	929.527039	-0.053765
815.245361	930.715881	1474.834595	916.746887	-2.567270
815.552490	933.242188	1471.491211	918.010071	-2.829939
815.859619	936.214294	1465.621094	913.106140	-4.364914
816.166565	931.681824	1477.732422	918.158691	-2.476535
816.473572	936.882996	1476.692383	917.564270	-3.578805
816.780457	931.384583	1486.871704	923.508545	-1.417861
817.087341	924.994446	1484.196777	916.003906	-1.607744
817.394043	915.409485	1487.911987	922.839844	1.297874
817.700806	920.016296	1485.014160	921.948181	0.341928
818.007507	925.291809	1489.398071	931.681824	1.132768
818.314209	928.412537	1509.236816	927.818054	-0.102352
818.620667	930.344421	1523.354492	924.994629	-0.902142
818.927246	931.830383	1534.648438	933.167908	0.221879
819.233704	930.047180	1539.403809	938.889160	1.451035
819.540161	931.979065	1546.611206	946.839600	2.417793
819.846497	931.904785	1576.777954	937.997559	0.944802
820.152832	930.121521	1615.489746	933.985291	0.563751
820.458984	926.554932	1669.507813	934.356750	1.050110
820.765259	924.325867	1729.395874	929.750000	0.673747
821.071350	927.669434	1820.416626	932.647766	0.557642
821.377502	925.366028	1975.635132	922.245361	-0.297130
821.683472	925.440369	2206.642334	925.068848	-0.028998
821.989441	930.641541	2529.338867	919.719055	-0.683212
822.295349	935.396912	2947.663086	922.914063	-0.620338
822.601196	933.985168	3435.089111	921.873840	-0.484239
822.907043	935.248352	3956.173828	926.406311	-0.292693
823.212769	931.979004	4432.974609	926.926453	-0.144318
823.518494	935.471252	4803.522461	928.040955	-0.192094
823.824097	927.223633	4963.125000	926.629211	-0.014728
824.129700	932.721985	4911.038574	930.864502	-0.046690
824.435242	924.102844	4725.355957	926.629211	0.066461
824.740723	925.811829	4500.738770	918.827454	-0.195371
825.046082	922.245361	4221.063477	912.585999	-0.292813
825.351501	926.926453	3886.403564	919.793396	-0.241024
825.656799	926.034729	3503.373291	918.530212	-0.291173
825.962036	921.502258	3160.912109	919.867676	-0.072992
826.267212	924.325867	2863.477783	917.118469	-0.371678
826.572449	924.548828	2659.888672	922.988342	-0.089924
826.877502	932.573486	2563.369385	920.759277	-0.724444
827.182495	937.031555	2555.121826	921.502258	-0.959730
827.487488	933.316467	2602.378418	919.347595	-0.836930
827.792419	924.771667	2669.622314	921.725281	-0.174593
828.097290	922.616882	2738.649658	924.920227	0.126834
828.402100	925.440369	2775.801025	929.155457	0.200776
828.706848	932.870605	2754.178955	929.229797	-0.199901
829.011597	927.892395	2688.643799	924.697449	-0.181454
829.316223	925.589050	2589.598633	919.941956	-0.339367
829.620789	920.387878	2479.556152	912.437500	-0.509912
829.925354	920.833679	2342.541748	912.140198	-0.611481
830.229797	918.753113	2198.246094	916.672668	-0.162599
830.534302	924.325867	2049.269287	927.372253	0.270804
830.838562	921.651062	1908.911133	930.864502	0.933233
831.142944	928.783997	1785.048462	930.864563	0.242982
831.447144	927.372253	1690.089722	928.486877	0.146139
831.751404	930.047058	1627.155273	921.130859	-1.279027
832.055542	930.270020	1594.833618	920.982239	-1.397576
832.359619	927.743835	1573.359985	921.130859	-1.024289
832.663635	936.065735	1569.793579	925.812012	-1.618001
832.967651	937.625977	1585.397095	930.121521	-1.158504
833.271545	938.963379	1623.068726	935.025452	-0.575632
833.575439	937.031555	1685.631470	934.356750	-0.357308
833.879211	937.700378	1753.321289	927.669495	-1.229846
834.183044	935.842773	1839.586792	918.827454	-1.882759
834.486694	933.539368	1924.663452	913.774902	-1.994146
834.790344	931.384583	2002.161133	921.056580	-0.964534
835.093933	928.263855	2045.851196	924.474426	-0.339072
835.397522	929.378418	2050.086426	921.650940	-0.689517
835.700928	929.749939	2034.854370	916.821289	-1.169903
836.004395	935.917053	2000.303345	924.177246	-1.102965
836.307739	928.709717	1955.276001	930.418640	0.166470
836.611023	925.143127	1893.901855	926.777832	0.168742
836.914307	923.731445	1817.816040	910.877014	-1.437720
837.217529	919.347595	1737.494751	912.957520	-0.781042
837.520691	928.858398	1655.316040	915.706787	-1.810376
837.823730	927.000793	1577.149780	923.954285	-0.468586
838.126831	941.266846	1518.896118	917.044189	-4.193460
838.429749	934.430969	1471.713989	921.725281	-2.364804
838.732727	937.403076	1435.974243	924.994629	-2.488802
839.035522	932.127625	1412.643433	932.721985	0.123692
839.338379	930.864502	1392.135742	925.737549	-1.111483
839.641113	928.041016	1392.284302	921.427979	-1.424477
839.943848	922.096863	1389.237915	919.793396	-0.493099
840.246460	925.737610	1408.110840	915.929688	-2.033264
840.549072	921.428040	1416.507202	918.678894	-0.555294
840.851563	921.056458	1422.599976	917.267090	-0.755541
841.154053	912.437439	1422.376953	927.743835	3.001610
841.456482	919.198975	1436.568848	932.647766	2.599454
841.758850	930.121399	1442.067261	936.437195	1.233684
842.061157	935.619812	1434.414063	929.155579	-1.295972
842.363403	934.208008	1410.859985	920.536438	-2.868250
842.665588	923.136963	1389.237915	916.672791	-1.386861
842.967712	928.115295	1362.563354	917.564392	-2.428576
843.269775	930.715881	1339.826660	918.455994	-2.996716
843.571777	928.189636	1317.907349	923.136963	-1.296496
843.873840	926.109131	1301.486450	924.623047	-0.395891
844.175659	930.864502	1282.019287	926.926453	-1.121457
844.477600	937.626038	1263.592163	929.824280	-2.393426
844.779297	931.013123	1253.635498	930.938782	-0.023043
845.081116	927.743713	1244.273315	932.424866	1.478899
845.382751	930.567322	1240.335327	927.372253	-1.031439
845.684387	935.322754	1224.211792	933.465088	-0.643038
845.985962	932.722107	1210.391235	938.666260	2.140732
846.287537	928.858215	1196.571045	937.997559	3.413861
846.588989	924.400085	1197.239624	936.585754	4.466240
846.890381	921.205078	1187.283203	937.105957	5.976019
847.191711	919.273254	1191.072632	933.539368	5.248766
847.493042	920.982178	1180.224487	933.836609	4.958462
847.794250	920.016296	1188.100586	924.325867	1.607543
848.095459	924.697327	1182.825073	929.155579	1.727149
848.396606	930.344421	1185.722778	927.818054	-0.989264
848.697693	938.666260	1175.989136	931.756104	-2.911711
848.998657	945.650696	1173.983032	926.034851	-8.590919
849.299622	940.300842	1164.546509	924.920349	-6.858769
849.600464	935.619873	1166.849976	917.415710	-7.872748
849.901367	929.155457	1157.859375	916.672668	-5.458056
850.202087	930.047180	1157.265015	903.669678	-11.608905
850.502808	940.375244	1153.995483	907.087646	-15.582604
850.803467	940.300964	1152.880981	907.682129	-15.344262
851.104065	944.016113	1155.853149	924.697449	-9.119588
851.404663	927.669434	1150.206177	924.548828	-1.402288
851.705139	925.291809	1153.698364	927.669434	1.040962
852.005615	921.056458	1150.206177	921.650940	0.259430
852.306030	927.149353	1158.453735	918.530273	-3.726293
852.606384	929.452637	1162.688965	917.638611	-5.065260
852.906616	933.762207	1171.605225	917.564270	-6.810348
853.206909	931.013123	1172.942749	922.765564	-3.409073
853.506958	927.446533	1166.329834	923.211243	-1.772954
853.807129	919.273254	1164.472168	925.068848	2.363629
854.107178	922.319641	1162.763306	928.709717	2.657619
854.407166	922.022461	1163.877808	935.396973	5.529963
854.707092	922.765564	1157.562134	931.607605	3.765831
855.007019	925.440430	1152.806763	929.304138	1.699332
855.306763	939.706543	1155.778931	930.864502	-4.092166
855.606567	944.016052	1149.165894	930.790222	-6.446912
855.906250	932.499207	1149.537354	931.384583	-0.513561
856.205933	924.623047	1139.878052	931.830505	3.348335
856.505493	926.406433	1151.023438	937.328857	4.862688
856.805054	936.362976	1151.469238	936.288574	-0.034588
857.104492	926.777832	1157.190552	935.471191	3.772951
857.403931	932.499207	1157.264771	934.505310	0.892532
857.703308	929.972839	1154.887207	937.551758	3.369691
858.002563	942.455750	1150.874878	933.613708	-4.242433
858.301819	938.666260	1138.391968	927.818115	-5.431521
858.601013	933.093567	1138.689209	929.898621	-1.553995
858.900208	930.641602	1143.518921	922.096741	-4.013984
859.199219	925.514648	1150.949097	922.319641	-1.417267
859.498291	932.276184	1155.555908	909.688232	-10.116437
859.797302	931.087402	1160.757202	915.483887	-6.793891
860.096191	929.675598	1161.351685	922.319641	-3.175104
860.395020	928.263977	1156.373413	928.932617	0.293123
860.693787	924.474426	1139.878052	926.257629	0.827843
860.992554	928.486816	1132.373413	920.907898	-3.717222
861.291260	932.424805	1132.150513	925.886230	-3.273777
861.589844	938.591980	1136.385864	933.539368	-2.554484
861.888428	936.214355	1138.614868	938.220459	0.991155
862.186890	935.917175	1140.918335	932.276184	-1.776083
862.485413	935.174072	1134.008179	926.926453	-4.147990
862.783813	935.322571	1135.642822	921.502441	-6.899018
863.082153	933.613708	1131.630493	918.827454	-7.467173
863.380371	932.350403	1145.822266	921.873840	-4.907702
863.678589	933.539307	1149.983276	928.338135	-2.403011
863.976746	931.384583	1144.558960	930.790222	-0.278814
864.274902	936.362854	1139.060669	919.347656	-8.394366
864.572937	932.870667	1127.023560	909.168152	-12.208170
864.870911	937.700378	1138.169067	915.186584	-11.230578
865.168884	924.846008	1137.203125	921.873840	-1.399608
865.466736	927.818115	1146.713989	929.898621	0.950454
865.764587	920.536377	1146.936890	927.669434	3.150636
866.062317	919.570496	1153.624023	930.715820	4.761870
866.360107	921.948181	1152.435181	924.251465	0.999312
866.657715	928.932617	1137.054565	921.650940	-3.498755
866.955322	933.985168	1138.094727	917.044250	-8.299914
867.252808	931.458923	1145.079224	917.712952	-6.434769
867.550293	923.954346	1156.893433	918.084473	-2.519917
867.847717	925.291809	1153.624023	920.685059	-2.017565
868.145081	926.777832	1149.240234	927.743835	0.434232
868.442383	925.588928	1151.617920	931.236023	2.498394
868.739624	923.805725	1146.713989	933.093567	4.166666
869.036804	921.428040	1148.422852	926.554932	2.258594
869.333984	924.251648	1151.469116	921.799500	-1.079208
869.631042	925.737610	1155.630127	916.969910	-3.813826
869.928101	924.994568	1146.713867	922.914063	-0.938351
870.224976	926.480652	1137.946167	926.257751	-0.105407
870.521851	937.031555	1144.633423	927.892334	-4.402283
870.818726	936.065674	1145.599243	926.926453	-4.361698
871.115479	933.985168	1153.103882	923.508484	-4.781282
871.412231	920.982239	1145.227905	930.344299	4.174912
871.708862	926.926453	1154.812866	926.554871	-0.163056
872.005493	928.412537	1155.109985	929.229797	0.360507
872.302063	935.174133	1164.397827	923.731445	-4.991930
872.598572	933.836609	1159.939697	924.548645	-4.107845
872.895020	941.564026	1161.500122	921.948059	-8.918940
873.191406	940.672363	1147.085327	924.028625	-8.063320
873.487671	937.477356	1150.503296	920.313477	-8.057178
873.783997	932.424805	1152.360962	926.109070	-2.871622
874.080200	931.013184	1160.162720	922.319641	-3.793829
874.376343	925.514709	1160.608521	927.966614	1.042947
874.672424	927.892395	1158.379395	931.236023	1.450680
874.968445	924.251526	1167.444458	939.409363	6.232844
875.264465	925.811951	1170.193604	940.226624	5.898427
875.560364	922.468323	1170.713745	931.310242	3.561765
875.856201	925.886230	1172.125366	923.657043	-0.905294
876.152039	927.743835	1176.286255	919.941956	-3.139054
876.447754	926.257751	1175.469116	923.285645	-1.192605
876.743469	921.873840	1170.193481	924.251526	0.957510
877.039063	924.697266	1170.416504	920.462158	-1.723555
877.334595	930.567200	1179.109863	915.781067	-5.949132
877.630127	927.372253	1179.704224	915.706726	-4.623087
877.925537	929.006836	1184.756836	921.948181	-2.759982
878.221008	927.149353	1186.168579	930.344421	1.233526
878.516296	935.322693	1186.911621	931.533203	-1.506223
878.811646	936.660156	1191.146973	931.384583	-2.073024
879.106812	931.310364	1201.400757	922.171082	-3.383786
879.401978	929.229797	1222.056885	919.273254	-3.400144
879.697083	922.171082	1231.567505	911.322815	-3.506268
879.992126	924.028625	1244.644897	912.586121	-3.568910
880.287109	928.561218	1268.718872	908.945313	-5.766710
880.582031	928.263916	1328.161133	915.112305	-3.288748
880.876892	925.366150	1442.735962	912.808899	-2.427133
881.171753	921.130859	1616.975952	918.307312	-0.405772
881.466492	937.105957	1843.747681	921.205078	-1.753822
881.761230	939.186340	2109.082764	929.081116	-0.863771
882.055786	942.381348	2407.556885	926.406311	-1.090316
882.350403	928.709717	2707.813965	927.669434	-0.058472
882.644958	929.155579	2941.421875	924.920227	-0.210477
882.939453	922.839844	3063.798096	929.229797	0.298462
883.233826	925.589050	3095.451172	925.886230	0.013696
883.528137	922.468262	3049.680908	931.310303	0.415663
883.822449	930.121521	2996.628662	927.669434	-0.118659
884.116577	932.647766	2909.026123	927.000732	-0.285726
884.410828	930.195801	2798.686279	926.480652	-0.198832
884.704956	929.378418	2623.777588	927.669434	-0.100861
884.999023	921.948181	2400.646484	927.520935	0.376869
885.292969	928.189514	2162.803711	922.319641	-0.475442
885.586914	926.926453	1943.090454	924.846008	-0.204735
885.880798	927.743835	1764.243774	928.486816	0.088820
886.174622	922.988464	1641.421387	928.486816	0.765326
886.468384	918.827454	1552.406738	920.685059	0.293192
886.762085	921.056580	1493.856079	921.428040	0.064850
887.055664	926.034851	1441.695801	918.976074	-1.368879
887.349304	924.623108	1400.086060	923.359863	-0.265687
887.642822	920.536438	1361.894531	923.062683	0.572380
887.936340	922.468262	1329.052612	923.508484	0.255844
888.229736	922.096741	1306.687622	917.415710	-1.217145
888.523071	928.932617	1281.127441	915.483887	-3.818549
888.816284	931.087402	1271.171021	920.462158	-3.124303
889.109619	938.666321	1263.443359	931.087402	-2.333576
889.402710	934.728271	1244.942017	930.121399	-1.485064
889.695862	931.607605	1226.069092	922.616882	-3.053276
889.988892	922.171082	1208.608032	912.957520	-3.216611
890.281921	914.146362	1213.734985	901.886536	-4.092220
>>>>>End Processed Spectral Data<<<<<
