Jaz Data File
++++++++++++++++++++++++++++++++++++
Date: Fri Jun 04 16:48:01 2021
User: jaz
Dark Spectrum Present: Yes
Reference Spectrum Present: Yes
Processed Spectrum Present: Yes
Spectrometers: JAZA3586
Integration Time (usec): 24900 (JAZA3586)
Spectra Averaged: 10 (JAZA3586)
Boxcar Smoothing: 1 (JAZA3586)
Correct for Electrical Dark: No (JAZA3586)
Strobe/Lamp Enabled: Yes (JAZA3586)
Correct for Detector Non-linearity: No (JAZA3586)
Correct for Stray Light: No (JAZA3586)
Number of Pixels in Processed Spectrum: 2048
>>>>>Begin Processed Spectral Data<<<<<
W	D	R	S	P
191.335022	0.000000	0.000000	0.000000	0.000000
191.713211	231.155762	234.127869	229.595413	-52.499744
192.091385	464.763519	467.438385	468.107178	125.002853
192.469528	701.492004	705.652893	705.801575	103.573311
192.847641	713.603333	712.860291	721.999512	-1129.973755
193.225739	723.857117	731.064453	734.036621	141.238098
193.603790	734.482422	738.271790	745.033386	278.436005
193.981842	733.739441	737.900330	751.794922	433.933289
194.359863	736.117004	734.185120	747.782532	-603.841797
194.737854	737.974609	738.123230	746.445129	5699.425293
195.115829	740.500916	744.736145	743.695984	75.440262
195.493774	744.141785	746.147949	748.748535	229.629745
195.871704	743.472961	746.593750	745.999329	80.952850
196.249603	746.445068	755.361511	745.702148	-8.332022
196.627457	747.188171	758.556458	742.284180	-43.137478
197.005310	747.188171	764.203430	746.519470	-3.930009
197.383133	750.606140	760.339783	746.742371	-39.695000
197.760910	754.246887	757.293274	744.438965	-321.952637
198.138687	752.909485	756.327393	744.884766	-234.784546
198.516449	751.943542	754.989990	739.163513	-419.505951
198.894180	745.330566	752.612305	740.278015	-69.386612
199.271866	748.154053	751.572083	740.723816	-217.383621
199.649536	744.736145	746.816650	746.890930	103.570274
200.027191	745.553467	751.051941	751.349121	105.404778
200.404816	740.500916	744.364685	758.482178	465.381348
200.782410	742.432800	759.448059	760.859863	108.297279
201.159988	746.370850	763.311829	759.002380	74.561989
201.537537	747.931152	776.314880	759.225281	39.790855
201.915070	745.999268	771.559509	761.825745	61.918339
202.292557	737.008606	778.320984	769.776123	79.316460
202.670029	728.835388	777.726563	763.980530	71.884430
203.047485	720.885010	782.333313	754.321228	54.413574
203.424911	718.358704	770.667786	750.160339	60.795631
203.802292	723.188416	771.633789	752.612305	60.736221
204.179688	728.538147	771.930969	756.030212	63.356251
204.557037	728.835388	782.556335	753.875427	46.611313
204.934357	735.374023	782.704895	753.429626	38.147625
205.311661	737.603088	775.571777	760.191162	59.491318
205.688934	741.912659	776.091980	755.658691	40.217396
206.066177	736.191406	769.999084	751.572021	45.494446
206.443390	740.278015	775.051758	746.668030	18.375977
206.820587	744.216064	767.101318	749.343018	22.402868
207.197769	743.101501	768.810242	747.262451	16.184961
207.574921	737.751709	772.302429	750.977539	38.279461
207.952042	727.052185	774.159973	761.305664	72.712982
208.329147	726.309082	773.045471	763.534729	79.650238
208.706223	732.179016	770.073425	760.785461	75.489883
209.083267	734.036621	768.364441	749.491516	45.021488
209.460297	734.333801	767.992920	747.411072	38.852089
209.837280	723.485596	767.398499	742.878662	44.162571
210.214264	726.457703	769.479004	747.708313	49.395554
210.591217	725.640381	767.101318	747.188171	51.971306
210.968124	722.668274	765.912415	754.915588	74.570366
211.345016	723.188416	764.054871	754.915710	77.636520
211.721893	720.662109	770.370605	768.141602	95.515846
212.098724	717.095520	765.986755	765.169434	98.328285
212.475555	702.383606	762.048767	761.677185	99.377220
212.852356	708.773682	761.974426	756.253113	89.245804
213.229126	711.448547	765.838135	755.287109	80.601021
213.605865	725.417480	768.661621	762.940369	86.769875
213.982590	719.027527	761.602844	757.367676	90.052528
214.359283	722.445313	756.104492	754.618469	95.585091
214.735931	720.141907	760.785583	750.234558	74.040176
215.112579	718.284363	756.104492	749.863098	83.497162
215.489197	719.324646	761.825867	753.206726	79.720253
215.865799	714.049133	760.934143	753.281067	83.676926
216.242355	717.541321	764.203430	750.829041	71.337791
216.618896	722.816895	761.751465	747.856934	64.313126
216.995407	731.733215	762.866028	746.296570	46.778152
217.371902	732.104675	764.277832	750.754700	57.967655
217.748367	733.219238	768.736023	752.537903	54.393055
218.124802	732.104675	763.683350	750.085938	56.941154
218.501236	736.934387	768.067200	752.686523	50.596573
218.877609	731.510315	760.265442	744.810486	46.253216
219.253983	727.572266	757.516174	745.553528	60.049816
219.630295	726.309082	750.829041	741.020996	59.999752
220.006592	721.479431	749.342957	746.296570	89.066757
220.382889	720.142029	754.395508	740.798157	60.303738
220.759140	717.095520	761.751465	736.711487	43.926888
221.135391	717.764343	770.816406	735.819824	34.033512
221.511581	717.689941	775.497498	731.064453	23.136269
221.887772	714.420654	770.890808	740.872375	46.841949
222.263931	711.522888	761.454285	743.472961	63.987942
222.640060	704.984192	756.253113	748.228333	84.347672
223.016159	706.470276	760.785583	748.079773	76.607315
223.392212	709.145203	769.627625	746.890930	62.407764
223.768265	723.188416	774.457275	751.646301	55.507156
224.144302	723.485596	775.200378	752.389343	55.890686
224.520294	731.881836	767.918640	749.714417	49.484356
224.896286	728.389648	763.757751	742.655701	40.335926
225.272217	728.315247	766.135315	738.494812	26.915777
225.648148	724.525818	769.701843	740.798096	36.019718
226.024048	722.593933	772.599609	746.890930	48.588478
226.399902	718.953125	775.943359	744.364746	44.589432
226.775772	723.857178	779.064026	739.089172	27.590771
227.151581	729.206970	777.726563	735.968445	13.935555
227.527374	734.036621	776.983582	739.534973	12.802657
227.903137	730.395752	775.794739	748.228333	39.279690
228.278870	730.990234	779.807129	754.023987	47.183979
228.654572	736.042786	772.302490	754.841309	51.844116
229.030273	733.590759	765.912415	748.748535	46.896656
229.405930	723.782776	759.893982	743.695984	55.144123
229.781555	724.674500	762.048767	740.798096	43.140903
230.157181	724.302917	765.838135	747.633972	56.171741
230.532761	731.658875	771.262207	749.788757	45.778679
230.908325	720.885010	776.983582	753.801086	58.675426
231.283859	720.736389	776.091980	751.274841	55.167782
231.659332	713.603333	773.862793	757.590515	72.996307
232.034821	725.120300	770.816406	755.510071	66.504074
232.410263	722.668274	767.770020	758.779480	80.066093
232.785690	729.875671	768.438721	749.343018	50.481865
233.161087	724.228577	761.157043	746.147949	59.356304
233.536469	720.736328	767.472839	741.169678	43.720314
233.911804	716.501160	763.163269	738.569031	47.292915
234.287140	719.621826	766.878418	734.853943	32.232788
234.662430	724.377258	766.655457	739.163513	34.973713
235.037704	723.485596	770.890625	743.398743	42.006401
235.412933	719.324646	778.023743	743.473083	41.139370
235.788162	718.210144	773.268372	743.844543	46.558708
236.163345	720.142029	767.027039	743.547363	49.920719
236.538513	718.953125	764.054932	743.695984	54.860016
236.913635	721.256531	774.903076	743.250183	40.997334
237.288742	723.931458	778.172363	744.884766	38.630085
237.663834	724.748779	776.017578	747.113831	43.623123
238.038879	730.024231	771.410889	741.689758	28.186686
238.413910	727.646545	774.754456	748.005554	43.217815
238.788910	733.145020	777.800842	745.033386	26.622210
239.163879	730.692932	778.692444	752.315002	45.046436
239.538834	735.002502	776.166199	752.612244	42.779785
239.913757	728.092346	775.200256	760.191162	68.138908
240.288651	729.578430	777.057861	759.076660	62.128441
240.663528	723.337097	777.726563	753.875427	56.147511
241.038361	729.578430	778.915466	753.206726	47.891602
241.413177	728.984070	784.190918	754.395508	46.029503
241.787979	732.327637	787.608887	754.098328	39.381691
242.162735	732.699219	789.243469	749.565735	29.828878
242.537476	731.881775	785.156921	744.216064	23.152052
242.912170	731.807556	787.237305	744.364685	22.654133
243.286865	727.869446	788.054688	743.398743	25.802500
243.661514	726.532043	789.689270	748.228333	34.352821
244.036148	730.024231	789.317810	749.045715	32.080177
244.410751	730.767273	788.128906	750.160339	33.808430
244.785339	733.516418	786.419983	746.296570	24.157448
245.159882	724.823059	798.977234	745.627747	28.055990
245.534378	722.222412	799.348694	746.668030	31.695574
245.908890	715.758057	795.782166	747.931152	40.204254
246.283356	716.724060	782.407654	749.863098	50.452534
246.657791	721.553711	782.779114	753.281006	51.820477
247.032196	730.024231	790.357971	762.940369	54.556767
247.406586	734.928223	803.509583	767.472839	47.454025
247.780960	726.383362	808.710754	768.958801	51.714790
248.155289	717.987122	818.444519	764.723633	46.523712
248.529602	717.689941	815.620911	759.745300	42.943882
248.903870	725.268860	823.794250	762.122986	37.405716
249.278122	727.869446	818.370178	755.435791	30.459803
249.652344	716.501160	814.655029	756.401672	40.650982
250.026550	713.008972	800.983337	752.240723	44.594524
250.400711	707.659180	798.679932	749.491516	45.959118
250.774857	721.033630	795.187744	747.188171	35.270519
251.148987	722.445374	795.633484	742.135559	26.903530
251.523071	726.383362	799.274414	743.918884	24.057167
251.897125	723.262695	804.475586	745.479187	27.355869
252.271164	727.200745	806.704651	743.621582	20.654127
252.645187	728.909668	806.778992	737.231628	10.687084
253.019165	729.578430	810.122620	737.454407	9.778454
253.393112	724.600098	812.277344	741.095398	18.813662
253.767044	723.336975	809.899719	751.274841	32.274700
254.140930	725.045959	806.704590	751.349121	32.211124
254.514801	726.309082	810.122559	753.132324	32.003494
254.888657	735.374023	814.060608	744.959045	12.181266
255.262466	731.361633	814.952209	747.931152	19.822233
255.636276	734.408142	813.911926	747.633972	16.635473
256.010010	727.943787	813.837708	750.828918	26.643482
256.383759	733.144958	821.565186	749.045715	17.983168
256.757446	724.600159	823.645691	747.708313	23.330839
257.131134	723.114075	827.360840	759.448181	34.853943
257.504791	724.005676	835.162598	760.934143	33.221924
257.878418	723.857117	840.140808	759.745300	30.862612
258.252014	718.804504	848.388428	748.079773	22.591743
258.625580	711.448547	856.561768	745.479187	23.451096
258.999115	716.724060	875.731750	752.835205	22.710314
259.372650	717.318542	890.666748	753.801086	21.045816
259.746124	723.708496	902.480896	752.612244	16.167902
260.119598	733.516418	926.257751	747.708252	7.363150
260.493042	737.900208	938.666321	750.680420	6.365722
260.866425	730.172852	952.783752	753.503906	10.480643
261.239838	711.448547	941.266907	759.150879	20.756536
261.613159	713.528992	925.886230	752.612305	18.404512
261.986511	715.386536	899.285828	748.748535	18.141451
262.359802	725.491699	881.824707	745.479248	12.785239
262.733063	731.584534	879.446960	752.760925	14.321686
263.106293	734.408142	883.087830	757.293396	15.392321
263.479523	732.104736	890.740967	760.785645	18.079670
263.852692	721.702332	889.997986	764.352112	25.342176
264.225861	724.005676	890.815247	766.283997	25.345261
264.598969	728.612488	893.044434	764.797852	22.006287
264.972076	734.482422	900.325989	756.030212	12.992841
265.345154	734.333801	894.604736	750.680420	10.199366
265.718201	729.281189	896.016541	743.844543	8.734413
266.091217	732.699158	898.691406	754.098328	12.891668
266.464203	733.144958	918.976074	754.098328	11.275490
266.837158	735.671204	926.109131	763.906250	14.826378
267.210114	726.011780	929.155579	759.596680	16.532574
267.583038	720.959290	928.263977	760.339783	18.996431
267.955902	718.953125	932.350586	752.612305	15.772999
268.328766	715.015137	941.787048	754.692688	17.496677
268.701569	712.414551	941.341125	760.339783	20.934761
269.074371	713.751953	946.839600	759.225281	19.509111
269.447144	720.884949	951.594971	757.144714	15.716598
269.819885	722.445313	966.529785	757.887756	14.520565
270.192596	725.863281	979.384094	762.568848	14.478325
270.565277	721.627991	996.622375	766.209656	16.211845
270.937927	723.039795	1007.544861	759.968262	12.979897
271.310577	710.854065	1030.801636	760.414063	15.490037
271.683136	714.494934	1047.891235	752.537903	11.410735
272.055725	711.299988	1081.550415	757.070496	12.362041
272.428284	717.392761	1092.695801	759.819641	11.304699
272.800812	719.250305	1101.389160	764.129150	11.744120
273.173279	723.931396	1073.228516	762.494568	11.040220
273.545776	728.389587	1071.445190	764.500671	10.526306
273.918152	724.302917	1064.906616	762.271667	11.147486
274.290558	725.268860	1075.606079	755.732971	8.695654
274.662964	724.302917	1056.213135	749.342957	7.544220
275.035278	729.801270	1054.578491	751.126221	6.566024
275.407593	725.714661	1056.064575	761.677246	10.886210
275.779907	725.863281	1070.850708	757.441956	9.153572
276.152161	723.411316	1079.395630	752.017822	8.035890
276.524384	726.977844	1103.098145	740.426575	3.575646
276.896606	722.891113	1111.717285	740.129395	4.433416
277.268799	719.919128	1122.639771	746.890930	6.697397
277.640930	721.776672	1119.370483	754.915710	8.334898
278.013031	724.971680	1133.488037	758.630859	8.239371
278.385162	726.309082	1127.246582	757.664856	7.820614
278.757233	725.789001	1133.710938	753.949707	6.903455
279.129272	726.829163	1127.618042	751.572083	6.173554
279.501282	723.559875	1138.020386	750.085999	6.400157
279.873230	729.058289	1142.850098	751.349121	5.386968
280.245178	722.668274	1156.670532	763.906311	9.501802
280.617126	728.166687	1174.205933	768.513123	9.045490
280.988983	714.420593	1199.617432	767.770020	10.995420
281.360870	717.615662	1234.762695	760.711243	8.333332
281.732697	718.953125	1270.947876	751.943542	5.976582
282.104492	728.538269	1296.731079	760.488342	5.623104
282.476288	728.389465	1313.449097	763.088867	5.930917
282.848053	724.748718	1322.662598	775.497498	8.487640
283.219757	717.318420	1323.480103	765.912415	8.016672
283.591461	719.324707	1321.250977	761.082703	6.937394
283.963135	723.262695	1319.318970	753.058044	4.998748
284.334747	723.114075	1329.349976	754.246887	5.135429
284.706360	723.188293	1350.154663	759.819580	5.842624
285.077942	724.971619	1370.588013	764.277771	6.088159
285.449524	731.881836	1402.315063	766.358215	5.142403
285.821014	732.030457	1420.519409	761.974365	4.349221
286.192535	727.646545	1451.355103	754.989929	3.778231
286.563995	726.383484	1465.472656	759.076660	4.423441
286.935425	722.965515	1486.871704	762.791748	5.213498
287.306824	719.770508	1484.791382	765.689514	6.002321
287.678223	726.680664	1477.806763	759.596680	4.382222
288.049561	733.739441	1457.076294	750.903259	2.372867
288.420898	730.024231	1444.667847	759.893860	4.179654
288.792145	724.748718	1441.770020	766.135315	5.772018
289.163452	721.107910	1448.457153	775.497498	7.477782
289.534668	726.011902	1472.605591	767.175598	5.513534
289.905914	726.680603	1497.348267	763.609070	4.791750
290.277039	725.045898	1535.094238	765.912415	5.044948
290.648193	731.584656	1572.914429	765.169434	3.991868
291.019318	732.699158	1598.028687	764.054871	3.623558
291.390381	730.544373	1617.570313	756.996094	2.982069
291.761475	727.126465	1609.471313	759.745300	3.696835
292.132507	714.123474	1606.127808	759.448059	5.081207
292.503510	712.265930	1582.573730	756.030090	5.028584
292.874481	714.346375	1570.239380	759.448059	5.269547
293.245422	715.386536	1574.326050	758.407898	5.008660
293.616364	723.485596	1596.022461	762.048645	4.419647
293.987213	713.380432	1635.254395	755.881531	4.610294
294.358093	716.724060	1671.291138	758.482178	4.374561
294.728943	715.163635	1716.913086	755.658691	4.042434
295.099731	720.216309	1765.358398	758.110657	3.625760
295.470490	720.736328	1793.147827	759.596680	3.623642
295.841248	720.885010	1824.354858	759.225159	3.474508
296.211975	731.287354	1840.106934	759.448059	2.539701
296.582642	735.076843	1885.803101	756.253113	1.840253
296.953308	736.860107	1931.127808	761.379944	2.053127
297.323883	734.853943	1979.498657	756.921814	1.773026
297.694519	733.070618	2011.597656	757.367676	1.900394
298.065063	733.070618	2009.739868	756.847595	1.862423
298.435608	727.497986	1988.563843	760.265442	2.598394
298.806122	726.977844	1931.573608	759.299500	2.683195
299.176575	730.692871	1875.029175	764.946472	2.993316
299.547028	733.962219	1836.837524	762.197266	2.560131
299.917450	734.928223	1825.692261	765.466614	2.799725
300.287872	726.160461	1823.165894	762.568848	3.318889
300.658234	728.240967	1817.295898	761.528625	3.056564
301.028564	732.847717	1812.317749	771.708069	3.599947
301.398865	737.825989	1815.586914	765.392334	2.557742
301.769135	729.504089	1809.791382	766.655457	3.439026
302.139374	722.148132	1811.500366	761.900085	3.649137
302.509583	712.488770	1810.088501	764.203430	4.711614
302.879791	711.076965	1809.940063	768.364441	5.213341
303.249939	707.733398	1799.983398	760.711243	4.850340
303.620087	717.838562	1789.209595	760.636963	3.994732
303.990173	721.330811	1775.760742	759.893860	3.657242
304.360260	720.290527	1785.123047	760.414063	3.768061
304.730286	722.668274	1782.819702	764.203430	3.917851
305.100281	722.519592	1798.125977	763.088928	3.771764
305.470276	735.968445	1800.875000	765.169434	2.742118
305.840179	731.361633	1820.119507	763.832031	2.982334
306.210144	726.829285	1836.540405	769.553284	3.850011
306.579987	720.290588	1852.663940	766.878418	4.114176
306.949890	712.934631	1870.868164	772.228210	5.120637
307.319702	725.491760	1886.323120	766.952698	3.571659
307.689484	729.652771	1911.660278	764.723633	2.967059
308.059265	737.825989	1935.288696	752.909485	1.259621
308.429016	727.349365	1967.907593	748.377014	1.695015
308.798737	723.411316	2000.526489	754.172607	2.408654
309.168396	723.634277	2049.046143	764.797913	3.105724
309.538055	726.011902	2088.575195	768.587402	3.124662
309.907684	725.863281	2122.308594	766.804016	2.931782
310.277313	723.039795	2149.428955	756.476013	2.344116
310.646851	727.275085	2172.017334	757.367676	2.082904
311.016388	728.686829	2186.134766	754.692688	1.784342
311.385895	724.525879	2176.549561	764.500732	2.753044
311.755371	727.646484	2178.778809	757.739197	2.073740
312.124817	731.584534	2176.772461	765.615234	2.354759
312.494232	733.144958	2178.852783	765.540955	2.240840
312.863617	733.813660	2163.398193	777.280762	3.040541
313.232971	732.104675	2149.800781	768.810242	2.589100
313.602295	741.095398	2141.627441	769.330383	2.016019
313.971619	738.271790	2153.441406	760.042542	1.538385
314.340820	737.677429	2161.763428	761.974426	1.706147
314.710083	722.742615	2190.369873	757.367676	2.359255
315.079285	716.649719	2216.450195	770.742188	3.606644
315.448486	716.278259	2255.013428	778.989746	4.075522
315.817596	725.268860	2255.756348	781.218811	3.655695
316.186707	730.544373	2227.892822	771.559387	2.739177
316.555786	729.652649	2188.066650	772.451111	2.934589
316.924866	726.309082	2146.605469	779.584167	3.750984
317.293884	714.717834	2128.772949	775.497498	4.298253
317.662872	712.488770	2122.754395	765.169434	3.735514
318.031830	715.609558	2140.735596	749.863037	2.403540
318.400757	726.309082	2149.280518	750.977539	1.733588
318.769684	727.720764	2160.277344	753.875427	1.825733
319.138550	721.999512	2182.791016	761.380066	2.695837
319.507416	717.764343	2212.511963	754.841309	2.480484
319.876190	715.163635	2229.675781	753.355286	2.521713
320.244995	722.891113	2222.022949	752.092102	1.947860
320.613770	725.640320	2197.800293	765.466614	2.705297
320.982483	736.042786	2178.630127	763.460449	1.900589
321.351166	735.745544	2161.391846	766.432617	2.152503
321.719818	732.847717	2159.682861	752.909485	1.406033
322.088440	725.491760	2157.082275	753.132385	1.930763
322.457062	721.479492	2179.893066	749.194336	1.900342
322.825623	721.256531	2214.740967	763.163269	2.805971
323.194183	714.569336	2254.790283	767.992920	3.468566
323.562653	712.340271	2298.183105	768.958923	3.570256
323.931183	710.705566	2351.978271	765.466614	3.336499
324.299591	715.981018	2422.343018	767.101257	2.995861
324.668060	720.662109	2479.556396	769.776123	2.792323
325.036407	725.268799	2521.908936	769.776184	2.477257
325.404755	725.640381	2539.889893	766.506836	2.252527
325.773102	725.863281	2553.264404	760.414063	1.890706
326.141388	720.885010	2552.967285	762.866028	2.291437
326.509674	722.816895	2558.837158	758.185059	1.926349
326.877899	728.240967	2567.902100	763.163330	1.898304
327.246124	731.807434	2588.632568	767.695801	1.932781
327.614288	728.463867	2586.849121	773.416992	2.418935
327.982422	717.764343	2577.858643	776.909241	3.179672
328.350525	716.278259	2549.846436	765.540955	2.686712
328.718628	712.637390	2538.106445	763.906250	2.808531
329.086700	712.191589	2529.264648	759.373840	2.596607
329.454712	713.528992	2548.211914	763.534729	2.725579
329.822693	719.101746	2563.741211	763.832031	2.424880
330.190674	724.080017	2591.381836	764.872253	2.184555
330.558563	724.674500	2599.332031	770.890808	2.465320
330.926483	722.593933	2622.291504	775.125977	2.765285
331.294312	718.432922	2634.700195	777.132141	3.063206
331.662231	716.278259	2673.634766	776.314880	3.067230
332.029999	717.169861	2723.417725	776.314880	2.948042
332.397766	720.736511	2773.126221	770.444885	2.421975
332.765503	718.061523	2805.001953	766.061035	2.299994
333.133240	723.559875	2839.701416	761.528564	1.794241
333.500916	721.999512	2883.391357	763.683350	1.928565
333.868561	733.219238	2942.610596	766.283997	1.496555
334.236176	722.148132	2982.288330	759.596741	1.656915
334.603790	723.336975	2993.433594	759.745361	1.603825
334.971344	723.708496	2979.241943	756.476013	1.452761
335.338867	734.110901	2963.712646	763.534729	1.319690
335.706360	736.117004	2971.365967	765.466614	1.313035
336.073853	731.213074	2979.613281	762.420227	1.387972
336.441284	728.092285	2987.266602	763.311829	1.558956
336.808655	728.018066	2971.365967	761.305664	1.483836
337.176086	723.188416	2945.805664	766.432556	1.945641
337.543396	729.355469	2874.995361	765.986816	1.707246
337.910706	728.983948	2816.072998	770.742126	2.000786
338.277954	732.476257	2820.234131	777.355164	2.149622
338.645264	724.377258	2892.158936	777.875183	2.467865
339.012421	723.634216	3011.489258	774.605896	2.227924
339.379669	721.776672	3126.732666	763.534729	1.736333
339.746796	720.439209	3225.481201	763.163269	1.705523
340.113953	716.352539	3306.842529	762.494446	1.781204
340.481018	719.770508	3336.117920	767.398499	1.820400
340.848114	721.776672	3343.102295	770.667908	1.865134
341.215118	726.903564	3346.966064	771.559509	1.704385
341.582153	719.696106	3355.436523	769.924805	1.905677
341.949066	718.358704	3377.578857	767.324219	1.841349
342.316010	717.244141	3386.123779	762.271667	1.687132
342.682922	723.708496	3404.699219	761.751465	1.418989
343.049835	724.525879	3420.080078	760.859863	1.347923
343.416656	728.686768	3457.379883	761.974426	1.219912
343.783478	721.256531	3500.698486	762.568848	1.486353
344.150269	722.073914	3609.552002	755.287170	1.150251
344.516998	718.358704	3731.631592	760.488342	1.398136
344.883728	729.281250	3851.407227	753.875427	0.787738
345.250427	738.717712	3922.812256	761.528625	0.716402
345.617065	740.872375	3941.610596	766.655457	0.805535
345.983704	738.643311	3939.530273	776.314758	1.176907
346.350281	727.646484	3937.449951	781.887512	1.689855
346.716827	728.909668	3887.444092	779.732727	1.609071
347.083405	727.423645	3852.298828	774.085754	1.493247
347.449860	733.962341	3795.531494	769.553284	1.162507
347.816376	729.578430	3767.965088	766.655457	1.220287
348.182770	722.668274	3733.711670	766.135315	1.443587
348.549194	717.912903	3712.164063	763.237610	1.513724
348.915558	722.742615	3739.210205	759.448181	1.216839
349.281921	730.618652	3753.550537	759.373779	0.951233
349.648193	732.550476	3783.717041	763.757629	1.022794
350.014526	732.179016	3803.259033	770.519226	1.248428
350.380737	729.578430	3861.809570	777.280762	1.522951
350.746948	726.680664	3925.115479	774.977356	1.510010
351.113159	726.457703	3991.616455	772.302429	1.404058
351.479309	730.767273	4037.089844	767.621399	1.114656
351.845428	728.240967	4057.002686	767.770020	1.187500
352.211517	723.188293	4083.157471	765.615234	1.262718
352.577576	718.061523	4118.896973	769.999084	1.527200
352.943604	724.005676	4179.453613	773.045593	1.419206
353.309601	723.262695	4231.763184	780.624329	1.634933
353.675537	723.262695	4310.672363	777.355042	1.507839
354.041473	723.336975	4401.916504	779.658447	1.531066
354.407379	716.872742	4500.516113	773.714172	1.502294
354.773254	715.609558	4598.001465	781.664551	1.701399
355.139038	715.312317	4684.267090	783.596497	1.720457
355.504913	726.160461	4782.420410	784.488098	1.437966
355.870636	728.240967	4876.265137	780.178528	1.252104
356.236389	725.417480	4985.786621	777.503662	1.222574
356.602081	725.863281	5117.376953	780.178528	1.236823
356.967804	726.754883	5250.527344	776.834961	1.107042
357.333405	727.349365	5384.792480	771.262207	0.942853
357.699036	728.909729	5531.316895	769.924805	0.854052
358.064606	726.234863	5683.787109	764.054871	0.762877
358.430176	723.634216	5804.603027	772.153870	0.954929
358.795654	717.764343	5856.614746	774.011414	1.094546
359.161163	715.535217	5840.193848	783.002136	1.316515
359.526581	720.884949	5804.008301	780.624329	1.175249
359.892029	727.720886	5803.414063	780.772949	1.045218
360.257416	733.219238	5889.605469	782.110413	0.948167
360.622772	731.807434	6079.820313	781.144470	0.922530
360.988098	722.668274	6338.839844	769.404602	0.832174
361.353394	720.290527	6620.446777	766.952637	0.790862
361.718658	711.597168	6894.475098	767.992859	0.912127
362.083893	714.643616	7115.971191	780.772949	1.033056
362.449097	715.460938	7268.068848	787.311584	1.096520
362.814209	725.268860	7276.465332	785.082520	0.913019
363.179382	725.566101	7095.909668	784.116638	0.919111
363.544434	734.259460	6775.665527	772.228210	0.628475
363.909546	728.761169	6403.333984	770.890808	0.742428
364.274536	724.674500	6121.800781	770.444885	0.848051
364.639587	713.826233	5915.239746	780.029968	1.272803
365.004517	717.615723	5774.436035	779.435547	1.222504
365.369507	720.736389	5684.529297	775.051697	1.094230
365.734344	721.256531	5624.715332	769.107422	0.975860
366.099274	728.092468	5604.505371	777.503723	1.013270
366.464081	726.309082	5567.057129	776.314758	1.033015
366.828918	724.674500	5567.948730	783.002136	1.204302
367.193665	716.426819	5580.505859	776.463379	1.234284
367.558411	723.411316	5617.136719	783.299316	1.223771
367.923126	730.618652	5612.158691	784.488098	1.103534
368.287781	738.866211	5594.103027	786.865784	0.988614
368.652435	734.556702	5552.791016	782.407654	0.993122
369.017059	728.686707	5532.357910	770.370605	0.867751
369.381653	723.857117	5509.101074	768.364441	0.930095
369.746185	719.919128	5503.899902	765.986633	0.962953
370.110687	725.120300	5533.323730	774.531555	1.027645
370.475220	730.544373	5573.595703	778.098145	0.981897
370.839661	740.649597	5630.957520	786.122803	0.929864
371.204041	740.500977	5676.505371	781.887512	0.838462
371.568451	737.677429	5732.900879	782.481934	0.896947
371.932770	729.132629	5774.658691	783.224915	1.072084
372.297150	724.154297	5816.193848	792.141296	1.335162
372.661377	720.439209	5835.958496	796.153625	1.480092
373.025696	719.176086	5876.378906	796.822449	1.505591
373.389862	722.593994	5860.181641	791.695496	1.345018
373.754059	719.770508	5865.828125	783.745117	1.243177
374.118225	719.919128	5878.162598	778.023743	1.126442
374.482361	721.033630	5939.907715	778.915344	1.109084
374.846436	720.662109	6013.096191	774.977356	1.026281
375.210510	722.593933	6109.244141	778.320984	1.034540
375.574524	717.987122	6210.592285	783.150696	1.186387
375.938538	721.627991	6352.362793	790.060852	1.215345
376.302460	717.392761	6478.230957	791.472656	1.285922
376.666412	722.073914	6648.681641	793.107239	1.198549
377.030304	722.668274	6786.364746	797.491150	1.233948
377.394196	726.754944	6937.942871	794.890442	1.096980
377.757996	720.959290	7061.730469	788.277527	1.061673
378.121796	720.290588	7141.828125	782.927734	0.975423
378.485565	722.371094	7159.140625	782.036133	0.926941
378.849304	730.395752	7070.349609	780.847229	0.795770
379.212982	728.612488	6937.496094	787.311584	0.945405
379.576630	735.968445	6773.361816	793.478699	0.952568
379.940277	730.470032	6665.325684	800.017334	1.171845
380.303864	734.705383	6576.979980	793.404480	1.004730
380.667450	733.888000	6537.896484	787.906006	0.930702
381.030945	732.550598	6508.026855	790.135071	0.997052
381.394501	727.052185	6539.382813	793.404480	1.141578
381.757935	728.315247	6543.840332	800.388916	1.239332
382.121399	727.869446	6563.531250	798.679993	1.213411
382.484741	731.361633	6589.462402	797.639648	1.131391
382.848145	721.553711	6658.489746	789.317810	1.141399
383.211487	725.045959	6727.071777	789.837891	1.079501
383.574768	724.600098	6844.767090	792.289856	1.106012
383.938019	724.005676	6923.007324	805.961609	1.322083
384.301270	716.501160	7033.792969	814.655090	1.553734
384.664459	713.380432	7077.928223	819.410461	1.665948
385.027649	714.940735	7137.296387	817.478516	1.596576
385.390778	719.696106	7208.478516	819.336121	1.535573
385.753876	723.039795	7248.007813	820.599304	1.495172
386.116943	721.999512	7306.410156	822.679688	1.529069
386.479980	721.479431	7310.793457	825.057434	1.571909
386.842987	716.501160	7368.898438	834.865417	1.779272
387.205994	723.336975	7425.962402	851.657776	1.914486
387.568909	726.606262	7489.862793	856.041687	1.913803
387.931793	727.943665	7537.861816	859.905334	1.937786
388.294678	725.788879	7566.914551	863.323303	2.010406
388.657471	722.296692	7585.861816	872.016785	2.181375
389.020294	722.519714	7569.664063	884.945374	2.372166
389.383057	721.776611	7583.112793	890.741028	2.462559
389.745819	721.405090	7589.502441	905.750183	2.684078
390.108521	722.445313	7611.496094	931.607422	3.036153
390.471191	715.238037	7672.424316	959.619568	3.512649
390.833801	717.987122	7791.383301	995.730774	3.926595
391.196442	722.296692	7989.103027	1021.513733	4.117587
391.558960	727.126404	8180.878906	1053.686890	4.381155
391.921509	728.463867	8367.081055	1080.733032	4.611688
392.284027	728.686768	8540.131836	1122.788452	5.045183
392.646484	731.584656	8648.019531	1166.106812	5.488862
393.008911	728.018066	8656.267578	1212.917480	6.116097
393.371307	722.816895	8610.200195	1250.737549	6.693229
393.733673	719.547546	8532.702148	1289.895142	7.299838
394.096008	721.999573	8510.708008	1341.758423	7.957145
394.458344	723.039795	8518.806641	1400.160522	8.685749
394.820587	730.024231	8555.661133	1462.723267	9.362804
395.182831	728.166687	8570.966797	1515.255371	10.035811
395.545013	727.052185	8521.629883	1569.645020	10.809987
395.907196	720.142029	8410.399414	1636.889038	11.920889
396.269287	723.782776	8284.753906	1704.355835	12.968877
396.631409	731.287354	8156.209473	1763.797974	13.906013
396.993469	737.305847	8051.145996	1821.977051	14.830391
397.355530	738.569092	7976.768066	1888.552246	15.887697
397.717499	730.915955	7951.654297	1969.319336	17.150646
398.079468	731.287415	7959.679199	2046.965698	18.201534
398.441376	725.863281	7957.152344	2129.292969	19.407740
398.803284	727.274963	7981.300781	2219.570801	20.571968
399.165131	717.169861	7995.121094	2319.805420	22.020422
399.526978	723.114014	8004.707031	2418.107666	23.277786
399.888763	727.423584	8000.992188	2512.769531	24.545668
400.250519	734.036621	8007.381348	2611.889404	25.818283
400.612244	726.309082	8056.198730	2716.061523	27.145735
400.973938	722.445313	8037.474121	2821.868408	28.700134
401.335602	719.027405	8049.584473	2927.675781	30.129339
401.697205	715.609558	8082.724121	3042.027588	31.578413
402.058807	708.550781	8181.621094	3171.834717	32.962139
402.420349	706.544617	8292.406250	3310.483643	34.326210
402.781860	713.306152	8402.969727	3451.955811	35.614689
403.143341	719.844727	8519.921875	3610.666748	37.061455
403.504822	727.943787	8640.218750	3767.073486	38.410313
403.866241	731.881775	8803.683594	3938.712891	39.728813
404.227631	728.092285	8986.839844	4098.314941	40.807911
404.588959	719.473206	9200.682617	4267.650879	41.835754
404.950287	716.724060	9346.910156	4427.401855	42.996494
405.311554	721.182129	9442.092773	4563.375977	44.057259
405.672821	724.525818	9454.352539	4686.049805	45.379181
406.034027	727.646545	9436.520508	4783.906250	46.576168
406.395203	728.983948	9363.925781	4835.769531	47.560085
406.756348	727.497986	9300.842773	4891.645020	48.570858
407.117493	726.680664	9232.113281	4946.852051	49.617363
407.478516	725.268860	9209.004883	5058.306152	51.074631
407.839600	721.405090	9192.731445	5139.891113	52.158134
408.200592	715.015137	9192.211914	5226.676270	53.221142
408.561554	715.981018	9167.617188	5286.267090	54.075760
408.922485	720.439209	9178.764648	5359.232422	54.842926
409.283417	727.943848	9198.973633	5449.510254	55.737812
409.644257	728.018066	9322.836914	5577.162109	56.419388
410.005096	731.510254	9466.910156	5724.207031	57.154755
410.365906	722.371094	9609.347656	5858.769531	57.796917
410.726715	722.148132	9694.202148	5982.260254	58.627739
411.087433	717.541321	9767.910156	6084.798340	59.304287
411.448120	719.770508	9826.163086	6170.023438	59.850845
411.808807	716.872742	9848.231445	6237.490723	60.457798
412.169434	717.838562	9769.991211	6272.338379	61.361095
412.530029	715.683777	9723.402344	6303.916504	62.038269
412.890564	712.860352	9693.086914	6325.539063	62.500412
413.251099	712.340149	9710.845703	6380.151855	62.986141
413.611572	717.912903	9743.242188	6452.002441	63.533298
413.972076	720.959290	9800.008789	6525.784668	63.936485
414.332489	730.544250	9864.799805	6595.035156	64.203270
414.692871	734.408020	10000.477539	6696.532715	64.343620
415.053223	733.145020	10131.250000	6836.816406	64.945763
415.413574	722.593994	10338.257813	7013.656738	65.425148
415.773834	719.770447	10481.215820	7149.556641	65.869202
416.134094	725.491699	10626.403320	7285.976563	66.261421
416.494263	733.219238	10754.278320	7416.303223	66.690399
416.854462	734.482422	11017.235352	7636.313965	67.120468
417.214630	731.881836	11325.518555	7846.886719	67.163010
417.574738	733.070618	11663.668945	8081.906250	67.231773
417.934784	730.024231	11917.487305	8292.555664	67.598267
418.294861	723.411316	12244.198242	8567.996094	68.090706
418.654846	715.015076	12632.726563	8879.695313	68.508789
419.014832	717.169861	13107.817383	9194.368164	68.416107
419.374756	729.727051	13603.343750	9538.389648	68.424141
419.734680	735.671204	14113.208008	9881.221680	68.364983
420.094543	724.302917	14608.213867	10258.084961	68.667839
420.454376	715.015076	15033.967773	10578.626953	68.885010
420.814148	708.773682	15492.860352	10909.942383	69.001007
421.173920	717.392761	15957.327148	11252.331055	69.127190
421.533691	719.547546	16436.951172	11619.459961	69.349319
421.893341	727.572266	16781.642578	11888.286133	69.519531
422.253021	723.114075	17021.416016	12082.959961	69.699570
422.612640	729.652771	17087.841797	12128.656250	69.683777
422.972260	718.655945	17047.792969	12127.690430	69.869179
423.331757	719.250305	16936.562500	12081.176758	70.060478
423.691315	715.237976	16925.789063	12106.512695	70.270744
424.050781	720.364929	17077.587891	12201.324219	70.188927
424.410248	725.268860	17235.111328	12294.945313	70.077454
424.769653	725.640381	17394.267578	12411.972656	70.109749
425.128998	723.782898	17379.037109	12451.055664	70.411850
425.488373	720.885071	17286.751953	12415.762695	70.596230
425.847656	717.392822	17063.396484	12264.184570	70.639847
426.206940	726.011902	16859.660156	12126.500977	70.662811
426.566193	726.754883	16520.837891	11911.840820	70.818207
426.925385	728.315247	16211.515625	11699.112305	70.856133
427.284576	729.578369	15750.317383	11372.031250	70.851730
427.643677	737.454529	15409.194336	11134.858398	70.866875
428.002777	738.271790	15044.293945	10899.836914	71.029984
428.361847	727.200745	14703.023438	10675.889648	71.184998
428.720856	724.377258	14409.081055	10434.554688	70.956429
429.079865	721.553711	14161.208008	10269.156250	71.040535
429.438812	726.754883	14009.703125	10181.108398	71.176620
429.797760	713.900574	13914.075195	10120.030273	71.257614
430.156616	716.798340	13761.606445	10025.369141	71.358429
430.515503	717.467041	13677.793945	9952.626953	71.257156
430.874268	726.977844	13600.890625	9945.567383	71.606743
431.233093	724.674377	13647.254883	9964.069336	71.498062
431.591827	720.736328	13680.245117	9991.933594	71.539726
431.950562	722.296692	13704.468750	10022.173828	71.635757
432.309204	726.680664	13747.859375	10051.597656	71.613464
432.667877	726.457703	13885.320313	10151.905273	71.628136
433.026459	725.343079	14029.171875	10245.526367	71.559723
433.385010	718.284424	14180.600586	10364.559570	71.653908
433.743561	715.089355	14333.515625	10493.549805	71.803169
434.102051	715.089417	14486.281250	10616.447266	71.899063
434.460510	722.891113	14657.104492	10744.916992	71.923874
434.818939	728.761047	14704.583008	10775.603516	71.887314
435.177338	724.897278	14737.796875	10788.160156	71.814278
435.535675	728.612549	14642.838867	10762.155273	72.109955
435.894012	733.813660	14586.441406	10736.000000	72.204254
436.252289	735.374023	14605.983398	10751.827148	72.213501
436.610535	726.160461	14626.120117	10751.008789	72.121422
436.968719	726.606262	14759.195313	10842.327148	72.087341
437.326935	727.423645	14846.351563	10910.686523	72.124901
437.685028	726.829285	14988.864258	10990.116211	71.962288
438.043152	726.606262	15096.231445	11066.053711	71.953491
438.401215	721.107910	15333.778320	11210.199219	71.780800
438.759277	727.720886	15545.987305	11412.750000	72.107147
439.117249	721.776611	15909.549805	11676.821289	72.130684
439.475250	724.971680	16198.586914	11917.710938	72.334351
439.833130	715.386536	16624.341797	12173.757813	72.024658
440.191071	718.210144	16917.242188	12369.768555	71.927498
440.548889	721.702332	17181.761719	12566.819336	71.962791
440.906708	731.361633	17513.521484	12804.290039	71.939064
441.264496	728.835388	17729.447266	13009.217773	72.234947
441.622223	727.646484	17908.962891	13153.885742	72.324142
441.979950	722.445313	17892.244141	13183.086914	72.573021
442.337616	722.668213	17867.203125	13170.156250	72.603241
442.695251	722.222412	17743.712891	13092.881836	72.676712
443.052887	724.377197	17573.113281	12953.936523	72.584435
443.410461	718.210144	17427.330078	12788.910156	72.240196
443.768005	713.008972	17256.804688	12651.598633	72.163551
444.125458	707.882019	17167.791016	12598.620117	72.240608
444.482941	713.380371	17198.478516	12631.015625	72.293381
444.840393	712.117249	17360.236328	12746.409180	72.286194
445.197754	711.820068	17633.447266	12928.450195	72.195366
445.555084	709.813904	17877.679688	13150.170898	72.463043
445.912415	719.473206	18255.806641	13418.180664	72.413696
446.269714	722.296692	18555.916016	13626.823242	72.360672
446.626953	724.971619	18898.970703	13855.897461	72.251160
446.984161	723.485535	19195.513672	14077.319336	72.292198
447.341309	719.770447	19413.666016	14252.895508	72.393280
447.698456	717.690002	19567.326172	14383.148438	72.497192
448.055542	710.705566	19634.123047	14459.235352	72.653519
448.412598	721.776611	19591.103516	14446.083008	72.733421
448.769653	724.674377	19456.466797	14337.675781	72.673241
449.126617	732.476257	19163.265625	14105.851563	72.559967
449.483582	727.200684	18906.476563	13939.709961	72.678970
449.840515	724.525879	18551.382813	13700.084961	72.786575
450.197388	723.634216	18293.849609	13535.057617	72.915581
450.554230	724.748718	18093.457031	13377.757813	72.849449
450.911041	733.219238	17917.285156	13276.558594	72.994011
451.267822	735.151184	17796.394531	13163.247070	72.844017
451.624573	736.191406	17627.207031	13010.703125	72.668877
451.981262	731.807434	17557.880859	12923.843750	72.459183
452.337921	728.166687	17414.253906	12825.168945	72.497536
452.694580	723.485596	17306.439453	12800.723633	72.829239
453.051147	719.621826	17285.117188	12813.356445	73.005569
453.407715	722.668274	17201.005859	12766.620117	73.089607
453.764221	735.002502	17218.095703	12804.663086	73.224480
454.120728	743.472961	16996.003906	12635.624023	73.171074
454.477142	737.974670	16925.119141	12597.655273	73.266045
454.833557	732.996399	16739.882813	12419.476563	73.009079
455.189911	733.293640	16607.623047	12331.577148	73.063141
455.546265	735.745544	16415.328125	12184.308594	73.015739
455.902557	730.098572	16301.868164	12075.975586	72.861832
456.258820	726.680664	16279.725586	12059.628906	72.866425
456.615051	723.188416	16375.500977	12118.402344	72.802109
456.971252	727.795166	16333.743164	12145.151367	73.160286
457.327393	719.547546	16536.515625	12268.940430	73.019005
457.683502	724.377258	16755.041016	12458.188477	73.196045
458.039612	715.906738	17206.802734	12769.293945	73.091156
458.395630	718.358704	17605.880859	13111.085938	73.383934
458.751648	715.758057	18088.476563	13431.034180	73.191055
459.107605	727.126404	18768.494141	13900.329102	73.016655
459.463562	735.151062	19462.111328	14355.804688	72.732857
459.819458	742.284180	20081.796875	14814.030273	72.761642
460.175323	731.881836	20584.306641	15201.296875	72.884872
460.531158	725.863281	21093.875000	15592.500000	72.990120
460.886932	721.702332	21369.460938	15841.489258	73.227257
461.242676	728.092346	21472.521484	15957.252930	73.413254
461.598419	729.355469	21226.726563	15819.421875	73.619522
461.954102	731.287415	20816.351563	15470.346680	73.383186
462.309723	723.559875	20163.751953	14999.268555	73.433990
462.665344	726.383362	19467.904297	14507.903320	73.534691
463.020905	725.789063	18905.138672	14162.172852	73.910149
463.376373	735.076904	18504.275391	13858.125977	73.852783
463.731873	736.711487	18188.859375	13638.562500	73.927002
464.087341	737.231628	17929.544922	13422.266602	73.783180
464.442749	731.287415	17784.431641	13323.815430	73.842850
464.798126	726.977844	17661.458984	13221.723633	73.782875
465.153503	725.343079	17741.931641	13294.613281	73.864815
465.508820	723.262695	17792.751953	13311.777344	73.748634
465.864105	720.141907	17995.376953	13454.585938	73.715034
466.219330	723.114075	18263.310547	13635.143555	73.613937
466.574524	726.903503	18498.255859	13794.375000	73.531105
466.929657	728.761047	18660.830078	13906.422852	73.486572
467.284790	726.903503	18791.306641	14021.145508	73.593590
467.639893	724.971680	18899.490234	14141.739258	73.821854
467.994934	726.309082	19064.740234	14259.137695	73.794907
468.349945	721.405090	19088.814453	14291.979492	73.883980
468.704926	728.166687	19063.552734	14262.109375	73.813240
469.059875	728.092346	18834.328125	14117.442383	73.948830
469.414764	727.052063	18603.248047	13938.446289	73.904961
469.769653	720.959290	18386.283203	13814.362305	74.119232
470.124451	727.646545	18328.474609	13735.971680	73.907463
470.479248	732.773438	18199.335938	13613.000000	73.742195
470.834015	738.643311	18134.841797	13571.465820	73.767967
471.188721	726.903503	18144.800781	13611.367188	73.972557
471.543365	724.377258	18238.273438	13719.179688	74.197098
471.898010	718.730225	18403.669922	13800.393555	73.970642
472.252625	725.417480	18593.882813	13924.850586	73.869995
472.607178	728.983948	18892.951172	14125.616211	73.753891
472.961700	730.841614	19100.478516	14295.174805	73.841049
473.316193	732.922058	19355.412109	14517.562500	74.021469
473.670654	727.423645	19476.228516	14622.329102	74.110886
474.025055	723.782776	19685.390625	14786.018555	74.161621
474.379456	716.649719	19837.265625	14879.863281	74.073006
474.733795	717.987122	20004.894531	14982.401367	73.959053
475.088104	723.411316	20110.404297	15090.809570	74.108444
475.442383	721.999512	20130.242188	15116.145508	74.165123
475.796570	722.073792	20215.541016	15216.304688	74.354301
476.150787	719.621826	20424.404297	15365.281250	74.325401
476.504944	723.559875	20676.441406	15541.379883	74.264061
476.859070	726.011902	20990.443359	15731.965820	74.050705
477.213135	733.962219	21237.500000	15868.312500	73.813362
477.567200	732.624817	21680.419922	16190.266602	73.791260
477.921173	727.720764	22041.455078	16490.451172	73.955742
478.275146	722.222412	22530.740234	16875.189453	74.067238
478.629089	725.566101	22828.693359	17130.789063	74.221275
478.983002	731.584656	23268.791016	17430.898438	74.096649
479.336823	732.922058	23616.156250	17696.677734	74.131813
479.690643	728.538086	24051.421875	17964.835938	73.902946
480.044403	725.194519	24514.474609	18334.343750	74.021362
480.398163	722.816895	25201.923828	18824.222656	73.946350
480.751862	725.417480	26082.632813	19505.580078	74.062401
481.105499	724.674500	27200.740234	20284.271484	73.876526
481.459137	724.525818	28618.583984	21350.888672	73.945366
481.812744	718.581726	30452.226563	22668.197266	73.820801
482.166290	719.176086	32665.482422	24348.333984	73.965225
482.519806	720.810730	35371.066406	26339.052734	73.933777
482.873291	723.708496	38503.222656	28721.271484	74.107788
483.226715	732.847717	42079.785156	31494.843750	74.399696
483.580139	731.287415	45594.375000	34290.781250	74.804245
483.933502	730.693054	48887.843750	37131.449219	75.587440
484.286804	726.754883	51570.917969	39663.386719	76.580338
484.640106	727.646545	53594.550781	41817.644531	77.723480
484.993347	735.151123	54710.730469	43170.472656	78.619484
485.346558	735.894104	54907.035156	43554.992188	79.044113
485.699738	723.411316	54248.488281	42900.683594	78.799088
486.052887	717.095520	52953.468750	41505.347656	78.084007
486.405975	705.429993	51405.519531	39851.152344	77.210365
486.759064	715.015137	49808.609375	38289.230469	76.535881
487.112061	722.668274	48518.566406	37042.804688	75.990067
487.464996	733.442139	47738.386719	36254.824219	75.569458
487.817963	737.528809	47610.285156	36029.238281	75.292587
488.170868	730.990173	47694.839844	36110.605469	75.333725
488.523743	730.098572	47794.480469	36210.835938	75.387665
488.876587	725.268860	47515.769531	36101.687500	75.605988
489.229401	728.315247	47021.363281	35767.027344	75.688927
489.582153	731.287354	46169.480469	35148.011719	75.744041
489.934845	728.835388	45181.253906	34296.128906	75.512863
490.287537	722.445313	44102.605469	33421.437500	75.377762
490.640198	716.649719	43260.828125	32712.517578	75.206215
490.992798	709.219482	42644.265625	32263.654297	75.245979
491.345337	710.482605	42541.355469	32089.859375	75.014877
491.697876	711.299988	42677.328125	32144.619141	74.901817
492.050354	721.999573	43103.007813	32462.562500	74.893364
492.402832	716.501160	43317.148438	32723.810547	75.133385
492.755219	715.460938	43127.082031	32679.154297	75.365410
493.107605	715.758118	42369.269531	32191.876953	75.566544
493.459930	726.754883	41144.910156	31265.468750	75.556923
493.812225	731.807434	39428.964844	29990.806641	75.610207
494.164490	734.556641	37456.523438	28449.693359	75.472908
494.516724	733.144958	35399.824219	26856.197266	75.354935
494.868896	726.829285	33572.417969	25433.896484	75.221870
495.221039	728.315247	32195.218750	24339.712891	75.035660
495.573120	722.296692	31157.287109	23486.867188	74.797363
495.925201	731.213074	30565.687500	23034.365234	74.756310
496.277222	732.476257	30169.953125	22744.880859	74.776802
496.629211	740.723816	30031.005859	22689.822266	74.936455
496.981140	736.191345	29952.390625	22643.904297	74.984818
497.333069	736.637207	30074.843750	22718.947266	74.927246
497.684967	738.940613	30129.009766	22787.453125	75.020279
498.036804	738.346130	30205.837891	22838.796875	74.999428
498.388580	732.179016	30068.302734	22778.093750	75.149376
498.740326	728.612488	29900.453125	22665.451172	75.198677
499.092072	727.646484	29606.587891	22437.416016	75.175087
499.443756	728.761047	29316.134766	22217.033203	75.167000
499.795410	724.451477	28996.337891	21973.023438	75.157959
500.147003	726.160461	28609.000000	21709.472656	75.255295
500.498566	718.804504	28222.255859	21406.390625	75.218147
500.850098	719.993347	27850.742188	21102.123047	75.125572
501.201599	717.987122	27556.576172	20868.587891	75.080704
501.553009	721.776672	27215.156250	20638.843750	75.177521
501.904449	716.352539	26933.771484	20464.158203	75.323227
502.255859	714.271973	26741.031250	20312.060547	75.298615
502.607178	714.717834	26646.070313	20251.281250	75.339546
502.958405	716.501160	26598.072266	20202.240234	75.288086
503.309692	717.244141	26527.556641	20141.314453	75.257011
503.660919	722.593994	26559.138672	20126.822266	75.103806
504.012115	732.401917	26577.117188	20136.333984	75.078918
504.363251	733.219238	26680.843750	20211.677734	75.068367
504.714294	729.578430	26748.537109	20255.367188	75.044464
505.065369	717.764343	26828.853516	20281.447266	74.924805
505.416443	720.810730	26849.140625	20333.830078	75.064194
505.767395	720.364807	26849.361328	20380.271484	75.241722
506.118317	735.596924	26804.556641	20357.236328	75.268211
506.469238	736.340027	26791.630859	20345.646484	75.260361
506.820160	734.110840	26781.375000	20296.308594	75.102699
507.170929	728.761169	26819.712891	20349.361328	75.200783
507.521729	722.296814	26880.718750	20357.162109	75.061356
507.872498	721.702332	26961.708984	20426.634766	75.094994
508.223236	716.724060	27156.380859	20585.865234	75.149010
508.573883	720.439209	27344.515625	20749.777344	75.230171
508.924500	722.742493	27516.673828	20926.693359	75.404953
509.275116	724.154297	27689.726563	21023.509766	75.278786
509.625702	721.405090	27900.078125	21184.298828	75.290260
509.976196	724.600098	28182.873047	21377.337891	75.214989
510.326660	723.188416	28427.404297	21584.939453	75.301720
510.677124	727.646545	28704.406250	21780.802734	75.252304
511.027557	726.754883	28919.064453	21949.765625	75.279442
511.377869	731.881836	29165.228516	22114.794922	75.203644
511.728180	730.618652	29296.818359	22269.267578	75.399071
512.078430	729.206848	29403.962891	22377.529297	75.496101
512.428650	725.714661	29437.697266	22496.931641	75.826241
512.778931	731.658875	29540.830078	22525.611328	75.649353
513.129028	735.002502	29604.134766	22545.005859	75.547829
513.479126	737.603027	29655.406250	22506.218750	75.277557
513.829285	726.977844	29606.662109	22481.849609	75.329323
514.179382	714.197754	29554.501953	22435.853516	75.317017
514.529297	711.225647	29508.734375	22399.224609	75.312065
514.879272	718.210144	29544.398438	22443.062500	75.364983
515.229187	728.240906	29500.115234	22394.693359	75.304283
515.579163	729.801270	29490.677734	22423.521484	75.427887
515.928955	726.383362	29474.328125	22417.947266	75.454315
516.278748	726.383362	29672.791016	22599.990234	75.565880
516.628540	724.228577	29966.431641	22825.052734	75.578522
516.978333	723.931396	30431.867188	23168.031250	75.549171
517.327942	726.011902	30947.083984	23556.562500	75.545135
517.677612	730.915833	31584.673828	24005.130859	75.433968
518.027222	737.380188	32163.789063	24455.775391	75.472816
518.376831	738.197510	32894.925781	25011.115234	75.483170
518.726379	733.070618	33538.019531	25502.031250	75.503731
519.075867	732.699158	34102.050781	25931.056641	75.513474
519.425293	735.745544	34466.656250	26217.271484	75.543549
519.774658	738.271790	34599.285156	26383.115234	75.735611
520.124084	735.225403	34616.152344	26404.587891	75.763466
520.473389	731.138855	34338.187500	26220.462891	75.845177
520.822693	732.476257	34022.996094	25979.873047	75.839600
521.171997	730.172852	33578.218750	25647.587891	75.856606
521.521240	730.172852	33130.394531	25319.244141	75.891670
521.870361	724.897278	32700.851563	24971.955078	75.829033
522.219482	730.247131	32342.861328	24652.601563	75.673447
522.568604	724.674500	32123.224609	24475.908203	75.644363
522.917664	730.395813	32003.224609	24366.833984	75.581390
523.266724	730.544373	32046.171875	24450.720703	75.745491
523.615662	732.179016	32312.025391	24611.515625	75.615746
523.964600	726.086182	32748.630859	24951.226563	75.650269
524.313538	716.203918	33350.332031	25348.078125	75.478882
524.662354	714.049133	34048.332031	25879.341797	75.493729
525.011169	713.306152	34883.566406	26457.789063	75.341774
525.359985	715.906738	35910.875000	27263.750000	75.430794
525.708740	715.906738	37138.875000	28191.791016	75.435600
526.057434	719.547607	38507.605469	29289.982422	75.607048
526.406067	720.216309	40075.914063	30489.822266	75.642426
526.754700	723.114075	41785.250000	31772.212891	75.614914
527.103333	725.417480	43710.437500	33298.316406	75.777328
527.451782	721.850891	45821.449219	35009.292969	76.026047
527.800293	724.674500	47939.000000	36858.609375	76.531715
528.148743	724.228577	50049.269531	38747.531250	77.087219
528.497131	723.188477	51871.917969	40542.312500	77.849686
528.845642	727.646667	53445.949219	42198.222656	78.664474
529.193909	725.640381	54641.847656	43601.800781	79.523697
529.542175	732.476257	55430.644531	44608.160156	80.214172
529.890503	727.349304	55683.125000	45027.968750	80.611397
530.238770	730.767273	55412.589844	44783.218750	80.561417
530.586914	722.445374	54653.511719	43935.792969	80.127007
530.934998	724.600159	53440.519531	42601.019531	79.437897
531.283142	721.256531	51910.699219	40989.542969	78.665215
531.631226	729.727051	50089.542969	39141.484375	77.819893
531.979248	727.720886	48230.488281	37422.714844	77.248116
532.327148	728.315247	46617.605469	35912.285156	76.671417
532.675110	727.349304	45429.652344	34904.964844	76.456055
533.023071	724.525818	44913.621094	34408.996094	76.228012
533.370850	730.395752	44747.324219	34260.984375	76.176575
533.718689	728.686768	45005.683594	34459.226563	76.180733
534.066467	732.401855	45214.468750	34686.222656	76.331482
534.414246	724.600098	45308.984375	34819.738281	76.473274
534.761963	725.714661	45100.714844	34708.660156	76.581284
535.109619	723.336975	44760.406250	34384.328125	76.437859
535.457153	722.593933	44113.375000	33883.378906	76.423569
535.804749	718.581543	43341.746094	33254.480469	76.333839
536.152344	722.668213	42452.117188	32571.193359	76.321465
536.499817	722.222473	41557.066406	31900.087891	76.351135
536.847229	726.160461	40605.769531	31145.619141	76.278229
537.194641	721.850891	39757.824219	30457.056641	76.173851
537.542114	723.188416	39137.996094	29960.265625	76.108871
537.889404	723.114075	38667.953125	29571.664063	76.027596
538.236694	722.891174	38248.511719	29250.677734	76.022156
538.583984	725.714661	37890.078125	28938.904297	75.914635
538.931213	719.101746	37629.574219	28796.835938	76.069832
539.278381	718.655945	37458.531250	28681.224609	76.109589
539.625488	714.049133	37448.421875	28655.289063	76.062935
539.972595	717.467102	37776.691406	28869.208984	75.964203
540.319641	715.163757	38449.355469	29375.281250	75.952644
540.666687	714.197754	39466.484375	30104.640625	75.841835
541.013611	713.900574	40733.941406	31093.162109	75.910126
541.360596	710.854187	42116.714844	32145.365234	75.918030
541.707458	710.185364	43577.652344	33337.402344	76.111832
542.054260	715.312317	44794.656250	34254.523438	76.088272
542.401062	718.284424	45790.316406	35074.300781	76.224686
542.747864	719.919128	46294.531250	35502.507813	76.320099
543.094666	718.358704	46236.875000	35583.796875	76.596169
543.441284	721.702332	45567.855469	35164.726563	76.802628
543.787903	724.823059	44523.894531	34358.246094	76.790268
544.134460	723.411316	43236.828125	33305.082031	76.638557
544.481079	725.937500	41834.214844	32127.531250	76.387520
544.827637	730.618652	40256.914063	30885.115234	76.289703
545.174072	728.389587	38614.605469	29640.025391	76.311760
545.520508	726.977783	37213.769531	28588.193359	76.359726
545.866943	724.154297	36077.386719	27700.572266	76.305374
546.213318	733.665100	35291.859375	27012.900391	76.043419
546.559631	730.024231	34611.988281	26499.544922	76.056747
546.905823	729.949951	33986.140625	26076.093750	76.214813
547.252136	718.135803	33530.144531	25765.210938	76.335083
547.598389	715.460876	33034.695313	25350.601563	76.224396
547.944458	712.711731	32626.474609	25044.250000	76.241524
548.290588	720.810730	32093.869141	24637.742188	76.233978
548.636658	728.018066	31547.005859	24215.775391	76.211967
548.982727	734.185242	30856.134766	23685.849609	76.195816
549.328735	730.172852	30136.439453	23166.623047	76.298195
549.674622	730.767273	29358.416016	22602.070313	76.399231
550.020569	724.154297	28655.365234	22044.578125	76.331902
550.366455	728.315247	27916.500000	21436.927734	76.167694
550.712280	727.275085	27246.658203	20930.183594	76.181671
551.058044	735.374023	26740.062500	20518.695313	76.075981
551.403748	736.711487	26361.193359	20224.976563	76.053307
551.749512	735.225403	26134.642578	20028.224609	75.958435
552.095154	728.241028	25939.228516	19879.322266	75.963234
552.440735	727.869446	25869.384766	19865.205078	76.118469
552.786316	727.274963	25883.578125	19853.462891	76.029404
553.131897	726.160461	25906.015625	19905.771484	76.170456
553.477417	725.937561	25949.630859	19876.572266	75.923195
553.822815	726.977844	25916.640625	19867.804688	75.986832
554.168213	726.829285	25882.978516	19816.982422	75.886627
554.513672	718.953125	25730.140625	19715.630859	75.952721
554.859009	718.507324	25531.232422	19594.072266	76.072113
555.204285	722.668274	25322.812500	19444.130859	76.103058
555.549500	723.039734	25089.056641	19301.095703	76.245766
555.894714	728.389587	24840.068359	19099.216797	76.190575
556.239990	730.470032	24527.031250	18886.041016	76.294937
556.585022	732.699219	24260.732422	18676.806641	76.266922
556.930115	732.104675	23995.099609	18487.408203	76.324234
557.275146	719.621826	23735.705078	18295.708984	76.364372
557.620178	723.931396	23518.818359	18120.500000	76.317856
557.965149	718.507324	23363.150391	17970.857422	76.187332
558.310059	720.662109	23167.884766	17842.089844	76.274147
558.654968	719.919006	23029.458984	17772.023438	76.434135
558.999756	721.256531	22900.099609	17679.589844	76.461761
559.344604	725.640381	22914.662109	17634.339844	76.202995
559.689331	721.256531	22872.976563	17578.240234	76.097855
560.033997	722.148132	22811.380859	17558.849609	76.221306
560.378723	722.742615	22757.958984	17520.730469	76.232460
560.723389	725.417480	22759.072266	17522.291016	76.232803
561.067932	728.018066	22819.927734	17535.962891	76.081902
561.412476	729.355530	22824.312500	17553.720703	76.145721
561.757019	727.943665	22821.562500	17554.017578	76.158073
562.101501	724.897278	22823.492188	17573.484375	76.242798
562.445862	725.714600	22784.781250	17563.380859	76.329910
562.790222	732.476257	22750.007813	17529.572266	76.289642
563.134644	729.429871	22750.156250	17511.517578	76.210419
563.478943	727.869446	22769.771484	17514.115234	76.156067
563.823181	722.816895	22799.716797	17506.982422	76.025917
564.167358	723.931396	22826.833984	17505.943359	75.926735
564.511536	722.148193	22886.873047	17551.046875	75.926498
564.855774	727.052063	22899.281250	17579.353516	76.006348
565.199768	717.764343	22967.193359	17637.609375	76.046196
565.543823	718.878845	23097.818359	17697.869141	75.870399
565.887817	717.838623	23335.958984	17900.416016	75.968193
566.231812	732.922058	23515.400391	18078.669922	76.136353
566.575745	734.185059	23690.976563	18236.710938	76.241165
566.919617	734.779602	23871.755859	18346.158203	76.117889
567.263428	734.036560	23994.798828	18429.529297	76.074432
567.607239	732.699158	24116.435547	18527.830078	76.100456
567.950989	727.349304	24109.599609	18548.708984	76.217468
568.294678	725.640320	24143.037109	18588.015625	76.278229
568.638367	729.132568	24070.591797	18498.628906	76.128471
568.981995	734.110840	23934.171875	18410.654297	76.191795
569.325623	727.795166	23731.916016	18236.339844	76.110474
569.669128	719.770508	23530.705078	18126.744141	76.309776
570.012573	715.832458	23415.240234	18025.542969	76.256218
570.356140	721.107910	23377.419922	18001.841797	76.273376
570.699524	733.367859	23365.234375	17979.921875	76.204735
571.042908	737.677429	23427.351563	18032.232422	76.222137
571.386230	740.649597	23567.931641	18112.478516	76.101173
571.729492	735.299744	23761.564453	18225.343750	75.956932
572.072815	731.138733	23945.240234	18317.105469	75.755531
572.416016	727.720886	24047.630859	18364.882813	75.631348
572.759094	726.234863	24193.412109	18489.638672	75.694679
573.102234	731.138733	24291.343750	18570.404297	75.717789
573.445374	731.213074	24358.662109	18645.154297	75.818344
573.788391	727.200745	24302.638672	18631.330078	75.943993
574.131409	718.433044	24271.056641	18606.664063	75.950058
574.474365	726.977844	24189.474609	18557.625000	75.996376
574.817261	734.036621	24067.693359	18466.976563	75.997261
575.160156	739.386292	23866.333984	18352.771484	76.159576
575.502930	734.408020	23672.328125	18188.638672	76.093346
575.845703	731.584656	23463.017578	17992.478516	75.934036
576.188477	732.104675	23221.830078	17794.535156	75.867668
576.531250	724.302917	22959.689453	17624.380859	76.005325
576.873901	723.039795	22722.218750	17463.814453	76.097275
577.216431	716.129578	22494.181641	17285.339844	76.082153
577.559082	720.290527	22228.697266	17072.611328	76.027580
577.901611	725.937500	21924.130859	16813.369141	75.890579
578.244080	733.293457	21578.103516	16580.798828	76.026146
578.586487	730.172852	21255.480469	16346.450195	76.083031
578.928955	730.470032	20886.419922	16116.781250	76.336327
579.271301	725.417480	20567.291016	15849.215820	76.221626
579.613647	725.268860	20181.660156	15557.726563	76.234375
579.955872	719.324646	19897.005859	15330.434570	76.188095
580.298157	719.844727	19590.134766	15114.213867	76.280594
580.640320	724.302917	19373.171875	14947.776367	76.269897
580.982483	725.937561	19147.587891	14786.093750	76.324089
581.324524	725.789001	18981.373047	14683.332031	76.456291
581.666626	719.250305	18819.021484	14595.952148	76.667831
582.008728	714.717957	18724.138672	14508.721680	76.593269
582.350647	716.055359	18583.705078	14381.291992	76.480324
582.692566	729.727051	18511.927734	14286.407227	76.237350
583.034424	733.145020	18392.894531	14191.002930	76.206390
583.376343	729.206848	18326.171875	14125.096680	76.126137
583.718201	720.587830	18208.402344	14062.234375	76.291100
584.059937	722.371094	18155.869141	14036.007813	76.368134
584.401611	725.937561	18055.115234	13964.230469	76.393082
584.743347	727.126404	18001.841797	13926.632813	76.409409
585.085022	721.182129	17908.664063	13873.209961	76.520966
585.426514	723.559875	17852.640625	13834.497070	76.541985
585.768127	725.194580	17770.388672	13751.204102	76.420425
586.109619	737.825989	17702.474609	13687.824219	76.335197
586.451172	736.042786	17631.812500	13638.562500	76.365387
586.792542	730.470032	17595.404297	13639.006836	76.540695
587.133850	728.612488	17556.396484	13579.416992	76.366592
587.475220	731.881775	17571.404297	13605.571289	76.449249
587.816589	733.739441	17579.355469	13589.002930	76.312225
588.157776	729.058289	17593.623047	13651.491211	76.624763
588.498962	730.693054	17647.490234	13669.249023	76.483482
588.840210	733.293640	17694.970703	13690.424805	76.390617
589.181335	735.671204	17787.476563	13730.101563	76.205605
589.522400	735.299744	17794.833984	13757.445313	76.333534
589.863403	731.658875	17860.294922	13816.515625	76.391701
590.204407	728.984070	17823.365234	13809.680664	76.520447
590.545410	721.776672	17896.849609	13844.083008	76.403214
590.886353	720.439209	17892.244141	13814.289063	76.252029
591.227112	722.816895	17916.986328	13805.296875	76.086723
591.567932	725.194580	17817.716797	13715.762695	76.001472
591.908752	723.262695	17680.333984	13679.131836	76.403938
592.249512	718.730286	17621.039063	13643.093750	76.465080
592.590149	719.696106	17530.908203	13584.766602	76.526726
592.930786	719.844788	17491.455078	13518.562500	76.311806
593.271423	713.231873	17390.181641	13436.383789	76.291847
593.612000	714.643616	17334.974609	13386.229492	76.241486
593.952576	723.782898	17339.580078	13381.995117	76.181793
594.292969	734.705322	17396.869141	13424.495117	76.159317
594.633484	732.922058	17472.210938	13494.786133	76.238983
594.973877	728.538147	17554.017578	13557.348633	76.246330
595.314209	728.612488	17673.867188	13632.023438	76.147644
595.654480	730.321472	17859.847656	13772.976563	76.141373
595.994812	732.401917	18048.207031	13940.898438	76.279999
596.335022	729.652771	18266.433594	14121.975586	76.367058
596.675171	724.897461	18480.126953	14244.277344	76.143082
597.015320	725.640442	18680.595703	14368.809570	75.985535
597.355408	729.727051	18764.781250	14429.366211	75.961174
597.695496	734.482361	18812.410156	14479.742188	76.033379
598.035461	733.739258	18756.681641	14465.700195	76.191566
598.375366	733.590637	18722.726563	14441.550781	76.201324
598.715271	739.014832	18600.794922	14401.280273	76.488831
599.055176	733.070618	18403.298828	14263.002930	76.569084
599.395081	723.262695	18152.080078	14070.112305	76.579208
599.734802	717.615723	17838.150391	13806.411133	76.450851
600.074524	722.816833	17512.333984	13551.254883	76.407425
600.414246	727.423645	17154.195313	13285.401367	76.448242
600.753906	725.343201	16839.820313	13059.891602	76.543274
601.093506	721.850891	16567.203125	12849.987305	76.540657
601.433044	721.850891	16377.805664	12692.835938	76.462822
601.772583	720.736389	16235.812500	12579.821289	76.435883
602.112122	720.885010	16212.409180	12519.933594	76.164543
602.451538	716.724060	16236.036133	12543.413086	76.206268
602.790894	715.535156	16373.050781	12614.223633	75.993462
603.130310	714.420715	16585.183594	12786.234375	76.063225
603.469604	718.061523	16796.576172	12950.221680	76.077675
603.808838	722.668274	17097.130859	13164.807617	75.985023
604.148010	724.005676	17350.501953	13374.934570	76.088966
604.487305	725.789001	17637.013672	13579.043945	76.004280
604.826416	728.092346	17829.533203	13742.065430	76.098686
605.165527	730.692932	18013.505859	13859.687500	75.965614
605.504456	734.928223	18116.193359	13981.246094	76.210320
605.843445	732.401917	18167.908203	14034.297852	76.292000
606.182434	733.590759	18141.826172	14031.250977	76.387177
606.521423	734.928223	18049.765625	13921.952148	76.160248
606.860229	740.798157	17829.458984	13806.782227	76.459969
607.199036	742.061279	17573.335938	13618.127930	76.500839
607.537903	738.569092	17310.158203	13439.059570	76.640144
607.876648	739.237793	17063.619141	13234.281250	76.542213
608.215271	730.544373	16787.585938	13022.221680	76.550072
608.553955	727.423584	16582.138672	12833.714844	76.357674
608.892578	725.343079	16391.105469	12665.122070	76.215752
609.231140	737.528809	16308.704102	12593.715820	76.141891
609.569641	736.860046	16245.027344	12537.915039	76.095741
609.908081	738.717590	16226.377930	12538.807617	76.190269
610.246521	729.726990	16228.606445	12524.465820	76.100594
610.584961	729.504089	16221.325195	12523.872070	76.132874
610.923340	721.405090	16199.034180	12472.008789	75.919922
611.261597	724.080017	16119.825195	12401.718750	75.849777
611.599854	731.658875	15975.233398	12344.208008	76.179962
611.938110	734.482422	15838.590820	12266.488281	76.350128
612.276245	737.231628	15604.092773	12137.647461	76.683411
612.614319	726.606384	15321.816406	11927.742188	76.745285
612.952393	724.377258	15012.715820	11702.976563	76.836082
613.290466	715.609558	14761.127930	11483.113281	76.661491
613.628479	717.689941	14519.569336	11275.586914	76.496078
613.966370	713.677673	14280.983398	11068.132813	76.319168
614.304260	714.272034	14041.875977	10904.593750	76.460266
614.642151	714.940735	13858.793945	10723.072266	76.143059
614.979980	713.826172	13678.312500	10607.605469	76.314468
615.317749	719.844727	13534.834961	10499.495117	76.314148
615.655396	720.885010	13434.601563	10446.368164	76.495987
615.993164	724.674377	13392.843750	10403.793945	76.405037
616.330811	728.018066	13366.911133	10363.669922	76.238106
616.668396	731.658875	13316.459961	10340.561523	76.353233
617.005859	732.327637	13290.750000	10307.942383	76.248558
617.343445	732.922058	13268.682617	10300.661133	76.323563
617.680908	737.157288	13259.468750	10326.295898	76.576424
618.018311	738.866211	13260.657227	10327.260742	76.573669
618.355652	735.448242	13260.211914	10337.811523	76.667023
618.692993	725.937561	13270.614258	10311.508789	76.411469
619.030273	720.141907	13264.522461	10316.338867	76.497978
619.367554	721.553711	13262.738281	10295.012695	76.336159
619.704712	724.154297	13239.555664	10283.422852	76.380043
620.041870	729.504150	13205.301758	10270.643555	76.477188
620.379028	721.405090	13150.540039	10253.849609	76.694351
620.716064	719.473145	13099.346680	10209.639648	76.658020
621.053040	721.330750	13032.473633	10168.327148	76.735329
621.389954	728.092285	12975.484375	10105.913086	76.569931
621.726929	726.903503	12925.032227	10080.797852	76.683029
622.063843	725.194580	12878.964844	10027.671875	76.539848
622.400635	721.776611	12857.863281	9987.772461	76.350769
622.737427	719.770508	12837.429688	9948.615234	76.160294
623.074219	721.033630	12793.887695	9916.664063	76.167824
623.410889	721.479492	12724.117188	9891.921875	76.403557
623.747559	720.810730	12689.790039	9871.710938	76.455147
624.084167	716.798401	12672.700195	9846.151367	76.358543
624.420715	719.398926	12682.062500	9817.766602	76.056366
624.757324	724.228699	12696.922852	9794.063477	75.754333
625.093750	724.451599	12750.272461	9836.640625	75.771866
625.430176	721.999573	12816.179688	9927.438477	76.114616
625.766602	726.457703	12880.153320	10004.713867	76.341026
626.102905	726.011902	12951.038086	10065.418945	76.395805
626.439209	717.838623	13025.192383	10123.225586	76.420868
626.775452	713.157532	13134.566406	10180.290039	76.216255
627.111694	716.946960	13228.114258	10245.230469	76.158226
627.447876	719.398926	13311.333008	10298.877930	76.076309
627.783997	723.782776	13360.668945	10348.734375	76.165535
628.120056	715.089355	13387.269531	10369.464844	76.185593
628.456055	717.912903	13362.971680	10352.672852	76.193871
628.792053	711.597168	13309.622070	10327.409180	76.327934
629.128052	713.826233	13251.890625	10258.976563	76.129379
629.463928	710.631165	13180.335938	10194.704102	76.056915
629.799744	716.203918	13071.854492	10106.730469	76.001877
630.135559	717.838562	12923.843750	10019.126953	76.202560
630.471375	721.776672	12784.079102	9898.905273	76.081070
630.807068	714.940857	12631.387695	9777.717773	76.052681
631.142700	724.451477	12506.113281	9692.493164	76.118652
631.478333	730.321472	12359.959961	9598.053711	76.251144
631.813965	730.024231	12251.179688	9522.265625	76.313889
632.149475	723.485596	12123.750977	9410.514648	76.200233
632.484924	725.343201	12025.375000	9357.758789	76.392845
632.820435	734.408020	11942.156250	9280.855469	76.254814
633.155884	733.219238	11866.961914	9211.308594	76.147713
633.491150	731.287354	11833.303711	9171.555664	76.024643
633.826477	725.789001	11749.934570	9115.531250	76.103333
634.161804	722.445313	11711.520508	9092.720703	76.169060
634.497009	718.804504	11634.171875	9043.755859	76.268173
634.832153	719.176086	11583.645508	9004.672852	76.262321
635.167297	728.463867	11513.058594	8958.307617	76.311111
635.502380	721.776672	11432.067383	8898.864258	76.347946
635.837463	716.575500	11361.257813	8836.227539	76.278946
636.172424	713.008972	11286.434570	8781.690430	76.310951
636.507324	715.237976	11198.534180	8699.139648	76.158318
636.842224	725.045898	11104.020508	8620.156250	76.068306
637.177124	721.925293	10982.833008	8520.367188	76.001480
637.511963	729.281250	10859.194336	8441.754883	76.135635
637.846741	727.349304	10721.882813	8378.894531	76.557304
638.181396	733.665039	10616.149414	8285.868164	76.420090
638.516113	737.380188	10530.627930	8206.809570	76.271217
638.850769	735.745544	10445.253906	8139.788574	76.255585
639.185303	729.281250	10352.671875	8086.885254	76.455421
639.519836	724.525818	10274.729492	8018.229004	76.372223
639.854370	719.473206	10183.632813	7944.298340	76.338799
640.188843	723.782776	10073.739258	7882.775879	76.567131
640.523254	724.748718	10016.674805	7813.748535	76.292046
640.857605	730.618652	9938.583008	7753.562988	76.270325
641.191895	721.107910	9876.168945	7688.028809	76.099121
641.526184	717.838623	9783.885742	7655.334473	76.521729
641.860413	716.426941	9749.780273	7619.521484	76.417854
642.194580	727.052185	9710.102539	7580.214844	76.289925
642.528748	727.869446	9662.697266	7523.818848	76.061333
642.862793	735.819824	9586.760742	7475.448730	76.145897
643.196838	735.002502	9535.788086	7432.649902	76.102837
643.530823	735.225403	9493.139648	7408.650391	76.198792
643.864746	734.705261	9440.829102	7357.901855	76.075150
644.198669	732.104675	9396.099609	7332.489746	76.181778
644.532532	728.240967	9358.427734	7291.845703	76.054031
644.866333	721.776611	9334.354492	7268.217285	76.010231
645.200073	725.417480	9308.125000	7258.484375	76.118958
645.533813	730.321472	9277.958008	7234.558594	76.093987
645.867554	725.045898	9263.915039	7203.277344	75.867554
646.201172	712.637390	9265.028320	7171.326660	75.519112
646.534729	711.671387	9262.725586	7193.246094	75.798538
646.868225	715.980957	9269.933594	7225.493652	76.099464
647.201782	725.863281	9253.883789	7236.268066	76.341339
647.535217	728.612488	9249.277344	7220.812988	76.193588
647.868591	727.720886	9248.682617	7223.710938	76.235413
648.201965	731.064514	9250.317383	7221.556152	76.186157
648.535278	721.405090	9235.977539	7221.927246	76.345840
648.868591	721.479431	9213.983398	7214.050781	76.450615
649.201782	726.754883	9183.742188	7196.887207	76.506348
649.534912	730.321472	9155.432617	7167.611816	76.405998
649.868103	729.355469	9130.615234	7141.829590	76.327530
650.201172	727.274963	9086.182617	7131.055176	76.610260
650.534180	734.779602	9049.179688	7113.000000	76.712929
650.867188	746.445129	9014.703125	7099.550781	76.837296
651.200134	741.912598	9017.229492	7073.321777	76.509575
651.533020	738.643311	8993.081055	7029.631348	76.213409
651.865845	728.240967	8933.788086	7002.140137	76.459251
652.198608	722.668274	8878.877930	6958.003906	76.448936
652.531433	725.417480	8860.748047	6967.738281	76.731003
652.864136	729.801453	8864.389648	6937.793457	76.315994
653.196777	857.899231	8997.911133	7051.179688	76.084412
653.529358	857.453369	8948.946289	6998.350098	75.893242
653.861938	855.001404	8893.516602	6951.613281	75.842514
654.194519	730.024231	8685.245117	6767.119629	75.888466
654.526978	727.720886	8635.165039	6754.785645	76.220139
654.859375	730.767273	8580.551758	6706.043457	76.120255
655.191833	726.754883	8525.123047	6687.839355	76.440155
655.524170	726.680603	8469.247070	6627.802734	76.216614
655.856445	718.804504	8409.062500	6597.041504	76.437447
656.188660	722.593933	8394.871094	6573.412598	76.259216
656.520874	715.758057	8361.062500	6532.843750	76.087036
656.853088	721.256531	8370.202148	6540.794434	76.082878
657.185181	716.649719	8356.232422	6518.354004	75.942688
657.517212	719.027405	8383.948242	6558.923828	76.189911
657.849243	714.346375	8417.086914	6584.632324	76.210358
658.181274	725.417480	8455.500977	6628.545410	76.365639
658.513123	723.931458	8504.465820	6663.021973	76.332680
658.844971	732.327637	8595.116211	6716.371582	76.105873
659.176819	722.073792	8692.080078	6773.139160	75.922966
659.508667	726.829285	8806.061523	6839.564941	75.659859
659.840393	723.485596	8876.203125	6894.251953	75.689690
660.172058	720.885010	8927.917969	6940.319824	75.781761
660.503662	723.559875	8941.515625	6980.740723	76.140350
660.835266	720.885010	8955.410156	6986.090332	76.084595
661.166931	720.513489	8917.664063	6969.669922	76.235718
661.498413	715.089355	8868.624023	6922.264160	76.128639
661.829773	712.860352	8761.034180	6848.927734	76.241737
662.161194	723.782898	8642.446289	6772.767578	76.388962
662.492615	723.782776	8509.073242	6662.056641	76.275558
662.823975	722.965515	8341.297852	6551.048340	76.500771
663.155212	721.999512	8213.571289	6432.015137	76.219193
663.486450	727.275085	8067.121094	6318.480469	76.176056
663.817627	732.773438	7960.347656	6227.385254	76.022903
664.148743	739.089172	7827.568848	6135.621094	76.131020
664.479858	739.980774	7729.935059	6059.164063	76.097542
664.810913	742.284180	7637.279297	5982.707031	76.003288
665.141907	733.962219	7585.416016	5935.673340	75.921272
665.472778	731.956116	7508.066895	5873.853027	75.882713
665.803711	723.485657	7470.395996	5848.664063	75.963341
666.134583	721.033630	7415.411621	5811.810059	76.045547
666.465454	719.844788	7396.390625	5800.367676	76.095078
666.796143	719.027527	7337.617188	5763.364746	76.214684
667.126831	722.593933	7331.821777	5754.225098	76.130394
667.457458	724.154297	7300.464844	5746.497559	76.370224
667.788147	722.371094	7296.081543	5739.513672	76.321320
668.118774	717.244141	7248.453125	5725.470215	76.681458
668.449219	716.798340	7240.279785	5714.101563	76.604851
668.779663	719.398926	7239.834473	5717.148438	76.647476
669.110107	721.182190	7235.302246	5680.442871	76.130936
669.440552	718.432922	7229.877441	5664.170410	75.954536
669.770874	722.519714	7202.014160	5618.846191	75.566490
670.101135	722.073792	7183.289551	5617.434082	75.765312
670.431396	725.194580	7157.135254	5597.446777	75.750885
670.761597	725.863281	7111.959473	5583.923828	76.072464
671.091797	724.080017	7069.606934	5556.060059	76.147812
671.421875	723.559875	7003.551270	5534.437988	76.606445
671.751892	722.668274	6973.533203	5489.039063	76.251381
672.081909	727.646545	6932.889160	5451.070801	76.119896
672.411865	728.018066	6904.877441	5408.197754	75.769569
672.741821	728.018066	6862.673340	5404.928223	76.237541
673.071716	734.631042	6814.599121	5403.145020	76.785172
673.401550	731.807556	6768.828613	5373.350098	76.884651
673.731262	733.739319	6746.538574	5340.285645	76.612343
674.060974	732.030457	6720.755371	5292.285645	76.147346
674.390625	729.058350	6699.356934	5270.069336	76.060028
674.720276	730.692932	6650.911621	5236.781738	76.113556
675.049927	721.999573	6617.846191	5204.459473	76.027420
675.379395	732.104736	6587.679688	5157.871582	75.582100
675.708923	720.662109	6539.828613	5130.603027	75.783035
676.038330	718.730225	6487.445313	5096.646484	75.890663
676.367737	712.711731	6442.491699	5090.702637	76.407661
676.697083	719.324646	6426.888184	5066.405762	76.163513
677.026428	723.559875	6402.442871	5069.897949	76.535088
677.355652	717.689941	6383.792969	5058.677734	76.613289
677.684875	721.033508	6388.101563	5060.312500	76.570084
678.013977	719.176025	6390.330566	5054.442383	76.444168
678.343079	725.863281	6408.609863	5060.684082	76.280380
678.672180	723.262695	6409.501465	5063.582031	76.330231
679.001221	723.188416	6473.550781	5080.968750	75.782707
679.330139	719.473206	6499.630859	5099.990234	75.785423
679.659058	725.417480	6541.685547	5129.637207	75.722435
679.987976	729.058289	6555.729004	5153.636719	75.936646
680.316772	730.247131	6605.066406	5179.345215	75.731659
680.645630	723.708496	6635.084473	5202.156250	75.759819
680.974304	721.702332	6674.390625	5229.945801	75.734581
681.302979	722.148193	6706.267090	5257.214844	75.785027
681.631653	725.045959	6755.157715	5267.988770	75.337624
681.960266	721.999512	6774.699219	5290.353516	75.476303
682.288757	723.262695	6773.138672	5279.431152	75.310112
682.617249	721.851013	6737.845215	5292.062988	75.967690
682.945679	724.823059	6715.851563	5267.914551	75.831581
683.274109	722.519592	6682.489746	5251.344727	75.987381
683.602478	725.045959	6630.105469	5213.599121	76.011986
683.930725	722.445313	6549.710449	5162.701660	76.197945
684.259033	726.011902	6450.367676	5109.278320	76.572220
684.587280	726.011902	6365.439941	5041.216797	76.518486
684.915344	734.779602	6301.836426	4977.464844	76.210564
685.243469	738.346191	6244.549316	4918.691406	75.920647
685.571533	737.157410	6189.713379	4886.667480	76.102112
685.899536	729.727051	6131.980469	4846.320801	76.201416
686.227539	729.206970	6087.101563	4810.878418	76.180511
686.555420	728.463867	6055.448730	4775.584961	75.973953
686.883301	730.321472	6039.250488	4769.045898	76.074181
687.211121	725.194519	6040.588379	4772.018066	76.134026
687.538940	719.398926	6055.597656	4781.677246	76.126816
687.866638	713.974854	6056.191895	4769.417480	75.913101
688.194336	720.736389	6044.377441	4759.312012	75.861153
688.521973	721.330811	6028.476563	4740.588379	75.732948
688.849609	727.869446	6025.355957	4733.306641	75.610146
689.177063	726.531982	5999.572754	4710.049316	75.544975
689.504578	728.166687	5932.403809	4670.966309	75.761330
689.832031	728.018066	5852.751465	4634.335449	76.224792
690.159485	722.148193	5780.380371	4580.540527	76.279457
690.486816	733.144958	5720.121094	4526.447754	76.064186
690.814087	734.482422	5644.777832	4459.203613	75.855339
691.141296	737.603088	5562.599121	4400.058594	75.905876
691.468506	731.510254	5482.946777	4339.798828	75.941002
691.795715	728.240967	5401.956543	4285.929688	76.121201
692.122803	729.875671	5345.857910	4231.688965	75.862793
692.449829	724.451477	5302.316406	4196.023438	75.833870
692.776855	724.897278	5254.613770	4152.184570	75.662292
693.103821	719.993347	5185.512207	4126.921875	76.294121
693.430664	722.891113	5121.612793	4076.395752	76.238167
693.757568	723.188293	5070.417969	4041.324951	76.327621
694.084351	725.045898	5030.962891	4007.740234	76.236824
694.411133	718.730225	4988.758789	3981.734131	76.416443
694.737854	726.383362	4961.415527	3954.985107	76.235588
695.064575	724.971680	4940.090820	3930.836670	76.056328
695.391174	734.036621	4920.549316	3893.387939	75.464989
695.717773	727.572205	4905.242676	3886.923828	75.624718
696.044250	723.262695	4912.970215	3874.366943	75.210602
696.370789	720.810730	4919.509277	3897.697998	75.663612
696.697205	716.872620	4939.273438	3910.403564	75.633057
697.023621	724.748718	4967.136719	3951.864502	76.068375
697.349915	720.959290	5023.458008	3997.709717	76.159248
697.676208	723.485596	5101.699219	4051.504639	76.013168
698.002380	715.535217	5191.382324	4104.036621	75.706367
698.328674	718.358704	5299.567383	4167.268066	75.283836
698.654724	712.934570	5407.604004	4237.929688	75.085052
698.980896	716.946960	5507.392090	4313.495605	75.077545
699.306946	709.367981	5573.373047	4362.015625	75.095474
699.632935	712.488770	5629.248535	4404.591309	75.092186
699.958862	716.129578	5641.730957	4414.622559	75.087128
700.284729	718.804504	5646.561035	4432.380371	75.360382
700.610596	721.776672	5595.068848	4402.362305	75.525658
700.936340	721.033630	5517.423340	4380.814453	76.302826
701.262146	736.785828	5412.656250	4279.985840	75.776260
701.587830	734.556641	5290.650879	4183.985840	75.710228
701.913513	734.630920	5156.683105	4054.327393	75.071404
702.239075	729.801270	5021.229492	3969.473877	75.491714
702.564697	731.064453	4890.976563	3869.239502	75.438492
702.890137	732.922058	4776.030273	3783.197266	75.443817
703.215698	728.538269	4666.730957	3697.600830	75.391502
703.541016	723.782898	4564.490234	3644.177002	76.037926
703.866455	722.668274	4484.392090	3581.985596	76.010826
704.191711	720.142029	4405.334473	3535.620850	76.399780
704.517029	730.247131	4360.900879	3477.664795	75.672806
704.842163	733.367859	4303.093262	3435.089111	75.684288
705.167419	735.671204	4267.428223	3398.903564	75.408142
705.492493	730.767273	4229.533691	3372.377686	75.501190
705.817566	724.897278	4203.081543	3349.195068	75.450226
706.142578	726.309082	4180.270996	3326.086914	75.269440
706.467590	731.956116	4158.945801	3315.758789	75.395699
706.792480	728.538147	4144.011230	3308.848877	75.547684
707.117371	728.463867	4132.865723	3312.935547	75.915588
707.442200	723.188416	4142.376465	3304.167236	75.485138
707.766907	725.863281	4149.881348	3303.052734	75.267990
708.091675	717.764343	4159.689453	3300.229492	75.029671
708.416321	713.454773	4148.395020	3302.384521	75.370445
708.741028	717.541321	4147.131836	3308.625732	75.550842
709.065552	720.736328	4169.794434	3331.585205	75.697449
709.390137	720.959290	4177.150879	3338.124023	75.723946
709.714600	715.832458	4204.643066	3369.331299	76.057404
710.039063	710.854187	4228.047852	3373.269287	75.697144
710.363403	716.649719	4266.982422	3404.847656	75.716789
710.687744	717.987244	4309.260254	3424.983643	75.377068
711.012085	725.120300	4353.693359	3456.190674	75.265686
711.336304	722.668274	4392.851074	3493.862549	75.505623
711.660461	730.693054	4418.262207	3529.676514	75.903214
711.984619	732.327637	4435.426270	3559.100342	76.335335
712.308716	736.265625	4452.144531	3562.444092	76.056793
712.632751	731.138855	4451.847656	3550.927002	75.786316
712.956726	735.894104	4416.405273	3533.020264	75.998306
713.280701	731.213074	4382.820313	3515.410400	76.245804
713.604553	734.482422	4335.860840	3484.872314	76.370476
713.928467	728.538147	4287.712402	3435.089600	76.044365
714.252258	727.572266	4221.731934	3392.365234	76.264198
714.575989	719.027405	4162.513184	3340.799072	76.137146
714.899719	720.885010	4115.182129	3300.601318	76.001488
715.223267	721.330811	4087.690186	3265.901611	75.588211
715.546936	724.897278	4077.436279	3243.090820	75.113029
715.870422	725.640381	4053.956299	3244.354248	75.675323
716.193970	729.727051	4034.117920	3221.171143	75.397987
716.517395	730.172852	4006.699951	3199.103516	75.352058
716.840820	734.779602	3978.167725	3166.039063	74.960487
717.164124	733.442139	3936.557861	3137.729736	75.060905
717.487488	727.795166	3893.165283	3118.336670	75.521706
717.810730	727.052063	3860.249268	3087.352295	75.332001
718.133972	730.990173	3808.534424	3058.894531	75.641617
718.457092	739.534973	3754.739502	3020.108398	75.635780
718.780212	738.197571	3693.365234	2983.031250	75.962990
719.103210	728.538147	3653.018799	2950.115234	75.964844
719.426208	717.467102	3607.025391	2911.998047	75.946938
719.749207	707.510559	3586.740967	2871.057373	75.143234
720.072083	717.764343	3550.927002	2839.850342	74.901665
720.394958	725.491882	3506.196533	2814.512939	75.125603
720.717773	728.835449	3441.033203	2771.194336	75.302727
721.040527	722.816895	3397.863281	2742.067627	75.484703
721.363281	723.857117	3369.925537	2716.730469	75.314507
721.685913	727.423645	3346.000000	2713.832764	75.858360
722.008545	728.018066	3314.124023	2683.739990	75.624199
722.331055	726.903503	3286.929443	2655.653564	75.341034
722.653503	724.971680	3257.951172	2627.047119	75.092415
722.976013	725.566101	3249.852539	2627.567139	75.348068
723.298401	728.241028	3238.929688	2622.514404	75.448357
723.620789	726.086182	3230.162109	2617.461914	75.531883
723.943115	719.844727	3206.236328	2611.369141	76.075081
724.265381	724.154297	3182.831299	2595.691162	76.119675
724.587585	721.479431	3189.889893	2594.873779	75.894768
724.909790	733.665039	3196.874756	2585.808838	75.192291
725.231873	733.367859	3202.670654	2586.106201	75.030830
725.553894	737.008728	3195.834717	2587.369385	75.253830
725.875916	768.661682	3217.902344	2614.638428	75.369347
726.197937	761.974426	3239.227295	2618.353760	74.937012
726.519775	765.020813	3243.387939	2619.616943	74.831375
726.841675	722.222412	3225.852539	2608.917236	75.358368
727.163513	720.290527	3227.710205	2615.530029	75.585251
727.485291	716.724060	3247.697998	2638.712646	75.938698
727.806946	718.061462	3280.390869	2647.851807	75.313904
728.128662	721.033630	3307.065674	2668.433594	75.304558
728.450256	724.748718	3330.470703	2669.251221	74.624329
728.771790	729.727051	3334.186279	2678.761963	74.834534
729.093323	723.559875	3326.830078	2690.947510	75.573700
729.414795	721.107910	3316.130615	2700.309570	76.269150
729.736145	715.683777	3311.078125	2695.257080	76.272545
730.057495	720.439209	3317.468018	2690.947266	75.875481
730.378845	719.250427	3323.114990	2696.074463	75.918846
730.700134	714.272156	3319.102539	2700.904053	76.267227
731.021301	719.176086	3317.393555	2693.622314	75.992340
731.342468	724.674500	3314.644531	2683.071289	75.614647
731.663574	737.603088	3332.402588	2680.545166	74.878311
731.984680	731.881775	3347.188721	2681.733643	74.555374
732.305664	730.544250	3357.888672	2688.495361	74.522057
732.626648	729.949890	3357.443115	2696.148438	74.831726
732.947571	736.042786	3363.758545	2706.550781	74.989388
733.268433	735.745605	3353.207764	2706.476563	75.291672
733.589233	735.819824	3335.151611	2704.841797	75.751083
733.909973	734.779602	3319.994141	2692.582031	75.730751
734.230713	736.860107	3308.923096	2679.727783	75.537331
734.551331	726.754944	3278.607422	2638.712646	74.924301
734.871948	717.467102	3233.877686	2608.545654	75.149841
735.192505	713.751953	3176.813232	2572.063232	75.447220
735.513062	720.885010	3146.051514	2555.864990	75.664085
735.833435	731.213135	3088.987061	2511.134766	75.491615
736.153931	738.420471	3058.002930	2469.970947	74.649231
736.474304	736.637207	3001.681641	2432.374023	74.865501
736.794617	728.389587	2982.436768	2411.346191	74.663773
737.114807	722.073792	2954.127686	2406.293701	75.456062
737.434998	728.092346	2942.684814	2405.476318	75.742332
737.755188	729.578430	2935.552002	2416.696045	76.479500
738.075256	725.714661	2941.347656	2421.525635	76.538445
738.395325	720.810730	2971.811768	2428.064209	75.844185
738.715271	721.553711	2992.022217	2442.107422	75.779678
739.035278	724.897400	3010.597656	2447.457275	75.362457
739.355164	719.844727	3020.702881	2449.463623	75.172775
739.675049	723.188416	3026.052734	2446.119873	74.816887
739.994873	721.627991	3021.297119	2454.293213	75.344109
740.314636	719.621887	3006.510742	2453.773193	75.830154
740.634277	719.993408	2990.535889	2443.445068	75.904839
740.953979	721.330872	2961.334961	2423.086182	75.971085
741.273499	731.064453	2925.000977	2392.621826	75.734070
741.593140	720.736389	2894.759766	2368.473633	75.792068
741.912598	717.318420	2862.809570	2344.993896	75.864937
742.232117	719.547546	2828.035889	2316.535889	75.740913
742.551453	727.275085	2777.584229	2281.093506	75.784592
742.870850	733.293640	2745.708252	2251.149414	75.424606
743.190063	729.950012	2716.284424	2228.115723	75.423637
743.509338	730.470032	2693.250732	2208.499756	75.302849
743.828552	726.829163	2677.646973	2181.007568	74.541992
744.147705	724.897278	2661.226074	2161.094482	74.171143
744.466797	722.296692	2632.099609	2149.577881	74.734474
744.785828	724.080017	2606.836670	2137.020508	75.046364
745.104858	723.262634	2580.533447	2124.166260	75.428078
745.423706	725.863281	2572.583252	2114.209717	75.179047
745.742615	728.538147	2561.363525	2097.343018	74.682777
746.061401	732.476257	2561.735107	2096.674316	74.576546
746.380249	730.915833	2546.205811	2078.915771	74.258102
746.698975	723.708496	2533.574219	2085.825928	75.260689
747.017639	719.324646	2514.032471	2070.222412	75.271179
747.336304	711.745789	2510.986084	2075.869385	75.816643
747.654907	709.739563	2503.184326	2071.411133	75.924927
747.973389	716.426819	2502.812744	2072.376953	75.904655
748.291931	729.578430	2508.088135	2059.225586	74.761871
748.610352	737.157410	2516.484375	2046.965820	73.612572
748.928711	735.968445	2526.738281	2048.526123	73.295723
749.247070	725.937561	2524.360596	2058.408203	74.091057
749.565308	714.717834	2517.673584	2064.500977	74.865021
749.883545	712.191589	2506.379639	2056.773682	74.940979
750.201782	715.312317	2501.772705	2044.290894	74.391708
750.519836	722.891174	2502.590088	2030.544800	73.476112
750.837952	724.748779	2494.119629	2032.402222	73.904999
751.155884	727.200684	2471.457275	2020.959595	74.172508
751.473877	730.247131	2457.116943	2014.272461	74.355652
751.791809	724.600098	2443.147705	1999.560547	74.188255
752.109619	727.497986	2432.299561	1993.096313	74.237289
752.427490	722.296692	2413.129639	1993.393433	75.175766
752.745300	728.835388	2405.550537	1996.811523	75.622635
753.062988	729.801270	2411.791992	2000.229492	75.531227
753.380615	733.293518	2413.426514	2003.572876	75.605873
753.698303	727.572205	2415.581299	1986.557617	74.584038
754.015808	725.491699	2410.157471	1987.226440	74.895256
754.333374	724.748718	2403.693115	1980.613281	74.800842
754.650757	722.519714	2401.835449	1991.907227	75.589569
754.968262	722.371094	2401.760986	1979.647461	74.865067
755.285583	721.033691	2393.588135	1967.833374	74.544640
755.602905	726.160461	2377.835938	1956.242065	74.474770
755.920105	722.222473	2359.928711	1949.628906	74.946678
756.237305	722.593994	2361.935059	1948.068726	74.754105
756.554443	724.377197	2355.247803	1942.718750	74.704979
756.871582	725.417480	2360.968994	1945.170898	74.577499
757.188599	725.937561	2356.510742	1935.882935	74.203674
757.505615	722.593994	2360.894531	1945.170898	74.624702
757.822510	721.628113	2371.222656	1952.824097	74.636284
758.139465	719.101746	2379.544678	1967.164551	75.164452
758.456238	724.451477	2395.445313	1979.498901	75.107834
758.773010	732.327637	2400.943604	1990.644165	75.410789
759.089783	731.658936	2425.166504	2002.978516	75.070206
759.406433	724.748718	2453.550293	1996.216919	73.546227
759.723145	723.039795	2465.512939	2000.600708	73.318832
760.039673	732.550537	2470.788574	1999.412109	72.881935
760.356201	730.544373	2453.476074	2014.495483	74.521309
760.672668	732.476257	2455.333496	2019.993774	74.731529
760.989136	726.457703	2451.097900	2030.990601	75.640877
761.305481	723.262695	2456.076416	2024.526245	75.095406
761.621826	719.844727	2453.550049	2035.671509	75.896797
761.938049	725.491699	2462.540771	2046.742676	76.062965
762.254333	734.185242	2485.723389	2074.531982	76.523979
762.570496	732.030457	2531.419678	2094.816406	75.736031
762.886597	735.522644	2611.146240	2136.946289	74.717743
763.202637	741.095276	2735.008789	2210.431641	73.691078
763.518677	742.284180	2876.630127	2312.300537	73.559601
763.834656	739.906494	3025.755615	2427.618408	73.833038
764.150574	736.785828	3140.181641	2510.614502	73.805099
764.466370	741.689758	3206.533936	2575.183594	74.385788
764.782288	735.894226	3229.196045	2602.750000	74.874840
765.097961	732.624817	3205.642334	2589.078369	75.068352
765.413696	730.990234	3156.602539	2534.985840	74.372795
765.729309	731.956116	3058.597412	2444.187744	73.592422
766.044861	725.937561	2940.901611	2367.581787	74.116066
766.360474	721.850891	2814.364258	2269.427979	73.957809
766.675903	724.897278	2689.906982	2193.193359	74.722076
766.991394	735.374023	2575.183838	2105.144775	74.451759
767.306763	737.751648	2483.048096	2044.142090	74.852066
767.622131	730.544373	2411.346191	1983.362671	74.536949
767.937378	726.383362	2353.761719	1942.719116	74.742035
768.252625	728.909668	2307.694092	1902.744141	74.350525
768.567810	732.476257	2260.065674	1876.589722	74.896667
768.882996	734.853943	2213.849609	1846.199829	75.141937
769.197998	733.367859	2180.636475	1820.713867	75.130905
769.513062	735.002502	2154.853271	1792.998901	74.514610
769.828064	729.875671	2131.076172	1766.547241	73.984535
770.142944	731.213135	2107.522217	1740.392578	73.325058
770.457825	726.977844	2073.491699	1718.919312	73.667374
770.772705	722.296692	2054.990234	1701.606567	73.483498
771.087402	719.176025	2016.278687	1693.879272	75.144646
771.402100	725.714661	1992.798950	1666.684204	74.262589
771.716736	732.030457	1962.037598	1653.012695	74.876175
772.031372	731.807434	1963.969360	1634.288208	73.243683
772.345947	727.126465	1956.687866	1631.984863	73.591965
772.660461	727.275085	1953.492798	1619.576294	72.768578
772.974854	729.206848	1926.892578	1605.458984	73.162102
773.289246	733.070618	1915.226929	1599.737671	73.312393
773.603638	730.990173	1890.186890	1593.050293	74.367020
773.917908	724.600098	1884.317017	1587.774902	74.429787
774.232178	721.182129	1864.552612	1571.130981	74.337135
774.546265	727.646545	1863.512329	1565.484009	73.762016
774.860474	725.120300	1844.936523	1561.768921	74.713036
775.174561	728.389587	1838.174927	1556.642090	74.631775
775.488586	729.132568	1832.602173	1548.394531	74.244179
775.802551	729.578369	1808.973999	1544.976563	75.542107
776.116516	725.714661	1789.209473	1535.614380	76.154549
776.430359	715.386536	1762.906372	1515.924194	76.422203
776.744202	717.615662	1764.095215	1499.131714	74.680496
777.057922	714.940735	1762.980591	1493.558960	74.292809
777.371704	718.433044	1755.550415	1498.983032	75.261482
777.685303	717.690002	1749.903320	1494.970703	75.302330
777.998962	721.330811	1741.655884	1492.667358	75.597137
778.312500	720.587830	1745.073730	1474.611694	73.600220
778.626038	728.463867	1741.655884	1470.822266	73.269272
778.939453	732.327637	1741.730103	1472.308472	73.308800
779.252869	732.773438	1738.535034	1475.949219	73.891846
779.566223	726.903503	1740.244141	1468.593384	73.192551
779.879578	719.027405	1734.968750	1459.528320	72.888153
780.192749	723.262695	1721.519897	1454.847290	73.286186
780.505920	719.101746	1713.272095	1452.098022	73.729446
780.819031	719.473206	1701.234985	1447.491211	74.154243
781.132141	724.302979	1712.528931	1448.680054	73.300751
781.445190	732.253357	1708.368164	1449.200317	73.449043
781.758118	735.151184	1701.755249	1447.491211	73.695122
782.071045	729.727051	1679.538696	1430.401733	73.769859
782.383911	728.686768	1666.535645	1424.011719	74.140404
782.696838	726.754944	1669.359253	1411.603027	72.654884
783.009583	725.045959	1666.089844	1419.627808	73.809723
783.322266	719.621826	1659.848633	1407.293457	73.138908
783.634888	717.318420	1638.375000	1404.024048	74.556290
783.947510	714.717834	1625.223511	1394.067749	74.612373
784.260132	715.237976	1621.508423	1389.832397	74.436325
784.572571	712.265869	1609.619751	1378.092407	74.198883
784.885010	715.312256	1605.533203	1367.615845	73.274345
785.197449	721.776611	1585.991577	1356.544678	73.450249
785.509766	733.962219	1583.093750	1353.126831	72.917397
785.822083	728.909668	1575.515015	1350.303345	73.398270
786.134277	726.977783	1572.839966	1358.996704	74.718903
786.446533	720.884949	1571.056641	1359.145386	75.074303
786.758606	724.971680	1561.397461	1365.535522	76.583466
787.070740	726.606262	1571.056763	1367.541626	75.899696
787.382690	726.011902	1574.846313	1365.386719	75.323860
787.694641	722.371033	1590.746948	1372.817017	74.903732
788.006653	717.467102	1608.059570	1377.349487	74.094765
788.318481	721.107910	1639.712524	1403.801270	74.318520
788.630310	720.216309	1681.396362	1415.466797	72.333015
788.942017	715.906738	1709.259766	1429.212891	71.807922
789.253784	715.089355	1716.095703	1437.460449	72.164490
789.565430	724.971680	1701.978149	1444.370483	73.632965
789.877014	735.374023	1678.944336	1439.392212	74.612160
790.188538	738.271790	1664.306641	1429.064087	74.596794
790.500061	737.974609	1644.541992	1411.603149	74.305405
790.811462	738.940613	1629.384277	1393.473267	73.506355
791.122925	743.324402	1600.926392	1378.092651	74.016647
791.434204	740.129395	1587.031860	1363.454956	73.600632
791.745483	735.671204	1567.341675	1358.030884	74.832481
792.056702	728.463867	1560.877319	1345.473633	74.122993
792.367920	725.863281	1532.419312	1332.470703	75.209579
792.678955	721.330811	1520.010742	1321.548218	75.151184
792.990112	722.296692	1512.654785	1308.619507	74.184448
793.301086	724.228577	1512.506226	1306.613281	73.880653
793.612122	730.544250	1498.834473	1293.758911	73.307541
793.922974	722.222412	1485.311401	1290.266724	74.440117
794.233826	720.216309	1477.583984	1282.539307	74.247032
794.544556	719.770508	1471.639648	1281.276123	74.681297
794.855286	722.371094	1468.890503	1289.523682	75.972916
795.166016	717.467041	1471.713989	1284.248169	75.145302
795.476624	717.689941	1483.528198	1292.495728	75.055771
795.787292	726.829163	1494.970703	1293.758911	73.805374
796.097778	728.686768	1515.255371	1313.449219	74.343475
796.408264	721.033630	1543.044556	1321.548218	73.054329
796.718689	719.770508	1557.087769	1331.653442	73.076591
797.029053	727.126465	1567.490234	1336.037231	72.458000
797.339355	735.596985	1553.744141	1336.260132	73.417496
797.649658	734.928223	1546.388306	1333.362305	73.747818
797.959839	731.807556	1526.995239	1323.331421	74.387955
798.270020	731.584656	1510.351563	1312.483276	74.592102
798.580078	727.869446	1499.726196	1298.142944	73.883331
798.890137	730.098572	1487.912109	1286.551636	73.428757
799.200195	724.674500	1478.921387	1286.625977	74.504974
799.510071	724.228577	1459.676880	1272.434204	74.540337
799.820007	717.987122	1450.611938	1271.468140	75.547676
800.129883	719.324646	1439.169312	1264.632324	75.753517
800.439575	719.696106	1444.296265	1261.511597	74.774406
800.749329	722.965515	1443.701782	1248.211426	72.876297
801.058960	727.349365	1444.593628	1237.066040	71.065979
801.368591	727.274963	1441.621460	1232.979370	70.792595
801.678162	728.315247	1434.488281	1236.471558	71.959175
801.987671	726.977783	1432.779297	1228.446777	71.049576
802.297119	721.107910	1423.045532	1228.075317	72.223999
802.606506	717.838562	1413.609253	1226.515015	73.109787
802.915894	713.528992	1397.559937	1221.239624	74.223343
803.225159	728.166687	1391.467163	1207.344971	72.241508
803.534424	736.562927	1390.426758	1199.097290	70.738640
803.843628	745.479248	1389.906738	1206.899048	71.601509
804.152771	735.448303	1380.618774	1217.598633	74.732239
804.461792	721.850891	1370.216431	1219.976440	76.827888
804.770874	717.541321	1375.714844	1221.090942	76.507126
805.079773	719.398926	1393.399048	1223.914429	74.853920
805.388733	727.943665	1412.271973	1223.840210	72.464714
805.697571	727.795105	1425.423462	1218.564575	70.348267
806.006470	728.761047	1423.565918	1218.713257	70.516518
806.315125	728.983948	1425.349121	1231.270386	72.129745
806.623901	726.606262	1414.352173	1242.713013	75.043228
806.932495	724.822998	1407.516479	1242.638672	75.848923
807.241150	727.052185	1401.275024	1232.087769	74.906326
807.549622	728.612488	1404.024292	1226.069214	73.652359
807.858154	728.983948	1397.188354	1234.911133	75.714432
808.166565	727.943787	1393.770386	1234.316772	76.051781
808.474915	728.538269	1378.984009	1235.134155	77.884422
808.783264	736.414246	1376.829468	1221.685303	75.774445
809.091492	732.550537	1361.003052	1210.465698	76.046341
809.399719	733.739319	1353.052612	1194.044678	74.325119
809.707825	730.692932	1347.702759	1184.682495	73.578987
810.015930	725.491699	1346.365234	1177.623901	72.821945
810.323975	721.999512	1341.015503	1173.091309	72.872398
810.632080	713.751953	1334.625488	1171.456787	73.719498
810.939880	721.182190	1329.201416	1168.187378	73.518265
811.247864	732.624817	1326.600708	1172.794067	74.105576
811.555664	733.070740	1324.817505	1172.942749	74.334503
811.863464	727.646545	1315.826782	1171.382446	75.442162
812.171143	718.210144	1307.653687	1155.333130	74.158585
812.478882	721.999512	1293.090210	1147.085449	74.434052
812.786438	722.965515	1290.266846	1146.045044	74.577568
813.094055	721.702332	1294.279175	1147.456909	74.357628
813.401489	712.711731	1294.502075	1140.398071	73.512108
813.708984	714.123474	1297.176880	1132.001953	71.670700
814.016357	718.061523	1283.653809	1132.002075	73.187096
814.323730	725.789001	1287.220337	1126.057739	71.294334
814.630981	725.194580	1274.737427	1125.537598	72.850189
814.938232	722.742615	1281.276245	1122.862793	71.637619
815.245361	722.445374	1267.753052	1129.029907	74.560577
815.552490	718.433044	1281.201782	1128.881226	72.933723
815.859619	718.655945	1281.424683	1130.292969	73.144966
816.166565	727.497986	1293.164551	1132.893555	71.666878
816.473572	731.584534	1281.870605	1138.466309	73.940048
816.780457	726.829285	1286.774414	1145.525024	74.774422
817.087341	718.953125	1286.625854	1146.490967	75.314140
817.394043	724.080078	1297.474121	1149.240234	74.147987
817.700806	723.485657	1305.052979	1150.577637	73.438095
818.007507	726.532043	1316.495605	1148.199829	71.473534
818.314209	723.782898	1326.006226	1154.961426	71.597778
818.620667	726.903503	1326.526367	1164.843750	73.035950
818.927246	727.126465	1334.328247	1181.413208	74.816437
819.233704	726.754944	1346.216675	1193.821777	75.398819
819.540161	731.138855	1382.401978	1217.227173	74.637779
819.846497	729.429871	1421.633911	1250.291870	75.246887
820.152832	728.835449	1480.110352	1284.396973	73.949165
820.458984	728.240967	1535.391602	1320.656616	73.395920
820.765259	722.593933	1597.211304	1361.820190	73.086388
821.071350	720.364807	1687.191895	1432.630737	73.670456
821.377502	713.454773	1844.639282	1542.152832	73.259315
821.683472	716.946960	2144.673584	1764.243774	73.354164
821.989441	714.197754	2659.443115	2125.206299	72.536278
822.295349	717.467102	3376.315674	2634.179932	72.088081
822.601196	724.748718	4171.652344	3209.728760	72.093109
822.907043	733.813660	4845.949219	3705.178955	72.258446
823.212769	733.145020	5235.815430	3989.238525	72.314720
823.518494	724.674500	5296.446777	4032.928467	72.362610
823.824097	720.216309	5065.736816	3881.722656	72.753227
824.129700	719.993347	4701.355957	3631.619873	73.131409
824.435242	727.720886	4320.183105	3359.077881	73.246613
824.740723	734.333801	3988.792969	3129.779297	73.605026
825.046082	738.494690	3683.854736	2922.623291	74.154892
825.351501	726.457764	3363.461670	2696.445801	74.705544
825.656799	723.634277	3038.906982	2457.413818	74.884460
825.962036	716.649841	2743.776611	2245.056641	75.397690
826.267212	727.423645	2531.567871	2073.863281	74.630379
826.572449	730.098572	2424.497559	1984.105469	74.008949
826.877502	725.194580	2434.751465	1975.709351	73.148476
827.182495	717.095520	2540.707275	2053.207031	73.267326
827.487488	707.287598	2679.876221	2148.166016	73.045052
827.792419	720.439209	2798.612061	2230.122070	72.644722
828.097290	717.021301	2824.766602	2245.502441	72.517357
828.402100	720.662109	2752.247070	2198.989014	72.767174
828.706848	724.377197	2608.917236	2099.869141	72.988205
829.011597	730.470032	2442.850586	1983.733887	73.188400
829.316223	734.556641	2290.009766	1868.936157	72.929199
829.620789	724.451477	2150.172119	1769.073608	73.269753
829.925354	725.789001	2013.380859	1682.659546	74.314743
830.229797	720.736328	1890.112671	1595.428101	74.799850
830.534302	721.850891	1746.931274	1507.453613	76.638161
830.838562	722.371094	1629.087280	1419.553345	76.890900
831.142944	720.216309	1526.103516	1339.232300	76.811737
831.447144	722.073792	1458.265137	1276.000610	75.242233
831.751404	721.925232	1405.658813	1230.378784	74.364281
832.055542	726.309082	1370.959473	1209.053833	74.884735
832.359619	720.439148	1357.659302	1195.456421	74.545235
832.663635	714.792175	1369.919312	1197.685547	73.709869
832.967651	720.587830	1399.268921	1224.806030	74.293831
833.271545	730.395752	1466.512695	1283.356567	75.118607
833.575439	735.819824	1558.871094	1353.795532	75.083504
833.879211	725.045959	1690.684082	1435.231445	73.545715
834.183044	718.210144	1810.014282	1519.564941	73.397301
834.486694	707.956360	1907.870972	1607.985229	75.007744
834.790344	715.237976	1942.347290	1644.690796	75.743271
835.093933	714.346375	1931.796265	1637.929199	75.862076
835.397522	717.021301	1888.849487	1589.929688	74.491165
835.700928	721.256531	1820.416626	1528.704224	73.460419
836.004395	727.423645	1760.900269	1472.902954	72.133163
836.307739	736.340027	1673.668945	1418.364624	72.762566
836.611023	727.200684	1602.635376	1374.823242	73.977257
836.914307	725.343201	1516.295776	1320.285034	75.218391
837.217529	720.736389	1456.407593	1266.341309	74.164238
837.520691	724.377258	1389.089478	1216.558472	74.044258
837.823730	723.262695	1330.761841	1172.794189	73.997055
838.126831	726.086243	1281.424805	1140.546875	74.632065
838.429749	727.720886	1242.936035	1102.875366	72.815109
838.732727	725.937561	1211.505859	1078.504028	72.609039
839.035522	730.470032	1186.242920	1059.556885	72.204132
839.338379	734.779602	1169.896240	1047.817017	71.943336
839.641113	738.420410	1177.623779	1055.544556	72.204399
839.943848	741.318298	1200.583374	1063.866333	70.231346
840.246460	731.658936	1226.886597	1096.039429	73.578377
840.549072	723.782898	1253.709839	1113.054810	73.457657
840.851563	713.751953	1267.455811	1123.457153	73.993561
841.154053	720.885071	1279.195679	1119.296143	71.360115
841.456482	724.377258	1262.923340	1101.760742	70.074501
841.758850	728.984070	1241.747070	1095.667847	71.511360
842.061157	724.005676	1219.084839	1082.293457	72.369797
842.363403	725.640381	1197.834106	1073.377075	73.642799
842.665588	719.027527	1173.685913	1047.148315	72.168640
842.967712	721.107910	1154.144165	1033.550781	72.151665
843.269775	723.559875	1130.738647	1022.331055	73.375923
843.571777	726.829285	1108.670776	1011.482910	74.547592
843.873840	728.240967	1080.435913	991.495544	74.746834
844.175659	725.789001	1064.163574	968.684570	71.783043
844.477600	727.720886	1046.999756	962.814697	73.632751
844.779297	730.692932	1034.442505	958.579407	75.024460
845.081116	728.612488	1020.919434	955.087158	77.478378
845.382751	726.234802	1013.191895	943.347351	75.660286
845.684387	718.878845	1015.198059	937.403137	73.746246
845.985962	719.027405	1005.984558	926.332031	72.242363
846.287537	724.748718	1000.560364	918.753113	70.339447
846.588989	725.714661	990.381042	911.843018	70.325653
846.890381	733.442139	995.284973	916.672668	69.977295
847.191711	725.045898	998.257141	920.759338	71.634476
847.493042	729.801270	985.922852	916.078308	72.729927
847.794250	724.525879	976.263489	907.979248	72.874832
848.095459	727.572266	967.198486	901.366394	72.527176
848.396606	725.937561	965.341003	899.062927	72.315323
848.697693	725.640442	962.888977	901.143372	73.974297
848.998657	729.504089	959.099426	903.075256	75.598732
849.299622	731.064453	958.133606	908.573669	78.174080
849.600464	736.117126	958.282227	908.647949	77.658829
849.901367	732.104736	957.985046	908.424988	78.059151
850.202087	725.566101	955.978760	905.007141	77.878120
850.502808	716.129578	953.675476	903.743958	78.980263
850.803467	715.386658	951.743591	892.821533	75.070732
851.104065	718.804504	956.721863	888.214783	71.205513
851.404663	727.720886	953.303894	883.013611	68.840614
851.705139	728.761047	958.430847	888.289063	69.459724
852.005615	732.773438	952.709473	888.586243	70.844597
852.306030	733.665039	957.241943	887.471680	68.793617
852.606384	734.556641	957.019043	894.084656	71.710098
852.906616	730.024231	959.025208	890.815369	70.214172
853.206909	729.504089	956.498962	885.093994	68.543358
853.506958	730.767273	944.833435	881.230286	70.288086
853.807129	726.234863	944.981995	885.168274	72.656227
854.107178	721.182190	943.718933	885.688477	73.923203
854.407166	722.668274	943.347351	888.511902	75.151497
854.707092	733.665039	942.232910	888.734863	74.349815
855.007019	725.491699	931.607605	899.880310	84.607063
855.306763	728.240967	941.564148	891.112610	76.349716
855.606567	722.445313	937.848938	888.957825	77.302559
855.906250	726.977844	943.124512	882.270508	71.845970
856.205933	726.829285	934.282410	883.682312	75.608902
856.505493	729.578430	936.585754	883.830872	74.515450
856.805054	727.869446	939.632263	880.561584	72.105263
857.104492	728.983948	945.799316	884.053711	71.521576
857.403931	727.943787	944.981995	880.487244	70.284149
857.703308	742.804260	939.037781	886.134216	73.040504
858.002563	737.008728	933.836609	884.276672	74.820671
858.301819	735.745605	935.991394	883.162109	73.617783
858.601013	728.686768	939.929443	882.567688	72.845566
858.900208	727.497986	943.124329	885.985596	73.501045
859.199219	728.389465	943.644531	889.032043	74.628944
859.498291	727.126465	949.291565	883.830872	70.535110
859.797302	729.281250	955.087219	868.747375	61.763702
860.096191	726.680664	945.130615	863.323303	62.551006
860.395020	723.114075	938.369080	863.174805	65.067352
860.693787	723.708496	927.297913	867.707214	70.729965
860.992554	724.228699	930.864502	874.022949	72.491913
861.291260	728.018066	925.143127	875.657532	74.896347
861.589844	715.237976	923.731384	876.252014	77.227402
861.888428	712.711731	921.502380	868.153015	74.448395
862.186890	718.655945	923.062683	867.632874	72.882591
862.485413	729.652649	919.719055	870.233459	73.964050
862.783813	735.671204	919.496155	875.137451	75.869049
863.082153	726.829163	926.480652	876.326355	74.879074
863.380371	728.538147	932.499207	882.493469	75.482704
863.678589	718.358704	933.242188	890.518127	80.117569
863.976746	714.569275	927.372314	888.660583	81.808655
864.274902	712.414551	933.093506	886.802979	79.023590
864.572937	718.953125	929.378418	882.344788	77.648300
864.870911	716.203918	934.356689	885.019714	77.384209
865.168884	718.061523	935.099792	882.790588	75.898628
865.466736	714.717834	946.839600	881.378906	71.798988
865.764587	724.674500	941.935608	875.880432	69.596413
866.062317	724.080017	935.396973	880.189941	73.874771
866.360107	728.835449	934.876770	871.942383	69.455452
866.657715	729.281250	936.883057	874.171448	69.792358
866.955322	726.309082	939.780823	864.214905	64.601440
867.252808	724.600098	937.105957	869.564697	68.216751
867.550293	720.364929	938.369080	873.576965	70.279411
867.847717	729.281250	935.471252	879.001160	72.612595
868.145081	731.213074	930.270020	878.555359	74.020164
868.442383	732.996338	935.174011	874.320068	69.900757
868.739624	723.485596	937.848938	869.564758	68.145592
869.036804	722.668213	941.935547	874.245850	69.129150
869.333984	723.708496	936.511475	879.447083	73.184402
869.631042	725.120300	940.226563	889.849426	76.580345
869.928101	718.507324	945.799316	894.827637	77.574364
870.224976	722.668274	949.663086	888.586243	73.093285
870.521851	725.045898	942.307068	885.614075	73.905602
870.818726	732.253357	936.362854	881.676086	73.207146
871.115479	727.052063	936.288574	893.341614	79.474442
871.412231	732.699158	943.941833	887.768860	73.408318
871.708862	730.470032	941.712708	883.459412	72.423523
872.005493	731.138855	943.050110	874.691650	67.741943
872.302063	724.748779	942.455627	881.304626	71.911308
872.598572	726.531982	943.198730	886.431458	73.799728
872.895020	730.692932	944.090332	894.381897	76.706169
873.191406	734.259460	940.672546	888.289063	74.622017
873.487671	732.179016	944.833313	886.728760	72.676521
873.783997	735.151184	942.678650	879.372742	69.495163
874.080200	736.414307	945.725037	881.304504	69.222534
874.376343	734.408142	954.344177	879.967102	66.182404
874.672424	730.024231	953.155273	884.796814	69.363983
874.968445	720.141907	958.728027	885.911316	69.479904
875.264465	721.999512	960.065430	887.397461	69.475693
875.560364	722.742615	967.049988	884.648193	66.271263
875.856201	732.401917	964.375061	888.214783	67.168495
876.152039	735.671204	949.143066	885.316895	70.100899
876.447754	733.888000	950.777649	885.911377	70.092499
876.743469	731.956116	952.932434	890.666687	71.822433
877.039063	734.482422	962.888977	894.976257	70.266739
877.334595	731.956238	954.344055	895.570618	73.571648
877.630127	727.052063	945.427795	898.542786	78.530121
877.925537	721.702332	946.393738	903.966858	81.117714
878.221008	721.999512	959.916809	906.716064	77.638977
878.516296	721.256531	974.108643	907.756348	73.758461
878.811646	718.655945	981.984802	909.836731	72.601532
879.106812	719.919006	981.613281	915.483704	74.730217
879.401978	722.371033	991.718445	917.787170	72.551704
879.697083	727.795105	1010.665527	931.830383	72.130295
879.992126	727.572266	1044.176147	951.817871	70.828445
880.287109	729.132568	1081.699097	981.093201	71.464706
880.582031	727.497864	1141.141235	1020.547852	70.846046
880.876892	726.829285	1255.641602	1105.327271	71.575111
881.171753	726.457703	1465.695679	1257.722168	71.866501
881.466492	733.293640	1784.157227	1482.339478	71.279076
881.761230	736.711487	2160.574707	1757.259399	71.674576
882.055786	731.807556	2526.812744	2012.786499	71.363525
882.350403	717.318420	2775.057861	2203.224365	72.210602
882.644958	717.689941	2875.738281	2282.802490	72.524445
882.939453	729.504089	2826.475342	2263.409424	73.148613
883.233826	735.299744	2706.847900	2197.503174	74.165237
883.528137	733.145020	2567.381836	2097.343018	74.374146
883.822449	730.024231	2455.630615	2007.139526	74.009644
884.116577	725.714661	2333.699707	1910.471680	73.679604
884.410828	727.497986	2222.468506	1828.812866	73.668007
884.704956	718.804504	2075.720703	1728.652710	74.422295
884.999023	721.107910	1916.044312	1601.669434	73.691078
885.292969	721.553711	1722.411499	1460.568726	73.838165
885.586914	722.965515	1553.001099	1335.442749	73.789276
885.880798	722.593994	1423.491333	1231.567505	72.617409
886.174622	718.655945	1331.133179	1162.911987	72.534294
886.468384	715.386536	1251.034912	1103.395386	72.437233
886.762085	718.135803	1192.187134	1072.856934	74.827576
887.055664	712.711670	1156.521851	1047.668335	75.472954
887.349304	712.563171	1128.138184	1023.965820	74.932961
887.642822	714.717834	1108.447998	1009.476807	74.863190
887.936340	717.318420	1080.881714	981.613281	72.695694
888.229736	720.364929	1057.550659	965.712402	72.763306
888.523071	716.203918	1037.711792	942.381348	70.348953
888.816284	714.494934	1023.742920	931.904724	70.302734
889.109619	719.844788	1019.359070	929.675720	70.057068
889.402710	726.309082	1012.448914	925.737610	69.696182
889.695862	732.550598	998.479980	915.781067	68.901924
889.988892	735.968445	989.860840	908.722351	68.042175
890.281921	743.175720	986.145691	908.796570	68.165154
>>>>>End Processed Spectral Data<<<<<
