Jaz Data File
++++++++++++++++++++++++++++++++++++
Date: Fri Jun 04 16:45:01 2021
User: jaz
Dark Spectrum Present: Yes
Reference Spectrum Present: Yes
Processed Spectrum Present: Yes
Spectrometers: JAZA3586
Integration Time (usec): 60600 (JAZA3586)
Spectra Averaged: 10 (JAZA3586)
Boxcar Smoothing: 1 (JAZA3586)
Correct for Electrical Dark: No (JAZA3586)
Strobe/Lamp Enabled: Yes (JAZA3586)
Correct for Detector Non-linearity: No (JAZA3586)
Correct for Stray Light: No (JAZA3586)
Number of Pixels in Processed Spectrum: 2048
>>>>>Begin Processed Spectral Data<<<<<
W	D	R	S	P
191.335022	0.000000	0.000000	0.000000	0.000000
191.713211	232.493210	234.870911	237.248596	199.999359
192.091385	473.456940	475.314545	474.274261	43.998684
192.469528	711.374268	717.838623	717.467041	94.251831
192.847641	721.033630	726.829285	718.804504	-38.462025
193.225739	724.451599	734.110840	730.915833	66.922791
193.603790	736.042725	744.959045	733.293640	-30.832050
193.981842	747.039551	755.361511	747.336731	3.571036
194.359863	754.246887	760.488464	743.324463	-174.994629
194.737854	757.367676	759.893982	752.240723	-202.942673
195.115829	756.401672	756.401672	747.856873	0.000000
195.493774	757.367676	752.983826	747.782532	218.646713
195.871704	756.773254	751.646301	749.937317	133.333328
196.249603	758.556458	750.754700	757.144714	18.095194
196.627457	758.259277	756.847473	766.061035	-552.609070
197.005310	753.949707	758.556458	764.203430	222.580383
197.383133	750.085999	758.927979	759.745300	109.243652
197.760910	746.222351	754.321228	769.627625	288.994049
198.138687	744.290344	752.092224	769.924805	328.567749
198.516449	742.952942	748.822754	770.890686	475.956360
198.894180	746.742371	747.782532	760.339661	1307.229248
199.271866	757.590515	744.067444	750.754700	50.549282
199.649536	756.030212	737.231689	752.017883	21.343853
200.027191	751.794922	740.723877	748.971436	25.503342
200.404816	744.736145	748.005554	755.138611	318.175720
200.782410	741.838379	768.958801	756.773193	55.068516
201.159988	745.404846	780.104309	766.878418	61.884449
201.537537	744.290344	791.249695	771.410889	57.753235
201.915070	754.989929	783.968018	770.221985	52.564045
202.292557	752.240723	779.212646	760.637024	31.129782
202.670029	753.355286	767.472839	756.178711	19.999395
203.047485	744.290283	769.850525	756.104492	46.221039
203.424911	742.729980	773.788574	761.008484	58.851677
203.802292	742.729980	777.800964	761.751465	54.237099
204.179688	738.940613	783.447937	759.002258	45.074932
204.557037	741.318298	781.070251	748.228333	17.382879
204.934357	736.488525	786.642883	753.280945	33.481476
205.311661	740.723816	781.887512	750.903320	24.729326
205.688934	734.853821	779.064148	759.893982	56.638714
206.066177	730.098572	777.503723	757.293274	57.366554
206.443390	726.309082	770.890808	760.859863	77.499870
206.820587	731.807556	764.352112	761.677246	91.780914
207.197769	741.021057	764.797913	754.098328	55.000000
207.574921	734.853943	775.200256	757.293274	55.616806
207.952042	723.931396	775.571777	752.315125	54.964211
208.329147	715.832458	773.862793	759.150940	74.647995
208.706223	748.822815	793.255859	778.246765	66.220871
209.083267	752.389343	799.794495	780.773010	59.874645
209.460297	758.407898	802.766602	779.955750	48.576378
209.837280	725.789001	784.711121	750.085938	41.235680
210.214264	728.909729	778.023743	750.531738	44.024113
210.591217	730.990234	770.296326	747.336731	41.587692
210.968124	737.974609	769.701843	754.841370	53.161774
211.345016	739.906494	774.234314	754.469788	42.424171
211.721893	734.333801	774.308655	753.652527	48.327194
212.098724	731.658875	761.825867	755.510071	79.063889
212.475555	731.213074	764.352112	761.008484	89.910301
212.852356	736.191406	768.215820	767.249939	96.983925
213.229126	740.872375	778.915466	766.432617	67.187607
213.605865	742.358459	775.125977	759.745300	53.061211
213.982590	733.888000	766.581238	763.014648	89.090744
214.359283	740.055176	761.231384	765.318054	119.298401
214.735931	732.476257	761.825745	760.191101	94.430420
215.112579	736.117004	777.355042	757.516296	51.892120
215.489197	729.132629	779.361267	755.881592	53.254406
215.865799	731.436035	777.726563	759.373779	60.353046
216.242355	737.454529	769.553284	754.915588	54.397934
216.618896	737.900330	765.020813	752.166443	52.602726
216.995407	740.055115	762.420227	756.773193	74.750702
217.371902	736.488586	764.426453	760.636902	86.435791
217.748367	732.104736	764.129150	759.299500	84.918846
218.124802	728.909668	767.695618	758.482178	76.245422
218.501236	728.612488	756.698914	756.921814	100.793625
218.877609	733.070618	759.150879	768.735901	136.752014
219.253983	733.442139	757.739197	767.249939	139.143600
219.630295	727.943665	767.770020	763.534851	89.365913
220.006592	731.138733	776.612000	751.794922	45.424908
220.382889	728.835266	775.348938	749.565918	44.568943
220.759140	729.578369	773.045593	751.126160	49.572502
221.135391	728.389587	763.386230	753.652405	72.186401
221.511581	737.454529	770.147705	753.875427	50.227295
221.887772	744.959167	774.011475	759.745300	50.894867
222.263931	743.547363	778.915466	761.231445	50.000088
222.640060	736.414307	778.023865	760.414063	57.678467
223.016159	731.733215	769.627502	762.494446	81.176430
223.392212	731.807434	767.770020	760.934143	80.991699
223.768265	734.556641	767.324219	760.265442	78.458046
224.144302	737.305908	770.221985	754.544128	52.370216
224.520294	737.528809	770.073425	755.138489	54.109348
224.896286	743.027161	768.810303	760.711243	68.587769
225.272217	737.603088	772.599792	758.259277	59.023239
225.648148	733.962219	774.160156	755.212891	52.865078
226.024048	726.011902	778.915466	748.302734	42.134842
226.399902	726.309082	781.887512	752.909485	47.861019
226.775772	725.045959	781.738953	751.051941	45.871597
227.151581	731.956055	776.834961	762.568848	68.211983
227.527374	728.538147	766.655518	762.568848	89.278717
227.903137	737.900391	761.825867	761.602844	99.067848
228.278870	741.912781	762.568848	755.510071	65.827103
228.654572	748.005554	771.187988	751.423523	14.743787
229.030273	743.844543	774.903076	759.522461	50.478615
229.405930	731.064453	774.085754	759.522461	66.148643
229.781555	726.829163	767.844299	754.172668	66.666862
230.157181	719.696106	767.027039	754.989990	74.568329
230.532761	719.250305	764.352051	755.212891	79.736572
230.908325	715.980957	772.079590	755.435791	70.331184
231.283859	726.234802	769.107422	753.503906	63.604939
231.659332	731.436035	769.776184	752.463684	54.844986
232.034821	740.055115	758.110657	757.887756	98.765472
232.410263	727.423645	765.763855	758.482178	81.007729
232.785690	735.151123	767.695740	757.218994	67.808052
233.161087	734.482422	775.571777	750.457458	38.878773
233.536469	742.730042	771.856689	747.931152	17.856880
233.911804	741.021057	777.577942	755.807312	40.447250
234.287140	733.442200	772.896912	767.695740	86.817360
234.662430	735.076843	772.228210	763.980652	77.800117
235.037704	734.036560	764.500732	754.915710	68.536736
235.412933	738.791992	771.485168	746.073669	22.272774
235.788162	732.179016	772.822693	750.754700	45.703747
236.163345	733.293640	773.342773	759.150879	64.563789
236.538513	734.854004	771.410889	762.791687	76.422493
236.913635	732.773438	770.221985	759.299500	70.833351
237.288742	726.160461	775.200378	754.246887	57.272579
237.663834	724.228699	776.537781	752.835144	54.687340
238.038879	732.847717	775.348877	754.692688	51.398529
238.413910	735.671204	776.760559	753.726807	43.942287
238.788910	740.426575	775.125977	756.921814	47.537533
239.163879	737.603027	783.224915	752.463684	32.573524
239.538834	730.247131	780.550049	756.104492	51.403301
239.913757	728.315247	779.435547	755.658691	53.488426
240.288651	731.138733	774.903015	760.785583	67.742119
240.663528	736.562805	773.639954	763.014648	71.342712
241.038361	731.138733	774.085754	765.689514	80.449776
241.413177	721.850891	773.416992	771.930969	97.118217
241.787979	715.906738	774.234375	768.587341	90.318428
242.162735	718.210144	772.302429	765.912415	88.186829
242.537476	720.810730	775.200195	757.367676	67.213287
242.912170	718.210144	773.491272	756.327454	68.951759
243.286865	722.965515	769.999023	758.259277	75.039612
243.661514	728.761047	764.797852	766.061035	103.505257
244.036148	734.631042	769.627625	771.559509	105.520210
244.410751	734.928223	773.565674	773.194153	99.038445
244.785339	725.120300	773.342773	767.324219	87.519188
245.159882	729.949951	773.491394	766.061035	82.934975
245.534378	730.990173	783.522217	764.203430	63.224758
245.908890	736.191406	790.952454	762.940369	48.846695
246.283356	727.200684	784.265198	760.042664	57.552368
246.657791	727.423645	782.184753	755.212891	50.746315
247.032196	734.333801	780.327209	763.386230	63.166508
247.406586	737.305969	782.704834	762.866028	56.301098
247.780960	731.361633	779.138367	764.723633	69.828964
248.155289	726.754883	781.887512	764.054871	67.655014
248.529602	721.330811	786.271423	765.095154	67.391335
248.903870	726.309082	782.779114	764.277771	67.236885
249.278122	724.971619	783.968018	758.779358	57.304752
249.652344	734.482361	783.893738	753.726807	38.947399
250.026550	730.618652	788.351807	751.646301	36.422138
250.400711	739.757874	787.014404	751.349121	24.528351
250.774857	740.426575	783.819336	750.308899	22.774132
251.148987	740.055115	782.556213	749.045715	21.153807
251.523071	732.030334	775.274597	747.931152	36.769775
251.897125	732.327637	788.500488	751.126221	33.465603
252.271164	729.801331	791.918396	762.271667	52.272812
252.645187	728.240967	800.314636	757.887695	41.133923
253.019165	721.405090	795.187744	759.893860	52.165066
253.393112	727.572266	799.348633	760.636902	46.066189
253.767044	731.361633	795.930725	759.373779	43.383213
254.140930	729.578430	793.627380	758.630859	45.359726
254.514801	727.126465	785.899902	751.646301	41.719250
254.888657	720.736389	788.426208	762.345886	61.470837
255.262466	724.674500	781.738953	765.169434	70.963501
255.636276	726.160461	787.608887	768.364441	68.681953
256.010010	731.956055	795.113464	760.859863	45.764713
256.383759	737.157227	798.605652	754.172607	27.690508
256.757446	739.609192	800.166016	751.349121	19.386633
257.131134	737.305908	796.153625	756.030212	31.818233
257.504791	735.596924	797.193848	767.324219	51.507919
257.878418	731.658875	797.268250	766.952637	53.793777
258.252014	727.795166	799.794495	762.717468	48.503651
258.625580	721.107910	799.794495	756.698914	45.231350
258.999115	723.782776	799.868835	761.008362	48.925632
259.372650	730.618652	795.039124	770.370605	61.707020
259.746124	735.522644	808.933777	767.027039	42.915009
260.119598	729.801331	816.215393	761.528564	36.715359
260.493042	733.590759	827.658020	758.110596	26.066280
260.866425	734.705322	827.137878	760.265442	27.652723
261.239838	731.510315	824.314270	758.705078	29.303453
261.613159	721.256531	819.707520	759.522461	38.868000
261.986511	723.114075	814.877930	753.949707	33.603245
262.359802	738.123230	817.181335	754.321228	20.488726
262.733063	738.271912	815.472351	749.565857	14.629379
263.106293	736.042786	811.682861	757.441895	28.290703
263.479523	731.510254	813.243347	754.915710	28.636450
263.852692	740.575195	809.528137	755.658691	21.875057
264.225861	737.454529	814.655090	758.333496	27.045097
264.598969	740.500977	809.008057	761.825745	31.127831
264.972076	731.584656	815.175232	761.825745	36.177628
265.345154	732.550476	817.404297	750.754639	21.453556
265.718201	727.274963	818.815918	746.816650	21.347481
266.091217	737.528809	825.949036	749.342957	13.361363
266.464203	741.095276	830.110046	753.578125	14.023346
266.837158	733.590759	832.339050	757.144714	23.852520
267.210114	723.559875	829.292664	756.253113	30.920624
267.583038	722.519714	821.342285	756.624695	34.511326
267.955902	730.470032	824.834473	757.739197	28.897713
268.328766	731.138855	823.274109	762.494446	34.032131
268.701569	734.928223	830.630127	762.494568	28.804386
269.074371	737.008728	832.041931	772.005188	36.825508
269.447144	741.318176	837.837463	774.085754	33.949253
269.819885	739.832214	847.794006	781.887512	38.953873
270.192596	734.631042	849.577332	777.577942	37.362579
270.565277	739.832214	855.595764	775.571777	30.872898
270.937927	737.900208	853.961182	768.438782	26.312527
271.310577	737.974609	863.992004	762.271667	19.280718
271.683136	735.968445	863.620422	758.853699	17.927849
272.055725	724.525818	877.589355	755.435730	20.194170
272.428284	729.652771	889.626465	759.670959	18.764452
272.800812	739.312073	895.199219	757.664795	11.773083
273.173279	753.652527	893.341614	764.500732	7.765965
273.545776	751.572021	885.316895	764.575012	9.722235
273.918152	736.785828	887.991882	766.209656	19.459425
274.290558	731.956116	880.190002	762.940247	20.902191
274.662964	730.395752	876.549133	764.129150	23.080820
275.035278	731.510315	877.812317	763.609070	21.940065
275.407593	729.950012	879.521301	768.513000	25.782347
275.779907	737.231628	885.688477	767.249817	20.220144
276.152161	738.049011	883.830872	764.277771	17.991785
276.524384	742.507141	889.552185	761.974426	13.238995
276.896606	730.618652	889.329285	758.556458	17.602983
277.268799	725.194519	889.849365	766.283997	24.954916
277.640930	718.061462	901.514954	759.373840	22.519264
278.013031	720.216309	912.883301	763.088928	22.252188
278.385162	723.931396	920.759338	756.030212	16.308058
278.757233	727.795166	916.375488	764.277832	19.345957
279.129272	725.268860	912.511719	758.779358	17.896811
279.501282	725.640442	916.895508	764.054871	20.085443
279.873230	722.296692	920.907898	767.398438	22.708561
280.245178	722.371094	927.149353	769.181702	22.859169
280.617126	726.903503	938.443359	765.986633	18.475540
280.988983	737.603088	945.279236	759.745300	10.661895
281.360870	748.154053	958.430847	758.927917	5.123659
281.732697	747.039551	971.359436	756.401672	4.173559
282.104492	746.816650	984.288147	758.110657	4.755942
282.476288	742.432800	986.145691	764.352051	8.993882
282.848053	738.271912	991.792786	771.782410	13.218043
283.219757	736.637207	999.371582	767.621399	11.792973
283.591461	735.448425	1004.424133	763.906250	10.580072
283.963135	734.036621	1000.634705	757.739075	8.890707
284.334747	730.618652	1007.024719	751.572021	7.580647
284.706360	733.962341	1021.811035	751.423401	6.066055
285.077942	738.197510	1034.368164	754.618469	5.544425
285.449524	736.785828	1040.015259	761.157043	8.037220
285.821014	736.785828	1047.073853	755.955872	6.178145
286.192535	740.278015	1058.888062	754.989929	4.617530
286.563995	743.770264	1065.055176	758.482178	4.579086
286.935425	736.265686	1069.439087	761.082764	7.448697
287.306824	735.076843	1064.312134	758.333557	7.063858
287.678223	730.172852	1065.575317	765.541016	10.544992
288.049561	726.977844	1063.717773	765.169434	11.341568
288.420898	721.776672	1065.278198	762.123047	11.745617
288.792145	728.686829	1067.804321	751.423401	6.704630
289.163452	738.569031	1068.621704	764.129211	7.744273
289.534668	729.504150	1076.275024	775.646179	13.306201
289.905914	723.857117	1090.243774	777.726624	14.702911
290.277039	716.426941	1115.952515	769.924805	13.390347
290.648193	727.349365	1135.196899	768.958801	10.202204
291.019318	735.225403	1150.874756	764.277649	6.989604
291.390381	731.584534	1153.401001	761.082703	6.993129
291.761475	727.497864	1157.487671	757.367615	6.946619
292.132507	721.405090	1147.754028	766.729736	10.630880
292.503510	730.098572	1143.890503	775.646057	11.007340
292.874481	738.569031	1145.450806	784.488098	11.285604
293.245422	736.488586	1145.079224	782.110352	11.165642
293.616364	735.448303	1150.429077	778.692444	10.420757
293.987213	725.045898	1164.175049	773.045471	10.930628
294.358093	726.234802	1189.289429	769.924805	9.435172
294.728943	727.423645	1212.992065	767.547119	8.263197
295.099731	728.538147	1231.121826	761.305664	6.519813
295.470490	731.435974	1243.307495	765.392273	6.633754
295.841248	724.748779	1259.356812	765.689514	7.658084
296.211975	725.863281	1269.907837	765.020813	7.197486
296.582642	719.398926	1292.941650	766.135437	8.148741
296.953308	719.993347	1321.845337	756.550293	6.074076
297.323883	725.714661	1338.489380	759.150879	5.456527
297.694519	725.714661	1352.904053	752.017822	4.193815
298.065063	733.665039	1352.458130	763.014648	4.743041
298.435608	726.977844	1351.863647	760.934143	5.434000
298.806122	733.590759	1329.572876	766.432556	5.510534
299.176575	731.658875	1305.721802	763.088928	5.475019
299.547028	732.773376	1285.734253	763.906250	5.630213
299.917450	734.036621	1284.173950	761.305664	4.956770
300.287872	734.333801	1278.675537	761.602844	5.009545
300.658234	739.386414	1277.783813	760.339783	3.891804
301.028564	727.349304	1273.845825	769.330383	7.681857
301.398865	722.296814	1280.235840	767.770020	8.150210
301.769135	720.290588	1286.477295	772.005188	9.133842
302.139374	731.064453	1286.180054	759.373840	5.099728
302.509583	732.030457	1279.344238	762.420227	5.552532
302.879791	735.002502	1280.533081	767.472839	5.952065
303.249939	728.686829	1287.369019	771.336609	7.633997
303.620087	734.556702	1289.078003	777.726563	7.785068
303.990173	728.612488	1289.375122	774.680176	8.215185
304.360260	732.922058	1287.814819	779.212646	8.342258
304.730286	725.343079	1291.009766	777.503662	9.221081
305.100281	724.822998	1305.201538	775.200378	8.680090
305.470276	723.931335	1309.511108	774.234375	8.590297
305.840179	730.024231	1325.932007	771.262207	6.920194
306.210144	730.990234	1327.417969	777.503662	7.798669
306.579987	729.875671	1335.294067	778.989746	8.112418
306.949890	730.470032	1344.804810	767.918640	6.095798
307.319702	739.534973	1354.315796	759.819580	3.299486
307.689484	733.888000	1367.615845	762.197266	4.467102
308.059265	740.723816	1384.631226	766.952698	4.073393
308.429016	738.866211	1411.157227	766.506836	4.111408
308.798737	744.141785	1441.101196	757.590515	1.929629
309.168396	736.339905	1464.878296	766.358215	4.120347
309.538055	732.030457	1477.732544	769.256104	4.992027
309.907684	731.510315	1496.605469	776.017639	5.817227
310.277313	733.144958	1502.326660	775.497559	5.506189
310.646851	737.603088	1507.007813	774.011475	4.732020
311.016388	739.609314	1514.586548	765.169434	3.298177
311.385895	738.197510	1523.057129	761.305664	2.944240
311.755371	734.408142	1534.574097	760.934143	3.315063
312.124817	736.339905	1533.608032	766.061035	3.727871
312.494232	733.887939	1535.540039	768.884583	4.365565
312.863617	730.172852	1531.750610	766.506897	4.532816
313.232971	720.662109	1521.199585	767.324219	5.828847
313.602295	720.067688	1518.524780	759.150879	4.894839
313.971619	720.067688	1534.722656	757.293274	4.569491
314.340820	721.702332	1544.902222	759.968262	4.648437
314.710083	719.770508	1562.660522	770.296204	5.994340
315.079285	718.804504	1563.849487	780.252869	7.271609
315.448486	724.748779	1585.694336	775.348877	5.877270
315.817596	727.052063	1582.053589	768.141541	4.805779
316.186707	731.287415	1573.731812	763.757629	3.854286
316.555786	731.807556	1546.908203	768.810303	4.539654
316.924866	732.847717	1531.230469	769.479004	4.588186
317.293884	735.819824	1529.521484	775.274597	4.970983
317.662872	734.259460	1542.078735	771.559387	4.617360
318.031830	736.934387	1548.468750	773.194092	4.468043
318.400757	735.522644	1553.892700	758.110657	2.760122
318.769684	734.482422	1564.443726	755.955872	2.587283
319.138550	724.525818	1577.075195	757.516174	3.869612
319.507416	716.278259	1599.366089	768.735901	5.940252
319.876190	720.662109	1605.013062	769.850403	5.562078
320.244995	734.408142	1605.235962	774.011414	4.547773
320.613770	737.380188	1582.870972	774.903076	4.438001
320.982483	738.197510	1565.484009	787.237305	5.927789
321.351166	732.921936	1557.087891	777.949463	5.463405
321.719818	738.420410	1548.320190	775.720398	4.605506
322.088440	736.339905	1559.465454	764.649231	3.439248
322.457062	735.225403	1573.731567	774.085693	4.634467
322.825623	736.339905	1601.817993	776.240540	4.610242
323.194183	733.367859	1620.913940	782.704895	5.558814
323.562653	734.259521	1658.065308	787.237366	5.734738
323.931183	726.532043	1690.758423	785.751282	6.141632
324.299591	725.120300	1739.055176	779.732727	5.386187
324.668060	721.776611	1760.974609	770.147705	4.654656
325.036407	717.541321	1786.980469	772.228210	5.113605
325.404755	717.764343	1797.160034	769.107422	4.756650
325.773102	713.677673	1811.797485	768.290100	4.973267
326.141388	720.513489	1822.422729	766.061035	4.133512
326.509674	714.643555	1831.784790	765.615234	4.562689
326.877899	721.479431	1843.896362	764.054932	3.793198
327.246124	717.838562	1849.171753	762.123047	3.914362
327.614288	723.336975	1853.852905	761.602844	3.384815
327.982422	722.148132	1849.989258	767.918640	4.058241
328.350525	728.389587	1845.753906	776.463440	4.302433
328.718628	732.030457	1841.592896	779.509827	4.279107
329.086700	734.556641	1834.162720	769.999023	3.223189
329.454712	733.070618	1837.060547	769.107422	3.264233
329.822693	734.333801	1849.766113	773.714172	3.530503
330.190674	726.977844	1868.639160	782.184753	4.835664
330.558563	725.194519	1886.174438	778.543884	4.595201
330.926483	724.897400	1901.183594	774.011414	4.175346
331.294312	729.429871	1923.251587	772.674011	3.622328
331.662231	733.367859	1945.245239	767.992920	2.857142
332.029999	736.562805	1968.873535	767.324219	2.496238
332.397766	743.250183	1986.334595	771.262207	2.253429
332.765503	744.438965	2020.662476	777.875183	2.619934
333.133240	746.519348	2052.909912	787.385986	3.128210
333.500916	742.358459	2091.993164	780.104248	2.796741
333.868561	741.318176	2101.355225	778.395325	2.726187
334.236176	737.751709	2102.841553	765.689514	2.046591
334.603790	732.550537	2107.745117	770.370605	2.750161
334.971344	727.572266	2111.163330	767.026917	2.851612
335.338867	722.371094	2117.181641	769.330322	3.366710
335.706360	721.702332	2117.181641	765.243713	3.120174
336.073853	721.553711	2118.221924	759.968201	2.750438
336.441284	723.634216	2126.766846	759.373840	2.547131
336.808655	728.018066	2115.398438	754.321228	1.895887
337.176086	727.572266	2095.856689	756.698975	2.128703
337.543396	729.058289	2051.572266	763.460449	2.601270
337.910706	730.247131	2024.377563	772.228210	3.243961
338.277954	732.401917	2044.290649	772.005371	3.018812
338.645264	727.646545	2117.999023	770.890808	3.110309
339.012421	726.011902	2220.313965	765.020813	2.610511
339.379669	734.631042	2302.641357	774.828796	2.563616
339.746796	737.380188	2360.597412	771.262207	2.087337
340.113953	739.906494	2380.584717	771.633789	1.933791
340.481018	733.367859	2393.810791	763.460449	1.812323
340.848114	734.556641	2386.380615	758.184998	1.430440
341.215118	728.686707	2387.420898	763.757751	2.114326
341.582153	735.596924	2398.269043	762.643066	1.626667
341.949066	736.265625	2423.829102	769.701843	1.981331
342.316010	744.216003	2450.652344	769.776184	1.497869
342.682922	736.488586	2455.036377	778.543945	2.447145
343.049835	737.528809	2457.562500	780.995911	2.527107
343.416656	734.705322	2478.292725	780.104309	2.603769
343.783478	735.671204	2527.629883	773.416992	2.106398
344.150269	736.860046	2592.644531	775.646057	2.090006
344.516998	734.705322	2651.864014	772.376770	1.964962
344.883728	737.380188	2707.368408	776.166199	1.968845
345.250427	729.504150	2748.457764	773.565674	2.182394
345.617065	730.990173	2776.766846	770.890686	1.950385
345.983704	726.754944	2789.101563	769.776184	2.086033
346.350281	731.287415	2780.184814	765.466614	1.668175
346.716827	733.590820	2770.897217	767.844299	1.681312
347.083405	724.971619	2756.185547	770.147705	2.224093
347.449860	737.825989	2747.566406	782.184753	2.207189
347.816376	737.677429	2722.823486	790.209473	2.646256
348.182770	749.194336	2706.179443	784.785339	1.818665
348.549194	732.550537	2703.355713	775.274597	2.167848
348.915558	732.327637	2721.783203	773.714172	2.080295
349.281921	729.727051	2748.160400	776.389160	2.311798
349.648193	728.240967	2759.454834	772.896973	2.198489
350.014526	720.364807	2790.884766	773.194153	2.551501
350.380737	715.163757	2813.769531	772.822571	2.747482
350.746948	716.055359	2855.304932	780.401550	3.007886
351.113159	722.742493	2868.382080	777.577942	2.555669
351.479309	728.092346	2905.310547	779.361267	2.354790
351.845428	729.206848	2930.721924	776.463379	2.146546
352.211517	726.606262	2972.406006	776.686340	2.229944
352.577576	725.343201	2998.857666	779.807068	2.395581
352.943604	730.767334	3033.334229	782.184753	2.233048
353.309601	733.293640	3063.426758	773.268372	1.715556
353.675537	730.692932	3110.906250	775.646179	1.888623
354.041473	728.761047	3169.679688	767.101379	1.570734
354.407379	724.451477	3246.508545	775.125977	2.009253
354.773254	727.497864	3320.440186	774.828796	1.825375
355.139038	721.999512	3392.513672	777.726563	2.086754
355.504913	725.268860	3464.067139	774.754395	1.806834
355.870636	727.795166	3530.270752	770.370605	1.519208
356.236389	739.312073	3608.808594	774.159973	1.214426
356.602081	740.872498	3683.037354	772.599670	1.078362
356.967804	739.980774	3761.055420	771.930969	1.057577
357.333405	731.584656	3832.757080	765.169434	1.082970
357.699036	733.144958	3928.756592	769.033203	1.123048
358.064606	733.219238	4038.501221	765.392334	0.973384
358.430176	734.705261	4137.026855	771.410889	1.078841
358.795654	732.773438	4203.750488	773.862793	1.183798
359.161163	728.686829	4199.069824	773.862793	1.301757
359.526581	726.011963	4174.252930	772.302490	1.342439
359.892029	727.423645	4179.230957	774.903015	1.375493
360.257416	725.714661	4270.400391	787.683105	1.748207
360.622772	726.903564	4427.104980	793.998840	1.813287
360.988098	722.816895	4578.459473	790.506653	1.755602
361.353394	728.092285	4752.402344	777.132141	1.218590
361.718658	733.887939	4895.211914	775.646057	1.003482
362.083893	731.287415	5043.445801	782.407654	1.185491
362.449097	734.185242	5158.986328	789.317810	1.245990
362.814209	729.578430	5184.397949	788.574768	1.324326
363.179382	732.847839	5088.027344	781.887512	1.126008
363.544434	738.717773	4874.258301	780.178528	1.002547
363.909546	732.476257	4660.786621	779.584167	1.199190
364.274536	731.138855	4469.308594	774.903076	1.170739
364.639587	728.612488	4334.895020	771.930969	1.201195
365.004517	730.321472	4243.576660	767.324219	1.053233
365.369507	739.534973	4205.607910	772.674011	0.956098
365.734344	737.825989	4162.884277	775.720398	1.106387
366.099274	740.129395	4139.924805	783.596497	1.278521
366.464081	729.875671	4120.308594	788.500488	1.729125
366.828918	725.863281	4125.583984	786.197083	1.774669
367.193665	727.052063	4141.707520	779.509827	1.536253
367.558411	727.795105	4153.818848	779.212708	1.500795
367.923126	731.361633	4167.640137	782.704895	1.494153
368.287781	738.420410	4172.469238	787.163086	1.419394
368.652435	745.627747	4163.255859	787.757507	1.232719
369.017059	745.107666	4160.209473	785.676941	1.187937
369.381653	739.906555	4139.701660	784.710999	1.317857
369.746185	740.723877	4129.671387	781.961731	1.216834
370.110687	733.367859	4132.940430	783.670715	1.479682
370.475220	725.863281	4151.367188	785.751282	1.748298
370.839661	716.798340	4210.065918	788.574707	2.054706
371.204041	717.838562	4259.625977	788.797668	2.003483
371.568451	732.996338	4324.566895	778.469543	1.266109
371.932770	738.197510	4363.353027	772.748291	0.953084
372.297150	739.460693	4388.244629	770.444885	0.849165
372.661377	725.937561	4401.321777	776.834961	1.384818
373.025696	728.315247	4417.965332	781.887512	1.451961
373.389862	721.702332	4438.175781	782.184753	1.627414
373.754059	728.909668	4438.027344	783.299316	1.466377
374.118225	727.423645	4428.813477	780.995911	1.447355
374.482361	734.036560	4435.203613	777.132141	1.164378
374.846436	735.448303	4495.388672	776.091980	1.080966
375.210510	736.934326	4583.362793	768.735901	0.826782
375.574524	739.089172	4689.987793	768.884583	0.754143
375.938538	733.888000	4794.605957	771.708069	0.931364
376.302460	734.482361	4895.583496	772.376770	0.910682
376.666412	735.299744	5010.381348	774.680176	0.921162
377.030304	736.488525	5120.423340	773.937195	0.854225
377.394196	732.104675	5242.651855	777.652283	1.009802
377.757996	737.231628	5324.384766	787.683105	1.099843
378.121796	744.810486	5376.396484	788.351868	0.940097
378.485565	744.438965	5383.083496	790.135071	0.985118
378.849304	736.860107	5362.873047	784.265198	1.024751
379.212982	730.172852	5298.304199	787.683105	1.258945
379.576630	731.138855	5198.069824	790.209473	1.322398
379.940277	733.144958	5100.361328	787.163025	1.236899
380.303864	735.076843	5015.953613	787.906067	1.234075
380.667450	734.110840	5002.504883	786.494324	1.227241
381.030945	730.990234	4996.115234	794.296082	1.484267
381.394501	729.281250	5027.916992	787.460266	1.353430
381.757935	728.612488	5030.889160	785.008301	1.310836
382.121399	733.145020	5052.437012	770.816467	0.872167
382.484741	736.191406	5087.061523	772.599792	0.836807
382.848145	732.996338	5127.927734	773.714172	0.926473
383.211487	730.767273	5193.389160	781.813171	1.143854
383.574768	726.606262	5257.289063	784.859619	1.285752
383.938019	733.070618	5326.464844	788.203308	1.200260
384.301270	733.739441	5397.869629	790.729492	1.221879
384.664459	737.454590	5468.978027	787.460205	1.056861
385.027649	739.534973	5524.853027	792.066956	1.097774
385.390778	734.556702	5561.335938	797.862610	1.311556
385.753876	725.268860	5587.787598	801.800720	1.573914
386.116943	719.547546	5622.412598	798.308411	1.606425
386.479980	730.024231	5642.251465	798.308411	1.390086
386.842987	741.764099	5688.170410	802.692322	1.231767
387.205994	742.284180	5729.037109	805.887390	1.275443
387.568909	738.271790	5799.847656	805.812988	1.334391
387.931793	732.327637	5834.843750	812.723145	1.575605
388.294678	734.631042	5888.416016	819.038879	1.637783
388.657471	736.488586	5893.171875	814.357910	1.510066
389.020294	739.757874	5897.035645	816.215393	1.482517
389.383057	738.494812	5875.414063	816.809814	1.524552
389.745819	732.401917	5886.261719	827.286438	1.841038
390.108521	736.562805	5913.604980	824.834473	1.705060
390.471191	738.197571	5987.238770	825.503174	1.663268
390.833801	741.912659	6064.587891	829.366943	1.643051
391.196442	736.414307	6193.279785	828.475281	1.687067
391.558960	735.076843	6315.136719	831.670410	1.731049
391.921509	734.556641	6464.187988	835.608398	1.763669
392.284027	728.835449	6590.874512	845.787903	1.995081
392.646484	721.702393	6713.027832	854.927185	2.223628
393.008911	722.668274	6747.281250	868.747375	2.424705
393.371307	730.767273	6732.867188	879.669922	2.480843
393.733673	730.247070	6663.021973	889.849365	2.690180
394.096008	735.374023	6633.449219	896.090820	2.724902
394.458344	735.151123	6643.257813	916.598450	3.071159
394.820587	739.089172	6673.053223	931.236023	3.238086
395.182831	740.500977	6717.857422	945.502197	3.429630
395.545013	739.683594	6707.678223	951.149170	3.543327
395.907196	744.587585	6671.642090	965.638184	3.729518
396.269287	728.018066	6585.079590	986.220032	4.408388
396.631409	722.073914	6503.420410	995.433594	4.728304
396.993469	716.872620	6401.996582	1006.727539	5.098480
397.355530	724.377258	6338.542480	1010.517090	5.096748
397.717499	727.646545	6305.700684	1021.811035	5.273604
398.079468	733.293640	6304.808594	1032.733521	5.374478
398.441376	729.206970	6325.390625	1054.058472	5.804876
398.803284	728.909668	6335.421875	1084.968384	6.350806
399.165131	722.148132	6375.322266	1110.082642	6.862242
399.526978	724.674500	6388.845215	1132.744995	7.204417
399.888763	719.696106	6401.773438	1153.252563	7.630246
400.250519	719.027405	6404.597168	1179.852905	8.105177
400.612244	724.971680	6422.950684	1212.694824	8.559582
400.973938	732.253418	6442.937500	1242.118652	8.928269
401.335602	733.962341	6463.593750	1269.313477	9.343553
401.697205	733.813660	6488.039063	1296.879761	9.785263
402.058807	727.349304	6538.342285	1335.219849	10.460700
402.420349	731.361633	6624.904785	1390.203735	11.179049
402.781860	729.578430	6701.957031	1438.129028	11.863792
403.143341	731.807434	6814.005371	1499.651733	12.624454
403.504822	728.761047	6916.171875	1561.025879	13.450939
403.866241	724.674500	7044.864746	1634.065430	14.388663
404.227631	721.182190	7164.045410	1701.383789	15.213758
404.588959	723.857117	7287.388184	1768.924805	15.922338
404.950287	723.559875	7416.229004	1852.961304	16.875202
405.311554	734.482422	7498.481934	1946.731079	17.922070
405.672821	732.996338	7574.048340	2043.547852	19.157164
406.034027	735.374023	7571.298828	2125.949463	20.342171
406.395203	733.367859	7527.311035	2204.041748	21.646837
406.756348	732.476257	7456.871582	2285.551514	23.096130
407.117493	734.853821	7432.575684	2386.751953	24.663584
407.478516	730.990173	7420.761230	2477.029785	26.100140
407.839600	739.089172	7428.785645	2585.140381	27.595442
408.200592	737.380188	7439.188965	2685.523193	29.068914
408.561554	734.853943	7440.600098	2806.562500	30.894526
408.922485	726.532043	7436.959473	2935.031494	32.911461
409.283417	724.005676	7442.978027	3058.522705	34.745152
409.644257	724.228577	7506.357910	3200.069336	36.505360
410.005096	726.383362	7611.422363	3357.665283	38.217388
410.365906	728.463867	7686.988281	3521.280029	40.135178
410.726715	734.928223	7795.915527	3691.433350	41.870987
411.087433	735.894104	7866.428223	3831.865234	43.418503
411.448120	739.832214	7952.545410	3980.470703	44.929531
411.808807	727.869446	7969.115723	4112.209473	46.736984
412.169434	727.349304	7936.273926	4216.753906	48.403954
412.530029	729.132568	7913.017090	4326.498535	50.075497
412.890564	740.946777	7894.515625	4422.200684	51.460384
413.251099	746.147949	7913.685547	4535.437988	52.867390
413.611572	746.742371	7935.382324	4643.325684	54.204735
413.972076	739.089172	7956.558594	4747.720703	55.540680
414.332489	741.466797	8003.071777	4845.503418	56.516937
414.692871	737.603027	8108.359375	4987.941895	57.664894
415.053223	743.695862	8230.140625	5145.166504	58.792534
415.413574	731.436035	8394.350586	5340.210938	60.143890
415.773834	729.578430	8527.574219	5482.797363	60.954365
416.134094	726.309082	8657.307617	5638.759277	61.939869
416.494263	730.544373	8783.547852	5752.665527	62.363331
416.854462	725.343201	8967.595703	5939.016113	63.255432
417.214630	727.572266	9191.395508	6133.541016	63.871475
417.574738	729.281250	9421.584961	6360.015625	64.778389
417.934784	734.779602	9645.682617	6553.945313	65.303879
418.294861	737.454529	9932.341797	6790.005371	65.825172
418.654846	733.145020	10260.760742	7069.011719	66.500031
419.014832	730.915833	10619.047852	7355.894531	66.999290
419.374756	729.578430	10983.577148	7646.492676	67.455772
419.734680	736.042786	11393.057617	7965.177246	67.834518
420.094543	730.098572	11828.695313	8277.026367	67.998940
420.454376	721.850891	12215.961914	8555.363281	68.152397
420.814148	721.182190	12568.973633	8814.532227	68.311050
421.173920	728.092346	12917.825195	9099.556641	68.676353
421.533691	733.813660	13299.221680	9403.379883	68.995499
421.893341	725.640381	13622.512695	9661.284180	69.285355
422.253021	725.194580	13851.215820	9843.549805	69.467781
422.612640	722.668274	13919.574219	9923.722656	69.721298
422.972260	725.937500	13909.617188	9937.766602	69.872971
423.331757	725.045898	13827.809570	9941.035156	70.336227
423.691315	729.281189	13823.203125	9982.198242	70.665741
424.050781	736.265686	13913.481445	10059.028320	70.749107
424.410248	740.426575	14050.570313	10133.405273	70.570076
424.769653	739.980774	14181.195313	10242.257813	70.695076
425.128998	739.460693	14215.002930	10315.297852	71.060867
425.488373	739.386414	14168.562500	10332.908203	71.437904
425.847656	739.386414	14044.776367	10226.729492	71.304512
426.206940	733.442139	13902.484375	10120.921875	71.284454
426.566193	732.253357	13650.079102	9963.549805	71.461693
426.925385	730.395691	13400.348633	9808.331055	71.649323
427.284576	737.231628	13045.032227	9564.618164	71.721886
427.643677	734.259460	12777.987305	9355.678711	71.584305
428.002777	741.541199	12500.764648	9197.413086	71.908424
428.361847	736.711426	12205.411133	9014.703125	72.179001
428.720856	743.844482	11948.174805	8844.996094	72.303757
429.079865	743.844543	11741.539063	8682.273438	72.182663
429.438812	738.717590	11657.725586	8606.856445	72.059097
429.797760	733.144958	11581.565430	8585.531250	72.382759
430.156616	730.247131	11476.796875	8488.788086	72.195648
430.515503	728.538147	11371.957031	8431.872070	72.376495
430.874268	731.436035	11335.622070	8386.622070	72.190231
431.233093	729.801331	11340.081055	8428.826172	72.561943
431.591827	732.476257	11404.354492	8490.497070	72.695930
431.950562	737.751709	11442.471680	8530.397461	72.796356
432.309204	732.773438	11497.231445	8580.998047	72.908684
432.667877	744.364685	11605.268555	8631.003906	72.614937
433.026459	741.243958	11706.617188	8710.062500	72.672569
433.385010	737.974609	11859.754883	8805.614258	72.539101
433.743561	726.531982	11977.747070	8904.438477	72.684654
434.102051	718.433044	12134.155273	9010.394531	72.636330
434.460510	725.343201	12280.531250	9113.526367	72.592354
434.818939	730.024231	12342.871094	9166.875977	72.651016
435.177338	739.386414	12373.409180	9204.250000	72.759560
435.535675	735.299805	12342.722656	9196.819336	72.897484
435.894012	732.847717	12310.920898	9218.739258	73.292778
436.252289	723.708496	12328.531250	9237.090820	73.360733
436.610535	726.160461	12297.843750	9241.401367	73.586884
436.968719	731.956055	12400.901367	9298.019531	73.409065
437.326935	733.813660	12475.946289	9345.125977	73.336868
437.685028	735.374023	12613.480469	9427.231445	73.175446
438.043152	735.745544	12696.774414	9495.442383	73.235313
438.401215	740.129395	12857.045898	9636.320313	73.419601
438.759277	738.123230	13038.270508	9774.002930	73.461555
439.117249	733.367859	13365.276367	10009.617188	73.435059
439.475250	732.476257	13613.297852	10174.791016	73.305222
439.833130	734.185242	13922.398438	10408.472656	73.355560
440.191071	732.922058	14134.829102	10548.163086	73.237648
440.548889	721.033630	14418.293945	10758.290039	73.279297
440.906708	725.640381	14724.272461	10992.121094	73.339172
441.264496	730.767273	14952.976563	11190.137695	73.542511
441.622223	742.432800	15113.842773	11318.905273	73.593842
441.979950	735.448425	15173.656250	11337.926758	73.433479
442.337616	728.761047	15207.834961	11367.721680	73.478188
442.695251	733.145020	15132.342773	11315.858398	73.495155
443.052887	732.179016	14966.574219	11211.835938	73.622078
443.410461	733.665039	14809.573242	11090.127930	73.575806
443.768005	728.241028	14685.932617	10972.581055	73.395660
444.125458	725.491760	14623.815430	10928.890625	73.414597
444.482941	725.045959	14659.480469	10946.500000	73.353920
444.840393	724.525879	14737.497070	11053.792969	73.712189
445.197754	732.253235	14952.678711	11218.819336	73.742981
445.555084	735.522644	15113.768555	11351.003906	73.830154
445.912415	731.733215	15435.350586	11555.632813	73.613853
446.269714	729.281250	15657.217773	11722.145508	73.639542
446.626953	727.943665	15979.765625	11960.434570	73.646881
446.984161	725.714661	16236.481445	12151.764648	73.665283
447.341309	723.411316	16475.587891	12317.385742	73.602364
447.698456	724.897400	16646.558594	12434.932617	73.547821
448.055542	733.813721	16759.869141	12579.747070	73.916710
448.412598	739.014893	16761.505859	12557.010742	73.758789
448.769653	739.237793	16652.949219	12490.510742	73.843704
449.126617	726.457703	16395.265625	12302.078125	73.876839
449.483582	724.971680	16182.315430	12208.010742	74.288567
449.840515	724.302917	15936.745117	12026.860352	74.298111
450.197388	736.637207	15763.842773	11875.656250	74.125694
450.554230	745.181946	15605.949219	11763.235352	74.141891
450.911041	743.918762	15497.245117	11703.495117	74.285461
451.267822	743.101563	15395.449219	11616.635742	74.210182
451.624573	734.779602	15259.699219	11494.629883	74.078552
451.981262	732.327637	15128.554688	11405.765625	74.140518
452.337921	733.516541	14997.484375	11318.534180	74.208084
452.694580	733.442200	14929.051758	11279.971680	74.294304
453.051147	729.801331	14923.331055	11282.644531	74.349670
453.407715	727.200684	14879.937500	11247.796875	74.336128
453.764221	727.646484	14941.608398	11299.808594	74.378716
454.120728	735.076721	14783.046875	11183.823242	74.379051
454.477142	736.637207	14772.124023	11183.301758	74.430367
454.833557	738.717712	14607.320313	11063.897461	74.450035
455.189911	732.401917	14507.457031	10968.122070	74.306198
455.546265	725.491699	14342.133789	10850.872070	74.360336
455.902557	722.668274	14188.773438	10743.355469	74.414146
456.258820	726.606262	14185.653320	10741.350586	74.409012
456.615051	731.881775	14232.538086	10758.884766	74.270485
456.971252	735.373962	14261.367188	10772.557617	74.206627
457.327393	735.299622	14389.019531	10866.921875	74.204117
457.683502	735.968445	14555.382813	11016.641602	74.392975
458.039612	733.888000	14904.307617	11283.016602	74.444717
458.395630	733.516541	15246.620117	11552.809570	74.548447
458.751648	735.225403	15576.301758	11837.835938	74.810005
459.107605	737.380188	16111.132813	12239.442383	74.816231
459.463562	738.866272	16667.140625	12656.651367	74.821571
459.819458	740.575256	17215.791016	13043.992188	74.678337
460.175323	742.655762	17660.123047	13396.484375	74.797417
460.531158	743.621643	18130.904297	13746.002930	74.780983
460.886932	735.819824	18530.058594	14030.507813	74.713440
461.242676	732.104736	18757.498047	14172.351563	74.562851
461.598419	732.104736	18672.199219	14122.718750	74.640717
461.954102	733.293518	18365.552734	13889.629883	74.615143
462.309723	739.906494	17864.603516	13535.206055	74.718399
462.665344	739.757874	17335.046875	13152.250000	74.795273
463.020905	743.175781	16877.863281	12812.315430	74.802437
463.376373	736.785828	16502.783203	12515.773438	74.711334
463.731873	739.237793	16202.301758	12279.937500	74.633972
464.087341	733.219238	15911.035156	12090.316406	74.826950
464.442749	731.807434	15761.092773	12002.118164	74.988998
464.798126	730.098450	15654.839844	11930.713867	75.047302
465.153503	736.042725	15715.471680	11971.655273	75.006950
465.508820	733.070618	15743.557617	11985.846680	74.966095
465.864105	728.984070	15824.472656	12047.293945	74.978096
466.219330	728.240967	16062.539063	12215.887695	74.914719
466.574524	727.572266	16225.930664	12348.219727	74.979858
466.929657	724.228577	16432.417969	12480.627930	74.842484
467.284790	727.274963	16591.425781	12594.906250	74.807854
467.639893	731.733215	16792.265625	12735.708008	74.742073
467.994934	739.460693	16982.554688	12895.237305	74.836586
468.349945	734.036560	17060.796875	12982.468750	75.020592
468.704926	727.200684	17089.552734	12987.668945	74.930969
469.059875	726.011902	16946.369141	12873.168945	74.888344
469.414764	722.519714	16758.310547	12733.406250	74.900497
469.769653	727.795166	16572.404297	12629.159180	75.113014
470.124451	728.984070	16469.718750	12577.593750	75.273552
470.479248	736.637207	16350.090820	12445.484375	74.992043
470.834015	736.860046	16250.524414	12368.432617	74.976303
471.188721	734.779602	16298.524414	12377.124023	74.804260
471.543365	733.888000	16350.090820	12440.355469	74.963600
471.898010	730.841614	16459.093750	12523.128906	74.975189
472.252625	729.949951	16569.951172	12624.032227	75.088898
472.607178	727.423645	16796.796875	12820.934570	75.258133
472.961700	729.875671	16999.869141	12969.316406	75.227081
473.316193	731.213074	17254.802734	13170.083008	75.279465
473.670654	734.408020	17428.667969	13263.852539	75.052414
474.025055	732.773438	17646.375000	13464.768555	75.276665
474.379456	734.333801	17798.029297	13624.295898	75.540276
474.733795	728.315247	17956.291016	13793.706055	75.838219
475.088104	729.504211	18069.232422	13872.020508	75.794243
475.442383	730.395813	18108.984375	13838.137695	75.424667
475.796570	735.894226	18190.345703	13873.506836	75.267975
476.150787	740.946777	18343.410156	13953.084961	75.058464
476.504944	735.968445	18557.996094	14135.424805	75.184799
476.859070	740.426575	18754.677734	14320.289063	75.383995
477.213135	739.014893	18972.605469	14506.045898	75.503677
477.567200	735.819824	19349.025391	14757.411133	75.331421
477.921173	723.857117	19735.769531	15015.911133	75.174202
478.275146	721.850891	20180.992188	15331.995117	75.081139
478.629089	728.018066	20446.771484	15550.221680	75.168053
478.983002	730.024231	20806.619141	15832.944336	75.226501
479.336823	726.234863	21153.166016	16104.000000	75.281822
479.690643	725.789001	21535.156250	16396.900391	75.307968
480.044403	730.692932	21958.162109	16696.861328	75.214661
480.398163	734.482422	22479.248047	17094.902344	75.238426
480.751862	737.974670	23208.828125	17686.796875	75.425804
481.105499	733.590820	24134.490234	18391.705078	75.459122
481.459137	737.305969	25326.750000	19338.324219	75.646355
481.812744	731.733215	26823.578125	20481.322266	75.692574
482.166290	733.739319	28599.117188	21873.681641	75.864548
482.519806	726.606262	30795.359375	23530.630859	75.839607
482.873291	732.401917	33357.984375	25449.720703	75.760544
483.226715	737.974609	36385.003906	27735.498047	75.735687
483.580139	741.020996	39471.390625	30116.529297	75.846184
483.933502	733.590759	42743.679688	32667.044922	76.013771
484.286804	737.157288	45771.738281	35106.253906	76.317123
484.640106	735.819885	48453.996094	37319.507813	76.666145
484.993347	735.225403	50259.996094	38941.535156	77.145859
485.346558	735.002502	51084.683594	39762.433594	77.512764
485.699738	732.104736	50835.324219	39601.417969	77.578476
486.052887	733.442200	49701.832031	38630.953125	77.391785
486.405975	717.541443	48061.750000	37192.078125	77.041176
486.759064	718.433044	46186.347656	35638.554688	76.801682
487.112061	721.182190	44464.605469	34199.683594	76.533791
487.464996	729.355469	43265.503906	33206.253906	76.351288
487.817963	732.327637	42831.800781	32793.433594	76.155602
488.170868	728.761047	42879.355469	32804.578125	76.098137
488.523743	725.863281	43141.425781	32998.359375	76.086449
488.876587	715.906738	43246.636719	33098.296875	76.138809
489.229401	722.965515	43096.917969	33030.902344	76.244804
489.582153	723.634216	42479.605469	32557.521484	76.237923
489.934845	730.024231	41547.105469	31840.500000	76.219254
490.287537	726.532043	40461.171875	31024.728516	76.251343
490.640198	724.377197	39570.136719	30321.750000	76.192032
490.992798	724.302917	38779.035156	29737.359375	76.240341
491.345337	719.101624	38500.769531	29449.585938	76.043449
491.697876	723.114075	38423.644531	29389.998047	76.038414
492.050354	728.909668	38833.500000	29634.673828	75.859009
492.402832	738.123230	39176.855469	29904.615234	75.877876
492.755219	736.785828	39319.218750	30024.169922	75.908600
493.107605	734.110840	38994.363281	29829.125000	76.045006
493.459930	729.652649	38206.832031	29230.023438	76.047264
493.812225	739.237732	36878.593750	28236.298828	76.086197
494.164490	742.432800	35216.812500	26972.929688	76.086929
494.516724	744.884766	33341.707031	25543.640625	76.077217
494.868896	736.711426	31560.970703	24200.619141	76.121559
495.221039	730.990173	30085.986328	23042.833984	76.006973
495.573120	733.442139	28892.908203	22123.337891	75.959877
495.925201	735.448303	28211.775391	21559.158203	75.787819
496.277222	737.900330	27742.406250	21224.869141	75.864998
496.629211	737.603210	27568.615234	21124.412109	75.982262
496.981140	738.346191	27503.968750	21068.240234	75.955246
497.333069	740.723816	27593.357422	21137.562500	75.958427
497.684967	736.414246	27740.697266	21217.958984	75.845543
498.036804	736.042786	27868.275391	21308.384766	75.822517
498.388580	733.888000	27873.849609	21291.667969	75.747269
498.740326	737.231628	27763.509766	21264.472656	75.952896
499.092072	732.699158	27540.080078	21139.494141	76.123795
499.443756	729.504150	27258.623047	20952.177734	76.228218
499.795410	723.857178	26959.255859	20703.115234	76.153816
500.147003	724.451599	26673.337891	20447.738281	76.008224
500.498566	738.866211	26364.908203	20195.257813	75.924286
500.850098	736.785828	26077.802734	19897.376953	75.610977
501.201599	740.575195	25765.804688	19682.642578	75.691879
501.553009	727.869446	25509.162109	19472.291016	75.639404
501.904449	732.773438	25280.087891	19374.509766	75.942062
502.255859	736.711487	25023.593750	19214.757813	76.082413
502.607178	732.699158	24917.267578	19162.078125	76.203049
502.958405	732.847717	24788.427734	19086.363281	76.296295
503.309692	722.296814	24759.968750	19026.548828	76.148193
503.660919	725.194580	24733.294922	19013.619141	76.176056
504.012115	721.479492	24780.773438	19017.187500	76.044243
504.363251	730.841614	24891.263672	19094.013672	76.005180
504.714294	736.414307	24945.208984	19111.849609	75.903969
505.065369	739.534973	25017.875000	19159.773438	75.871078
505.416443	741.987000	25022.259766	19223.822266	76.118729
505.767395	738.791931	25036.822266	19295.080078	76.369514
506.118317	743.918884	25007.250000	19276.800781	76.382263
506.469238	736.488586	25048.710938	19295.005859	76.334106
506.820160	731.436035	25062.234375	19250.423828	76.113358
507.170929	726.532043	25101.462891	19309.048828	76.236183
507.521729	730.321472	25167.744141	19330.150391	76.112068
507.872498	735.522644	25247.843750	19445.988281	76.330856
508.223236	734.853943	25381.140625	19569.775391	76.420929
508.573883	725.491760	25516.818359	19668.300781	76.409019
508.924500	728.612488	25699.750000	19758.726563	76.208435
509.275116	725.714661	25864.482422	19848.261719	76.067955
509.625702	732.327637	26051.351563	20007.791016	76.130356
509.976196	727.943787	26294.470703	20193.251953	76.135910
510.326660	732.773438	26534.095703	20396.468750	76.211967
510.677124	730.321472	26772.234375	20603.701172	76.313057
511.027557	730.915833	26994.328125	20791.982422	76.384079
511.377869	730.395752	27267.539063	20983.757813	76.320808
511.728180	729.578430	27411.539063	21096.400391	76.331802
512.078430	729.355469	27527.375000	21213.798828	76.440140
512.428650	722.148132	27614.310547	21281.787109	76.452156
512.778931	725.789001	27784.314453	21374.513672	76.311348
513.129028	725.937561	27881.203125	21384.843750	76.076981
513.479126	724.971619	27908.177734	21425.189453	76.150757
513.829285	724.377197	27864.708984	21405.873047	76.202072
514.179382	725.120300	27810.244141	21399.554688	76.331329
514.529297	725.937561	27789.812500	21364.335938	76.258102
514.879272	722.816895	27827.705078	21385.660156	76.232903
515.229187	725.863281	27740.845703	21355.123047	76.362289
515.579163	730.618652	27706.148438	21358.763672	76.469841
515.928955	730.247070	27660.302734	21317.822266	76.448318
516.278748	718.878845	27825.328125	21410.552734	76.334877
516.628540	728.612488	28056.632813	21605.599609	76.394073
516.978333	734.853943	28445.533203	21930.375000	76.488640
517.327942	740.798157	28919.662109	22318.603516	76.574432
517.677612	740.129395	29482.205078	22676.298828	76.320755
518.027222	734.556702	30041.257813	23100.640625	76.317307
518.376831	735.374023	30692.150391	23596.984375	76.315315
518.726379	729.727051	31317.630859	24143.554688	76.546036
519.075867	737.528809	31868.662109	24559.576172	76.521622
519.425293	745.999329	32288.025391	24880.787109	76.516289
519.774658	737.231628	32550.164063	25042.765625	76.401428
520.124084	733.590820	32664.666016	25145.380859	76.451515
520.473389	736.117004	32584.416016	25065.130859	76.390305
520.822693	740.426575	32304.521484	24862.583984	76.422775
521.171997	733.293518	31940.437500	24613.593750	76.521904
521.521240	723.931396	31562.681641	24329.236328	76.544296
521.870361	721.479431	31208.630859	24047.779297	76.511902
522.219482	727.795166	30827.603516	23762.083984	76.526367
522.568604	727.200745	30478.306641	23527.658203	76.637344
522.917664	730.618652	30279.025391	23389.529297	76.684036
523.266724	728.018066	30288.240234	23386.187500	76.650879
523.615662	731.138733	30502.603516	23513.541016	76.524292
523.964600	739.163391	30844.322266	23795.742188	76.586800
524.313538	734.333801	31343.189453	24174.017578	76.578110
524.662354	728.463867	31895.109375	24630.458984	76.690948
525.011169	724.080017	32609.009766	25194.640625	76.746475
525.359985	729.875671	33483.554688	25857.345703	76.716484
525.708740	728.463867	34550.539063	26716.880859	76.838631
526.057434	726.086182	35766.949219	27637.343750	76.799644
526.406067	729.949890	37105.218750	28682.187500	76.844070
526.754700	734.928223	38622.253906	29840.416016	76.821175
527.103333	732.327637	40365.027344	31199.490234	76.873802
527.451782	724.674500	42284.789063	32760.587891	77.083321
527.800293	722.519714	44306.562500	34379.050781	77.222145
528.148743	726.606262	46385.703125	36082.660156	77.434853
528.497131	732.104736	48377.761719	37738.421875	77.669861
528.845642	732.699158	50168.894531	39322.335938	78.059479
529.193909	724.005676	51668.550781	40799.031250	78.664017
529.542175	719.844727	52793.050781	42030.527344	79.331940
529.890503	729.355530	53513.781250	42798.441406	79.699806
530.238770	738.420410	53608.296875	42975.136719	79.888054
530.586914	742.358459	53213.078125	42529.019531	79.638054
530.934998	737.454407	52172.625000	41539.679688	79.327484
531.283142	735.522644	50752.406250	40155.421875	78.813187
531.631226	735.522644	48864.144531	38441.625000	78.344444
531.979248	734.185242	46854.558594	36712.902344	78.010468
532.327148	741.541199	44944.531250	35067.761719	77.655876
532.675110	739.237793	43469.023438	33810.410156	77.396065
533.023071	739.386414	42631.484375	33068.277344	77.171814
533.370850	735.076843	42328.250000	32786.589844	77.059555
533.718689	739.014893	42441.191406	32891.285156	77.099739
534.066467	737.900330	42708.683594	33093.910156	77.091743
534.414246	730.395752	42891.839844	33276.324219	77.193581
534.761963	730.990173	42937.613281	33345.054688	77.272385
535.109619	729.949951	42820.214844	33256.039063	77.276985
535.457153	733.367859	42378.406250	32938.765625	77.333099
535.804749	727.646484	41703.886719	32425.037109	77.355530
536.152344	727.869446	40831.351563	31751.115234	77.357986
536.499817	725.937561	39928.722656	30993.224609	77.206978
536.847229	723.039856	38978.613281	30166.162109	76.964272
537.194641	719.993469	38085.273438	29470.912109	76.945541
537.542114	729.206970	37455.777344	28967.435547	76.887733
537.889404	731.881836	36969.246094	28625.197266	76.973915
538.236694	737.083008	36643.574219	28372.642578	76.965355
538.583984	736.265625	36306.316406	28178.564453	77.150017
538.931213	738.271790	36154.218750	28066.884766	77.164719
539.278381	742.878601	35940.597656	27907.656250	77.177666
539.625488	743.770264	35887.988281	27829.193359	77.069359
539.972595	748.451355	35977.082031	27883.728516	77.026207
540.319641	745.999329	36400.531250	28190.005859	76.972000
540.666687	736.711487	37052.613281	28713.689453	77.037819
541.013611	732.624817	38078.511719	29502.562500	77.036430
541.360596	731.658936	39244.617188	30476.671875	77.233780
541.707458	733.887939	40666.175781	31551.091797	77.173645
542.054260	728.538147	41932.148438	32567.998047	77.273468
542.401062	726.903503	43179.988281	33514.093750	77.231583
542.747864	730.395752	43931.332031	34148.859375	77.355881
543.094666	735.894226	44241.699219	34394.359375	77.365456
543.441284	738.717773	43901.542969	34164.464844	77.441055
543.787903	740.203796	43228.058594	33643.675781	77.442062
544.134460	738.866272	42162.410156	32819.511719	77.445442
544.481079	728.315247	40880.984375	31811.445313	77.412369
544.827637	722.668274	39324.273438	30594.515625	77.384987
545.174072	730.024170	37727.878906	29346.900391	77.347397
545.520508	730.692932	36259.878906	28197.064453	77.306496
545.866943	731.361633	35089.832031	27223.994141	77.106560
546.213318	723.114075	34202.582031	26532.240234	77.089417
546.559631	729.206970	33466.683594	25958.843750	77.066528
546.905823	727.126465	32866.839844	25526.552734	77.161316
547.252136	726.532043	32367.751953	25101.615234	77.035851
547.598389	722.593994	31992.150391	24778.693359	76.931374
547.944458	726.977783	31666.408203	24524.505859	76.916504
548.290588	732.624817	31230.548828	24252.185547	77.118561
548.636658	729.058289	30727.296875	23866.851563	77.130508
548.982727	730.915833	30104.861328	23417.990234	77.235367
549.328735	729.281189	29516.978516	22940.521484	77.155319
549.674622	739.757874	28773.951172	22425.080078	77.353119
550.020569	737.974609	28087.468750	21875.537109	77.286850
550.366455	740.872375	27320.962891	21301.623047	77.353951
550.712280	741.689758	26753.212891	20804.835938	77.131760
551.058044	743.621643	26222.171875	20401.521484	77.154701
551.403748	741.318176	25829.039063	20076.667969	77.070969
551.749512	738.866211	25526.552734	19834.591797	77.037148
552.095154	739.163513	25256.978516	19629.814453	77.048676
552.440735	745.404846	25167.072266	19535.302734	76.939453
552.786316	747.708313	25117.662109	19514.718750	77.008804
553.131897	743.918884	25201.697266	19574.162109	76.990814
553.477417	734.482422	25276.150391	19614.060547	76.928665
553.822815	723.336975	25288.562500	19608.341797	76.876984
554.168213	722.816895	25250.146484	19581.291016	76.887596
554.513672	723.262695	25159.943359	19514.494141	76.897644
554.859009	729.429871	25043.062500	19446.878906	76.983353
555.204285	736.414246	24923.062500	19347.015625	76.945763
555.549500	738.197510	24706.025391	19185.705078	76.967789
555.894714	741.615417	24454.585938	19007.826172	77.030464
556.239990	732.996338	24162.130859	18744.421875	76.876190
556.585022	736.785828	23896.646484	18550.267578	76.915321
556.930115	729.355469	23668.462891	18368.748047	76.896599
557.275146	732.550537	23423.634766	18191.388672	76.941399
557.620178	726.011902	23210.460938	18059.054688	77.089027
557.965149	734.185242	23025.150391	17932.664063	77.154480
558.310059	735.894226	22845.115234	17826.039063	77.298721
558.654968	741.169617	22753.650391	17709.162109	77.083511
558.999756	730.990051	22655.273438	17568.060547	76.796448
559.344604	724.822998	22598.056641	17496.134766	76.675049
559.689331	721.033691	22506.591797	17433.869141	76.715202
560.033997	729.058350	22414.306641	17382.898438	76.798012
560.378723	737.083008	22384.658203	17383.640625	76.898033
560.723389	743.398682	22356.572266	17376.878906	76.959915
561.067932	737.528809	22394.914063	17441.152344	77.126686
561.412476	734.556702	22386.666016	17454.304688	77.219948
561.757019	728.612488	22399.744141	17473.771484	77.269424
562.101501	734.036621	22420.697266	17487.814453	77.253838
562.445862	736.562927	22448.486328	17479.343750	77.113304
562.790222	739.683594	22434.740234	17472.658203	77.128052
563.134644	741.838379	22415.494141	17432.755859	77.010162
563.478943	737.677429	22390.156250	17429.486328	77.089600
563.823181	739.980774	22400.115234	17417.449219	76.996147
564.167358	746.816650	22416.906250	17460.173828	77.126389
564.511536	748.228333	22418.541016	17501.931641	77.311775
564.855774	742.655701	22439.421875	17500.966797	77.238747
565.199768	735.968445	22512.609375	17538.117188	77.156754
565.543823	735.522644	22649.031250	17562.710938	76.789108
565.887817	732.996399	22832.779297	17725.433594	76.889610
566.231812	729.429871	23003.304688	17871.513672	76.960495
566.575745	724.971680	23205.333984	18023.240234	76.948357
566.919617	726.754944	23406.767578	18192.353516	77.008766
567.263428	725.417480	23585.244141	18290.431641	76.837914
567.607239	722.891174	23729.984375	18423.138672	76.933868
567.950989	723.782776	23769.812500	18432.794922	76.841919
568.294678	728.092346	23791.134766	18502.791016	77.070053
568.638367	732.624817	23680.724609	18462.072266	77.258888
568.981995	731.287354	23566.148438	18420.759766	77.466957
569.325623	734.185242	23420.958984	18252.462891	77.218018
569.669128	736.711487	23318.349609	18126.076172	77.006660
570.012573	739.906494	23166.177734	18012.912109	77.021301
570.356140	736.265625	23073.671875	17999.314453	77.283142
570.699524	730.470032	22994.984375	17985.197266	77.498779
571.042908	734.036621	23052.939453	17997.455078	77.348869
571.386230	735.151123	23157.484375	18031.041016	77.136887
571.729492	742.729980	23284.021484	18127.560547	77.124374
572.072815	738.643311	23464.056641	18291.474609	77.238777
572.416016	731.138733	23554.333984	18387.326172	77.360718
572.759094	735.076843	23770.630859	18526.343750	77.233948
573.102234	730.247131	23845.005859	18565.130859	77.157990
573.445374	737.677429	23925.103516	18621.525391	77.127350
573.788391	733.962219	23931.421875	18578.056641	76.922623
574.131409	736.488525	23940.412109	18551.679688	76.776634
574.474365	734.779541	23915.369141	18546.033203	76.836929
574.817261	730.990173	23753.615234	18521.216797	77.272797
575.160156	729.875671	23602.109375	18419.791016	77.342316
575.502930	726.754883	23383.958984	18245.775391	77.322075
575.845703	729.801270	23229.408203	18056.824219	77.010338
576.188477	732.253357	22996.171875	17883.847656	77.037628
576.531250	730.172852	22784.111328	17691.181641	76.906937
576.873901	731.584656	22512.312500	17527.343750	77.112938
577.216431	727.795105	22235.982422	17377.695313	77.411919
577.559082	725.714661	22011.810547	17223.443359	77.504715
577.901611	718.730225	21758.810547	16985.230469	77.311966
578.244080	720.067688	21529.064453	16743.300781	77.001472
578.586487	721.925293	21209.042969	16493.419922	76.982498
578.928955	744.290344	20903.287109	16292.581055	77.128304
579.271301	747.856934	20549.306641	16058.453125	77.320580
579.613647	753.281006	20205.359375	15807.606445	77.391861
579.955872	739.832214	19894.107422	15539.223633	77.264168
580.298157	737.603210	19630.408203	15293.208008	77.043114
580.640320	734.928223	19378.074219	15099.055664	77.047760
580.982483	728.463867	19154.052734	14950.524414	77.186462
581.324524	727.200684	18983.230469	14796.867188	77.068596
581.666626	733.962219	18851.269531	14675.456055	76.951248
582.008728	739.386414	18739.443359	14592.756836	76.962929
582.350647	737.083008	18625.908203	14540.893555	77.164436
582.692566	735.374023	18522.330078	14467.781250	77.204926
583.034424	736.340027	18424.251953	14398.010742	77.237328
583.376343	739.534973	18320.302734	14325.637695	77.278214
583.718201	739.832214	18259.595703	14271.916992	77.238968
584.059937	735.002502	18183.212891	14231.496094	77.351730
584.401611	740.723816	18101.626953	14149.765625	77.237007
584.743347	737.528809	17992.923828	14091.437500	77.389755
585.085022	734.259521	17924.861328	14027.909180	77.330917
585.426514	730.990173	17864.082031	13989.864258	77.387512
585.768127	731.064453	17822.771484	13937.184570	77.266243
586.109619	729.652649	17729.818359	13850.101563	77.178360
586.451172	734.110840	17648.162109	13794.894531	77.218544
586.792542	731.733215	17613.759766	13767.031250	77.214058
587.133850	738.866272	17574.154297	13754.696289	77.312790
587.475220	734.333801	17584.630859	13795.340820	77.512032
587.816589	738.866272	17548.445313	13799.500000	77.697571
588.157776	736.934387	17600.531250	13823.128906	77.600250
588.498962	735.894226	17649.496094	13823.352539	77.378304
588.840210	729.578430	17705.966797	13847.872070	77.273758
589.181335	731.956055	17745.498047	13890.893555	77.343903
589.522400	737.900330	17772.988281	13912.440430	77.337669
589.863403	738.346130	17851.302734	13933.914063	77.108643
590.204407	739.832214	17858.287109	13958.956055	77.221481
590.545410	731.361633	17939.576172	14000.266602	77.107971
590.886353	734.631042	17900.865234	14001.679688	77.285728
591.227112	735.299744	17899.822266	13987.413086	77.206413
591.567932	732.030334	17830.945313	13955.612305	77.335800
591.908752	736.934387	17788.740234	13914.448242	77.279282
592.249512	731.584656	17771.947266	13875.438477	77.133644
592.590149	735.225403	17634.189453	13799.352539	77.307259
592.930786	728.983948	17551.341797	13755.440430	77.435379
593.271423	725.565979	17446.277344	13675.862305	77.450630
593.612000	726.532043	17410.314453	13623.848633	77.304504
593.952576	732.253357	17373.759766	13598.438477	77.313828
594.292969	734.779602	17390.179688	13634.773438	77.452324
594.633484	734.705261	17444.048828	13682.846680	77.490425
594.973877	729.058350	17536.333984	13782.116211	77.663139
595.314209	734.779602	17655.367188	13829.743164	77.390717
595.654480	737.083008	17833.767578	13960.812500	77.346756
595.994812	740.352356	18015.585938	14072.415039	77.174423
596.335022	736.562927	18210.111328	14276.301758	77.487061
596.675171	737.974609	18322.607422	14361.973633	77.476730
597.015320	732.030457	18506.357422	14499.286133	77.455849
597.355408	735.448303	18642.255859	14545.649414	77.122635
597.695496	728.389587	18793.906250	14660.372070	77.119202
598.035461	729.727051	18765.447266	14625.003906	77.043091
598.375366	721.479431	18709.871094	14603.976563	77.174751
598.715271	725.417480	18658.007813	14558.726563	77.140610
599.055176	728.835449	18552.349609	14491.854492	77.218330
599.395081	732.699158	18359.236328	14350.752930	77.258812
599.734802	737.603210	18065.814453	14144.117188	77.368134
600.074524	739.534973	17735.761719	13898.917969	77.425323
600.414246	737.157227	17355.925781	13638.041992	77.628403
600.753906	733.813660	16984.783203	13354.057617	77.658409
601.093506	729.652649	16683.189453	13114.208008	77.628899
601.433044	721.479431	16467.117188	12932.686523	77.552956
601.772583	715.015137	16339.613281	12833.937500	77.563095
602.112122	718.581604	16307.664063	12798.122070	77.487183
602.451538	729.578430	16353.956055	12772.859375	77.080070
602.790894	735.299744	16447.873047	12808.526367	76.837997
603.130310	731.584534	16562.597656	12907.645508	76.912704
603.469604	734.036621	16716.849609	13067.249023	77.165474
603.808838	730.767273	16909.072266	13249.065430	77.377068
604.148010	734.408020	17175.373047	13448.495117	77.331757
604.487305	734.259460	17460.025391	13654.312500	77.246407
604.826416	737.751709	17725.582031	13824.913086	77.038452
605.165527	737.454407	17931.625000	13958.583008	76.893089
605.504456	739.014832	18074.357422	14082.074219	76.970268
605.843445	738.940613	18183.583984	14172.277344	77.005516
606.182434	743.547363	18226.529297	14230.234375	77.141800
606.521423	735.076843	18188.859375	14210.247070	77.204865
606.860229	734.185242	18043.523438	14131.039063	77.396683
607.199036	728.761047	17812.369141	13969.059570	77.502945
607.537903	738.494812	17545.994141	13793.778320	77.675346
607.876648	741.987000	17260.523438	13559.057617	77.592041
608.215271	742.952942	16972.080078	13341.870117	77.631516
608.553955	739.832275	16715.662109	13118.739258	77.485222
608.892578	736.860107	16497.060547	12930.307617	77.368607
609.231140	734.259521	16367.774414	12800.352539	77.180939
609.569641	728.389587	16284.780273	12737.046875	77.194366
609.908081	723.559875	16276.977539	12762.532227	77.404030
610.246521	730.024231	16296.742188	12785.937500	77.446724
610.584961	729.578369	16346.450195	12801.765625	77.302208
610.923340	736.117004	16345.632813	12755.101563	76.997803
611.261597	728.166687	16306.772461	12706.583008	76.890167
611.599854	733.739319	16209.881836	12634.434570	76.897041
611.938110	730.618652	16106.823242	12585.023438	77.095772
612.276245	727.126404	15946.702148	12445.780273	76.997246
612.614319	722.593933	15718.815430	12278.003906	77.055473
612.952393	722.148193	15421.379883	12049.299805	77.059479
613.290466	726.086182	15099.799805	11830.405273	77.254349
613.628479	732.773438	14790.848633	11562.395508	77.034882
613.966370	731.807434	14517.562500	11371.363281	77.177895
614.304260	735.002502	14272.958008	11171.414063	77.090012
614.642151	725.343201	14073.901367	11038.858398	77.263138
614.979980	721.999512	13890.372070	10889.360352	77.210457
615.317749	717.615723	13730.993164	10806.663086	77.528275
615.655396	722.668274	13619.539063	10756.210938	77.798271
615.993164	728.538269	13566.265625	10692.905273	77.617844
616.330811	733.219238	13534.835938	10660.583008	77.547729
616.668396	731.287415	13507.417969	10580.559570	77.091202
617.005859	731.361633	13465.510742	10550.465820	77.108444
617.343445	732.179016	13441.584961	10551.284180	77.258568
617.680908	737.157227	13431.406250	10572.014648	77.474907
618.018311	741.763977	13497.237305	10610.354492	77.367500
618.355652	745.627747	13544.122070	10600.174805	76.997704
618.692993	740.575195	13542.933594	10595.122070	76.974464
619.030273	734.482422	13492.629883	10584.645508	77.206848
619.367554	723.559875	13473.386719	10580.186523	77.307922
619.704712	727.869385	13477.843750	10598.540039	77.417183
620.041870	734.928223	13506.749023	10607.753906	77.301636
620.379028	739.237793	13474.129883	10589.475586	77.348419
620.716064	739.906555	13430.217773	10549.055664	77.296364
621.053040	731.807556	13309.028320	10467.322266	77.405930
621.389954	731.733215	13212.211914	10421.922852	77.642769
621.726929	724.748718	13144.002930	10360.920898	77.590584
622.063843	727.200684	13111.308594	10321.911133	77.475998
622.400635	728.389587	13083.890625	10282.752930	77.328819
622.737427	732.550537	13034.034180	10248.054688	77.352493
623.074219	733.962219	12977.118164	10216.920898	77.455185
623.410889	733.367859	12920.425781	10167.509766	77.411148
623.747559	731.213074	12908.239258	10159.113281	77.423668
624.084167	731.213074	12870.643555	10134.742188	77.462685
624.420715	734.853943	12891.374023	10123.894531	77.234612
624.757324	735.299622	12900.140625	10111.040039	77.072441
625.093750	735.448303	12951.039063	10131.028320	76.914658
625.430176	733.590820	12964.933594	10163.051758	77.092606
625.766602	738.271912	12992.351563	10209.565430	77.290939
626.102905	744.884766	13065.911133	10280.153320	77.390213
626.439209	741.318298	13180.559570	10351.483398	77.256844
626.775452	740.426575	13276.335938	10438.343750	77.361099
627.111694	732.847717	13331.468750	10480.843750	77.373512
627.447876	739.534973	13427.245117	10553.437500	77.349678
627.783997	740.278015	13467.218750	10560.348633	77.159706
628.120056	739.757874	13571.987305	10617.932617	76.979408
628.456055	729.727051	13564.778320	10615.926758	77.025009
628.792053	726.086182	13567.454102	10629.970703	77.124840
629.128052	725.789063	13479.109375	10579.147461	77.261124
629.463928	731.807434	13392.620117	10516.510742	77.283371
629.799744	734.928223	13295.135742	10441.835938	77.283028
630.135559	737.083008	13162.058594	10360.028320	77.448402
630.471375	741.318298	13013.750000	10254.295898	77.515015
630.807068	745.925049	12869.007813	10117.504883	77.303604
631.142700	747.113831	12754.581055	10018.310547	77.211922
631.478333	748.302734	12611.102539	9896.156250	77.113785
631.813965	739.386414	12485.382813	9806.102539	77.189842
632.149475	737.380188	12328.901367	9673.916992	77.095459
632.484924	731.213135	12246.277344	9623.614258	77.224068
632.820435	734.110840	12173.014648	9565.137695	77.201691
633.155884	732.922058	12131.257813	9511.342773	77.014931
633.491150	735.374023	12065.499023	9454.724609	76.957230
633.826477	738.940613	12005.461914	9432.136719	77.159538
634.161804	742.730042	11929.971680	9400.483398	77.389526
634.497009	741.912781	11865.401367	9374.477539	77.606628
634.832153	740.278015	11784.709961	9286.501953	77.380386
635.167297	739.163391	11728.536133	9238.874023	77.344818
635.502380	731.361633	11644.277344	9158.924805	77.225586
635.837463	728.018066	11572.946289	9115.605469	77.341110
636.172424	720.736328	11495.820313	9037.215820	77.182503
636.507324	725.863281	11415.648438	8966.851563	77.092178
636.842224	725.640381	11296.020508	8897.973633	77.313522
637.177124	733.293518	11160.492188	8827.311523	77.624092
637.511963	727.869446	11025.706055	8747.139648	77.873344
637.846741	728.389587	10909.200195	8649.875977	77.808014
638.181396	726.011902	10790.463867	8555.512695	77.793610
638.516113	729.652649	10726.787109	8474.596680	77.471634
638.850769	732.550476	10643.939453	8398.733398	77.347214
639.185303	735.002502	10575.952148	8336.170898	77.240196
639.519836	738.123230	10517.921875	8256.964844	76.881355
639.854370	730.470032	10443.097656	8204.655273	76.953270
640.188843	732.922058	10356.461914	8139.789063	76.966141
640.523254	728.018066	10232.599609	8085.250488	77.407219
640.857605	734.556641	10141.355469	7998.464844	77.219765
641.191895	729.727051	10061.554688	7939.246094	77.257309
641.526184	730.024231	10011.028320	7885.153809	77.094345
641.860413	724.154297	9965.333008	7854.466797	77.158043
642.194580	723.708496	9913.097656	7817.314941	77.193451
642.528748	726.532043	9826.980469	7755.569824	77.238365
642.862793	724.748718	9760.777344	7718.046875	77.393494
643.196838	723.559875	9721.545898	7667.149902	77.168266
643.530823	717.392761	9674.363281	7635.718750	77.239578
643.864746	722.222412	9630.152344	7568.623535	76.857384
644.198669	717.838562	9561.050781	7522.407715	76.946808
644.532532	730.247131	9523.750977	7495.138184	76.930550
644.866333	730.841553	9486.153320	7469.578125	76.967407
645.200073	740.129395	9466.018555	7462.890625	77.043854
645.533813	736.042725	9446.476563	7449.144531	77.069656
645.867554	738.271790	9426.786133	7451.448730	77.264954
646.201172	740.723816	9421.064453	7429.455078	77.056091
646.534729	736.785828	9451.973633	7440.154297	76.915939
646.868225	735.819824	9471.813477	7459.546875	76.965790
647.201782	729.504089	9469.807617	7461.925293	77.027313
647.535217	731.956055	9455.169922	7467.349121	77.212288
647.868591	730.915833	9452.197266	7457.912598	77.133125
648.201965	726.532043	9470.549805	7469.058105	77.110161
648.535278	725.714661	9470.996094	7462.371094	77.031898
648.868591	732.402039	9476.198242	7452.042969	76.850388
649.201782	727.497986	9447.887695	7420.761719	76.754181
649.534912	724.228699	9401.968750	7413.033691	77.080032
649.868103	721.628113	9325.585938	7366.817871	77.234108
650.201172	734.705322	9271.122070	7344.526855	77.430862
650.534180	738.643311	9229.363281	7300.836426	77.286659
650.867188	735.374023	9196.075195	7314.433594	77.760216
651.200134	722.222473	9172.819336	7309.679199	77.952560
651.533020	718.953125	9137.301758	7265.021973	77.759537
651.865845	719.770447	9087.446289	7199.486816	77.437469
652.198608	729.058289	9041.898438	7163.153809	77.399490
652.531433	733.219238	9007.718750	7148.367188	77.529129
652.864136	734.779602	8990.704102	7126.894043	77.424568
653.196777	1032.807739	9301.288086	7427.820313	77.342056
653.529358	1049.228760	9252.917969	7418.160645	77.634964
653.861938	1054.058472	9207.147461	7381.752441	77.611000
654.194519	761.974365	8818.915039	6988.394043	77.280205
654.526978	746.147949	8797.218750	6923.007324	76.720970
654.859375	737.974670	8733.020508	6877.756348	76.794830
655.191833	738.197571	8686.656250	6867.131348	77.108452
655.524170	737.974609	8614.508789	6844.023438	77.522026
655.856445	737.157227	8589.617188	6820.767090	77.473938
656.188660	750.383118	8579.883789	6795.875000	77.214272
656.520874	751.943542	8543.624023	6757.906738	77.081741
656.853088	748.302673	8541.990234	6748.619141	76.989441
657.185181	722.668274	8496.218750	6747.132813	77.499519
657.517212	719.176025	8535.376953	6761.621582	77.306679
657.849243	722.519714	8550.163086	6787.479004	77.481293
658.181274	727.126404	8616.664063	6814.971191	77.163521
658.513123	721.776550	8655.524414	6849.447754	77.235519
658.844971	720.216248	8719.499023	6895.738281	77.200943
659.176819	722.816833	8791.794922	6938.239746	77.028625
659.508667	729.727051	8872.858398	6985.125000	76.818092
659.840393	735.002441	8953.477539	7041.669434	76.737686
660.172058	734.482422	8992.634766	7080.306641	76.843147
660.503662	731.510254	9014.331055	7123.328125	77.169586
660.835266	729.281189	9049.700195	7144.207031	77.098595
661.166931	728.092468	9034.170898	7146.658203	77.275528
661.498413	736.711609	9018.715820	7123.698730	77.118866
661.829773	733.962341	8922.940430	7051.476563	77.146553
662.161194	729.949951	8820.625000	6965.212402	77.067276
662.492615	726.011902	8686.210938	6862.896973	77.094620
662.823975	730.692932	8530.175781	6762.587891	77.337112
663.155212	738.791992	8390.188477	6668.000000	77.491844
663.486450	733.590759	8227.912109	6557.586426	77.712112
663.817627	734.408142	8093.943848	6446.355469	77.612877
664.148743	732.401917	7973.275879	6339.954590	77.443039
664.479858	733.219238	7872.596191	6261.119141	77.428322
664.810913	728.166687	7809.735840	6195.881348	77.210495
665.141907	726.309082	7743.235840	6131.980469	77.037590
665.472778	727.646545	7669.675781	6073.429688	77.006058
665.803711	739.237793	7590.320313	6036.725098	77.323364
666.134583	739.980774	7524.859375	6011.981934	77.702217
666.465454	740.946777	7516.017578	5986.570313	77.425369
666.796143	734.631042	7478.271484	5961.455566	77.507462
667.126831	733.070618	7469.207031	5949.716309	77.442696
667.457458	725.194641	7437.703125	5933.369629	77.589104
667.788147	721.776672	7430.644043	5906.100098	77.275688
668.118774	721.256592	7399.882324	5875.041504	77.168343
668.449219	729.429871	7381.158203	5861.444824	77.153107
668.779663	728.389648	7373.728027	5875.189941	77.449783
669.110107	729.801331	7351.585938	5854.311035	77.388649
669.440552	729.652771	7332.415527	5838.484863	77.374161
669.770874	734.408020	7282.781250	5811.735840	77.535713
670.101135	732.327637	7272.973145	5819.240234	77.773865
670.431396	732.550476	7234.187500	5793.902832	77.847351
670.761597	726.903503	7202.979980	5742.560547	77.449013
671.091797	724.971680	7160.404785	5691.216797	77.170334
671.421875	725.640381	7135.587402	5668.405762	77.110863
671.751892	739.312073	7107.724121	5657.334473	77.225258
672.081909	743.918762	7072.355957	5639.428223	77.357323
672.411865	742.581360	7011.947754	5605.620605	77.568275
672.741821	727.943787	6970.635254	5561.707031	77.430756
673.071716	730.470032	6930.884277	5560.220703	77.893997
673.401550	721.479309	6921.298828	5536.295410	77.660583
673.731262	725.863281	6887.564941	5529.905762	77.966164
674.060974	722.742493	6849.076172	5488.221191	77.786797
674.390625	735.522644	6822.847168	5471.355469	77.798264
674.720276	734.779602	6801.670410	5439.627441	77.549568
675.049927	732.773499	6770.166504	5396.755371	77.251587
675.379395	728.835449	6700.173828	5359.083984	77.541222
675.708923	730.098572	6642.738281	5307.146484	77.411240
676.038330	726.829163	6602.019531	5264.645020	77.236916
676.367737	727.126465	6584.855469	5240.867676	77.056160
676.697083	724.600159	6556.620605	5248.001465	77.561478
677.026428	731.064453	6526.007813	5239.679688	77.802574
677.355652	729.504089	6500.447754	5207.878418	77.602112
677.684875	734.110840	6497.550293	5183.580566	77.201637
678.013977	734.036621	6505.203125	5182.986328	77.089264
678.343079	736.191406	6500.002441	5184.026367	77.168297
678.672180	729.058289	6512.335938	5182.912109	77.012627
679.001221	726.457703	6513.524902	5196.063477	77.234383
679.330139	723.931396	6543.617676	5220.880371	77.271332
679.659058	724.228577	6568.286621	5249.784668	77.438591
679.987976	730.024231	6618.291504	5266.354004	77.040146
680.316772	734.110901	6648.979004	5285.895996	76.954971
680.645630	737.305908	6702.997559	5306.180176	76.585823
680.974304	737.900391	6745.498535	5340.805176	76.618057
681.302979	737.751770	6789.485840	5371.417969	76.567574
681.631653	734.556702	6791.714355	5399.727051	77.019135
681.960266	730.024231	6805.832031	5418.229004	77.161835
682.288757	735.894226	6832.877441	5436.878906	77.103455
682.617249	740.798157	6862.524902	5438.735840	76.742035
682.945679	743.993164	6859.924316	5435.912598	76.716354
683.274109	737.751770	6825.894531	5418.748535	76.887108
683.602478	739.460693	6754.117676	5380.705566	77.165581
683.930725	734.482422	6685.833496	5324.606934	77.127434
684.259033	731.213074	6613.759277	5266.205078	77.092331
684.587280	730.395813	6547.259277	5198.069336	76.805542
684.915344	733.367920	6477.934082	5144.942871	76.795616
685.243469	735.819885	6400.064941	5085.204102	76.786652
685.571533	738.420410	6328.882813	5058.529297	77.276413
685.899536	742.061218	6260.895996	5002.356934	77.195564
686.227539	740.649597	6209.478516	4969.068848	77.318550
686.555420	738.569031	6175.596191	4929.985352	77.090225
686.883301	736.785828	6159.992188	4930.208496	77.323677
687.211121	737.231628	6153.974121	4916.908691	77.162186
687.538940	736.860046	6170.692871	4921.144043	77.004280
687.866638	727.497986	6162.147949	4909.700684	76.954407
688.194336	722.593994	6172.104004	4924.486816	77.105881
688.521973	717.169922	6159.844238	4917.502441	77.174057
688.849609	721.182190	6150.853027	4911.484375	77.174149
689.177063	722.965515	6122.172363	4879.831055	76.990303
689.504578	725.714661	6070.160645	4842.011230	77.020081
689.832031	729.281250	6011.089844	4803.001953	77.127380
690.159485	727.423645	5931.957520	4743.336914	77.161827
690.486816	723.411316	5848.070313	4694.371582	77.487305
690.814087	728.909668	5758.833496	4638.792969	77.732452
691.141296	734.259460	5673.161621	4592.131348	78.111931
691.468506	737.008728	5588.828125	4532.391602	78.225975
691.795715	728.983948	5530.425781	4460.838379	77.723618
692.122803	729.949951	5468.531250	4401.916016	77.490837
692.449829	730.767334	5419.194824	4356.591797	77.335617
692.776855	733.145020	5357.300293	4319.737305	77.562111
693.103821	731.064514	5303.430664	4280.208008	77.621597
693.430664	725.120300	5250.304199	4225.372559	77.350494
693.757568	728.166687	5193.388184	4177.521973	77.249359
694.084351	731.584656	5128.299316	4121.051758	77.090897
694.411133	738.346130	5082.306152	4092.742432	77.219780
694.737854	737.380188	5041.067871	4052.619141	77.032524
695.064575	738.197510	5031.482910	4036.197998	76.817642
695.391174	743.027161	4998.195313	4018.365234	76.973183
695.717773	740.055176	4981.774902	3996.520264	76.772285
696.044250	736.562805	4946.258301	3996.668945	77.442810
696.370789	735.894104	4954.653809	3985.449219	77.026314
696.697205	740.500977	4971.074707	4001.870117	77.090469
697.023621	744.587585	5024.201172	4030.402344	76.778297
697.349915	748.079773	5088.695801	4076.024414	76.669868
697.676208	744.364685	5144.720215	4134.574707	77.043999
698.002380	740.723877	5218.354492	4181.533691	76.844429
698.328674	734.853943	5296.817871	4245.062988	76.945129
698.654724	730.172852	5396.309082	4318.474121	76.900909
698.980896	731.807434	5491.045410	4390.696777	76.879738
699.306946	728.389587	5572.927246	4468.714355	77.207054
699.632935	724.154297	5642.548828	4512.181152	77.017548
699.958862	717.838623	5674.498535	4532.985840	76.970116
700.284729	711.522888	5668.331543	4522.212402	76.877884
700.610596	719.844788	5622.041504	4505.122559	77.215950
700.936340	726.829285	5573.818848	4465.593750	77.135803
701.262146	733.144958	5480.197266	4366.696777	76.543327
701.587830	732.253235	5376.767578	4287.861816	76.555016
701.913513	731.584656	5227.196289	4184.729492	76.811455
702.239075	731.658936	5084.312500	4112.135742	77.664742
702.564697	731.658875	4955.768555	4004.025146	77.468773
702.890137	729.727051	4831.608398	3905.276611	77.416901
703.215698	730.618652	4741.033691	3813.289795	76.866638
703.541016	734.036621	4649.789551	3738.095703	76.717278
703.866455	729.875671	4593.765625	3669.514404	76.079773
704.191711	735.299744	4517.085449	3603.236328	75.835510
704.517029	724.080017	4444.045898	3544.759766	75.825417
704.842163	729.652771	4353.099121	3520.091553	77.010628
705.167419	729.875671	4307.700195	3496.017334	77.313507
705.492493	736.711487	4273.000977	3485.094727	77.719406
705.817566	737.454590	4239.564941	3450.321045	77.463760
706.142578	730.395752	4204.716797	3430.927979	77.728348
706.467590	730.692932	4180.345703	3408.265869	77.618622
706.792480	727.795166	4172.989746	3402.396240	77.632805
707.117371	732.253357	4170.908691	3397.714844	77.514648
707.442200	736.785828	4170.760254	3402.990234	77.641937
707.766907	733.442200	4175.441406	3403.882080	77.583977
708.091675	728.612488	4179.750488	3420.228516	77.992126
708.416321	725.045959	4186.141113	3406.111328	77.462921
708.741028	729.058350	4195.800293	3413.466797	77.433174
709.065552	729.652771	4203.676270	3407.077148	77.069839
709.390137	732.179016	4200.704102	3411.980713	77.260551
709.714600	735.374023	4214.598633	3432.785889	77.529106
710.039063	734.110840	4234.660645	3456.116455	77.759377
710.363403	729.652771	4284.443359	3504.190674	78.050667
710.687744	730.544373	4330.362793	3537.180908	77.966057
711.012085	729.949951	4390.398926	3568.685547	77.551567
711.336304	734.036560	4430.076660	3589.936279	77.269173
711.660461	725.789001	4471.240723	3599.075195	76.714012
711.984619	725.937500	4495.686035	3618.765625	76.737961
712.308716	727.200684	4521.469238	3630.059570	76.506416
712.632751	733.070557	4514.559082	3640.164795	76.876984
712.956726	737.528809	4488.478027	3633.923096	77.217636
713.280701	741.689758	4440.330078	3621.068359	77.849655
713.604553	741.095276	4406.151367	3588.524170	77.691277
713.928467	738.791992	4346.412109	3544.982666	77.785095
714.252258	739.757874	4300.642090	3487.546875	77.165916
714.575989	741.466797	4242.091309	3444.302734	77.210106
714.899719	740.500916	4186.066895	3404.253174	77.309570
715.223267	738.643311	4144.902832	3377.281250	77.464386
715.546936	742.061218	4107.974609	3344.216797	77.309044
715.870422	747.856934	4090.439209	3318.285156	76.899475
716.193970	734.556702	4054.699951	3301.715820	77.320732
716.517395	732.922058	4033.968994	3286.409424	77.353867
716.840820	722.445313	3996.297607	3270.954346	77.844353
717.164124	724.080078	3976.755859	3230.830811	77.067345
717.487488	713.826233	3931.505859	3202.447266	77.342102
717.810730	729.652771	3906.762939	3162.546875	76.575691
718.133972	736.637207	3850.515625	3132.825439	76.951889
718.457092	743.175842	3798.355469	3085.494873	76.667145
718.780212	731.881775	3750.653076	3056.814209	77.015854
719.103210	730.395752	3699.383789	3019.811279	77.110970
719.426208	729.801331	3665.279053	2975.972656	76.518082
719.749207	741.838379	3619.360107	2943.205078	76.502174
720.072083	743.250183	3579.236328	2909.694580	76.391220
720.394958	737.900391	3531.088623	2889.632813	77.034996
720.717773	725.640442	3484.723389	2844.307861	76.788826
721.040527	721.702332	3443.782471	2816.444580	76.953728
721.363281	726.309082	3411.238037	2799.057861	77.199387
721.685913	732.030457	3384.340576	2789.621338	77.577309
722.008545	736.711426	3350.755615	2771.937256	77.857361
722.331055	730.470032	3300.526611	2747.194580	78.470047
722.653503	726.829285	3272.589111	2715.467529	78.115707
722.976013	726.457703	3265.604492	2700.235107	77.733879
723.298401	734.259460	3287.672119	2689.684082	76.580833
723.620789	730.990173	3272.588867	2684.260010	76.852013
723.943115	729.801331	3264.415771	2665.833008	76.383675
724.265381	725.789063	3232.985596	2655.802002	76.978928
724.587585	733.962341	3231.128174	2650.303711	76.740654
724.909790	737.900391	3222.583252	2656.842285	77.230858
725.231873	743.844543	3233.877197	2648.371826	76.486038
725.553894	742.581360	3238.261475	2656.322510	76.682152
725.875916	835.757019	3340.798828	2775.652344	77.439636
726.197937	838.357666	3336.637939	2782.562500	77.821724
726.519775	838.431946	3339.833252	2772.382813	77.314697
726.841675	738.569031	3239.895752	2665.684326	77.043724
727.163513	732.922058	3254.384766	2667.021729	76.705467
727.485291	733.813660	3248.217773	2680.544922	77.423164
727.806946	741.318176	3283.288818	2699.195068	77.022011
728.128662	740.129395	3305.876953	2722.823242	77.275482
728.450256	736.562805	3345.703125	2740.284424	76.796242
728.771790	727.423645	3356.402344	2741.547607	76.612411
729.093323	728.389587	3355.139404	2754.550537	77.135666
729.414795	729.801331	3347.931885	2768.742188	77.877739
729.736145	731.287415	3340.873047	2775.949463	78.351982
730.057495	726.903564	3340.650391	2763.020752	77.900322
730.378845	728.463867	3350.904297	2749.497803	77.066917
730.700134	730.024231	3346.000000	2728.916016	76.410942
731.021301	730.024231	3345.257080	2726.909912	76.355942
731.342468	727.200745	3336.489502	2728.470215	76.697891
731.663574	727.646484	3350.235352	2730.550781	76.371262
731.984680	734.631042	3358.928955	2752.321533	76.884964
732.305664	735.671204	3389.838623	2757.151123	76.162491
732.626648	735.671204	3396.749023	2763.541016	76.204826
732.947571	730.321472	3410.792236	2757.745361	75.636856
733.268433	725.863281	3406.482422	2754.178955	75.665939
733.589233	727.423584	3387.981201	2757.968018	76.320259
733.909973	734.556702	3360.637451	2746.376953	76.609230
734.230713	735.522705	3327.498779	2732.036865	77.026718
734.551331	739.460693	3301.195313	2707.888184	76.839630
734.871948	736.339905	3263.746826	2669.622314	76.492722
735.192505	740.203613	3207.500000	2644.062256	77.163757
735.513062	734.185242	3172.057373	2604.013184	76.699181
735.833435	724.971680	3124.503906	2576.447021	77.159843
736.153931	725.863281	3078.956055	2537.958008	77.009064
736.474304	728.835449	3029.693359	2508.385498	77.342896
736.794617	734.779602	2991.353271	2485.797607	77.596313
737.114807	730.395752	2980.356445	2471.828369	77.398354
737.434998	729.206848	2971.217529	2463.432373	77.351349
737.755188	735.968445	2978.350342	2464.101074	77.066826
738.075256	736.265625	2983.551514	2461.649170	76.776329
738.395325	735.374023	2984.591797	2471.308350	77.179466
738.715271	723.114075	2992.913818	2471.977295	77.049232
739.035278	725.640381	3000.938477	2477.326904	76.987122
739.355164	721.033630	3009.185791	2481.265137	76.928078
739.675049	726.680603	3026.944336	2496.645752	76.946182
739.994873	725.863281	3031.699463	2501.921143	77.024460
740.314636	736.860107	3038.089600	2503.333008	76.762138
740.634277	741.764099	3019.885498	2483.493896	76.454651
740.953979	739.014832	2996.405518	2465.884033	76.498466
741.273499	735.076843	2963.266602	2438.392334	76.443916
741.593140	738.494812	2921.062744	2411.494873	76.652824
741.912598	739.609314	2885.546143	2369.365234	75.946129
742.232117	736.340027	2846.166016	2352.721436	76.612068
742.551453	735.448425	2809.608643	2340.758545	77.395668
742.870850	739.460693	2774.909424	2325.972168	77.944061
743.190063	738.866272	2732.854248	2283.248047	77.451912
743.509338	730.098572	2705.882080	2255.607666	77.210335
743.828552	726.234802	2678.910400	2242.827637	77.667419
744.147705	728.389587	2667.467529	2234.431396	77.667938
744.466797	733.144958	2644.359619	2204.858887	77.004112
744.785828	737.008606	2626.155518	2182.865234	76.534897
745.104858	740.649475	2588.186768	2171.051025	77.422066
745.423706	739.609314	2575.406494	2163.992188	77.589340
745.742615	737.083008	2559.356934	2157.824951	77.965332
746.061401	731.956055	2565.078369	2153.664307	77.556648
746.380249	729.652649	2552.447021	2143.633301	77.572144
746.698975	730.618652	2544.571045	2133.899658	77.360413
747.017639	736.191406	2539.146729	2116.067139	76.534103
747.336304	742.729980	2535.357422	2108.859863	76.208244
747.654907	745.330566	2532.236816	2103.955811	76.032265
747.973389	742.952881	2532.236572	2095.336670	75.582413
748.291931	745.776367	2538.403809	2089.987061	74.985504
748.610352	744.216064	2535.282959	2084.265625	74.818512
748.928711	736.562805	2543.233643	2100.166260	75.476036
749.247070	733.219238	2532.013916	2097.714355	75.856079
749.565308	735.448425	2534.540283	2104.698975	76.107872
749.883545	738.717712	2523.840576	2099.869385	76.249748
750.201782	733.590820	2525.252441	2114.729736	77.087044
750.519836	735.374023	2504.596191	2103.213135	77.313019
750.837952	742.432800	2487.878174	2088.723877	77.131660
751.155884	746.073547	2464.472656	2063.981201	76.693924
751.473877	739.609192	2465.364502	2058.928467	76.448807
751.791809	732.179016	2447.828857	2049.640625	76.790825
752.109619	729.281189	2445.005371	2042.284546	76.527657
752.427490	724.377197	2429.550537	2030.990601	76.626427
752.745300	724.897278	2433.860107	2021.925415	75.895622
753.062988	724.525818	2424.126221	2011.523071	75.723526
753.380615	730.470032	2417.439209	1999.188843	75.206985
753.698303	733.070618	2410.974609	1996.068237	75.272331
754.015808	737.454529	2416.398682	1993.616211	74.818550
754.333374	737.974609	2413.872314	1999.337524	75.264908
754.650757	739.386414	2408.894287	2001.492554	75.597504
754.968262	737.677429	2392.696289	2006.990845	76.694809
755.285583	733.962219	2399.309326	2004.687500	76.303932
755.602905	731.956116	2386.009033	1990.049805	76.061272
755.920105	722.296692	2372.560303	1977.418457	76.055832
756.237305	722.148132	2352.647217	1972.365845	76.677002
756.554443	724.377258	2356.362305	1971.696899	76.429596
756.871582	731.287354	2356.065186	1974.892090	76.539986
757.188599	732.699036	2357.253906	1967.684570	76.019936
757.505615	730.395691	2352.944336	1964.860962	76.081871
757.822510	728.389587	2369.885010	1969.022095	75.579414
758.139465	731.881836	2377.910156	1976.675293	75.624062
758.456238	735.596924	2398.937744	2001.863770	76.127922
758.773010	735.299744	2415.656006	2019.845093	76.444832
759.089783	736.488586	2430.962158	2031.213501	76.408676
759.406433	735.968445	2435.643311	2030.098999	76.139893
759.723145	736.934387	2438.020752	2030.990601	76.072334
760.039673	731.658936	2450.949463	2047.337280	76.524490
760.356201	724.005676	2451.915527	2050.532227	76.770592
760.672668	725.714661	2440.770264	2050.532227	77.246330
760.989136	718.135742	2431.110840	2051.126709	77.817299
761.305481	718.433044	2431.556641	2053.281250	77.918968
761.621826	716.575439	2446.565674	2052.315430	77.210838
761.938049	724.525879	2447.977539	2042.581665	76.477676
762.254333	736.117004	2461.351807	2046.296875	75.942123
762.570496	734.928223	2505.933594	2067.844727	75.263268
762.886597	731.807434	2576.521240	2119.633789	75.232613
763.202637	716.352539	2681.362549	2208.499756	75.935860
763.518677	719.547546	2796.680420	2306.356201	76.394180
763.834656	724.080078	2932.951416	2408.671143	76.264786
764.150574	735.596985	3069.594482	2499.766602	75.585754
764.466370	738.420410	3161.878174	2567.678955	75.481346
764.782288	736.562805	3207.722656	2596.434326	75.263100
765.097961	727.572205	3192.119141	2595.022461	75.772560
765.413696	727.572205	3154.447998	2567.753418	75.825111
765.729309	723.411316	3083.488525	2526.218018	76.387611
766.044861	733.442139	2973.074951	2443.965088	76.375153
766.360474	732.179016	2830.785156	2351.680908	77.170357
766.675903	739.014893	2695.405273	2245.874023	77.022415
766.991394	727.795166	2585.437500	2156.562256	76.912926
767.306763	724.674500	2504.373291	2075.423828	75.897636
767.622131	728.241028	2426.057861	2011.003296	75.553627
767.937378	737.528809	2356.510986	1955.276245	75.216850
768.252625	745.999329	2300.783691	1917.678833	75.359612
768.567810	740.426575	2245.948242	1879.487427	75.658875
768.882996	734.631042	2199.509033	1853.481445	76.378403
769.197998	725.343079	2150.246338	1823.166016	77.045441
769.513062	731.138855	2128.327148	1804.218750	76.802811
769.828064	732.996338	2101.281006	1780.218750	76.535423
770.142944	735.225403	2085.529053	1753.098267	75.381035
770.457825	732.327637	2054.544678	1742.621704	76.409096
770.772705	733.962219	2037.380737	1724.268921	75.977646
771.087402	734.036621	2007.288086	1715.278320	77.065819
771.402100	735.522644	1976.600952	1677.235352	75.878586
771.716736	737.900330	1953.567017	1670.547974	76.719025
772.031372	740.946777	1944.799316	1668.541870	77.052216
772.345947	740.203674	1936.477539	1660.739868	76.950287
772.660461	731.064453	1924.291870	1644.096191	76.517830
772.974854	726.754883	1898.508789	1612.740601	75.611931
773.289246	729.652771	1887.363403	1609.099731	75.964310
773.603638	727.795227	1863.437988	1595.428101	76.400154
773.917908	725.268860	1855.264648	1597.508423	77.189629
774.232178	720.736389	1844.564941	1585.991577	76.991737
774.546265	727.349304	1840.478394	1580.641724	76.657089
774.860474	730.321472	1826.583618	1561.694702	75.837082
775.174561	722.891113	1810.757324	1550.994995	76.121849
775.488586	730.024231	1804.961792	1538.512207	75.212555
775.802551	739.386414	1805.630493	1543.044800	75.372833
776.116516	747.411072	1795.748047	1536.951782	75.313644
776.430359	743.770203	1779.773071	1531.750610	76.059669
776.744202	736.488586	1768.256226	1526.252319	76.544731
777.057922	736.488586	1758.968262	1517.410156	76.375267
777.371704	739.906494	1752.355347	1511.465942	76.207253
777.685303	744.290344	1732.070679	1504.407227	76.952019
777.998962	740.055176	1720.702515	1505.075806	78.011803
778.312500	729.504089	1710.448608	1501.435059	78.692619
778.626038	729.429871	1712.752075	1491.552734	77.504898
778.939453	735.894104	1723.823120	1490.363892	76.368828
779.252869	740.426575	1724.937622	1496.679688	76.815094
779.566223	732.476257	1716.318726	1496.308105	77.637619
779.879578	729.875671	1707.253540	1490.438354	77.816650
780.192749	725.566101	1698.263062	1468.221680	76.350151
780.505920	730.692871	1700.120605	1464.803711	75.726204
780.819031	728.835388	1683.328125	1451.800903	75.743431
781.132141	740.946716	1678.944336	1465.695435	77.265518
781.445190	735.671204	1665.569824	1453.063965	77.147415
781.758118	735.745605	1669.433472	1454.178345	76.945709
782.071045	724.600159	1657.990845	1431.739136	75.760239
782.383911	727.869446	1651.526489	1435.900024	76.655136
782.696838	729.132629	1634.213989	1427.058105	77.111908
783.009583	735.374023	1635.254395	1425.794922	76.723633
783.322266	731.807434	1626.635254	1410.042847	75.795074
783.634888	732.104736	1621.136841	1405.138794	75.704132
783.947510	726.606262	1612.071899	1389.312378	74.842667
784.260132	729.132568	1600.629272	1385.597290	75.326126
784.572571	725.194519	1590.078247	1379.207153	75.618561
784.885010	725.937561	1578.858398	1384.631226	77.227997
785.197449	729.281250	1577.818359	1373.783081	75.954468
785.509766	729.355530	1572.394165	1374.154419	76.485092
785.822083	731.733215	1563.180664	1368.953247	76.639847
786.134277	730.915833	1559.242676	1369.250488	77.063141
786.446533	743.398743	1549.063110	1361.968872	76.777649
786.758606	738.791992	1544.530762	1354.315796	76.392479
787.070740	736.191406	1543.936157	1351.194946	76.138351
787.382690	721.033691	1550.474976	1348.965820	75.705437
787.694641	722.668274	1569.422241	1362.860474	75.605453
788.006653	720.736511	1588.294922	1377.646606	75.719406
788.318481	724.451477	1619.650757	1395.182129	74.925293
788.630310	723.782776	1634.065430	1406.847656	75.038765
788.942017	723.857117	1664.603882	1426.315063	74.670250
789.253784	728.538147	1677.161011	1446.228149	75.655991
789.565430	732.327637	1685.334106	1451.652344	75.479523
789.877014	736.042725	1665.941040	1433.522461	75.006020
790.188538	730.321472	1652.046509	1416.878540	74.486107
790.500061	732.847839	1632.950806	1395.182129	73.584282
790.811462	733.665039	1605.904663	1383.516602	74.503792
791.122925	735.522644	1584.876953	1365.015259	74.114258
791.434204	727.349365	1555.899048	1352.161011	75.410278
791.745483	731.436035	1543.267578	1337.449097	74.647636
792.056702	724.748718	1520.976685	1322.439819	75.065323
792.367920	729.652649	1513.620728	1314.415039	74.590080
792.678955	724.451477	1496.679688	1317.164307	76.753586
792.990112	734.036621	1488.432251	1315.752563	77.110191
793.301086	737.751709	1475.057617	1310.031250	77.617653
793.612122	741.466797	1466.290039	1299.108765	76.934891
793.922974	743.250061	1462.723267	1285.139771	75.317566
794.233826	736.042786	1461.237305	1279.492798	74.938515
794.544556	732.624817	1454.921753	1277.040894	75.372887
794.855286	726.754883	1450.240601	1283.208008	76.912804
795.166016	736.860046	1459.008179	1285.140015	75.923477
795.476624	738.346130	1469.113403	1294.502075	76.105751
795.787292	741.169678	1475.949219	1298.217041	75.811493
796.097778	730.247131	1481.967773	1311.665894	77.345055
796.408264	732.699036	1497.274048	1316.569824	76.365402
796.718689	735.968445	1513.843628	1326.229248	75.881172
797.029053	739.089172	1519.119141	1334.105347	76.281197
797.339355	737.231628	1515.106812	1327.938110	75.938469
797.649658	726.457703	1509.385376	1329.201294	76.985855
797.959839	729.949890	1498.834473	1308.990967	75.309235
798.270020	729.504089	1488.134888	1295.839478	74.652306
798.580078	738.717590	1477.658203	1281.944946	73.514343
798.890137	730.470032	1466.215698	1281.647705	74.914162
799.200195	721.925293	1465.621216	1282.539307	75.382156
799.510071	719.027527	1454.475708	1275.852051	75.712273
799.820007	721.405090	1450.834961	1268.421753	74.992355
800.129883	727.126465	1439.912476	1266.787231	75.711472
800.439575	726.606262	1432.853516	1258.911011	75.370880
800.749329	731.956116	1423.045532	1258.539551	76.196136
801.058960	735.522644	1415.986938	1247.839966	75.289375
801.368591	735.745544	1400.383423	1248.731567	77.182785
801.678162	732.624817	1393.919067	1237.734863	76.382042
801.987671	724.228699	1388.866577	1230.304565	76.143097
802.297119	723.336975	1391.095581	1216.930054	73.917892
802.606506	725.566101	1389.758179	1207.865112	72.614388
802.915894	729.355530	1383.293823	1204.818726	72.707657
803.225159	726.754883	1376.755249	1207.865112	74.016914
803.534424	728.835449	1364.569580	1216.855591	76.764816
803.843628	729.801331	1355.058716	1214.329346	77.492569
804.152771	737.083008	1360.557129	1216.632690	76.915733
804.461792	741.987000	1366.278442	1215.518188	75.850983
804.770874	741.912659	1369.101929	1216.929932	75.737465
805.079773	744.810486	1367.690308	1217.152832	75.832016
805.388733	737.751648	1371.405273	1213.140503	75.023460
805.697571	742.581360	1385.968750	1230.081543	75.770866
806.006470	738.420410	1389.981079	1237.363281	76.576576
806.315125	744.141785	1395.256470	1246.725464	77.188194
806.623901	740.129395	1394.810669	1244.942261	77.108185
806.932495	737.008728	1393.844727	1249.251709	77.986435
807.241150	733.442200	1392.061523	1243.010132	77.369110
807.549622	732.624817	1385.671509	1241.226929	77.881432
807.858154	727.795166	1388.643555	1231.419067	76.208687
808.166565	719.176025	1379.950195	1236.917358	78.353752
808.474915	721.999512	1373.114258	1234.614014	78.728752
808.783264	726.086243	1358.625366	1231.864868	79.960052
809.091492	726.086182	1359.219727	1213.214844	76.939323
809.399719	723.485596	1358.625244	1196.571045	74.485268
809.707825	727.795166	1358.179565	1184.979858	72.524750
810.015930	737.231628	1349.114380	1186.317261	73.394066
810.323975	738.569031	1338.117676	1180.224487	73.664658
810.632080	742.358459	1329.647095	1174.874634	73.646271
810.939880	736.860046	1310.402710	1168.558838	75.268822
811.247864	732.773438	1299.480225	1162.763184	75.875168
811.555664	722.371094	1296.285278	1163.283325	76.825462
811.863464	718.284424	1292.198608	1153.846802	75.893295
812.171143	718.581604	1294.204834	1158.973755	76.507011
812.478882	720.439209	1287.740479	1156.744751	76.908966
812.786438	729.132629	1293.981812	1162.540405	76.729820
813.094055	725.714661	1288.334839	1154.887207	76.281044
813.401489	734.110901	1280.235962	1138.912109	74.122437
813.708984	733.219238	1275.926392	1137.128906	74.424973
814.016357	746.073547	1280.161499	1135.271362	72.871483
814.323730	734.928223	1279.195679	1148.497192	75.986351
814.630981	727.795166	1272.062622	1150.503296	77.665520
814.938232	720.662109	1261.363037	1148.422852	79.112267
815.245361	728.984070	1269.164917	1138.540649	75.818420
815.552490	736.860046	1269.313477	1123.680054	72.648605
815.859619	737.528809	1267.604492	1132.150513	74.446297
816.166565	730.767273	1262.254761	1137.871826	76.597206
816.473572	728.909668	1259.579712	1147.011108	78.787460
816.780457	731.658875	1264.186523	1143.370239	77.312675
817.087341	741.169617	1262.477539	1148.571411	78.149933
817.394043	736.562927	1276.892212	1146.268066	75.825089
817.700806	735.076843	1284.768433	1144.261841	74.439011
818.007507	735.299744	1296.656860	1136.757324	71.515541
818.314209	739.312073	1305.573120	1143.444580	71.368584
818.620667	735.522644	1308.842407	1154.218384	73.030052
818.927246	725.268860	1319.541992	1182.527710	76.944221
819.233704	726.903503	1334.030884	1200.880493	78.068787
819.540161	734.853943	1358.699585	1223.839966	78.382538
819.846497	742.358582	1394.662109	1244.421997	76.967758
820.152832	743.175781	1444.816406	1282.464966	76.861168
820.458984	738.717590	1505.967407	1319.616333	75.711815
820.765259	737.380188	1568.307617	1360.185547	74.953041
821.071350	739.014832	1650.932129	1420.668091	74.749458
821.377502	728.018066	1792.850464	1521.571289	74.523766
821.683472	730.395752	2050.680908	1714.758301	74.556816
821.989441	727.646484	2488.546875	2038.718140	74.454620
822.295349	735.374023	3109.420654	2492.707764	74.022713
822.601196	736.934387	3827.333252	3006.139648	73.427589
822.907043	738.717590	4476.516113	3477.813232	73.280991
823.212769	738.420410	4881.540527	3785.352295	73.541962
823.518494	732.550537	5014.765137	3890.044922	73.735077
823.824097	726.457703	4883.917969	3807.940430	74.119347
824.129700	730.693054	4620.960449	3621.440430	74.307167
824.435242	729.281250	4293.359863	3390.656250	74.672173
824.740723	736.414246	4002.390381	3172.949219	74.603577
825.046082	736.191406	3729.030518	2969.285156	74.614563
825.351501	741.318298	3429.665039	2766.290283	75.324059
825.656799	733.665100	3091.141846	2531.270752	76.251259
825.962036	731.510254	2774.612061	2294.913818	76.521080
826.267212	729.875671	2542.787598	2105.739014	75.892456
826.572449	739.757874	2401.018066	1991.089966	75.324265
826.877502	740.129395	2360.745850	1960.551758	75.306061
827.182495	734.705322	2435.643311	2009.368530	74.938843
827.487488	727.572266	2562.923828	2094.222412	74.462578
827.792419	728.463867	2680.024902	2185.837646	74.677338
828.097290	739.312073	2706.773682	2202.778564	74.383484
828.402100	738.940613	2667.095947	2167.336182	74.080940
828.706848	734.556641	2561.363281	2085.231445	73.936386
829.011597	728.240967	2438.169678	1991.609985	73.884308
829.316223	728.389587	2297.068604	1884.614258	73.706902
829.620789	736.934387	2162.060547	1789.804077	73.879044
829.925354	739.460693	2024.972046	1698.188843	74.579514
830.229797	737.157288	1901.703735	1620.393921	75.843834
830.534302	739.832214	1773.234375	1519.267700	75.424225
830.838562	733.813660	1646.250977	1428.766968	76.164497
831.142944	733.516418	1537.917603	1345.547974	76.085365
831.447144	726.531982	1456.779175	1291.752808	77.401299
831.751404	722.296692	1396.445313	1245.610718	77.625916
832.055542	721.627930	1365.163696	1212.917603	76.342247
832.359619	721.107910	1345.250732	1199.097290	76.583336
832.663635	724.525818	1348.222900	1206.527466	77.281372
832.967651	727.497864	1365.163940	1226.366333	78.233498
833.271545	726.234863	1429.807251	1265.375366	76.629005
833.575439	726.457703	1521.348267	1327.938110	75.668327
833.879211	727.275085	1644.913696	1409.299683	74.323875
834.183044	729.949890	1764.689819	1488.729126	73.330429
834.486694	731.064453	1861.729004	1558.276733	73.161598
834.790344	735.671204	1913.072144	1587.403320	72.340027
835.093933	732.773438	1907.350708	1591.787231	73.133865
835.397522	738.643372	1861.580078	1564.146606	73.512886
835.700928	742.432800	1784.305542	1541.335815	76.679512
836.004395	748.451355	1722.634277	1495.862305	76.721825
836.307739	750.234619	1667.576050	1445.633789	75.805923
836.611023	748.228333	1613.855103	1384.185425	73.467819
836.914307	741.020996	1549.731812	1337.077515	73.704529
837.217529	745.404968	1473.422852	1287.443237	74.453979
837.520691	740.352295	1400.457642	1237.734741	75.348953
837.823730	739.757874	1337.820435	1186.763062	74.742210
838.126831	732.996338	1284.991211	1138.614868	73.482300
838.429749	734.036621	1241.078369	1109.711060	74.091423
838.732727	736.117004	1200.360474	1079.246948	73.911636
839.035522	735.299805	1182.379272	1066.541382	74.090088
839.338379	727.052185	1169.524902	1046.999634	72.308968
839.641113	729.578430	1167.964478	1055.024292	74.237274
839.943848	731.807434	1181.710571	1067.581543	74.632530
840.246460	733.516541	1202.143677	1086.157104	75.249710
840.549072	730.321472	1224.285889	1104.361328	75.722023
840.851563	720.810730	1239.815063	1114.540771	75.862572
841.154053	723.931396	1245.833618	1123.457153	76.551842
841.456482	730.172852	1244.421997	1118.850464	75.581573
841.758850	736.191345	1229.709961	1104.955933	74.721512
842.061157	735.299622	1202.589478	1089.277954	75.751343
842.363403	731.807434	1175.914795	1072.188354	76.643837
842.665588	730.470032	1147.159668	1064.683716	80.206863
842.967712	729.801270	1144.633423	1054.875610	78.362862
843.269775	725.417419	1131.778931	1036.374268	76.522217
843.571777	729.949890	1116.621216	1018.170166	74.538826
843.873840	731.064453	1084.596802	999.297180	75.872185
844.175659	736.488586	1059.408203	988.300476	77.979744
844.477600	735.596924	1042.838745	976.634949	78.452217
844.779297	731.658875	1032.807739	963.780579	77.078728
845.081116	733.219238	1026.269165	952.040710	74.670372
845.382751	737.380188	1013.786316	946.616516	75.698875
845.684387	745.999329	1009.699646	944.238953	75.176102
845.985962	739.237732	1000.337585	938.294739	76.237885
846.287537	736.934387	992.684387	928.412537	74.869270
846.588989	734.556702	981.093079	927.446594	78.239929
846.890381	737.825989	982.430481	920.164856	74.544365
847.191711	735.819824	974.554443	926.554932	79.894196
847.493042	732.624817	981.390320	924.920349	77.299919
847.794250	735.819824	969.353271	928.189636	82.373558
848.095459	736.637207	976.114807	920.759277	76.884880
848.396606	739.683594	966.975586	908.647949	74.338013
848.697693	733.590820	967.124207	906.344543	73.973885
848.998657	732.476257	965.786804	906.418884	74.554123
849.299622	738.271790	970.467834	913.477600	75.455986
849.600464	736.860107	974.034424	912.957520	74.248093
849.901367	727.869446	967.272766	915.038025	78.181282
850.202087	718.730286	956.053040	911.025696	81.026962
850.502808	719.398987	947.582581	914.146423	85.346817
850.803467	729.058350	948.622803	915.929688	85.110016
851.104065	732.401917	949.217285	923.285645	88.039757
851.404663	730.395813	957.167664	918.084473	82.765411
851.705139	723.039734	962.443115	909.985535	78.088203
852.005615	722.371094	964.746521	894.084656	70.846107
852.306030	727.349304	960.585510	892.895813	70.978050
852.606384	729.504150	955.830139	892.004150	71.799088
852.906616	727.200684	955.458679	902.852356	76.953133
853.206909	728.984070	951.372070	898.319885	76.144310
853.506958	735.745605	942.752930	900.251770	79.468765
853.807129	742.952942	940.226746	899.285889	79.246681
854.107178	748.525574	937.774658	909.093811	84.844925
854.407166	749.714417	944.016052	904.709961	79.770584
854.707092	750.680420	950.628967	900.474670	74.916397
855.007019	748.079773	950.108887	887.917542	69.216644
855.306763	745.776428	946.393738	889.552246	71.666710
855.606567	741.912659	936.511414	888.957764	75.563232
855.906250	737.083008	942.827209	893.638855	76.092468
856.205933	735.745605	945.576416	892.821472	74.858345
856.505493	743.101563	946.319519	882.642029	68.665421
856.805054	747.188171	946.542297	882.419128	67.834541
857.104492	742.061340	946.616699	879.372742	67.126770
857.403931	735.522644	947.062500	887.025879	71.619240
857.703308	731.213074	944.461914	883.682190	71.498215
858.002563	735.299805	943.124512	886.654480	72.828049
858.301819	728.761169	938.814941	883.013611	73.434738
858.601013	727.869446	936.139954	892.449951	79.022476
858.900208	724.971680	935.322693	889.552185	78.240891
859.199219	726.383484	935.471252	889.626465	78.073906
859.498291	732.253235	939.855164	886.877258	74.481018
859.797302	725.937683	938.071960	887.174500	76.006958
860.096191	735.745605	941.192627	898.022705	78.987320
860.395020	725.863281	932.945007	895.942200	82.131302
860.693787	736.860107	935.842773	893.490234	78.715462
860.992554	722.445313	926.406311	886.728699	80.546471
861.291260	723.931458	927.149353	882.270508	77.915901
861.589844	720.513489	924.177246	882.047607	79.314117
861.888428	728.686768	935.917175	881.973328	73.969147
862.186890	728.983948	938.369141	889.254944	76.543617
862.485413	724.154297	943.644592	885.093994	73.324287
862.783813	720.290588	944.016113	884.276672	73.297890
863.082153	716.278259	944.610535	882.642029	72.860382
863.380371	728.315247	937.551758	887.991882	76.313942
863.678589	729.949951	930.715881	886.654358	78.053284
863.976746	734.928162	928.263977	882.196106	76.172096
864.274902	729.206848	936.139954	873.874268	69.910233
864.572937	729.578430	943.644531	877.143616	68.934402
864.870911	731.213074	946.690979	881.898926	69.931000
865.168884	733.145020	938.146179	898.096985	80.463921
865.466736	729.429871	934.579651	892.449951	79.463928
865.764587	732.922058	929.304138	889.997986	79.984856
866.062317	733.590759	939.483582	882.419128	72.284386
866.360107	734.408142	942.455750	884.276672	72.035690
866.657715	726.829163	946.022278	883.013489	71.254211
866.955322	726.011902	934.282410	885.019714	76.346771
867.252808	727.869446	928.486816	894.084717	82.851883
867.550293	735.968445	930.121399	893.861755	81.324188
867.847717	733.739319	935.322693	889.032043	77.036476
868.145081	734.259460	936.139954	884.425293	74.383530
868.442383	727.943787	933.167908	882.270508	75.199112
868.739624	726.680603	932.424988	885.985657	77.428627
869.036804	723.634216	937.180237	886.580078	76.304802
869.333984	727.497986	938.889221	886.134277	75.043930
869.631042	724.451477	942.901550	891.558350	76.496597
869.928101	723.262695	933.539368	891.335449	79.929337
870.224976	717.318542	942.752869	892.078430	77.521416
870.521851	715.832520	951.372009	892.895813	75.173508
870.818726	720.810730	959.025146	893.341614	72.426720
871.115479	725.491882	957.241943	901.589172	75.985863
871.412231	719.621887	950.926208	893.861633	75.329224
871.708862	717.912903	944.833435	888.140381	75.016342
872.005493	720.587830	939.483643	881.601807	73.557358
872.302063	731.361633	939.335022	884.276672	73.526253
872.598572	730.544373	949.068665	887.323181	71.744339
872.895020	724.971680	951.149109	890.963867	73.390251
873.191406	726.383362	951.892151	890.815247	72.915955
873.487671	724.228699	952.412292	896.462341	75.480293
873.783997	724.154297	965.266663	901.737854	73.651787
874.080200	725.491760	967.644287	905.007141	74.133186
874.376343	736.785828	970.096252	902.109375	70.859909
874.672424	745.553467	958.356445	904.635681	74.755630
874.968445	744.141785	954.418457	908.425110	78.127220
875.264465	735.894226	952.189453	912.734619	81.758804
875.560364	735.596985	960.288391	906.938965	76.256577
875.856201	732.847717	967.792969	902.183594	72.074608
876.152039	730.098633	975.074646	904.932861	71.367897
876.447754	725.640442	966.529785	904.784180	74.367645
876.743469	730.172852	964.226379	904.189758	74.349190
877.039063	739.609314	962.294617	901.143372	72.539162
877.334595	737.974670	958.430847	904.115540	75.362312
877.630127	735.374084	961.254333	901.440674	73.519745
877.925537	727.943787	961.402832	902.703796	74.856819
878.221008	725.417480	967.941467	902.480774	73.008568
878.516296	723.336914	966.232605	906.790344	75.527657
878.811646	720.587708	965.266602	908.499329	76.799278
879.106812	727.572205	977.675232	914.740723	74.836563
879.401978	719.844727	994.690613	928.115295	75.777222
879.697083	725.714661	1013.934875	941.489746	74.864662
879.992126	724.823059	1037.191650	960.511230	75.451942
880.287109	734.705322	1076.646362	985.402649	73.315948
880.582031	734.779602	1136.608643	1029.241333	73.280350
880.876892	728.538147	1242.861572	1111.197266	74.400482
881.171753	734.556641	1417.473022	1255.493164	76.281158
881.466492	736.265625	1695.810913	1456.184937	75.027130
881.761230	739.163513	2037.083374	1697.965820	73.872223
882.055786	737.157227	2387.940674	1937.294922	72.701096
882.350403	732.401917	2656.693604	2127.583984	72.503670
882.644958	734.259521	2799.132080	2236.511719	72.752777
882.939453	729.875671	2814.289795	2244.759521	72.676720
883.233826	734.779602	2752.544189	2207.682373	72.996758
883.528137	726.829285	2647.182861	2138.432373	73.507454
883.822449	725.045959	2534.614258	2079.881592	74.870659
884.116577	724.228699	2434.008545	2007.585327	75.059769
884.410828	729.281250	2326.789795	1930.458984	75.190689
884.704956	736.042725	2203.298584	1825.097656	74.223930
884.999023	737.974609	2006.396362	1693.359009	75.320717
885.292969	737.677429	1802.360962	1542.598755	75.601929
885.586914	734.185242	1602.561157	1404.247070	77.162643
885.880798	730.692932	1461.088867	1288.037720	76.307213
886.174622	730.692932	1352.086670	1202.961060	76.001427
886.468384	730.024231	1271.542480	1137.128784	75.178360
886.762085	728.538147	1221.685181	1100.794800	75.485939
887.055664	729.504089	1182.230591	1069.290405	75.053329
887.349304	725.343079	1148.868652	1052.126465	77.157890
887.642822	721.033508	1101.686523	1029.390015	81.007240
887.936340	720.885010	1076.200562	1011.037109	81.660400
888.229736	716.352539	1059.185181	997.588318	82.032967
888.523071	720.662109	1054.801392	985.848450	79.364014
888.816284	725.343201	1037.860352	981.539001	81.978157
889.109619	734.185120	1018.021545	963.260437	80.706810
889.402710	736.191406	1008.659363	954.492737	80.120003
889.695862	735.299744	999.594482	935.991394	75.934792
889.988892	724.823059	986.220032	928.115234	77.771431
890.281921	704.166870	958.950989	917.712891	83.814491
>>>>>End Processed Spectral Data<<<<<
