Jaz Data File
++++++++++++++++++++++++++++++++++++
Date: Fri Jun 04 16:39:22 2021
User: jaz
Dark Spectrum Present: Yes
Reference Spectrum Present: Yes
Processed Spectrum Present: Yes
Spectrometers: JAZA3586
Integration Time (usec): 24500 (JAZA3586)
Spectra Averaged: 10 (JAZA3586)
Boxcar Smoothing: 1 (JAZA3586)
Correct for Electrical Dark: No (JAZA3586)
Strobe/Lamp Enabled: Yes (JAZA3586)
Correct for Detector Non-linearity: No (JAZA3586)
Correct for Stray Light: No (JAZA3586)
Number of Pixels in Processed Spectrum: 2048
>>>>>Begin Processed Spectral Data<<<<<
W	D	R	S	P
191.335022	0.000000	0.000000	0.000000	0.000000
191.713211	234.722305	237.694412	236.208359	50.000000
192.091385	468.330078	472.342407	479.624054	281.481781
192.469528	711.002747	710.185364	717.615662	-809.035217
192.847641	720.513489	715.535156	727.720886	-144.775330
193.225739	732.476257	730.321472	727.572205	227.588943
193.603790	736.860046	741.615417	739.832214	62.501282
193.981842	742.209778	745.999268	751.571960	247.056549
194.359863	749.714417	747.931152	759.225281	-533.340149
194.737854	753.281006	751.571960	763.163269	-578.232910
195.115829	747.039551	756.253113	755.955872	96.773872
195.493774	744.364685	757.144714	751.423340	55.231915
195.871704	749.268555	759.448059	743.398743	-57.663044
196.249603	759.002258	755.435791	746.296570	356.254181
196.627457	760.636963	752.909485	752.612244	103.846550
197.005310	755.881531	750.606140	763.534729	-145.073578
197.383133	752.166443	758.853760	762.271667	151.110306
197.760910	752.389343	761.008484	768.215881	183.620834
198.138687	755.287109	762.420227	764.723633	132.291718
198.516449	752.240723	760.859863	758.853699	76.724312
198.894180	751.274841	756.847473	746.147949	-92.001274
199.271866	746.296570	753.726746	743.027161	-44.001774
199.649536	747.931152	745.553467	747.782532	6.250642
200.027191	745.330566	743.918762	753.429626	-573.667358
200.404816	742.061218	748.822815	749.937317	116.482819
200.782410	740.872375	757.516296	755.658691	88.839142
201.159988	741.615479	771.856628	759.150879	57.985229
201.537537	743.101563	774.977356	771.410889	88.811363
201.915070	746.668030	783.076355	766.804199	55.306496
202.292557	738.271790	776.314758	762.568848	63.867409
202.670029	741.838379	782.556213	764.054932	54.562218
203.047485	737.751770	773.491272	763.088928	70.893990
203.424911	742.655762	778.766846	766.358215	65.637611
203.802292	737.677429	770.742126	760.934143	70.336990
204.179688	736.042786	779.286926	767.398438	72.508438
204.557037	742.358459	782.481934	766.283936	59.629623
204.934357	742.358459	784.562439	761.231384	44.718353
205.311661	743.324463	778.692566	749.417236	17.226746
205.688934	732.030457	775.125977	748.599915	38.448215
206.066177	735.225403	778.692566	745.850769	24.444582
206.443390	736.340027	784.785339	750.606140	29.447872
206.820587	742.284180	788.723389	752.835144	22.719948
207.197769	739.312195	785.676941	761.454285	47.756306
207.574921	737.305908	784.488098	770.221985	69.763771
207.952042	735.225403	780.773010	764.500671	64.274002
208.329147	738.271790	777.726563	753.355286	38.229839
208.706223	746.816589	772.748291	757.441956	40.974426
209.083267	751.720642	772.971191	762.494446	50.698940
209.460297	741.764099	775.125977	766.581238	74.387718
209.837280	732.476257	776.983459	756.178711	53.255322
210.214264	727.052063	778.915344	755.064270	54.011635
210.591217	727.275085	770.890686	758.705078	72.061356
210.968124	726.309082	769.999023	754.024109	63.435715
211.345016	731.064453	772.525391	749.417236	44.265240
211.721893	742.878601	779.509827	749.342957	17.647118
212.098724	746.965271	777.800842	757.070374	32.770927
212.475555	745.181946	776.983582	753.429504	25.934385
212.852356	737.528809	783.670715	752.092102	31.561968
213.229126	732.476257	784.933899	756.104492	45.042503
213.605865	729.504089	784.413818	763.906250	62.652214
213.982590	729.355469	781.144531	764.500732	67.862328
214.359283	726.531921	778.320984	760.636963	65.853752
214.735931	722.593933	775.794678	763.980652	77.793495
215.112579	726.383484	769.924805	765.689636	90.273216
215.489197	734.482422	771.708069	757.739197	62.475140
215.865799	739.163513	761.231262	752.909424	62.289593
216.242355	740.872375	756.921692	751.794922	68.056145
216.618896	738.197571	758.927979	752.909485	70.967796
216.995407	736.860046	766.655457	757.887695	70.573448
217.371902	734.036560	771.410828	758.259277	64.811218
217.748367	731.138855	767.472839	756.698914	70.347527
218.124802	726.754883	769.404602	748.228455	50.348682
218.501236	720.810730	764.203430	750.828918	69.177971
218.877609	726.680603	767.175598	761.082703	84.953957
219.253983	730.990234	767.621399	769.404602	104.867996
219.630295	736.414307	768.513000	764.129211	86.342781
220.006592	731.361633	767.398499	757.739197	73.196053
220.382889	731.956055	768.884521	751.720642	53.521278
220.759140	731.733154	773.416992	755.881592	57.932377
221.135391	734.853943	773.714172	752.835144	46.271473
221.511581	736.414307	767.844299	760.562683	76.832268
221.887772	730.247131	762.197266	753.058105	71.395554
222.263931	726.680664	763.014648	761.602844	96.114372
222.640060	721.627991	770.073425	757.739075	74.539703
223.016159	727.572266	773.194153	765.689514	83.550354
223.392212	730.692932	771.336609	758.630859	68.738678
223.768265	734.631042	769.701843	760.191162	72.881485
224.144302	739.014832	768.736023	752.166504	44.250153
224.520294	741.615417	766.358215	756.030212	58.258549
224.896286	742.284180	761.380066	758.705078	85.991814
225.272217	745.553528	764.500671	767.695740	116.863060
225.648148	747.782715	772.302490	767.992920	82.424103
226.024048	749.045715	777.726563	763.088928	48.963730
226.399902	737.008728	783.819397	755.138489	38.729977
226.775772	730.618652	778.395325	757.441895	56.142967
227.151581	730.395752	777.206482	762.568848	68.730171
227.527374	737.974609	774.160095	769.181824	86.242355
227.903137	734.556702	774.308594	767.027039	81.682495
228.278870	734.631042	769.850403	760.116882	72.363152
228.654572	725.120300	775.348877	759.076599	67.603546
229.030273	726.754883	784.562500	758.853699	55.526966
229.405930	725.343201	791.175354	757.516174	48.871216
229.781555	723.708496	789.169189	757.367615	51.418823
230.157181	725.194580	786.494324	757.739075	53.090752
230.532761	719.250305	783.968018	757.887756	59.701508
230.908325	726.606262	784.413818	755.955872	50.771233
231.283859	726.903503	780.104248	752.092102	47.346329
231.659332	735.745544	779.807068	753.132385	39.460373
232.034821	736.340027	779.509949	753.206726	39.070488
232.410263	733.739319	776.686340	756.921875	53.979427
232.785690	726.829163	774.828796	758.705078	66.408661
233.161087	726.086182	766.729797	759.893982	83.181084
233.536469	732.996338	774.977356	759.225281	62.478100
233.911804	735.745544	775.200256	759.522461	60.263821
234.287140	735.671204	777.726563	760.859863	59.894054
234.662430	741.764099	776.166260	759.225281	50.756062
235.037704	744.884766	777.355164	761.751465	51.944851
235.412933	741.689758	781.218811	755.138611	34.022705
235.788162	731.658936	779.212646	759.671082	58.906330
236.163345	727.275085	773.937195	757.664856	65.127296
236.538513	732.253357	771.708069	762.345886	76.271065
236.913635	726.234802	775.348938	759.299500	67.322159
237.288742	724.748718	783.447937	755.287170	52.025314
237.663834	727.052185	782.333313	754.841370	50.268845
238.038879	726.754883	773.639893	754.469788	59.112507
238.413910	728.538147	772.822571	749.640137	47.651043
238.788910	724.228516	773.937195	745.925049	43.647373
239.163879	733.962219	775.720398	742.507080	20.462725
239.538834	739.757996	768.290222	752.166443	43.489235
239.913757	741.689758	763.906311	762.345886	92.976295
240.288651	742.209900	771.485168	764.575012	76.395927
240.663528	741.615417	779.881348	766.655457	65.436905
241.038361	743.324402	791.918396	760.636902	35.626831
241.413177	738.569031	783.670715	757.218994	41.350925
241.787979	733.962219	784.785339	750.308899	32.163864
242.162735	732.401917	779.435547	752.166443	42.022114
242.537476	730.395813	794.370422	756.996094	41.579433
242.912170	735.522644	798.382751	755.287109	31.441984
243.286865	725.863281	805.664368	760.265442	43.109890
243.661514	721.256531	802.097839	752.760925	38.970665
244.036148	714.346375	802.543701	757.070496	48.441513
244.410751	722.148193	802.915222	752.240723	37.258434
244.785339	732.922058	803.286804	763.757629	43.822472
245.159882	738.940613	799.051453	765.243652	43.757565
245.534378	739.014893	794.816162	767.844299	51.664429
245.908890	738.271790	791.175293	762.271667	45.365383
246.283356	728.909668	791.621155	766.135315	59.360172
246.657791	726.086182	802.915222	756.476013	39.555138
247.032196	719.696106	809.379456	758.036377	42.750713
247.406586	720.141907	821.565186	752.092102	31.501837
247.780960	720.290588	824.165833	754.246887	32.689503
248.155289	720.662109	822.977051	751.497742	30.137957
248.529602	725.863281	819.856262	752.537903	28.379375
248.903870	730.024231	817.998718	756.327393	29.898624
249.278122	731.733215	818.593079	754.915710	26.689537
249.652344	732.996399	816.141113	755.138611	26.630932
250.026550	735.671204	813.391846	756.401794	26.673210
250.400711	734.631042	809.453857	760.116882	34.061588
250.774857	731.956116	810.642639	763.534729	40.132175
251.148987	725.640381	808.785156	763.831970	45.933842
251.523071	727.572266	813.317627	766.581238	45.493973
251.897125	734.556702	819.336121	762.494568	32.953594
252.271164	731.956055	817.255676	759.596680	32.404160
252.645187	731.138733	816.438293	760.934082	34.930248
253.019165	726.160461	814.283508	764.277832	43.254711
253.393112	731.287415	820.376282	766.804138	39.866623
253.767044	731.881836	827.509460	756.773254	26.029528
254.140930	734.779602	828.178162	757.813477	24.661917
254.514801	736.488586	824.314392	751.794922	17.428062
254.888657	736.934387	819.410400	754.172607	20.900888
255.262466	728.686829	816.141113	751.943542	26.592995
255.636276	725.640381	817.998596	752.092102	28.640356
256.010010	728.538269	823.274170	755.435730	28.392046
256.383759	731.658936	823.571350	755.510071	25.949852
256.757446	734.259521	830.704407	761.974365	28.736458
257.131134	727.720886	831.596008	767.472839	38.268982
257.504791	730.395752	839.472168	771.262207	37.465893
257.878418	726.680664	837.391602	773.862854	42.617462
258.252014	729.875671	847.793945	771.856689	35.601791
258.625580	730.024231	853.441101	767.472839	30.343184
258.999115	732.476257	867.112732	761.157043	21.302389
259.372650	729.206848	873.874329	760.636963	21.725763
259.746124	730.618652	899.434387	762.345886	18.794003
260.119598	733.293518	920.313477	765.392334	17.163311
260.493042	744.141785	938.963562	769.701843	13.119713
260.866425	742.209900	934.208191	764.946533	11.842102
261.239838	745.033386	931.236023	765.838135	11.173176
261.613159	737.751709	921.056580	765.689636	15.241236
261.986511	734.482422	913.031799	769.330383	19.517269
262.359802	727.200745	894.530457	770.742188	26.021345
262.733063	726.234863	885.316895	759.522461	20.924801
263.106293	726.309082	884.202332	760.116882	21.411808
263.479523	727.349365	886.877258	759.299500	20.027929
263.852692	730.618652	888.214661	762.717468	20.367785
264.225861	737.751709	881.378906	759.968262	15.468207
264.598969	737.677429	885.688477	762.420227	16.716858
264.972076	739.460693	890.963928	761.157043	14.320718
265.345154	734.259521	902.109375	770.370605	21.513920
265.718201	740.649475	903.966980	761.974365	13.057321
266.091217	739.460693	907.310547	766.283997	15.980535
266.464203	740.500977	910.356934	762.866028	13.167069
266.837158	735.894104	922.393982	764.872253	15.537892
267.210114	729.281250	927.818054	766.655518	18.824856
267.583038	724.377258	939.706543	762.866028	17.874378
267.955902	720.736328	941.118164	767.324219	21.139624
268.328766	718.507324	947.285339	766.804016	21.110722
268.701569	718.358704	949.737366	775.274597	24.598593
269.074371	719.696106	959.396790	773.045593	22.256710
269.447144	723.782776	972.102539	776.463379	21.214825
269.819885	730.915833	981.984863	765.392273	13.731857
270.192596	730.544373	980.572998	766.729797	14.472513
270.565277	736.414246	988.671936	764.500671	11.134022
270.937927	731.213074	1000.114563	764.352112	12.323858
271.310577	733.813660	1036.225708	766.432556	10.786242
271.683136	730.618652	1056.881836	765.689514	10.749255
272.055725	733.813660	1076.869263	772.822571	11.371017
272.428284	732.253235	1078.652588	775.200378	12.398159
272.800812	730.841553	1081.476074	768.884583	10.849768
273.173279	730.841553	1078.801147	763.757629	9.459741
273.545776	729.727051	1080.435913	761.602844	9.088962
273.918152	729.281189	1073.674316	764.352051	10.183380
274.290558	734.185120	1064.609375	765.986755	9.624486
274.662964	736.934387	1053.835449	766.506836	9.331760
275.035278	744.587585	1049.451660	768.364441	7.799166
275.407593	741.912659	1057.996460	774.977356	10.460737
275.779907	741.912659	1066.689819	774.680176	10.089231
276.152161	737.231628	1078.206665	777.280762	11.745474
276.524384	731.064453	1083.556519	772.971191	11.888704
276.896606	723.857117	1100.126099	771.410889	12.638239
277.268799	726.754883	1112.534546	771.113586	11.498456
277.640930	732.401855	1129.401245	767.472839	8.834015
278.013031	739.089172	1128.658325	762.791748	6.084305
278.385162	734.779602	1133.413696	762.197266	6.877903
278.757233	733.590820	1134.082397	764.426453	7.699446
279.129272	725.789001	1130.292969	766.135437	9.974299
279.501282	725.120300	1138.614868	771.336609	11.177005
279.873230	722.965515	1154.515747	773.194153	11.639117
280.245178	731.287354	1174.948975	776.686340	10.232796
280.617126	725.417480	1190.701172	770.370605	9.661445
280.988983	727.052063	1203.555542	771.485107	9.324810
281.360870	727.126465	1232.459351	776.909180	9.851469
281.732697	730.470032	1257.424927	773.788513	8.220530
282.104492	727.349426	1283.579590	768.958801	7.480604
282.476288	723.931458	1308.099487	758.407898	5.901802
282.848053	735.522644	1320.805054	761.974365	4.519480
283.219757	740.575195	1323.554321	767.398621	4.601095
283.591461	739.460632	1315.158203	769.256104	5.175542
283.963135	732.179016	1321.771118	770.816406	6.553241
284.334747	728.389587	1330.910278	768.290222	6.622284
284.706360	730.172852	1347.628418	769.850525	6.425996
285.077942	727.275085	1367.095703	763.534851	5.667177
285.449524	728.315247	1379.430054	757.739197	4.519011
285.821014	727.943787	1393.770508	761.454285	5.032916
286.192535	731.807434	1411.157227	768.884583	5.457740
286.563995	736.785828	1446.228149	772.971191	5.100536
286.935425	734.185242	1468.518921	774.903076	5.544868
287.306824	731.064453	1487.763306	773.788574	5.646120
287.678223	727.423645	1474.166016	775.794678	6.477607
288.049561	732.476257	1462.351929	767.175598	4.754144
288.420898	727.869446	1436.048828	758.779480	4.364718
288.792145	728.761047	1424.977661	765.838196	5.325519
289.163452	727.200867	1432.333618	770.296387	6.111689
289.534668	726.160461	1451.280884	771.262268	6.219906
289.905914	724.525879	1481.150391	764.129150	5.234204
290.277039	730.692932	1508.493774	769.256042	4.957967
290.648193	736.860046	1546.759766	777.355042	5.000001
291.019318	737.900330	1590.747070	780.847351	5.035726
291.390381	725.566101	1606.796387	775.348877	5.649236
291.761475	721.776672	1592.010132	774.977356	6.113380
292.132507	717.244141	1570.908203	772.748291	6.501873
292.503510	720.885010	1553.892944	776.537781	6.680941
292.874481	723.634216	1554.858765	779.807068	6.757843
293.245422	722.668274	1553.149902	774.382996	6.227076
293.616364	719.176025	1580.493164	767.770020	5.641824
293.987213	721.107910	1610.511353	768.141602	5.288229
294.358093	726.383362	1655.093140	773.119812	5.032406
294.728943	737.900391	1706.064819	776.612061	3.998460
295.099731	736.785828	1745.519653	771.782410	3.469357
295.470490	737.305969	1773.977539	774.457214	3.583704
295.841248	737.900391	1790.175415	769.999084	3.050409
296.211975	741.318298	1813.952148	766.952698	2.389856
296.582642	743.695984	1860.911621	763.757629	1.795683
296.953308	733.813721	1909.134155	775.274597	3.527623
297.323883	729.058289	1959.362793	774.903076	3.726296
297.694519	724.748718	1980.687500	767.695740	3.419516
298.065063	736.340027	1975.040527	759.299500	1.853513
298.435608	737.974609	1957.133667	758.036377	1.645541
298.806122	743.250183	1912.180542	768.884521	2.192974
299.176575	743.621643	1859.128418	769.181824	2.291351
299.547028	744.290344	1809.345703	771.930908	2.595223
299.917450	743.027161	1784.825562	766.432617	2.246640
300.287872	731.361755	1781.184937	767.324219	3.425573
300.658234	728.166687	1773.457397	760.636963	3.106339
301.028564	727.795166	1778.212524	762.420227	3.296315
301.398865	728.983948	1789.581055	764.797852	3.376768
301.769135	733.293518	1800.280640	772.079590	3.635102
302.139374	730.098450	1802.658325	773.045471	4.004161
302.509583	732.550476	1801.395142	770.742126	3.573171
302.879791	733.888000	1799.463257	773.045410	3.674767
303.249939	735.596985	1789.952515	767.695618	3.044384
303.620087	744.364685	1769.593750	767.695740	2.275692
303.990173	746.073547	1766.547241	767.621399	2.111554
304.360260	743.027161	1755.179077	769.404602	2.606075
304.730286	734.036621	1775.537720	773.342773	3.773990
305.100281	730.395752	1785.271484	772.302490	3.972671
305.470276	733.442139	1799.983398	784.190918	4.758257
305.840179	732.476257	1797.977173	785.751221	4.999992
306.210144	735.819824	1801.098022	787.311584	4.833644
306.579987	736.191406	1817.221680	776.091980	3.690977
306.949890	738.049011	1827.995605	776.314758	3.510791
307.319702	735.448303	1842.410156	780.252930	4.047531
307.689484	729.578430	1860.391479	781.961914	4.632374
308.059265	734.853943	1888.254883	774.160095	3.407848
308.429016	730.321472	1928.526978	765.169434	2.908346
308.798737	739.609314	1979.721802	767.249939	2.228880
309.168396	730.693054	2026.681030	772.525391	3.227834
309.538055	731.287415	2058.854248	776.463379	3.402914
309.907684	720.439209	2069.330811	772.748352	3.877935
310.277313	724.525879	2089.912598	773.491394	3.586201
310.646851	725.417480	2111.906250	772.153870	3.370845
311.016388	733.367859	2136.203125	770.221985	2.627117
311.385895	734.779541	2137.466064	770.296326	2.532054
311.755371	737.677429	2142.444580	772.228210	2.459538
312.124817	729.801270	2142.816162	778.246765	3.428520
312.494232	724.748779	2144.450928	781.293152	3.982833
312.863617	729.875671	2126.246826	785.231140	3.964238
313.232971	739.014893	2119.187744	784.636719	3.305515
313.602295	740.946777	2107.002197	776.834961	2.627140
313.971619	735.225403	2114.209717	766.952698	2.300773
314.340820	729.429871	2124.909180	771.782410	3.034982
314.710083	725.937561	2148.463135	778.989746	3.729436
315.079285	727.943665	2180.487549	786.271423	4.015559
315.448486	732.179016	2205.379150	783.150696	3.459929
315.817596	727.275085	2204.561523	781.144531	3.646513
316.186707	723.931396	2166.221436	781.961731	4.023486
316.555786	722.148132	2112.797607	783.447937	4.407999
316.924866	739.386414	2075.200439	784.488098	3.376345
317.293884	740.278015	2064.352295	786.197083	3.468013
317.662872	742.284180	2065.912842	785.602722	3.272711
318.031830	732.179016	2081.070801	790.506653	4.324115
318.400757	737.603088	2088.426758	789.986511	3.877887
318.769684	736.117004	2105.293213	796.227844	4.390292
319.138550	740.649475	2125.354736	796.970886	4.067393
319.507416	739.609192	2139.695313	801.726318	4.436665
319.876190	738.940613	2156.636475	807.001892	4.800838
320.244995	739.757874	2152.401367	807.893494	4.823270
320.613770	739.460693	2139.398193	809.751038	5.020963
320.982483	739.460693	2119.262451	800.686096	4.437261
321.351166	739.014832	2095.485352	803.509583	4.754601
321.719818	733.144958	2091.993164	808.042053	5.511807
322.088440	731.361633	2093.850586	814.729309	6.118778
322.457062	727.423645	2121.491455	816.512634	6.390578
322.825623	733.144958	2147.720215	818.221497	6.014282
323.194183	732.179016	2188.958008	829.366943	6.671425
323.562653	735.819885	2233.614258	829.738464	6.270459
323.931183	721.479492	2286.517578	837.688904	7.425341
324.299591	722.519714	2340.238525	842.518555	7.417781
324.668060	713.231750	2393.662109	861.094238	8.799085
325.036407	722.445313	2434.528564	870.382080	8.640746
325.404755	724.525879	2452.955811	873.502747	8.619202
325.773102	730.618652	2464.101074	879.595520	8.594080
326.141388	733.293518	2477.252441	885.093994	8.704360
326.509674	730.544250	2485.722900	901.886414	9.762093
326.877899	731.510254	2495.531006	915.558105	10.433429
327.246124	727.052063	2502.069580	928.486816	11.348325
327.614288	728.166687	2508.831299	936.882996	11.721259
327.982422	724.377258	2498.280273	941.341125	12.230875
328.350525	727.795166	2480.447754	948.771484	12.608108
328.718628	730.841553	2475.618164	957.687744	13.001446
329.086700	738.791931	2477.104248	960.065430	12.729215
329.454712	732.773438	2490.552979	973.439941	13.691506
329.822693	729.132629	2488.175537	988.597656	14.750352
330.190674	726.903564	2503.927490	1010.071228	15.934938
330.558563	732.476257	2524.137695	1031.916138	16.712973
330.926483	726.977844	2556.162109	1044.399048	17.353155
331.294312	726.829163	2578.229980	1066.244019	18.332867
331.662231	737.083008	2604.458984	1085.191284	18.641575
332.029999	743.398743	2636.854980	1101.686401	18.922415
332.397766	736.785828	2676.309814	1121.153687	19.817640
332.765503	730.470032	2718.216553	1141.141113	20.660133
333.133240	730.841553	2771.937500	1166.849976	21.361486
333.500916	741.466858	2816.964844	1187.877563	21.508606
333.868561	743.027161	2857.385498	1211.728760	22.167557
334.236176	746.519470	2873.434814	1240.781128	23.238426
334.603790	738.940613	2889.558594	1268.644653	24.630318
334.971344	740.723816	2890.227295	1287.071655	25.417398
335.338867	737.825989	2879.378906	1305.350220	26.500593
335.706360	735.522644	2871.948975	1317.758667	27.252802
336.073853	729.727051	2871.057373	1339.306519	28.467325
336.441284	729.058289	2885.917725	1365.312378	29.499100
336.808655	735.596985	2869.125000	1387.231812	30.542595
337.176086	736.117004	2835.243164	1393.175903	31.301542
337.543396	732.922058	2761.311768	1389.312134	32.360157
337.910706	731.658875	2715.615967	1387.454712	33.054943
338.277954	726.234863	2720.668213	1413.014648	34.434834
338.645264	728.761047	2801.287109	1445.708008	34.592903
339.012421	725.640320	2928.938721	1506.413452	35.436562
339.379669	720.587708	3041.804688	1557.236328	36.043533
339.746796	721.553711	3142.039063	1609.173828	36.671162
340.113953	728.686768	3204.527588	1642.535767	36.910652
340.481018	739.757874	3231.945313	1668.616211	37.270805
340.848114	737.974609	3236.329346	1693.581909	38.249466
341.215118	738.494812	3222.731689	1712.454712	39.205597
341.582153	737.008728	3233.951416	1743.884888	40.324360
341.949066	734.110840	3242.570557	1777.469727	41.593609
342.316010	727.200684	3254.830811	1822.868652	43.347637
342.682922	723.559875	3274.074951	1851.623901	44.228867
343.049835	729.355530	3300.006836	1887.066406	45.035706
343.416656	731.807556	3341.913330	1925.183594	45.721367
343.783478	735.374023	3393.479736	1972.737305	46.550568
344.150269	733.739441	3490.296143	2030.396118	47.039001
344.516998	726.829285	3600.412842	2091.696045	47.497025
344.883728	723.782776	3714.541748	2153.812988	47.814960
345.250427	725.120300	3771.457764	2201.589600	48.467030
345.617065	731.138855	3817.525146	2232.350830	48.639793
345.983704	733.145020	3830.528320	2254.196045	49.107613
346.350281	738.866272	3835.060547	2273.589111	49.568043
346.716827	739.534973	3793.302734	2278.492920	50.395382
347.083405	745.702148	3741.736328	2286.220215	51.418575
347.449860	741.392578	3681.179688	2275.000732	52.167320
347.816376	741.987000	3639.570313	2272.994385	52.837387
348.182770	737.305969	3602.864502	2270.988281	53.521236
348.549194	739.609375	3588.152588	2287.260498	54.331322
348.915558	739.683594	3599.446533	2306.802246	54.798901
349.281921	735.596985	3623.669678	2334.740234	55.370602
349.648193	723.039795	3660.003662	2364.609619	55.893429
350.014526	715.683838	3693.291260	2402.653076	56.655193
350.380737	715.089355	3740.696289	2441.067383	57.045681
350.746948	719.176025	3793.154053	2486.466309	57.491962
351.113159	722.148132	3841.525146	2536.397705	58.160637
351.479309	723.188416	3882.540039	2568.273682	58.400757
351.845428	728.315247	3920.285889	2597.845947	58.569798
352.211517	723.708496	3929.871094	2626.601318	59.351101
352.577576	725.046082	3966.353516	2675.566650	60.176968
352.943604	723.039795	3998.898193	2727.132813	61.177647
353.309601	733.665100	4078.402344	2791.478760	61.523926
353.675537	739.832214	4157.386230	2853.595947	61.850193
354.041473	742.209900	4284.071777	2927.007080	61.684990
354.407379	743.027161	4396.640625	2993.062256	61.583832
354.773254	741.466980	4482.312012	3067.141846	62.169773
355.139038	742.284180	4540.861816	3125.024170	62.727161
355.504913	741.615479	4626.087402	3204.230469	63.396389
355.870636	732.253235	4728.477051	3274.669678	63.620472
356.236389	729.504089	4845.577637	3360.340576	63.916164
356.602081	728.835388	4943.806152	3437.912354	64.272736
356.967804	735.448303	5051.247559	3518.753906	64.491081
357.333405	734.779602	5159.135254	3617.130859	65.147369
357.699036	733.144958	5311.084473	3717.662354	65.193466
358.064606	730.841553	5491.119629	3839.816406	65.310776
358.430176	734.185242	5608.518066	3929.573975	65.555405
358.795654	733.219238	5662.981934	3992.582764	66.116035
359.161163	738.346130	5632.443848	4002.984375	66.705620
359.526581	734.928223	5611.416016	4008.037109	67.120209
359.892029	737.008728	5634.746582	4039.838623	67.435822
360.257416	730.693054	5726.808105	4112.655762	67.691849
360.622772	732.327637	5919.623535	4248.629395	67.786797
360.988098	728.315369	6162.964844	4416.999512	67.873451
361.353394	735.076843	6449.179199	4603.796387	67.704758
361.718658	724.971680	6712.136230	4784.203613	67.798904
362.083893	722.593933	6919.143066	4925.155762	67.821007
362.449097	715.386536	7072.505371	5036.238770	67.968719
362.814209	732.773438	7076.070801	5058.455078	68.192947
363.179382	731.956055	6912.753906	4958.145996	68.376122
363.544434	730.395752	6573.709473	4763.473145	69.020386
363.909546	728.018066	6196.771973	4521.469238	69.365913
364.274536	727.943787	5903.201660	4348.120605	69.951622
364.639587	734.185242	5701.470215	4212.221191	70.018852
365.004517	729.132629	5594.028809	4136.803711	70.046127
365.369507	734.110840	5514.524902	4080.036377	69.992378
365.734344	732.327637	5468.457031	4051.281250	70.077339
366.099274	727.795166	5431.454590	4037.089844	70.355751
366.464081	727.349365	5398.835938	4027.133057	70.636696
366.828918	726.234863	5378.551270	4028.099365	70.972481
367.193665	730.693054	5381.746094	4030.997070	70.958206
367.558411	729.206848	5401.807617	4054.848389	71.173248
367.923126	729.578369	5413.398926	4062.798828	71.164566
368.287781	732.550537	5401.659180	4061.981201	71.307632
368.652435	735.076843	5365.919434	4022.749268	70.995117
369.017059	733.962219	5340.285156	4015.244873	71.234322
369.381653	739.386414	5309.003906	4005.659912	71.478043
369.746185	738.049011	5287.158691	4028.842529	72.339279
370.110687	734.928223	5296.074707	4046.897705	72.612656
370.475220	732.401917	5327.728027	4071.120361	72.654655
370.839661	735.819824	5384.346191	4087.541260	72.102882
371.204041	746.445129	5449.584473	4130.339844	71.949707
371.568451	737.603088	5539.267578	4173.212402	71.550385
371.932770	728.166687	5621.297363	4231.837402	71.603859
372.297150	732.327637	5661.718750	4254.871094	71.460014
372.661377	734.853943	5667.291504	4265.050293	71.571030
373.025696	743.621582	5686.907715	4260.220703	71.138893
373.389862	735.225403	5688.914063	4244.542969	70.842514
373.754059	731.733154	5698.053223	4230.425781	70.448387
374.118225	726.457703	5699.687500	4238.227051	70.613449
374.482361	717.764343	5735.798828	4267.056152	70.730713
374.846436	721.405090	5790.856934	4324.863770	71.081825
375.210510	724.823059	5879.054199	4381.779785	70.950577
375.574524	731.213074	5988.873535	4465.593262	71.027412
375.938538	728.761047	6134.655762	4565.753418	70.977936
376.302460	726.829285	6289.873535	4658.854980	70.681183
376.666412	726.309082	6452.373535	4757.603027	70.402527
377.030304	728.389587	6607.145996	4844.239746	70.012260
377.394196	725.268860	6757.015137	4955.843262	70.138466
377.757996	727.795166	6889.421875	5022.789551	69.705521
378.121796	733.665039	6934.895996	5061.055176	69.782761
378.485565	736.562805	6936.753418	5056.746094	69.678230
378.849304	733.070618	6836.444824	5003.396484	69.966637
379.212982	728.463867	6727.813965	4926.790527	69.979691
379.576630	731.510254	6549.486816	4802.779297	69.977402
379.940277	729.801331	6433.203125	4732.117676	70.174194
380.303864	724.525818	6312.238770	4663.312988	70.490150
380.667450	722.742615	6298.567871	4654.693848	70.517838
381.030945	730.544434	6288.982422	4652.391113	70.556633
381.394501	741.615540	6365.365234	4684.489746	70.111130
381.757935	742.878601	6368.560547	4704.848145	70.426476
382.121399	737.751709	6376.808594	4720.525879	70.628380
382.484741	733.962219	6389.811035	4748.018066	70.971771
382.848145	732.996338	6440.560059	4770.309082	70.736183
383.211487	734.556641	6509.513184	4807.237793	70.523148
383.574768	728.463867	6596.447266	4870.171875	70.581451
383.938019	733.590820	6688.285156	4949.824219	70.805206
384.301270	727.423645	6805.757813	5046.343262	71.054329
384.664459	731.287415	6885.187500	5103.705566	71.051170
385.027649	732.922058	6949.162109	5163.890625	71.280525
385.390778	736.488586	7000.282715	5221.549316	71.602936
385.753876	736.042786	7025.321777	5283.666504	72.307549
386.116943	723.188293	7071.092285	5341.028320	72.745903
386.479980	727.572266	7084.838379	5356.186035	72.808243
386.842987	728.092346	7139.896973	5391.703125	72.734764
387.205994	733.665039	7189.011230	5431.157715	72.769028
387.568909	728.463867	7263.017090	5477.596191	72.677231
387.931793	722.593933	7311.164551	5520.543457	72.822311
388.294678	732.030457	7347.053223	5550.933105	72.847862
388.657471	736.191406	7350.322266	5594.103027	73.447464
389.020294	741.912659	7326.694824	5598.932129	73.761276
389.383057	731.956116	7336.947754	5621.520996	74.028328
389.745819	737.157288	7339.027832	5634.672363	74.183746
390.108521	739.980774	7380.712402	5659.638184	74.083061
390.471191	739.163391	7442.308594	5731.860840	74.482910
390.833801	735.671204	7591.583496	5833.357910	74.354607
391.196442	733.739319	7776.522949	5978.322754	74.467476
391.558960	734.928223	7959.976563	6088.438965	74.096542
391.921509	733.516418	8136.593750	6214.308105	74.033966
392.284027	734.333801	8269.967773	6330.517578	74.262947
392.646484	739.237793	8379.563477	6415.519531	74.293716
393.008911	744.290344	8373.767578	6446.801270	74.743141
393.371307	745.330627	8352.888672	6426.813965	74.682091
393.733673	744.884766	8266.548828	6397.166504	75.146690
394.096008	734.556702	8242.251953	6366.554688	75.016335
394.458344	733.070618	8239.428711	6373.315918	75.139572
394.820587	726.234802	8270.785156	6397.910156	75.175789
395.182831	729.132629	8315.885742	6425.476563	75.082764
395.545013	730.024231	8295.304688	6408.089844	75.054260
395.907196	730.618652	8214.909180	6336.015625	74.895500
396.269287	723.782776	8054.563965	6250.864746	75.395538
396.631409	716.203918	7934.787598	6165.342285	75.487640
396.993469	716.203918	7832.175293	6100.029785	75.658340
397.355530	724.377258	7760.101563	6045.789063	75.634171
397.717499	730.172852	7739.966309	6026.099121	75.550392
398.079468	731.436035	7705.267090	6010.644531	75.700264
398.441376	728.984070	7713.439941	6005.517090	75.546799
398.803284	724.228699	7696.201172	6033.455078	76.150993
399.165131	723.559875	7743.234375	6073.207031	76.209335
399.526978	723.857117	7753.637207	6104.934082	76.546875
399.888763	727.646545	7758.169922	6108.203613	76.531387
400.250519	727.052185	7760.473145	6106.048828	76.477669
400.612244	735.596924	7800.670410	6129.751465	76.349586
400.973938	733.293518	7827.568359	6126.556152	76.022751
401.335602	735.374023	7845.252441	6137.182129	75.976097
401.697205	732.699036	7872.967285	6173.441406	76.198013
402.058807	735.671204	7940.285645	6238.753906	76.382751
402.420349	738.940613	8060.285156	6323.532715	76.278229
402.781860	732.327637	8162.376953	6383.271973	76.055275
403.143341	725.937561	8279.180664	6464.931152	75.980522
403.504822	724.823059	8394.795898	6569.697754	76.204636
403.866241	726.383484	8574.163086	6707.604004	76.215454
404.227631	732.699158	8723.659180	6846.476074	76.508667
404.588959	735.002502	8902.803711	6982.003906	76.483269
404.950287	736.711487	9025.550781	7086.250488	76.603477
405.311554	736.785828	9134.924805	7158.026855	76.460289
405.672821	734.333801	9179.060547	7194.360840	76.497765
406.034027	739.460693	9167.098633	7180.540527	76.428062
406.395203	741.912598	9097.700195	7117.903809	76.306290
406.756348	738.791931	9006.975586	7066.263184	76.527946
407.117493	734.853821	8949.093750	7024.207520	76.566467
407.478516	733.367859	8943.669922	7020.269531	76.573334
407.839600	734.482422	8933.565430	7001.916504	76.440674
408.200592	732.996338	8921.230469	6983.712891	76.337784
408.561554	734.259460	8890.469727	6973.756348	76.499954
408.922485	732.773438	8909.936523	6980.666016	76.406601
409.283417	731.881836	8926.952148	6989.285156	76.355698
409.644257	731.287415	9036.473633	7066.634766	76.281815
410.005096	737.380188	9146.367188	7164.342285	76.429680
410.365906	736.117004	9286.055664	7282.112793	76.561905
410.726715	727.423584	9396.098633	7365.034668	76.570084
411.087433	719.473206	9493.436523	7427.374512	76.452354
411.448120	718.433044	9568.629883	7467.943848	76.263962
411.808807	724.674500	9579.774414	7458.730469	76.047211
412.169434	724.005676	9522.934570	7411.845215	76.007431
412.530029	726.160461	9458.811523	7385.467285	76.257561
412.890564	730.024231	9433.696289	7371.127441	76.302315
413.251099	734.036621	9420.693359	7364.439941	76.328606
413.611572	733.739319	9461.262695	7379.820801	76.150833
413.972076	727.126465	9483.924805	7409.616699	76.312019
414.332489	730.024231	9560.977539	7467.795410	76.297211
414.692871	736.191406	9687.885742	7557.403809	76.200241
415.053223	735.671204	9819.773438	7657.787109	76.200325
415.413574	736.562927	10034.062500	7808.398438	76.061691
415.773834	729.504089	10168.252930	7936.645996	76.356964
416.134094	733.442078	10338.257813	8070.984375	76.394417
416.494263	728.835388	10454.244141	8182.587891	76.642044
416.854462	732.699036	10709.623047	8347.390625	76.323036
417.214630	730.024231	10957.570313	8537.977539	76.342392
417.574738	731.510254	11260.206055	8771.287109	76.360619
417.934784	729.504089	11535.051758	8962.616211	76.193382
418.294861	731.213074	11897.054688	9222.379883	76.045921
418.654846	735.671204	12291.231445	9500.124023	75.846199
419.014832	734.036560	12734.372070	9864.949219	76.088814
419.374756	736.117004	13176.918945	10203.027344	76.095657
419.734680	731.733215	13698.300781	10577.958008	75.935478
420.094543	732.178955	14186.395508	10945.161133	75.909157
420.454376	730.395691	14630.799805	11293.567383	75.991829
420.814148	728.018005	15044.666992	11632.758789	76.168251
421.173920	719.027405	15502.519531	11962.364258	76.053322
421.533691	714.123474	15985.932617	12322.213867	76.009926
421.893341	719.324707	16308.555664	12558.273438	75.943130
422.253021	729.727051	16513.556641	12762.235352	76.233131
422.612640	734.631042	16533.248047	12772.117188	76.193291
422.972260	731.138855	16521.507813	12751.386719	76.123924
423.331757	730.544373	16427.736328	12679.981445	76.124680
423.691315	728.835449	16457.087891	12709.479492	76.172768
424.050781	727.720886	16589.123047	12834.679688	76.329689
424.410248	722.222412	16720.712891	12919.458008	76.239914
424.769653	723.039795	16876.748047	13009.215820	76.057930
425.128998	728.835388	16896.216797	13000.003906	75.900780
425.488373	736.414246	16812.179688	12936.028320	75.888229
425.847656	744.364563	16581.916016	12797.752930	76.106392
426.206940	738.494812	16335.602539	12640.156250	76.306847
426.566193	740.500916	16032.372070	12396.368164	76.222633
426.925385	738.569031	15719.038086	12141.733398	76.120209
427.284576	737.305908	15281.097656	11802.393555	76.081177
427.643677	734.408020	14951.937500	11556.747070	76.119690
428.002777	728.761047	14609.698242	11305.084961	76.193153
428.361847	734.556702	14295.546875	11071.031250	76.222122
428.720856	739.906494	13951.227539	10836.234375	76.421791
429.079865	741.243958	13744.592773	10639.852539	76.123535
429.438812	740.352295	13607.206055	10525.797852	76.051582
429.797760	735.745605	13554.004883	10439.829102	75.705162
430.156616	730.692932	13375.752930	10350.071289	76.072220
430.515503	727.795166	13286.367188	10279.187500	76.054764
430.874268	720.885010	13236.137695	10252.958008	76.163651
431.233093	719.547546	13281.016602	10295.459961	76.232422
431.591827	718.581543	13311.778320	10336.624023	76.374908
431.950562	724.600098	13361.932617	10388.561523	76.471527
432.309204	730.990173	13402.278320	10419.694336	76.461876
432.667877	736.488525	13498.277344	10512.793945	76.606071
433.026459	735.076843	13618.425781	10602.999023	76.594383
433.385010	734.853821	13769.706055	10706.055664	76.496468
433.743561	729.949951	13953.828125	10840.470703	76.456551
434.102051	728.166687	14108.600586	10946.575195	76.368286
434.460510	725.491699	14255.870117	11068.877930	76.445656
434.818939	727.795166	14282.989258	11102.461914	76.536469
435.177338	732.104675	14299.113281	11143.921875	76.743645
435.535675	734.853943	14267.756836	11113.234375	76.689980
435.894012	735.671204	14238.852539	11058.324219	76.446083
436.252289	736.488586	14254.976563	11066.721680	76.415596
436.610535	731.733215	14225.703125	11038.114258	76.377678
436.968719	736.711426	14326.010742	11147.488281	76.610115
437.326935	737.603088	14397.637695	11217.110352	76.716553
437.685028	745.702148	14568.981445	11332.206055	76.584602
438.043152	742.284180	14700.051758	11396.625977	76.332710
438.401215	739.237793	14914.414063	11556.301758	76.309914
438.759277	737.157410	15086.500000	11736.114258	76.651299
439.117249	732.253357	15465.963867	12044.620117	76.778809
439.475250	737.677429	15744.152344	12235.429688	76.618607
439.833130	739.460693	16142.636719	12517.112305	76.462486
440.191071	741.689758	16375.948242	12695.066406	76.456306
440.548889	740.278015	16688.166016	12933.726563	76.458076
440.906708	735.596924	17007.000000	13168.745117	76.411041
441.264496	735.225403	17249.080078	13334.589844	76.295715
441.622223	736.488586	17406.230469	13474.502930	76.413986
441.979950	737.528809	17422.279297	13516.781250	76.592407
442.337616	736.042786	17422.650391	13527.182617	76.655121
442.695251	736.711426	17278.056641	13423.604492	76.698067
443.052887	736.488586	17108.126953	13297.958008	76.727013
443.410461	735.968445	16918.210938	13187.320313	76.944542
443.768005	731.287415	16818.943359	13097.563477	76.868103
444.125458	730.098572	16754.076172	12981.651367	76.457626
444.482941	731.213135	16791.300781	13002.234375	76.406937
444.840393	730.395752	16891.240234	13091.842773	76.490105
445.197754	731.287354	17137.402344	13340.385742	76.856087
445.555084	734.259460	17418.787109	13529.782227	76.690948
445.912415	734.705383	17770.609375	13811.835938	76.762177
446.269714	738.643372	18044.861328	14003.833008	76.649841
446.626953	737.528809	18350.767578	14266.270508	76.810081
446.984161	730.321472	18676.509766	14496.980469	76.710770
447.341309	729.727051	18923.492188	14698.934570	76.780182
447.698456	726.829285	19070.908203	14820.198242	76.827896
448.055542	727.646545	19133.917969	14883.354492	76.906982
448.412598	723.931458	19063.923828	14878.079102	77.176407
448.769653	723.634277	18944.890625	14796.421875	77.232803
449.126617	727.275085	18663.060547	14597.364258	77.331932
449.483582	732.401917	18453.898438	14422.530273	77.251534
449.840515	735.671204	18120.054688	14188.997070	77.387428
450.197388	737.528809	17871.587891	14013.938477	77.485497
450.554230	731.584656	17661.533203	13844.602539	77.454559
450.911041	728.166687	17491.009766	13702.387695	77.398682
451.267822	725.640320	17342.107422	13567.082031	77.281418
451.624573	725.789001	17128.857422	13424.122070	77.414375
451.981262	724.154297	17034.863281	13362.898438	77.487396
452.337921	730.767273	16923.556641	13272.546875	77.452866
452.694580	731.584534	16862.705078	13212.659180	77.372643
453.051147	735.596924	16855.125000	13191.333008	77.271095
453.407715	731.138733	16747.388672	13123.272461	77.372253
453.764221	729.058289	16788.625000	13134.566406	77.246841
454.120728	730.692932	16549.074219	12955.199219	77.280388
454.477142	726.754883	16497.431641	12934.023438	77.404846
454.833557	732.327637	16313.831055	12791.659180	77.395172
455.189911	732.922058	16171.020508	12714.235352	77.608734
455.546265	741.169617	15981.104492	12578.781250	77.674950
455.902557	732.401917	15854.640625	12513.171875	77.903610
456.258820	727.423645	15866.528320	12495.191406	77.730934
456.615051	727.200745	15928.421875	12536.206055	77.684586
456.971252	740.129395	15916.385742	12522.460938	77.636620
457.327393	746.296570	16121.536133	12679.983398	77.616264
457.683502	739.014893	16354.028320	12873.465820	77.710152
458.039612	731.881836	16780.451172	13216.075195	77.790070
458.395630	728.835449	17191.494141	13544.791992	77.848648
458.751648	726.754883	17683.750000	13893.866211	77.650024
459.107605	725.640381	18303.806641	14415.768555	77.881432
459.463562	725.417480	18956.927734	14916.495117	77.838196
459.819458	727.497986	19533.738281	15376.875000	77.896362
460.175323	734.110901	20068.494141	15774.022461	77.788422
460.531158	736.117126	20545.148438	16154.156250	77.833382
460.886932	733.442200	20857.589844	16413.025391	77.914268
461.242676	725.640381	20965.107422	16485.396484	77.866455
461.598419	718.061523	20737.591797	16338.721680	78.027100
461.954102	721.851013	20328.630859	16012.311523	77.985580
462.309723	726.829285	19702.853516	15546.804688	78.098427
462.665344	726.903503	19064.888672	15047.934570	78.094902
463.020905	728.909729	18530.951172	14663.196289	78.273529
463.376373	726.977844	18105.046875	14359.297852	78.445541
463.731873	733.070618	17779.304688	14128.143555	78.580833
464.087341	737.380188	17472.878906	13926.781250	78.810928
464.442749	739.832214	17360.310547	13790.881836	78.523911
464.798126	741.020996	17226.640625	13697.854492	78.594765
465.153503	742.061279	17365.064453	13736.121094	78.169144
465.508820	739.163391	17378.291016	13780.257813	78.376076
465.864105	740.278015	17549.484375	13890.967773	78.235039
466.219330	733.962219	17795.576172	14104.291992	78.364983
466.574524	734.036621	18008.156250	14263.967773	78.324875
466.929657	729.281250	18198.816406	14396.450195	78.234299
467.284790	731.584534	18316.140625	14524.843750	78.439613
467.639893	720.290527	18483.990234	14666.987305	78.512344
467.994934	726.160461	18639.507813	14814.921875	78.649521
468.349945	724.897400	18651.171875	14852.000000	78.806679
468.704926	734.556702	18595.148438	14810.687500	78.811111
469.059875	725.937561	18366.220703	14631.914063	78.830803
469.414764	724.748718	18173.703125	14473.651367	78.794991
469.769653	727.646545	17958.744141	14328.834961	78.933968
470.124451	739.609192	17895.216797	14268.277344	78.858574
470.479248	742.878601	17787.103516	14132.972656	78.560883
470.834015	744.438965	17752.183594	14088.613281	78.459396
471.188721	731.881836	17828.494141	14122.049805	78.320587
471.543365	725.566101	17879.167969	14203.929688	78.574539
471.898010	718.953125	17982.968750	14313.453125	78.744713
472.252625	722.371033	18120.873047	14461.315430	78.966248
472.607178	729.058289	18408.349609	14684.743164	78.938034
472.961700	731.807434	18638.541016	14853.262695	78.861137
473.316193	728.018066	18915.541016	15043.551758	78.710732
473.670654	722.668274	19036.654297	15136.430664	78.703583
474.025055	727.200745	19274.646484	15290.906250	78.521355
474.379456	729.578430	19402.298828	15434.829102	78.752586
474.733795	733.665039	19576.537109	15562.778320	78.698799
475.088104	727.126465	19636.648438	15666.133789	79.002571
475.442383	728.909668	19631.966797	15657.812500	78.976128
475.796570	730.098450	19709.242188	15701.799805	78.885017
476.150787	735.299744	19914.244141	15827.742188	78.692764
476.504944	736.637207	20175.564453	16041.362305	78.732353
476.859070	735.076843	20437.408203	16264.196289	78.818687
477.213135	736.339905	20716.787109	16475.216797	78.771393
477.567200	735.745544	21162.974609	16787.957031	78.582428
477.921173	744.661865	21562.873047	17121.056641	78.663795
478.275146	741.169678	22025.927734	17492.197266	78.699638
478.629089	738.494812	22312.437500	17693.185547	78.588745
478.983002	725.268860	22719.765625	17989.654297	78.494110
479.336823	711.745789	23072.181641	18269.404297	78.521095
479.690643	717.244141	23455.806641	18650.056641	78.865196
480.044403	721.182190	23912.326172	19010.201172	78.862083
480.398163	733.293640	24545.162109	19493.468750	78.784981
480.751862	723.708496	25414.130859	20139.751953	78.637955
481.105499	719.993347	26489.513672	20987.101563	78.647598
481.459137	720.290588	27865.005859	22099.337891	78.759521
481.812744	728.166687	29599.156250	23478.470703	78.799873
482.166290	728.909668	31767.978516	25170.568359	78.744820
482.519806	730.470032	34455.289063	27246.437500	78.624489
482.873291	735.151062	37544.871094	29680.220703	78.634315
483.226715	738.569031	41051.210938	32513.607422	78.821526
483.580139	738.420410	44443.500000	35372.183594	79.244247
483.933502	732.104675	47737.863281	38290.792969	79.902313
484.286804	732.104736	50474.949219	40966.953125	80.885704
484.640106	727.646484	52568.730469	43233.187500	81.991989
484.993347	726.754883	53736.988281	44707.800781	82.967087
485.346558	717.838562	53940.878906	45089.496094	83.369263
485.699738	723.485596	53275.644531	44392.238281	83.096024
486.052887	722.148132	52015.699219	42982.710938	82.389626
486.405975	734.110840	50471.832031	41301.093750	81.561806
486.759064	732.476257	48882.277344	39657.890625	80.842316
487.112061	733.888000	47490.437500	38368.437500	80.490433
487.464996	732.179016	46687.968750	37551.183594	80.118317
487.817963	736.340027	46510.531250	37366.394531	80.023376
488.170868	734.705322	46599.917969	37366.765625	79.868942
488.523743	726.754883	46685.812500	37524.957031	80.067360
488.876587	725.045959	46498.050781	37380.882813	80.081779
489.229401	724.600159	46092.355469	37054.917969	80.079597
489.582153	726.754883	45307.644531	36368.582031	79.948669
489.934845	719.770447	44265.843750	35532.453125	79.944481
490.287537	714.123352	43194.402344	34610.281250	79.792694
490.640198	721.627991	42324.464844	33899.574219	79.749237
490.992798	719.398926	41751.812500	33368.089844	79.568047
491.345337	724.080017	41634.859375	33250.316406	79.505295
491.697876	719.547546	41709.015625	33277.738281	79.430626
492.050354	726.754944	42139.156250	33682.164063	79.578598
492.402832	731.881836	42349.949219	33905.593750	79.709877
492.755219	732.104736	42224.007813	33841.175781	79.796463
493.107605	732.699158	41521.699219	33271.125000	79.772552
493.459930	737.380188	40283.222656	32307.046875	79.830551
493.812225	745.776367	38559.324219	30989.585938	79.981415
494.164490	744.884766	36603.601563	29412.212891	79.945213
494.516724	740.055115	34629.972656	27832.017578	79.941071
494.868896	727.423645	32918.777344	26372.562500	79.664680
495.221039	723.485596	31504.205078	25247.468750	79.673195
495.573120	725.640381	30437.517578	24302.490234	79.351601
495.925201	731.510254	29779.937500	23797.005859	79.403595
496.277222	730.395752	29422.169922	23497.937500	79.352158
496.629211	736.042786	29331.373047	23477.947266	79.530136
496.981140	733.070618	29320.744141	23433.146484	79.405121
497.333069	737.751709	29407.755859	23494.818359	79.375877
497.684967	732.773438	29471.951172	23505.369141	79.238853
498.036804	739.163391	29554.650391	23593.271484	79.311890
498.388580	744.661865	29445.796875	23531.968750	79.395142
498.740326	741.318176	29278.468750	23437.306641	79.531372
499.092072	735.819824	28940.462891	23205.927734	79.668114
499.443756	728.389648	28645.408203	22945.572266	79.582932
499.795410	730.470032	28328.208984	22699.037109	79.602776
500.147003	737.825989	28012.796875	22432.662109	79.541191
500.498566	736.191406	27610.000000	22139.015625	79.641945
500.850098	734.779602	27247.849609	21802.796875	79.462761
501.201599	728.092285	26916.755859	21523.195313	79.404984
501.553009	727.423645	26673.931641	21298.652344	79.283226
501.904449	721.702332	26449.687500	21163.718750	79.454399
502.255859	727.052185	26275.373047	20989.701172	79.311081
502.607178	729.652649	26182.791016	20955.744141	79.464035
502.958405	734.779602	26059.375000	20883.894531	79.563423
503.309692	729.801270	26003.576172	20873.935547	79.703705
503.660919	727.869446	26016.056641	20862.568359	79.620964
504.012115	727.052063	26085.306641	20866.283203	79.418839
504.363251	720.885010	26164.958984	20944.080078	79.480965
504.714294	717.689941	26183.166016	20967.929688	79.520363
505.065369	716.129639	26217.197266	20997.427734	79.531174
505.416443	724.005676	26240.601563	20971.498047	79.350288
505.767395	732.401917	26258.507813	20997.429688	79.389420
506.118317	737.825989	26217.046875	20991.707031	79.491760
506.469238	737.974609	26224.625000	21015.857422	79.562759
506.820160	739.089172	26244.835938	21007.312500	79.465317
507.170929	741.020996	26282.210938	21068.833984	79.588356
507.521729	735.002502	26317.578125	21124.857422	79.702118
507.872498	729.949951	26413.056641	21158.591797	79.541161
508.223236	726.680664	26596.210938	21242.255859	79.304001
508.573883	733.144958	26757.078125	21375.259766	79.319733
508.924500	737.083008	26943.947266	21608.048828	79.639313
509.275116	738.569031	27163.513672	21779.318359	79.624573
509.625702	739.609192	27428.255859	21938.250000	79.429436
509.976196	744.141785	27677.615234	22133.369141	79.415031
510.326660	743.472961	27917.166016	22346.841797	79.501038
510.677124	745.033386	28120.087891	22561.947266	79.696327
511.027557	737.900330	28321.892578	22688.259766	79.576439
511.377869	735.671204	28543.462891	22825.720703	79.438347
511.728180	729.875671	28724.689453	22941.115234	79.340553
512.078430	731.138855	28840.306641	23036.072266	79.351097
512.428650	731.956116	28953.544922	23145.076172	79.418350
512.778931	727.720886	29057.865234	23258.162109	79.528152
513.129028	723.188293	29134.023438	23335.884766	79.591805
513.479126	717.318420	29155.791016	23390.718750	79.727913
513.829285	717.541443	29096.349609	23341.974609	79.722984
514.179382	717.392761	29047.087891	23286.916016	79.667374
514.529297	722.296692	28904.650391	23168.404297	79.645966
514.879272	726.309082	28891.720703	23150.572266	79.616318
515.229187	729.875671	28760.353516	23069.509766	79.697655
515.579163	730.544373	28791.041016	23092.693359	79.692635
515.928955	736.191406	28828.341797	23102.720703	79.618431
516.278748	733.739441	29056.375000	23299.552734	79.674126
516.628540	730.247131	29323.195313	23534.421875	79.754539
516.978333	725.566101	29779.041016	23878.218750	79.689789
517.327942	730.024231	30329.179688	24255.603516	79.480576
517.677612	730.692932	30971.304688	24732.703125	79.370117
518.027222	730.098450	31562.458984	25258.021484	79.552528
518.376831	731.584656	32263.578125	25838.099609	79.622353
518.726379	738.271790	32891.285156	26375.904297	79.736328
519.075867	739.163391	33421.285156	26807.380859	79.762932
519.425293	736.637207	33805.660156	27075.765625	79.648949
519.774658	729.132568	34004.121094	27237.593750	79.664825
520.124084	722.445374	34035.550781	27263.156250	79.670479
520.473389	716.055359	33784.109375	27107.712891	79.810135
520.822693	718.730225	33445.878906	26839.923828	79.815063
521.171997	721.107910	32992.042969	26501.773438	79.888191
521.521240	725.343079	32582.634766	26178.259766	79.896675
521.870361	734.333801	32192.546875	25822.572266	79.750999
522.219482	734.259521	31882.851563	25519.568359	79.571198
522.568604	735.002502	31585.937500	25307.953125	79.650589
522.917664	722.668274	31407.982422	25233.501953	79.878059
523.266724	725.714661	31446.171875	25273.328125	79.906410
523.615662	729.429871	31728.447266	25478.255859	79.837456
523.964600	731.435974	32172.111328	25772.345703	79.644951
524.313538	726.606262	32714.896484	26175.658203	79.557404
524.662354	724.080017	33432.808594	26706.255859	79.434990
525.011169	730.395752	34276.515625	27390.431641	79.472778
525.359985	733.888000	35308.878906	28261.857422	79.618149
525.708740	730.024231	36468.890625	29224.375000	79.729309
526.057434	725.937561	37830.714844	30301.390625	79.707939
526.406067	731.584656	39328.726563	31481.318359	79.668427
526.754700	732.476257	40954.097656	32819.589844	79.775780
527.103333	734.556641	42805.500000	34355.871094	79.915756
527.451782	736.042725	44880.777344	36085.339844	80.075905
527.800293	741.541199	47032.582031	37961.855469	80.405006
528.148743	743.027161	49121.531250	39874.332031	80.885727
528.497131	737.751709	50966.542969	41791.417969	81.733337
528.845642	739.683594	52533.285156	43516.058594	82.590073
529.193909	741.020996	53700.582031	45029.156250	83.626328
529.542175	737.825989	54525.417969	46072.363281	84.284378
529.890503	735.299744	54858.144531	46553.328125	84.655617
530.238770	732.327637	54649.500000	46301.363281	84.516739
530.586914	732.847717	53827.265625	45384.250000	84.098114
530.934998	736.042786	52508.468750	43913.578125	83.398712
531.283142	735.894226	50954.800781	42237.234375	82.640869
531.631226	739.534973	49159.425781	40407.156250	81.924225
531.979248	738.420410	47390.050781	38728.363281	81.433258
532.327148	734.705322	45789.941406	37238.738281	81.020622
532.675110	733.219238	44670.949219	36183.269531	80.682480
533.023071	730.915833	44099.406250	35617.457031	80.442139
533.370850	728.835449	43993.750000	35433.035156	80.213264
533.718689	727.126465	44245.488281	35627.636719	80.197205
534.066467	730.321472	44500.792969	35819.628906	80.166618
534.414246	730.618652	44597.160156	35941.042969	80.267151
534.761963	731.213074	44428.566406	35841.183594	80.348045
535.109619	729.206848	44122.738281	35636.628906	80.443840
535.457153	730.321472	43475.488281	35143.105469	80.506844
535.804749	729.875671	42666.777344	34489.167969	80.500206
536.152344	725.640381	41706.562500	33702.824219	80.469597
536.499817	730.990173	40799.027344	32920.710938	80.337646
536.847229	726.309082	39902.343750	32182.666016	80.294899
537.194641	729.058289	39125.656250	31478.498047	80.083763
537.542114	729.801331	38517.046875	30986.390625	80.070908
537.889404	734.259460	38062.535156	30572.150391	79.933746
538.236694	736.414307	37618.425781	30270.632813	80.077568
538.583984	733.219238	37218.605469	29955.736328	80.093758
538.931213	734.036621	36920.722656	29742.931641	80.164551
539.278381	735.225403	36747.601563	29588.755859	80.121155
539.625488	736.637207	36838.250000	29603.914063	79.961182
539.972595	740.352295	37159.906250	29834.994141	79.887421
540.319641	734.036621	37871.355469	30375.697266	79.816368
540.666687	728.835388	38818.269531	31140.568359	79.842964
541.013611	728.166687	40065.144531	32132.656250	79.834526
541.360596	724.748718	41400.957031	33197.636719	79.832634
541.707458	727.646667	42812.039063	34357.351563	79.910156
542.054260	723.411316	43990.332031	35436.230469	80.229469
542.401062	727.572266	44976.703125	36333.804688	80.467644
542.747864	725.046082	45421.031250	36804.437500	80.721771
543.094666	727.349365	45414.042969	36797.234375	80.717285
543.441284	724.600159	44779.871094	36267.531250	80.678047
543.787903	728.463867	43805.832031	35418.402344	80.529381
544.134460	729.429871	42482.730469	34306.753906	80.418373
544.481079	739.163513	41053.812500	33160.859375	80.421623
544.827637	738.717590	39477.925781	31951.804688	80.572350
545.174072	743.175781	37955.242188	30674.166016	80.433563
545.520508	734.779602	36584.355469	29571.515625	80.438156
545.866943	731.733215	35508.156250	28619.552734	80.191750
546.213318	724.897400	34689.191406	27996.224609	80.294113
546.559631	724.674377	34014.894531	27414.062500	80.171860
546.905823	723.485596	33440.609375	26981.322266	80.257164
547.252136	727.572266	32986.917969	26583.431641	80.149979
547.598389	733.516418	32536.937500	26213.109375	80.115891
547.944458	727.720886	32159.181641	25868.937500	79.987427
548.290588	724.525818	31614.546875	25433.968750	79.991669
548.636658	723.114075	31043.455078	24989.119141	80.032097
548.982727	738.197510	30292.697266	24460.974609	80.267906
549.328735	741.243958	29592.244141	23923.320313	80.351028
549.674622	737.900330	28838.369141	23308.763672	80.322014
550.020569	734.631042	28162.142578	22706.539063	80.109009
550.366455	733.293518	27458.125000	22123.560547	80.038925
550.712280	733.665039	26853.078125	21627.738281	79.994423
551.058044	739.832214	26360.822266	21230.962891	79.977905
551.403748	743.175781	25974.078125	20918.964844	79.964592
551.749512	741.392578	25736.234375	20703.486328	79.864853
552.095154	731.807556	25525.437500	20560.900391	79.976563
552.440735	726.383484	25467.851563	20494.845703	79.900116
552.786316	729.727051	25387.828125	20492.541016	80.147346
553.131897	733.813721	25478.923828	20502.648438	79.889862
553.477417	737.380188	25503.296875	20511.712891	79.844948
553.822815	733.219238	25551.517578	20489.570313	79.603973
554.168213	729.429749	25495.642578	20461.185547	79.672073
554.513672	726.234802	25349.634766	20385.173828	79.838440
554.859009	728.389587	25149.759766	20237.386719	79.884941
555.204285	730.247131	24914.818359	20096.060547	80.075073
555.549500	738.940491	24691.091797	19906.142578	80.022881
555.894714	742.581360	24449.384766	19747.507813	80.166550
556.239990	739.460632	24130.255859	19463.078125	80.046944
556.585022	732.179016	23850.056641	19263.130859	80.158531
556.930115	728.166687	23597.205078	19020.755859	79.988449
557.275146	728.092346	23388.564453	18847.107422	79.958687
557.620178	726.309082	23222.052734	18671.083984	79.769646
557.965149	730.767273	23018.462891	18515.494141	79.796165
558.310059	726.531982	22841.400391	18384.349609	79.845909
558.654968	727.646484	22659.876953	18227.201172	79.789215
558.999756	724.080017	22546.046875	18144.875000	79.831459
559.344604	728.240906	22512.087891	18119.609375	79.836075
559.689331	730.395691	22486.679688	18092.712891	79.803688
560.033997	723.931396	22458.294922	18083.052734	79.869469
560.378723	731.510315	22394.544922	18036.687500	79.883438
560.723389	726.606384	22378.048828	18049.914063	80.009949
561.067932	732.253357	22398.630859	18048.427734	79.921867
561.412476	724.600098	22433.478516	18057.865234	79.844131
561.757019	728.018066	22427.162109	18032.751953	79.748466
562.101501	731.213074	22432.958984	18042.853516	79.770729
562.445862	735.225403	22382.728516	18036.986328	79.924973
562.790222	731.807434	22349.587891	18038.248047	80.056511
563.134644	731.213135	22315.263672	18015.734375	80.080063
563.478943	731.064514	22351.671875	17996.341797	79.855652
563.823181	739.534973	22393.501953	17978.658203	79.611847
564.167358	737.305908	22424.337891	17992.181641	79.563103
564.511536	735.002502	22480.287109	18030.744141	79.537895
564.855774	731.361633	22498.416016	18063.214844	79.624245
565.199768	734.779602	22582.751953	18148.292969	79.703110
565.543823	730.098633	22723.705078	18254.693359	79.680405
565.887817	730.247131	22995.726563	18468.164063	79.665550
566.231812	728.761047	23234.460938	18631.927734	79.549477
566.575745	734.853943	23419.697266	18760.544922	79.461388
566.919617	725.937683	23540.068359	18857.808594	79.476494
567.263428	727.126465	23654.046875	18931.740234	79.402786
567.607239	725.045959	23717.353516	19023.501953	79.585121
567.950989	733.962219	23736.525391	19045.197266	79.605194
568.294678	728.092468	23709.330078	19055.451172	79.749222
568.638367	728.463867	23638.593750	18988.951172	79.704872
568.981995	724.377258	23499.201172	18890.056641	79.762108
569.325623	732.253357	23325.330078	18745.908203	79.730858
569.669128	733.739441	23156.591797	18615.804688	79.749290
570.012573	728.984070	23044.990234	18495.283203	79.612358
570.356140	726.234802	23037.111328	18483.320313	79.589371
570.699524	729.504089	23018.833984	18473.810547	79.608971
571.042908	736.191406	23109.556641	18537.935547	79.566681
571.386230	739.609314	23203.328125	18553.910156	79.302544
571.729492	736.117004	23395.250000	18679.630859	79.188881
572.072815	738.494812	23540.216797	18804.455078	79.230682
572.416016	731.807434	23679.087891	18968.888672	79.473824
572.759094	732.327637	23795.968750	19062.662109	79.477196
573.102234	727.869446	23866.703125	19138.820313	79.567322
573.445374	731.881836	23930.900391	19158.289063	79.427521
573.788391	731.584534	23913.812500	19152.269531	79.460373
574.131409	732.476257	23888.771484	19130.277344	79.450539
574.474365	731.807434	23841.513672	19067.416016	79.341591
574.817261	731.956055	23725.601563	18926.835938	79.130035
575.160156	734.556702	23565.630859	18760.398438	78.953102
575.502930	734.036621	23317.013672	18573.599609	78.995621
575.845703	728.984070	23056.728516	18435.099609	79.300957
576.188477	729.875671	22828.546875	18269.107422	79.367813
576.531250	728.018066	22593.673828	18085.283203	79.381409
576.873901	732.030457	22368.984375	17879.611328	79.251366
577.216431	732.476257	22092.205078	17676.320313	79.326118
577.559082	738.569031	21801.087891	17465.820313	79.417145
577.901611	735.671204	21505.810547	17211.705078	79.325584
578.244080	727.720886	21172.339844	16925.193359	79.226089
578.586487	725.268860	20862.570313	16647.970703	79.070686
578.928955	758.556458	20549.904297	16429.521484	79.180885
579.271301	762.643127	20247.564453	16185.137695	79.150917
579.613647	764.649231	19905.103516	15943.432617	79.302101
579.955872	732.179016	19588.054688	15683.149414	79.290779
580.298157	730.915833	19331.414063	15471.536133	79.248528
580.640320	727.126465	19086.511719	15274.113281	79.234604
580.982483	729.875671	18895.181641	15104.480469	79.132187
581.324524	732.699158	18692.111328	14962.414063	79.232628
581.666626	737.974609	18571.744141	14854.526367	79.156296
582.008728	741.169617	18472.472656	14780.223633	79.176659
582.350647	741.763977	18403.818359	14687.938477	78.961227
582.692566	736.414246	18308.412109	14592.237305	78.851723
583.034424	730.841492	18187.224609	14506.043945	78.912125
583.376343	727.274963	18061.060547	14427.210938	79.036026
583.718201	728.686829	17971.748047	14407.148438	79.327347
584.059937	726.309143	17884.740234	14323.112305	79.242691
584.401611	727.795166	17796.914063	14237.218750	79.145409
584.743347	725.491760	17749.062500	14114.840820	78.651825
585.085022	725.937561	17668.072266	14052.354492	78.658432
585.426514	724.748718	17624.085938	14015.276367	78.645256
585.768127	726.383362	17518.277344	14005.692383	79.081657
586.109619	730.618652	17495.392578	13988.527344	79.081940
586.451172	733.293518	17426.216797	13965.493164	79.268311
586.792542	730.544373	17386.318359	13931.463867	79.257324
587.133850	733.962219	17325.314453	13855.971680	79.089455
587.475220	737.380188	17315.580078	13842.374023	79.049561
587.816589	741.021179	17338.986328	13837.989258	78.907074
588.157776	736.711487	17392.705078	13896.540039	79.009560
588.498962	731.584656	17451.183594	13933.840820	78.962753
588.840210	730.990173	17493.312500	13972.551758	78.995987
589.181335	730.098572	17577.794922	14030.062500	78.942322
589.522400	733.590820	17606.476563	14036.600586	78.842522
589.863403	732.179016	17644.593750	14042.842773	78.703514
590.204407	732.401917	17598.599609	13986.594727	78.584358
590.545410	730.544373	17653.359375	14016.390625	78.508492
590.886353	732.550537	17626.388672	13986.299805	78.453156
591.227112	731.807434	17604.691406	13999.377930	78.632492
591.567932	728.835449	17529.423828	13940.901367	78.640503
591.908752	725.045959	17457.498047	13916.825195	78.839493
592.249512	727.349304	17415.146484	13879.674805	78.814034
592.590149	723.188293	17300.794922	13816.144531	78.979767
592.930786	725.343079	17274.787109	13767.031250	78.804390
593.271423	731.510254	17198.626953	13716.801758	78.855888
593.612000	732.699158	17173.216797	13693.323242	78.833427
593.952576	731.807434	17145.277344	13676.159180	78.864197
594.292969	728.018066	17189.634766	13674.747070	78.647972
594.633484	730.395752	17233.550781	13713.534180	78.670647
594.973877	726.309082	17309.041016	13765.842773	78.633202
595.314209	719.919128	17442.490234	13873.432617	78.657249
595.654480	719.696106	17633.521484	13965.344727	78.312546
595.994812	721.107910	17831.091797	14142.854492	78.443939
596.335022	720.216309	18037.283203	14275.929688	78.279503
596.675171	723.782898	18225.566406	14459.977539	78.484543
597.015320	724.971680	18386.505859	14582.651367	78.462486
597.355408	733.070618	18469.576172	14667.208008	78.561913
597.695496	731.733215	18490.751953	14712.903320	78.727150
598.035461	732.104675	18469.650391	14664.235352	78.545990
598.375366	728.983948	18416.597656	14647.963867	78.693375
598.715271	725.863281	18331.148438	14571.506836	78.644814
599.055176	727.126404	18144.425781	14452.325195	78.802109
599.395081	723.782776	17911.414063	14248.363281	78.687866
599.734802	726.903503	17602.388672	13997.963867	78.641068
600.074524	726.457703	17283.630859	13744.665039	78.625778
600.414246	734.036621	16949.714844	13463.504883	78.500999
600.753906	734.110840	16623.599609	13224.695313	78.609100
601.093506	729.801270	16342.809570	13000.301758	78.591522
601.433044	726.383362	16122.054688	12863.362305	78.833710
601.772583	728.166687	16025.090820	12734.668945	78.489647
602.112122	735.968445	15994.700195	12742.768555	78.688057
602.451538	730.618652	16026.502930	12780.364258	78.777702
602.790894	730.544250	16127.703125	12871.238281	78.850220
603.130310	729.206848	16335.973633	12953.936523	78.329674
603.469604	734.482422	16575.822266	13095.929688	78.032837
603.808838	730.024231	16855.646484	13321.734375	78.085114
604.148010	729.578430	17122.466797	13553.708008	78.229836
604.487305	731.436035	17379.853516	13765.692383	78.291260
604.826416	729.281189	17598.302734	13930.868164	78.259354
605.165527	728.240906	17769.050781	14075.757813	78.326767
605.504456	722.296692	17921.818359	14175.250000	78.217018
605.843445	726.532043	17981.705078	14226.073242	78.234741
606.182434	726.383484	17943.214844	14209.429688	78.313164
606.521423	728.389648	17842.386719	14136.612305	78.346535
606.860229	728.984070	17653.656250	13995.213867	78.383972
607.199036	735.151123	17413.214844	13804.331055	78.361488
607.537903	736.860046	17115.929688	13598.809570	78.526741
607.876648	745.999268	16862.111328	13367.133789	78.313766
608.215271	745.256287	16614.685547	13155.445313	78.201859
608.553955	745.999329	16397.646484	12985.291992	78.198112
608.892578	738.643372	16211.293945	12860.092773	78.341133
609.231140	735.671204	16113.808594	12768.179688	78.244255
609.569641	731.435974	16043.145508	12682.582031	78.052330
609.908081	737.380127	16014.093750	12653.307617	78.000595
610.246521	738.048889	16009.487305	12666.682617	78.110741
610.584961	741.838379	16026.502930	12665.567383	78.011063
610.923340	736.637207	16032.967773	12645.727539	77.855865
611.261597	731.584656	15911.334961	12546.906250	77.836075
611.599854	731.213135	15769.266602	12463.835938	78.019562
611.938110	730.172852	15557.058594	12351.639648	78.381035
612.276245	733.739319	15352.875000	12210.539063	78.505325
612.614319	738.123230	15093.410156	12002.268555	78.466881
612.952393	744.364685	14817.895508	11736.190430	78.102829
613.290466	746.296570	14565.562500	11517.516602	77.943504
613.628479	740.352295	14247.546875	11318.311523	78.313515
613.966370	740.278015	13977.233398	11147.192383	78.620148
614.304260	740.649597	13750.832031	10963.812500	78.578171
614.642151	739.980774	13586.549805	10795.665039	78.275253
614.979980	738.271790	13443.070313	10672.471680	78.192505
615.317749	732.253357	13303.010742	10572.979492	78.282684
615.655396	729.206848	13230.788086	10520.001953	78.316452
615.993164	724.674500	13210.652344	10471.779297	78.064407
616.330811	727.423645	13229.153320	10446.144531	77.739006
616.668396	733.590820	13204.632813	10412.635742	77.612160
617.005859	739.460693	13158.342773	10391.681641	77.722137
617.343445	737.751709	13113.835938	10386.183594	77.960297
617.680908	735.671204	13127.879883	10368.647461	77.734138
618.018311	734.408020	13146.975586	10385.663086	77.753899
618.355652	734.408142	13168.449219	10390.938477	77.662041
618.692993	734.705261	13136.870117	10400.448242	77.935936
619.030273	729.429749	13119.484375	10392.350586	77.989334
619.367554	728.389648	13079.507813	10370.952148	78.070358
619.704712	727.052185	13081.290039	10372.065430	78.070488
620.041870	728.092468	13059.817383	10353.489258	78.053940
620.379028	736.340027	13006.246094	10295.979492	77.911270
620.716064	742.952942	12951.929688	10243.297852	77.814423
621.053040	753.132324	12892.339844	10176.796875	77.629982
621.389954	749.788757	12837.801758	10163.571289	77.877007
621.726929	751.646301	12772.265625	10109.405273	77.847557
622.063843	741.243958	12712.304688	10107.250977	78.238739
622.400635	745.479187	12655.164063	10073.219727	78.320633
622.737427	742.284180	12609.023438	10046.024414	78.401825
623.074219	740.872498	12564.590820	9996.391602	78.279259
623.410889	730.395752	12555.452148	9954.856445	78.007751
623.747559	724.080017	12563.178711	9931.747070	77.773376
624.084167	718.210144	12519.859375	9909.678711	77.882919
624.420715	720.439209	12513.543945	9919.413086	78.002983
624.757324	724.897278	12505.445313	9928.625977	78.126488
625.093750	729.355469	12607.090820	9948.762695	77.619232
625.430176	730.395752	12674.854492	9995.276367	77.566353
625.766602	725.863281	12737.640625	10046.248047	77.593719
626.102905	724.600159	12810.160156	10120.179688	77.742195
626.439209	723.634277	12895.385742	10192.772461	77.796021
626.775452	724.451599	13026.976563	10257.936523	77.492104
627.111694	731.510315	13085.006836	10309.725586	77.534447
627.447876	726.754883	13163.171875	10347.694336	77.361023
627.783997	726.309082	13171.049805	10405.575195	77.777962
628.120056	717.690002	13214.070313	10448.374023	77.868019
628.456055	721.479492	13188.288086	10396.807617	77.608704
628.792053	722.742615	13176.547852	10352.746094	77.325790
629.128052	730.841553	13088.276367	10266.332031	77.163994
629.463928	734.631042	13011.520508	10250.134766	77.507446
629.799744	737.083008	12900.067383	10180.661133	77.641953
630.135559	731.435974	12799.164063	10087.708008	77.531349
630.471375	724.302917	12674.557617	9966.892578	77.342201
630.807068	722.891113	12508.789063	9844.739258	77.396286
631.142700	728.686768	12384.628906	9742.349609	77.331055
631.478333	738.717590	12217.670898	9637.657227	77.523964
631.813965	739.534973	12108.000000	9542.698242	77.434929
632.149475	736.785828	11985.102539	9457.993164	77.533440
632.484924	736.414246	11913.920898	9385.994141	77.383804
632.820435	737.157288	11830.627930	9324.991211	77.413414
633.155884	733.367859	11754.319336	9251.729492	77.292435
633.491150	736.860046	11674.815430	9209.897461	77.464546
633.826477	732.922058	11611.879883	9150.603516	77.375809
634.161804	738.866272	11571.905273	9120.881836	77.374557
634.497009	736.340027	11537.131836	9077.563477	77.227890
634.832153	738.420410	11480.140625	9041.229492	77.294960
635.167297	730.767273	11385.331055	8996.574219	77.579964
635.502380	721.702393	11328.713867	8908.598633	77.183815
635.837463	718.953125	11281.828125	8844.921875	76.929520
636.172424	726.457703	11193.481445	8768.018555	76.827583
636.507324	730.024231	11090.350586	8736.365234	77.278847
636.842224	734.185242	10988.777344	8658.718750	77.277908
637.177124	726.606384	10902.809570	8586.644531	77.239395
637.511963	728.389587	10782.364258	8494.881836	77.247978
637.846741	728.909668	10653.895508	8409.804688	77.389481
638.181396	728.018066	10547.938477	8326.065430	77.373825
638.516113	729.058350	10443.766602	8243.366211	77.349808
638.850769	728.166687	10363.817383	8156.655762	77.093803
639.185303	734.036560	10274.803711	8070.910156	76.900246
639.519836	730.544373	10202.581055	8011.245605	76.865211
639.854370	735.522644	10092.613281	7931.814941	76.907372
640.188843	738.717712	10008.502930	7864.125488	76.867020
640.523254	745.924988	9904.701172	7799.036621	77.009323
640.857605	739.832214	9824.231445	7742.195313	77.081192
641.191895	737.677429	9744.356445	7689.959473	77.190300
641.526184	725.566101	9701.186523	7620.709473	76.820801
641.860413	725.268860	9646.424805	7582.295410	76.862526
642.194580	725.863281	9615.960938	7527.162598	76.504211
642.528748	727.497864	9555.181641	7500.562012	76.725266
642.862793	727.869446	9523.751953	7475.894043	76.717987
643.196838	728.389587	9460.000000	7450.481934	76.985710
643.530823	732.179016	9404.942383	7408.054688	76.975182
643.864746	738.197510	9338.291992	7371.052734	77.125374
644.198669	735.225403	9307.307617	7331.969238	76.956139
644.532532	739.014832	9274.540039	7286.867676	76.712944
644.866333	735.151123	9222.899414	7237.604980	76.609886
645.200073	735.671204	9151.047852	7215.611816	77.001190
645.533813	737.231628	9132.397461	7198.076172	76.959106
645.867554	735.522644	9139.382813	7192.652344	76.835281
646.201172	738.940613	9148.076172	7190.051270	76.715500
646.534729	736.637207	9151.495117	7191.240234	76.704842
646.868225	736.340027	9169.252930	7192.800781	76.562637
647.201782	735.448303	9174.157227	7199.190918	76.596344
647.535217	738.494812	9178.615234	7190.571777	76.445320
647.868591	744.513245	9172.596680	7203.426270	76.635612
648.201965	746.222229	9190.131836	7180.763672	76.203346
648.535278	739.163513	9149.860352	7193.841309	76.743668
648.868591	736.414246	9142.800781	7179.946777	76.650444
649.201782	737.157410	9108.176758	7173.778809	76.891731
649.534912	738.643372	9098.517578	7151.190918	76.706268
649.868103	731.213074	9046.653320	7117.308594	76.798042
650.201172	724.005676	9019.830078	7086.027832	76.689453
650.534180	729.875671	8994.269531	7058.759277	76.580139
650.867188	729.206848	8986.989258	7043.897949	76.469574
651.200134	733.442139	8975.471680	7048.132813	76.615723
651.533020	735.002502	8931.335938	7021.904297	76.703835
651.865845	739.089172	8883.632813	6980.814941	76.636902
652.198608	736.488586	8830.581055	6935.490723	76.586746
652.531433	729.504150	8814.235352	6909.039063	76.434639
652.864136	730.024231	8781.913086	6895.143066	76.567360
653.196777	854.332703	8868.252930	6981.186035	76.452637
653.529358	854.555603	8827.237305	6947.006348	76.416580
653.861938	850.617615	8781.318359	6897.967285	76.252403
654.194519	719.621887	8584.713867	6731.157715	76.433128
654.526978	718.135803	8550.385742	6708.347168	76.481361
654.859375	721.999512	8504.838867	6669.561035	76.418915
655.191833	723.708496	8483.810547	6651.431152	76.387177
655.524170	723.188416	8419.092773	6604.992188	76.427711
655.856445	719.696228	8363.366211	6586.713379	76.756546
656.188660	728.761047	8331.637695	6561.524902	76.717857
656.520874	731.064453	8295.006836	6514.119141	76.455559
656.853088	733.739319	8300.356445	6510.329590	76.343102
657.185181	730.470032	8278.882813	6495.023438	76.367752
657.517212	731.435974	8298.127930	6546.367188	76.849052
657.849243	735.002502	8322.870117	6569.177734	76.888206
658.181274	740.872375	8404.529297	6620.224121	76.717316
658.513123	747.411072	8482.993164	6656.187012	76.384377
658.844971	749.342957	8570.448242	6702.849121	76.121033
659.176819	747.931213	8661.467773	6754.785645	75.906067
659.508667	735.596985	8750.557617	6813.856934	75.836426
659.840393	737.380188	8832.067383	6865.348145	75.703583
660.172058	736.265625	8877.093750	6918.549316	75.941704
660.503662	740.798157	8907.409180	6936.232910	75.862984
660.835266	737.677429	8922.047852	6962.685059	76.059700
661.166931	740.500916	8849.973633	6908.518066	76.059410
661.498413	738.197510	8802.198242	6863.341797	75.956642
661.829773	734.482422	8665.703125	6770.464355	76.104073
662.161194	729.504089	8570.818359	6700.768066	76.151314
662.492615	732.104736	8431.649414	6596.818359	76.169617
662.823975	733.813660	8286.387695	6491.531738	76.235176
663.155212	734.333801	8154.278809	6382.678223	76.123802
663.486450	733.739441	7991.703613	6263.422363	76.187798
663.817627	733.219238	7889.685547	6166.680176	75.923798
664.148743	729.875671	7751.705566	6089.033691	76.321388
664.479858	732.476257	7653.328613	6038.507813	76.667313
664.810913	732.996399	7560.450684	5972.452637	76.740990
665.141907	737.454590	7504.203125	5899.784668	76.289673
665.472778	732.401917	7440.525879	5830.014160	75.991623
665.803711	732.550537	7402.260254	5789.296387	75.816582
666.134583	726.086182	7365.332031	5762.844238	75.863403
666.465454	733.739441	7346.978516	5751.699219	75.877487
666.796143	729.727051	7313.171387	5724.504395	75.868759
667.126831	736.785828	7305.443359	5720.863281	75.876656
667.457458	735.002502	7284.935547	5697.013184	75.756660
667.788147	735.968445	7268.736816	5675.093750	75.605392
668.118774	734.556702	7211.673340	5653.100098	75.937241
668.449219	735.002502	7189.902344	5632.963379	75.879738
668.779663	738.940613	7179.871582	5628.060059	75.907028
669.110107	743.993164	7187.153809	5606.957520	75.474831
669.440552	742.655762	7166.126465	5598.338379	75.592819
669.770874	746.445129	7144.355469	5590.908203	75.719460
670.101135	742.432800	7132.838379	5594.325684	75.924644
670.431396	742.804260	7115.228516	5577.904785	75.875374
670.761597	742.432800	7063.290527	5539.490723	75.892517
671.091797	740.798157	7012.244629	5509.249512	76.034317
671.421875	740.278015	6972.642090	5482.946777	76.097427
671.751892	739.832214	6937.570801	5463.479004	76.215652
672.081909	748.154114	6906.884277	5430.266113	76.023979
672.411865	747.113831	6858.066406	5400.990723	76.156326
672.741821	746.519531	6832.654785	5368.817383	75.947998
673.071716	736.265686	6803.082520	5335.455566	75.808945
673.401550	745.925049	6770.166504	5302.167480	75.631805
673.731262	741.838379	6749.139160	5287.529785	75.669449
674.060974	739.014893	6707.231934	5263.158691	75.803940
674.390625	725.343079	6680.482910	5238.787598	75.790741
674.720276	723.336975	6612.570313	5187.964844	75.810005
675.049927	730.470032	6574.453125	5155.345703	75.716774
675.379395	732.773438	6542.205566	5116.336426	75.455963
675.708923	740.278015	6509.438965	5084.683594	75.303940
676.038330	739.163391	6470.429688	5055.854980	75.318283
676.367737	741.912598	6418.046387	5037.724609	75.682007
676.697083	739.460693	6386.689941	5025.315918	75.893066
677.026428	742.952942	6350.876465	5003.768066	75.978477
677.355652	741.912659	6350.505371	4997.972656	75.884636
677.684875	736.340027	6335.124512	5005.180176	76.245842
678.013977	727.052185	6340.696777	4999.087402	76.100922
678.343079	725.120178	6347.904297	5001.464844	76.053864
678.672180	728.612488	6384.164063	4992.994141	75.401695
679.001221	732.847717	6423.618652	5029.328125	75.499092
679.330139	729.727051	6460.472656	5065.885254	75.664818
679.659058	727.720764	6493.760254	5103.928223	75.896248
679.987976	728.984070	6536.113281	5118.714355	75.592087
680.316772	733.962341	6593.475098	5128.448242	74.997459
680.645630	733.516418	6639.170410	5151.036133	74.801529
680.974304	732.327637	6672.458496	5188.559082	75.019081
681.302979	731.287354	6673.350098	5229.276855	75.697441
681.631653	734.631042	6688.285156	5258.329590	75.981888
681.960266	734.779602	6690.068359	5261.970215	76.019669
682.288757	740.129395	6704.260254	5256.025879	75.717598
682.617249	738.271912	6675.431152	5243.543457	75.882614
682.945679	737.157410	6652.025879	5227.791016	75.921104
683.274109	736.562927	6604.620605	5188.707520	75.870842
683.602478	738.717712	6553.797363	5141.153809	75.707237
683.930725	741.987000	6481.128906	5085.798340	75.687469
684.259033	734.408142	6405.935059	5039.507813	75.907242
684.587280	728.538147	6349.539063	4978.282715	75.604767
684.915344	719.176025	6283.632813	4919.509277	75.485046
685.243469	724.154297	6217.502441	4845.354980	75.021652
685.571533	737.528809	6163.187500	4814.891113	75.149628
685.899536	742.061279	6096.390137	4793.045898	75.658119
686.227539	744.438965	6041.703125	4777.145020	76.128090
686.555420	740.352295	5996.526855	4748.538574	76.256714
686.883301	737.083008	6007.078125	4734.644043	75.855118
687.211121	736.562927	6013.021973	4723.201172	75.555183
687.538940	728.761169	5996.898438	4714.136230	75.650551
687.866638	734.333801	5989.021973	4700.687500	75.482193
688.194336	729.504089	5991.697266	4712.055176	75.682343
688.521973	729.727051	5989.468750	4715.696289	75.782608
688.849609	731.881836	5968.440918	4702.544922	75.825806
689.177063	734.853821	5928.613770	4670.075195	75.768257
689.504578	737.454529	5886.632813	4634.855957	75.689774
689.832031	737.305908	5827.041504	4594.137695	75.776665
690.159485	739.534973	5760.615723	4538.261719	75.655563
690.486816	738.123230	5695.674316	4478.819824	75.454521
690.814087	742.729980	5630.511719	4408.751465	75.003792
691.141296	736.785828	5550.115723	4356.665527	75.205307
691.468506	736.117126	5465.113770	4302.424316	75.413612
691.795715	728.315247	5383.158203	4248.629395	75.626923
692.122803	726.903503	5316.136719	4197.212402	75.618484
692.449829	727.200684	5257.140137	4142.896973	75.402695
692.776855	727.720886	5209.289063	4104.036621	75.337814
693.103821	735.225403	5171.692383	4065.473389	75.065323
693.430664	737.083008	5141.451172	4032.928711	74.831291
693.757568	743.770203	5098.058594	3981.065430	74.347282
694.084351	735.374023	5047.606934	3940.421875	74.324554
694.411133	734.259460	5012.015625	3913.004150	74.308685
694.737854	726.457703	4967.285156	3901.412842	74.866402
695.064575	727.275085	4933.329590	3885.809326	75.094940
695.391174	727.349365	4892.982910	3855.493896	75.094086
695.717773	730.024231	4883.546387	3850.143799	75.119850
696.044250	729.652649	4877.082031	3840.930420	75.017021
696.370789	730.321472	4879.979492	3846.131836	75.085953
696.697205	729.429749	4890.753418	3874.069580	75.568260
697.023621	735.225403	4930.728516	3903.864990	75.524666
697.349915	735.522644	5008.003418	3954.688232	75.346512
697.676208	738.791992	5100.064453	3997.040283	74.708664
698.002380	732.624817	5196.583496	4064.656006	74.642975
698.328674	733.962219	5288.496094	4141.261719	74.811165
698.654724	733.144958	5376.693848	4222.920410	75.153198
698.980896	738.346130	5460.804199	4316.318848	75.765053
699.306946	736.637207	5527.082031	4353.395996	75.499435
699.632935	734.779602	5580.431641	4380.739258	75.241882
699.958862	737.157288	5622.115234	4378.510254	74.542152
700.284729	729.727051	5620.406250	4389.656250	74.834785
700.610596	731.733215	5577.607910	4357.186035	74.815247
700.936340	728.835388	5499.070313	4297.967285	74.820885
701.262146	733.813660	5380.705566	4217.497070	74.968025
701.587830	729.206848	5260.707031	4129.076660	75.027473
701.913513	729.355469	5123.543945	4045.262939	75.461205
702.239075	735.894226	5010.232422	3939.456055	74.948715
702.564697	736.785828	4877.602051	3843.605469	75.029152
702.890137	733.739319	4754.185059	3735.792236	74.669655
703.215698	730.024231	4644.068359	3667.433838	75.047943
703.541016	724.674377	4549.109863	3595.657471	75.069458
703.866455	730.247070	4460.169434	3538.072998	75.278404
704.191711	729.206848	4384.751953	3484.872070	75.383156
704.517029	734.259521	4342.176270	3446.160156	75.165276
704.842163	726.977844	4303.167480	3415.547607	75.179733
705.167419	732.476257	4272.480957	3384.934570	74.928101
705.492493	736.785828	4236.889648	3362.569336	75.020157
705.817566	737.900391	4213.632813	3332.848389	74.659027
706.142578	731.436035	4188.444336	3310.854736	74.614189
706.467590	729.652771	4147.726563	3294.211182	75.029343
706.792480	734.556641	4132.345703	3280.539795	74.930580
707.117371	735.299744	4130.042480	3280.390625	74.971542
707.442200	735.819824	4136.952637	3282.322510	74.872192
707.766907	733.070618	4118.896973	3285.592041	75.388435
708.091675	737.305908	4111.541016	3285.963623	75.532906
708.416321	732.922058	4134.648926	3278.905029	74.843842
708.741028	734.853943	4163.404297	3289.307373	74.505348
709.065552	728.241028	4191.193848	3289.456055	73.960434
709.390137	732.179016	4178.562012	3291.684814	74.266434
709.714600	727.795166	4193.199707	3303.052979	74.313339
710.039063	738.494690	4201.596191	3320.291016	74.551567
710.363403	733.813660	4244.765625	3356.922607	74.712189
710.687744	739.980774	4290.907715	3379.213623	74.325180
711.012085	731.064453	4342.622559	3415.696045	74.334442
711.336304	735.522644	4400.727051	3438.432861	73.745140
711.660461	729.875671	4425.395996	3477.887451	74.360619
711.984619	734.854004	4455.562500	3500.252686	74.324516
712.308716	735.076843	4452.441895	3501.813232	74.427353
712.632751	740.872375	4440.479004	3483.237305	74.125854
712.956726	737.900330	4404.442383	3459.237549	74.220810
713.280701	742.061279	4373.829590	3441.776123	74.336098
713.604553	740.500916	4321.743652	3394.816650	74.117172
713.928467	734.631042	4264.307129	3352.538330	74.168488
714.252258	726.903564	4209.100586	3310.632080	74.198227
714.575989	723.708496	4167.341797	3286.186523	74.412048
714.899719	726.606262	4112.952637	3245.914307	74.396057
715.223267	725.789001	4070.748779	3228.824951	74.830078
715.546936	727.126465	4042.365234	3207.351318	74.812859
715.870422	727.943787	4015.839111	3198.732422	75.148033
716.193970	731.064514	3978.762451	3163.067139	74.883896
716.517395	726.383484	3945.771729	3141.667969	75.023087
716.840820	725.491699	3934.849365	3111.500732	74.345375
717.164124	723.485596	3903.047607	3081.259766	74.154053
717.487488	733.516418	3871.691650	3064.021484	74.263062
717.810730	735.225403	3828.968018	3039.650146	74.486633
718.133972	735.225403	3789.216064	3020.777100	74.838203
718.457092	732.699158	3731.036865	2980.059326	74.953537
718.780212	737.751709	3671.965820	2945.582764	75.244377
719.103210	736.265625	3627.161377	2907.539795	75.107315
719.426208	729.652649	3585.775146	2872.468994	75.025368
719.749207	723.857117	3551.893311	2829.299072	74.448906
720.072083	728.686768	3494.382813	2789.621338	74.517754
720.394958	732.996338	3471.943359	2767.181885	74.268890
720.717773	731.956055	3433.380127	2741.250732	74.379089
721.040527	729.058289	3427.287354	2721.782959	73.853058
721.363281	728.761047	3390.953125	2686.117920	73.524254
721.685913	726.977783	3363.460938	2675.046631	73.888916
722.008545	726.606262	3313.306641	2645.177002	74.170586
722.331055	727.052063	3279.201904	2637.077881	74.839882
722.653503	731.733215	3244.799805	2611.220459	74.788597
722.976013	731.510254	3234.991943	2611.368896	75.089767
723.298401	740.649475	3238.855469	2594.205078	74.195465
723.620789	739.757996	3238.409912	2585.140381	73.855118
723.943115	742.804382	3230.905273	2575.555420	73.660637
724.265381	736.934387	3212.180664	2570.799805	74.088203
724.587585	740.352295	3196.354492	2568.942139	74.453918
724.909790	740.723816	3183.797607	2560.694580	74.495117
725.231873	733.516418	3184.243164	2553.710205	74.271591
725.553894	734.556702	3202.521484	2551.852783	73.635414
725.875916	763.311829	3255.425049	2582.688232	73.005371
726.197937	774.903076	3252.378906	2584.174561	73.028824
726.519775	768.958801	3248.886719	2586.477783	73.289185
726.841675	743.993164	3236.923828	2564.112549	73.011230
727.163513	730.024170	3247.994873	2581.871094	73.545212
727.485291	734.259460	3267.313477	2598.589111	73.600075
727.806946	732.104675	3273.109131	2626.155518	74.539452
728.128662	736.637146	3292.204834	2634.551514	74.265862
728.450256	736.860107	3321.479736	2650.006592	74.020424
728.771790	729.058289	3325.343750	2655.430664	74.197250
729.093323	729.949890	3342.359375	2658.625732	73.827469
729.414795	724.451477	3340.947510	2657.734131	73.888229
729.736145	729.504150	3340.798828	2655.059326	73.739479
730.057495	727.572266	3334.408936	2651.492432	73.802864
730.378845	733.293518	3324.377930	2654.167480	74.133980
730.700134	733.739319	3334.408936	2638.935303	73.257904
731.021301	725.268860	3324.972412	2643.393311	73.782433
731.342468	722.816895	3313.901611	2634.848633	73.792717
731.663574	721.702332	3307.585938	2641.758789	74.251465
731.984680	733.665039	3327.572998	2641.164307	73.537659
732.305664	728.315247	3348.452148	2652.309814	73.431068
732.626648	727.200684	3369.331299	2667.021729	73.418816
732.947571	729.652649	3368.811279	2666.501709	73.388885
733.268433	734.853821	3362.941406	2658.699951	73.203270
733.589233	740.129395	3338.124023	2643.913818	73.278999
733.909973	737.008728	3322.520508	2642.204834	73.687386
734.230713	741.689758	3293.765625	2631.654053	74.055962
734.551331	737.454590	3262.038086	2602.229980	73.864677
734.871948	739.460632	3223.846436	2560.694580	73.307213
735.192505	743.472961	3175.921143	2524.360596	73.213799
735.513062	742.061279	3138.472656	2490.627197	72.966019
735.833435	740.575195	3085.346436	2461.574951	73.397339
736.153931	729.727051	3042.250732	2425.463623	73.328400
736.474304	729.504150	3002.275635	2397.748779	73.401337
736.794617	728.761047	2975.080811	2371.371338	73.124512
737.114807	733.962219	2971.588867	2360.077393	72.671425
737.434998	732.996399	2953.458984	2359.111572	73.233170
737.755188	735.745605	2949.594971	2354.207275	73.106224
738.075256	736.785828	2948.926514	2355.470459	73.172768
738.395325	744.587585	2966.759033	2355.619385	72.498085
738.715271	741.392578	2997.000244	2378.281494	72.569756
739.035278	735.151123	3008.294189	2389.278320	72.768280
739.355164	726.754883	3022.783203	2407.928467	73.220940
739.675049	722.222473	3017.135986	2416.398682	73.823097
739.994873	724.600098	3016.467529	2412.683350	73.655365
740.314636	731.510254	3005.693604	2393.513428	73.081322
740.634277	735.299744	2986.895264	2368.993408	72.557152
740.953979	734.408020	2973.669189	2357.031006	72.462425
741.273499	731.064453	2954.573486	2341.055908	72.407684
741.593140	730.618652	2931.985352	2316.313232	72.032280
741.912598	730.470032	2890.821533	2283.471436	71.886513
742.232117	738.197510	2842.896484	2260.957520	72.350487
742.551453	745.330566	2797.794189	2237.997803	72.725639
742.870850	740.352295	2761.088867	2213.626709	72.907791
743.190063	732.476257	2732.036377	2184.351318	72.609718
743.509338	732.550537	2712.049316	2163.397949	72.283318
743.828552	741.318298	2676.606934	2147.794434	72.675262
744.147705	749.119934	2647.331787	2133.156738	72.912666
744.466797	747.633972	2610.774658	2112.203369	73.240273
744.785828	744.513184	2600.743896	2099.572021	73.000565
745.104858	739.163513	2587.592285	2077.949951	72.428345
745.423706	736.637207	2577.412842	2079.584717	72.955521
745.742615	735.299744	2554.527588	2068.290527	73.272339
746.061401	732.847839	2535.431885	2064.278076	73.862312
746.380249	734.333801	2535.357422	2048.897461	72.989807
746.698975	739.089172	2535.506348	2041.838867	72.519333
747.017639	737.825989	2526.812744	2043.176270	72.965904
747.336304	738.123230	2508.385742	2034.854370	73.250786
747.654907	735.968506	2517.747803	2035.597290	72.939941
747.973389	739.386414	2528.595947	2032.625366	72.279907
748.291931	741.987000	2534.466064	2037.306274	72.264130
748.610352	738.048889	2527.258545	2023.040405	71.818939
748.928711	736.265625	2529.339111	2022.743042	71.747055
749.247070	730.990173	2526.218262	2019.547852	71.776825
749.565308	735.968506	2529.636230	2021.256836	71.656990
749.883545	738.791992	2515.741455	2016.873047	71.925568
750.201782	744.290344	2502.218506	2004.167358	71.668282
750.519836	741.987000	2493.079346	1993.913574	71.494034
750.837952	741.838379	2490.924561	1984.254272	71.032288
751.155884	737.528809	2475.766602	1974.743530	71.176376
751.473877	735.374023	2453.104492	1970.879761	71.926636
751.791809	731.584534	2432.448242	1957.728149	72.089462
752.109619	726.086121	2431.779541	1955.201782	72.059593
752.427490	728.686768	2426.503662	1947.102905	71.763695
752.745300	732.030457	2429.698975	1957.653931	72.194519
753.062988	735.151123	2425.612061	1945.914063	71.623245
753.380615	738.346130	2431.036377	1950.223633	71.594757
753.698303	733.665039	2428.584473	1937.666382	71.035904
754.015808	734.185120	2432.076660	1935.734497	70.767136
754.333374	730.172852	2420.188232	1925.183472	70.710045
754.650757	731.733215	2407.928467	1922.657104	71.049225
754.968262	730.024231	2402.206787	1928.006836	71.641853
755.285583	731.213074	2395.073730	1922.211426	71.580414
755.602905	735.225403	2390.244141	1910.694458	71.024513
755.920105	732.699158	2372.188721	1898.954590	71.135277
756.237305	732.699036	2374.120361	1906.830688	71.531395
756.554443	728.463867	2372.782959	1903.709961	71.473114
756.871582	733.887939	2378.727295	1906.682129	71.301445
757.188599	733.962219	2371.817139	1889.221069	70.534866
757.505615	729.727051	2372.857422	1894.050659	70.860085
757.822510	730.470032	2384.894287	1898.954712	70.627869
758.139465	732.476257	2397.005615	1924.217651	71.596306
758.456238	734.408142	2413.798096	1940.638550	71.825516
758.773010	732.550537	2424.423584	1969.616577	73.118134
759.089783	726.309082	2435.791992	1974.149048	72.995171
759.406433	731.956055	2446.788574	1966.421509	71.987526
759.723145	733.590820	2451.841064	1954.235962	71.040009
760.039673	737.380188	2467.593262	1960.402954	70.686249
760.356201	735.745544	2462.912109	1969.393555	71.426117
760.672668	730.247131	2462.020752	1969.096313	71.536430
760.989136	725.789001	2450.726563	1958.693970	71.475342
761.305481	723.708496	2456.225098	1958.693970	71.282753
761.621826	730.544373	2465.512939	1963.746704	71.079239
761.938049	732.847839	2473.388916	1978.607300	71.573120
762.254333	738.940613	2492.781738	1997.851563	71.780212
762.570496	732.922058	2540.781494	2020.216675	71.205467
762.886597	734.556641	2624.594971	2070.891113	70.704094
763.202637	729.281250	2748.309326	2146.457031	70.190987
763.518677	730.024231	2892.084717	2252.412598	70.413773
763.834656	724.080078	3052.281494	2355.693604	70.080429
764.150574	727.423645	3179.785156	2447.085693	70.122696
764.466370	729.875671	3250.001221	2512.917969	70.752121
764.782288	739.534973	3262.260986	2539.815674	71.362518
765.097961	744.587585	3231.796875	2530.379150	71.799004
765.413696	747.113831	3186.843750	2478.441406	70.963905
765.729309	737.528809	3077.916016	2404.733154	71.236259
766.044861	730.767273	2943.874023	2316.759033	71.663589
766.360474	726.754944	2796.754639	2227.521240	72.500801
766.675903	734.482422	2682.625244	2128.104248	71.535919
766.991394	742.507141	2588.335205	2049.343018	70.799438
767.306763	742.804382	2504.150146	1979.127075	70.191940
767.622131	741.615479	2427.544189	1932.836548	70.656670
767.937378	734.036621	2365.798584	1894.645142	71.126091
768.252625	733.516418	2311.928955	1863.512329	71.590652
768.567810	730.321350	2264.746826	1835.054321	71.996513
768.882996	730.247070	2220.685547	1792.330200	71.259773
769.197998	729.875671	2181.379639	1754.435913	70.586121
769.513062	731.881836	2151.583984	1731.699219	70.424446
769.828064	729.875671	2125.057861	1720.182251	70.980453
770.142944	733.070618	2109.454346	1706.659180	70.735252
770.457825	736.488586	2091.324463	1684.071289	69.940773
770.772705	734.705261	2066.730225	1670.027954	70.218109
771.087402	731.361633	2040.649902	1652.120972	70.325180
771.402100	727.423645	2010.260132	1633.471069	70.628448
771.716736	729.801331	1985.442993	1612.369019	70.288185
772.031372	729.949951	1963.672241	1597.062622	70.284264
772.345947	731.361633	1965.604126	1599.663452	70.350990
772.660461	725.045898	1960.180054	1593.050293	70.276123
772.974854	727.795166	1944.427734	1587.105957	70.630264
773.289246	727.795166	1927.412598	1571.353882	70.318977
773.603638	729.652649	1910.099976	1563.552124	70.642670
773.917908	729.206848	1905.270508	1555.230347	70.236290
774.232178	736.042786	1887.363281	1546.611328	70.403374
774.546265	738.123230	1883.499634	1529.075806	69.056122
774.860474	738.123230	1865.072632	1521.571167	69.519348
775.174561	728.835449	1852.069702	1510.871460	69.623589
775.488586	735.151184	1836.317505	1507.602173	70.148445
775.802551	732.996338	1823.983276	1506.413452	70.891510
776.116516	731.436035	1807.413696	1496.605469	71.113876
776.430359	724.600098	1793.147583	1484.271118	71.093803
776.744202	726.383484	1788.243652	1467.404297	69.785164
777.057922	734.705322	1773.605957	1452.246582	69.067360
777.371704	737.454529	1773.828735	1448.902954	68.647827
777.685303	736.637207	1761.420288	1453.286987	69.931854
777.998962	732.476257	1769.965210	1460.642944	70.185486
778.312500	738.494690	1767.810181	1459.899902	70.085922
778.626038	741.541077	1765.284058	1459.825562	70.162582
778.939453	734.853821	1767.810547	1464.506714	70.637314
779.252869	728.240967	1767.438843	1462.797729	70.684975
779.566223	730.618652	1768.256226	1446.228149	68.965263
779.879578	738.643372	1756.664917	1438.129272	68.710327
780.192749	736.934387	1746.931274	1430.476074	68.667702
780.505920	734.853943	1735.265625	1442.513062	70.736794
780.819031	739.757813	1729.247070	1434.042480	70.165962
781.132141	744.513184	1722.336914	1437.757690	70.896675
781.445190	738.791992	1717.061523	1425.274780	70.173172
781.758118	734.036621	1710.374390	1425.943481	70.867569
782.071045	730.470032	1703.315552	1411.306030	69.983978
782.383911	734.408142	1694.919434	1392.358765	68.500038
782.696838	727.497986	1676.715210	1384.110962	69.174156
783.009583	727.275085	1658.882446	1370.142212	69.006233
783.322266	718.135742	1645.508179	1368.284546	70.106544
783.634888	725.789001	1642.684570	1354.092773	68.525116
783.947510	731.213074	1628.567017	1359.071167	69.967720
784.260132	735.151123	1621.062500	1353.498413	69.797874
784.572571	730.915833	1610.882935	1358.550903	71.324837
784.885010	723.114075	1610.214355	1348.520020	70.500031
785.197449	724.080078	1617.793335	1351.343628	70.186218
785.509766	721.702332	1611.923218	1341.238403	69.593521
785.822083	726.903564	1607.242188	1338.860718	69.513840
786.134277	731.956116	1586.808960	1338.786499	70.986534
786.446533	742.730042	1589.483887	1335.517090	70.007011
786.758606	742.878601	1580.864746	1337.969116	71.014359
787.070740	740.946777	1582.127930	1337.969116	70.974289
787.382690	732.847717	1583.019531	1350.303345	72.627159
787.694641	728.984070	1609.991211	1361.300171	71.771957
788.006653	725.640381	1644.244995	1367.764526	69.902122
788.318481	730.098572	1669.953735	1379.801392	69.127975
788.630310	732.104736	1692.690308	1389.237915	68.409645
788.942017	731.658875	1696.256836	1395.404907	68.810638
789.253784	729.504150	1709.185547	1406.699097	69.124001
789.565430	736.414246	1702.869751	1412.494629	69.954628
789.877014	739.534973	1696.479614	1415.244019	70.611092
790.188538	731.361755	1680.207397	1406.179077	71.119820
790.500061	730.767273	1663.266235	1387.603394	70.438271
790.811462	730.693054	1644.987915	1370.959473	70.028442
791.122925	739.683594	1622.548462	1348.445801	68.953041
791.434204	737.528809	1600.554810	1325.337646	68.110214
791.745483	736.860107	1586.957520	1315.232422	68.036003
792.056702	740.352295	1568.604614	1307.727905	68.502747
792.367920	736.785828	1561.843140	1304.087036	68.759003
792.678955	738.197510	1538.214844	1288.186279	68.747108
792.990112	733.739319	1534.202637	1276.223511	67.771271
793.301086	736.637146	1515.775513	1269.684937	68.415039
793.612122	741.392578	1513.100586	1268.496094	68.303490
793.922974	745.107605	1495.342285	1259.282471	68.535202
794.233826	745.850647	1491.404175	1262.551880	69.304375
794.544556	742.432800	1492.667358	1264.186401	69.545395
794.855286	738.048828	1499.354614	1262.700317	68.914688
795.166016	743.324402	1502.475220	1259.728394	68.023903
795.476624	739.386414	1511.020142	1256.013184	66.952332
795.787292	741.392578	1525.063354	1263.146240	66.578171
796.097778	729.504089	1545.942383	1271.319458	66.363297
796.408264	725.937561	1564.443726	1280.458740	66.132034
796.718689	725.789001	1564.220825	1292.124268	67.546967
797.029053	723.114075	1565.484009	1296.656860	68.086807
797.339355	733.888000	1550.474976	1296.359497	68.880783
797.649658	736.340027	1550.177612	1293.833374	68.501793
797.959839	741.615417	1538.437866	1286.180054	68.342033
798.270020	739.534973	1535.168579	1286.477295	68.742989
798.580078	732.327637	1531.676270	1278.749878	68.358437
798.890137	735.522644	1521.050903	1278.155396	69.078705
799.200195	729.652832	1506.487671	1274.291626	70.109985
799.510071	743.398743	1482.190552	1270.056519	71.286362
799.820007	734.928223	1475.429199	1260.471436	70.971306
800.129883	736.042786	1474.091675	1246.799683	69.203667
800.439575	727.275085	1475.651978	1233.350952	67.623131
800.749329	731.733154	1465.175415	1224.806030	67.227226
801.058960	737.974609	1444.296265	1221.685425	68.483078
801.368591	736.117004	1443.999023	1218.638916	68.164169
801.678162	734.631042	1431.962036	1211.431641	68.375076
801.987671	728.315247	1437.014648	1211.283081	68.148476
802.297119	722.445313	1425.126343	1210.019897	69.387756
802.606506	716.129578	1417.844727	1203.629761	69.472664
802.915894	720.141907	1408.185181	1186.242798	67.742958
803.225159	731.361633	1393.398926	1178.069702	67.474762
803.534424	736.785828	1392.878906	1185.202637	68.346527
803.843628	731.064453	1385.671387	1189.660767	70.056747
804.152771	724.600098	1383.293579	1193.896118	71.246498
804.461792	727.126465	1378.909790	1193.598999	71.568649
804.770874	732.476257	1385.299927	1193.375977	70.600952
805.079773	738.569092	1395.850952	1198.948608	70.042938
805.388733	739.832214	1417.621582	1203.481079	68.406036
805.697571	741.392578	1430.624634	1218.416016	69.210861
806.006470	735.596924	1436.346069	1213.809204	68.243004
806.315125	733.665039	1436.048828	1210.985840	67.957260
806.623901	723.262695	1430.773071	1209.499756	68.725075
806.932495	724.228577	1429.212891	1210.465698	68.971336
807.241150	719.770447	1427.429565	1212.323120	69.603096
807.549622	724.748718	1429.064331	1202.292358	67.802505
807.858154	721.999512	1426.092163	1193.227417	66.926971
808.166565	724.525818	1426.760864	1186.242920	65.749649
808.474915	725.268799	1417.324585	1179.927124	65.696777
808.783264	726.309082	1403.355469	1182.602173	67.394653
809.091492	732.104675	1381.733398	1182.899292	69.392654
809.399719	730.767273	1369.176270	1183.196533	70.868248
809.707825	729.801331	1367.095703	1180.150146	70.665749
810.015930	730.172852	1365.312500	1161.351563	67.887230
810.323975	730.841553	1363.157837	1159.048218	67.720329
810.632080	734.482422	1356.619141	1143.518921	65.747040
810.939880	729.504089	1344.433472	1153.921265	69.018845
811.247864	729.355469	1336.631714	1144.559204	68.371475
811.555664	727.795105	1326.823730	1146.862549	69.957832
811.863464	734.482422	1324.891724	1142.701538	69.141716
812.171143	735.448303	1315.009521	1143.221680	70.358986
812.478882	738.791992	1316.941528	1142.998657	69.913864
812.786438	734.036621	1310.848633	1139.580933	70.307884
813.094055	737.083008	1313.597900	1135.642822	69.132614
813.401489	733.145020	1309.065430	1134.899902	69.758751
813.708984	735.522644	1303.938477	1125.463379	68.601318
814.016357	740.723816	1297.028320	1123.828613	68.866028
814.323730	744.661865	1303.418335	1119.667603	67.114342
814.630981	749.714417	1303.046875	1121.079468	67.114273
814.938232	745.776367	1295.542236	1111.865967	66.590096
815.245361	739.014832	1287.814697	1107.704956	67.181160
815.552490	734.036621	1289.746582	1106.367554	67.000946
815.859619	732.550537	1294.799194	1116.844238	68.349419
816.166565	738.049011	1295.988037	1123.011353	68.997208
816.473572	730.470032	1299.182983	1126.800781	69.689064
816.780457	726.457703	1302.452271	1123.902954	69.001564
817.087341	718.061523	1309.362427	1120.187866	68.007057
817.394043	723.114075	1318.353149	1111.717285	65.285233
817.700806	726.011902	1326.229370	1114.243530	64.681831
818.007507	729.801270	1323.405762	1115.878296	65.039436
818.314209	725.268860	1324.891724	1130.515869	67.583649
818.620667	718.507324	1340.941162	1125.909058	65.453018
818.927246	724.228577	1362.191772	1136.905884	64.686691
819.233704	732.179016	1378.909790	1151.023438	64.763336
819.540161	740.129395	1402.315308	1186.985840	67.482025
819.846497	742.878601	1432.184937	1214.329346	68.394951
820.152832	743.175781	1482.487915	1253.338257	69.005020
820.458984	740.575195	1541.261353	1287.220337	68.272087
820.765259	737.008728	1617.347290	1334.996948	67.927071
821.071350	727.572266	1719.364868	1395.999512	67.395866
821.377502	727.869446	1881.790649	1507.453613	67.559570
821.683472	731.807434	2198.617432	1714.163696	66.972290
821.989441	738.643372	2746.451416	2067.473145	66.183113
822.295349	735.374023	3469.714111	2547.914307	66.288033
822.601196	725.566101	4281.025391	3090.324219	66.510620
822.907043	723.262695	4961.266602	3539.410156	66.449852
823.212769	724.525879	5378.328125	3801.624268	66.120094
823.518494	726.977844	5410.203613	3840.707764	66.486870
823.824097	725.863281	5149.326660	3690.021484	67.009895
824.129700	724.674500	4765.256348	3454.407471	67.557915
824.435242	734.556641	4363.798828	3186.026367	67.547707
824.740723	737.603088	4010.563477	2951.972656	67.656471
825.046082	743.324402	3684.894531	2735.603516	67.728424
825.351501	737.305908	3380.328125	2526.366943	67.689972
825.656799	739.832214	3066.175781	2313.786865	67.657875
825.962036	735.225342	2782.636719	2113.986572	67.341682
826.267212	730.915833	2566.044434	1967.536011	67.386017
826.572449	732.996277	2455.407715	1886.100220	66.947075
826.877502	742.135498	2460.608887	1888.775024	66.724312
827.182495	742.581299	2564.335449	1958.396851	66.738731
827.487488	743.547302	2710.860596	2063.014893	67.069519
827.792419	737.900391	2828.630127	2159.311279	67.986351
828.097290	740.129395	2858.425781	2171.199951	67.557617
828.402100	735.299744	2799.503174	2116.438721	66.909050
828.706848	737.231628	2651.715576	2008.105103	66.382042
829.011597	737.008728	2467.816162	1895.833862	66.952866
829.316223	741.392578	2291.273193	1796.119507	68.052139
829.620789	739.609314	2141.181641	1700.640625	68.568085
829.925354	743.027161	2024.303345	1619.947876	68.441200
830.229797	739.089111	1907.127930	1530.784668	67.779900
830.534302	740.872498	1794.410767	1453.361206	67.628174
830.838562	735.894104	1671.514038	1368.136108	67.574661
831.142944	737.603088	1562.883423	1302.303711	68.425308
831.447144	739.312012	1474.389038	1239.295044	68.017776
831.751404	743.101501	1425.423462	1201.103516	67.124031
832.055542	736.265625	1402.092285	1178.812622	66.465797
832.359619	730.172852	1381.139038	1163.803589	66.613403
832.663635	724.971680	1382.253540	1167.295776	67.295952
832.967651	728.166687	1405.361694	1193.227417	68.674568
833.271545	728.984070	1483.156616	1241.226929	67.921173
833.575439	726.234863	1592.455933	1309.734009	67.361458
833.879211	724.228699	1733.779663	1394.364868	66.379631
834.183044	728.909668	1872.799927	1490.140991	66.547585
834.486694	734.110901	1974.000366	1565.261108	67.034218
834.790344	735.151123	2003.498657	1586.362915	67.111870
835.093933	730.915833	1976.452515	1569.050415	67.291046
835.397522	724.228699	1912.626465	1525.063354	67.387764
835.700928	727.200867	1840.181274	1472.457031	66.960396
836.004395	723.559998	1768.182007	1425.423462	67.188271
836.307739	729.652771	1693.359009	1374.971802	66.962212
836.611023	731.658936	1624.851929	1330.018677	66.991089
836.914307	733.367859	1552.629517	1275.257568	66.143669
837.217529	733.888000	1487.317505	1235.877197	66.627228
837.520691	730.395691	1414.129272	1189.214966	67.104980
837.823730	729.652649	1347.925659	1151.766479	68.273048
838.126831	727.349365	1298.885864	1107.556396	66.523666
838.429749	731.733215	1264.409302	1080.955933	65.560051
838.732727	735.894104	1234.391113	1054.504150	63.914135
839.035522	738.197571	1208.756592	1040.758179	64.298119
839.338379	733.813660	1194.416260	1041.947144	66.897903
839.641113	736.637207	1195.679321	1055.098633	69.375206
839.943848	737.454529	1208.310791	1066.764160	69.938461
840.246460	735.596924	1236.768677	1077.761108	68.272842
840.549072	733.293518	1266.341309	1087.717651	66.490120
840.851563	729.801331	1278.824097	1102.801147	67.938858
841.154053	730.990234	1278.601196	1100.646118	67.503372
841.456482	734.779602	1271.170898	1094.181885	67.003754
841.758850	734.408020	1261.362915	1084.299683	66.398788
842.061157	732.179016	1235.208496	1070.033569	67.163963
842.363403	725.566101	1200.731934	1048.040039	67.865555
842.665588	731.881836	1178.143921	1032.584961	67.382629
842.967712	737.305908	1165.512329	1018.095947	65.573524
843.269775	742.135559	1155.481567	1010.517090	64.929024
843.571777	734.631042	1124.051636	986.443054	64.663254
843.873840	733.293518	1099.234375	978.938416	67.126938
844.175659	729.132629	1076.646484	967.198486	68.505432
844.477600	734.928223	1064.757935	962.740295	69.069603
844.779297	732.253357	1050.343262	955.087097	70.053696
845.081116	730.024231	1039.420776	944.387512	69.284317
845.382751	730.321472	1037.711792	942.975769	69.180542
845.684387	728.612488	1038.454956	926.852112	63.980778
845.985962	728.463867	1024.783081	922.022461	65.320976
846.287537	731.361755	1016.238342	909.688232	62.597801
846.588989	737.751709	1002.417969	913.700623	66.479538
846.890381	741.095398	996.548035	918.158691	69.313553
847.191711	737.305908	991.049622	915.038025	70.043945
847.493042	733.516418	987.929016	912.883118	70.502289
847.794250	740.352356	994.690613	907.087646	65.556511
848.095459	734.556702	991.049622	898.319824	63.847034
848.396606	727.795166	986.740173	890.815247	62.955482
848.697693	725.417480	983.396484	885.094055	61.895184
848.998657	729.355469	976.337708	894.084717	66.696800
849.299622	740.426575	972.622620	896.165100	67.071999
849.600464	735.968506	960.065430	896.759521	71.750656
849.901367	729.875671	957.093445	892.895752	71.746185
850.202087	723.857117	958.133606	890.963928	71.328888
850.502808	723.634216	969.130371	887.471680	66.737282
850.803467	727.052063	974.628723	889.552185	65.636284
851.104065	732.179016	976.932129	885.316895	62.568306
851.404663	726.754883	971.582336	887.100159	65.493179
851.705139	729.281250	965.266602	879.818542	63.790947
852.005615	731.287415	967.049805	873.651367	60.384506
852.306030	733.145020	967.272766	874.765930	60.488735
852.606384	731.807556	975.817688	871.496643	57.247250
852.906616	723.188416	973.588562	877.366516	61.572689
853.206909	729.132629	976.709290	869.564758	56.722687
853.506958	729.578430	966.975586	875.583252	61.502346
853.807129	738.569031	955.607361	874.765930	62.752464
854.107178	731.510254	953.229675	878.406738	66.253326
854.407166	734.185242	951.223450	880.710144	67.511108
854.707092	721.405090	954.046936	884.573914	70.137352
855.007019	724.600159	951.297668	881.007324	68.993774
855.306763	728.241028	952.115051	875.806152	65.914360
855.606567	733.888000	944.536316	868.673096	63.985840
855.906250	735.076843	938.666321	869.936279	66.240868
856.205933	728.983948	941.415466	869.118958	65.967148
856.505493	732.253357	949.885986	866.741211	61.795815
856.805054	732.179016	957.687805	870.604980	61.383846
857.104492	729.652771	957.539246	868.673157	61.004227
857.403931	720.810730	957.390625	878.258118	66.551468
857.703308	719.176025	959.248230	874.914551	64.871536
858.002563	726.383362	956.201660	877.143738	65.599815
858.301819	734.928223	953.898254	874.245911	63.624088
858.601013	742.135559	944.833313	880.858704	68.438423
858.900208	738.717590	949.663086	883.385010	68.580475
859.199219	741.987000	948.251282	886.059875	69.848679
859.498291	735.596924	953.601257	880.710144	66.564377
859.797302	735.671204	948.399902	878.555359	67.167313
860.096191	731.510315	952.189453	876.400574	65.656525
860.395020	727.869446	940.821106	871.347961	67.376099
860.693787	725.194519	933.242188	861.019958	65.285728
860.992554	724.080078	925.217468	860.128235	67.639420
861.291260	722.222473	926.480652	864.883728	69.843597
861.589844	719.696106	932.350525	873.502869	72.327095
861.888428	720.736328	937.700256	865.924011	66.917892
862.186890	728.463867	947.879822	865.849609	62.614288
862.485413	734.928223	952.560852	862.208801	58.484142
862.783813	738.197510	949.068665	863.992004	59.654671
863.082153	742.655762	948.474304	857.453430	55.776154
863.380371	736.117004	950.034668	863.694824	59.638748
863.678589	730.321472	953.081055	872.833984	63.975929
863.976746	725.640381	948.102722	879.001160	68.937859
864.274902	724.080078	946.467957	876.549133	68.559967
864.572937	729.206970	948.697083	874.022949	65.978363
864.870911	727.943665	955.161438	862.506042	59.221767
865.168884	732.996338	953.303955	860.722717	57.976379
865.466736	731.807434	952.338074	851.657776	54.346344
865.764587	730.915833	946.690979	860.722656	60.158375
866.062317	731.658875	952.635254	864.140625	59.952900
866.360107	729.058289	944.090393	870.902161	65.964043
866.657715	727.943787	942.901550	873.205566	67.576897
866.955322	722.668274	936.139954	879.224121	73.337997
867.252808	726.011902	944.610535	875.508972	68.388840
867.550293	726.829163	943.124451	869.341797	65.888000
867.847717	734.408020	943.421692	865.180847	62.566639
868.145081	739.906433	937.031555	864.660828	63.286907
868.442383	751.274841	940.523865	869.490479	62.465652
868.739624	753.429626	932.573425	864.289246	61.883034
869.036804	752.612305	938.294739	873.948547	65.346107
869.333984	745.850769	939.632263	876.549133	67.446259
869.631042	744.067444	944.833435	881.527527	68.467812
869.928101	735.002502	950.034607	874.097229	64.685562
870.224976	726.606262	953.378235	866.666992	61.762806
870.521851	730.915833	950.257507	865.998230	61.585377
870.818726	737.454529	948.771484	871.645264	63.502113
871.115479	748.302734	948.028503	877.440857	64.657715
871.412231	741.020996	955.533020	879.001160	64.322807
871.708862	739.609314	951.966492	877.069336	64.730576
872.005493	732.401917	950.108887	873.056946	64.607498
872.302063	739.460693	954.789978	871.422363	61.283661
872.598572	733.293518	951.669250	876.697754	65.668579
872.895020	731.510254	951.966492	880.264343	67.475563
873.191406	726.086182	949.960266	881.601746	69.465637
873.487671	729.578430	964.003418	883.979492	65.863739
873.783997	733.219238	969.278992	889.032043	66.005661
874.080200	735.002502	967.644348	888.957764	66.176941
874.376343	734.110840	958.950989	880.264343	65.003296
874.672424	737.157288	961.031433	874.245850	61.234657
874.968445	734.185242	972.399719	878.406738	60.542709
875.264465	733.293518	975.297546	873.948547	58.120945
875.560364	733.516418	962.368896	879.521301	63.798691
875.856201	736.711487	953.303955	879.224121	65.797592
876.152039	742.284180	960.288330	881.601807	63.905952
876.447754	737.825989	969.278992	878.629639	60.834660
876.743469	730.321472	967.124207	875.434631	61.280186
877.039063	725.491760	963.260437	877.069336	63.750019
877.334595	727.052185	966.975586	881.750427	64.478180
877.630127	730.395752	972.473938	885.614075	64.119087
877.925537	732.030457	970.542175	892.821472	67.414307
878.221008	734.705261	971.507996	892.227051	66.520256
878.516296	731.658875	975.074524	891.112549	65.506744
878.811646	725.788879	989.117859	898.840027	65.716713
879.106812	722.148132	993.798889	906.195984	67.751640
879.401978	726.903503	1008.362244	920.016296	68.611404
879.697083	730.098572	1024.783203	930.418640	67.977776
879.992126	733.590759	1060.597046	948.548523	65.735054
880.287109	729.652771	1101.240723	968.238770	64.207138
880.582031	727.349304	1166.329834	1010.888489	64.590378
880.876892	724.748718	1280.087402	1096.633789	66.965454
881.171753	724.822937	1495.862427	1240.112305	66.830475
881.466492	732.550476	1816.701538	1445.187866	65.732292
881.761230	727.720886	2192.598877	1680.058960	65.011429
882.055786	735.596924	2543.084961	1914.781250	65.238846
882.350403	733.516418	2783.677002	2083.671143	65.856049
882.644958	736.191345	2888.369873	2156.190674	65.979622
882.939453	731.881836	2857.533936	2144.599365	66.460434
883.233826	728.315247	2753.287354	2067.770264	66.146835
883.528137	723.708496	2607.728271	1980.316040	66.698212
883.822449	722.816895	2480.447754	1888.478027	66.320023
884.116577	725.640381	2361.117920	1809.048218	66.244125
884.410828	730.172852	2243.644775	1727.835449	65.918808
884.704956	740.426575	2093.033447	1639.340820	66.457909
884.999023	736.340027	1910.545898	1533.533813	67.892166
885.292969	738.717712	1722.857056	1414.797974	68.697617
885.586914	730.247131	1549.657593	1295.244995	68.951752
885.880798	738.494812	1421.336792	1201.846558	67.856361
886.174622	743.770203	1329.275513	1135.345581	66.878197
886.468384	742.135559	1265.003784	1084.968384	65.567726
886.762085	735.448303	1214.329346	1049.377319	65.554695
887.055664	729.578430	1172.942871	1026.120605	66.884521
887.349304	730.024231	1139.952515	1005.835938	67.282913
887.642822	734.408142	1105.698853	988.894836	68.541092
887.936340	737.231628	1086.231567	961.625793	64.296333
888.229736	733.219299	1072.708374	955.161560	65.375374
888.523071	728.538269	1063.569214	942.604309	63.894409
888.816284	731.510254	1042.318481	941.861328	67.678734
889.109619	733.219238	1027.681030	921.130859	63.815281
889.402710	729.429871	1014.380676	914.369324	64.902237
889.695862	724.823059	1008.362244	905.973145	63.888908
889.988892	725.788879	994.170410	903.298279	66.140694
890.281921	726.457642	979.458496	887.620300	63.700439
>>>>>End Processed Spectral Data<<<<<
