Jaz Data File
++++++++++++++++++++++++++++++++++++
Date: Fri Jun 04 16:41:27 2021
User: jaz
Dark Spectrum Present: Yes
Reference Spectrum Present: Yes
Processed Spectrum Present: Yes
Spectrometers: JAZA3586
Integration Time (usec): 24400 (JAZA3586)
Spectra Averaged: 10 (JAZA3586)
Boxcar Smoothing: 1 (JAZA3586)
Correct for Electrical Dark: No (JAZA3586)
Strobe/Lamp Enabled: Yes (JAZA3586)
Correct for Detector Non-linearity: No (JAZA3586)
Correct for Stray Light: No (JAZA3586)
Number of Pixels in Processed Spectrum: 2048
>>>>>Begin Processed Spectral Data<<<<<
W	D	R	S	P
191.335022	0.000000	0.000000	0.000000	0.000000
191.713211	234.499390	230.487045	236.134048	-40.740742
192.091385	471.747955	472.490997	468.330078	-459.984406
192.469528	709.665283	712.117249	708.699402	-39.392128
192.847641	718.878906	723.559875	718.284424	-12.699986
193.225739	727.126465	723.336975	729.132629	-52.940228
193.603790	728.761047	731.584534	736.860107	286.846100
193.981842	720.587830	734.779602	744.736267	170.158005
194.359863	726.383362	741.689758	757.590515	203.883087
194.737854	739.237793	743.398682	763.460449	582.151001
195.115829	760.636902	748.971436	760.191101	3.821543
195.493774	758.259277	751.200500	751.720642	92.631279
195.871704	756.401672	756.847473	750.308899	-1366.703125
196.249603	754.989929	757.219055	754.098328	-39.997810
196.627457	752.909485	755.807312	765.095154	420.510559
197.005310	756.847473	745.702148	756.476074	3.332329
197.383133	753.875427	743.695984	747.411072	63.504017
197.760910	758.036377	750.754700	745.776367	168.367935
198.138687	750.754700	751.794922	753.949707	307.146637
198.516449	748.302673	750.828918	755.138489	270.591919
198.894180	752.983704	749.863098	750.828918	69.050224
199.271866	760.191162	750.531799	746.668030	140.000259
199.649536	759.596741	749.417236	751.497742	79.561821
200.027191	750.234619	743.547363	744.513367	85.554565
200.404816	738.643372	742.581360	746.742371	205.663361
200.782410	736.488586	750.531799	746.296570	69.841446
201.159988	741.169617	762.494568	757.516296	76.655182
201.537537	737.677429	777.429382	761.379944	59.626038
201.915070	738.866211	781.738953	759.299500	47.660328
202.292557	733.665039	778.618164	758.556458	55.371941
202.670029	742.209961	774.903076	749.417236	22.045238
203.047485	743.324463	772.599670	748.154053	16.497202
203.424911	736.191406	769.256104	738.494812	6.966360
203.802292	728.463867	765.615234	741.466858	35.000034
204.179688	718.432922	760.711243	740.352356	51.845566
204.557037	725.937500	768.587341	738.717712	29.965439
204.934357	733.590759	771.782410	735.374023	4.669251
205.311661	738.866272	775.720398	740.798157	5.241977
205.688934	733.665039	769.924805	748.748535	41.598438
206.066177	727.052063	773.416992	759.225159	69.391014
206.443390	723.485657	770.221985	756.847473	71.383049
206.820587	725.789001	765.392334	756.698914	78.048767
207.197769	721.256531	758.482178	757.664856	97.804413
207.574921	725.194580	762.345886	758.927979	90.800034
207.952042	722.222473	765.169434	753.578186	73.010323
208.329147	726.383362	765.838135	742.804260	41.619549
208.706223	732.327637	776.463379	745.999268	30.976324
209.083267	738.048889	783.522156	747.411072	20.588322
209.460297	737.677429	787.237305	754.767090	34.482857
209.837280	731.213074	773.491394	751.497742	47.978889
210.214264	723.114014	766.506836	748.674316	58.904449
210.591217	722.148132	763.163269	750.754700	69.746368
210.968124	719.918945	761.305664	752.612305	78.994812
211.345016	726.606262	768.290039	761.825867	84.492355
211.721893	729.132568	771.187927	758.705078	70.318054
212.098724	733.590759	773.417053	750.531738	42.537170
212.475555	738.717590	767.472839	751.349121	43.927738
212.852356	736.191345	760.859863	746.147949	40.361580
213.229126	734.482361	763.980530	750.680420	54.912083
213.605865	733.887939	763.906250	742.581360	28.960392
213.982590	737.603088	767.324219	741.243958	12.250103
214.359283	740.278015	762.940369	738.717590	-6.885537
214.735931	731.436035	761.157043	749.417236	60.499969
215.112579	738.866211	756.996155	756.401672	96.720993
215.489197	730.024231	761.454346	759.893982	95.035446
215.865799	734.556702	765.838196	747.931213	42.755348
216.242355	732.699158	772.674072	747.559753	37.174805
216.618896	747.262451	774.977356	752.017883	17.158392
216.995407	747.633972	778.172424	757.887756	33.576633
217.371902	740.129395	773.491394	756.996094	50.556622
217.748367	725.417419	761.157043	754.098328	80.249611
218.124802	717.764221	758.036377	760.265442	105.535004
218.501236	719.027405	760.562683	755.510071	87.835373
218.877609	725.343201	771.782410	750.977539	55.199776
219.253983	732.253357	769.479004	739.906494	20.558775
219.630295	735.596924	766.729736	740.500793	15.751451
220.006592	733.293518	766.283997	748.005432	44.594425
220.382889	732.104675	764.352051	746.296570	44.009457
220.759140	724.971619	766.729797	747.559753	54.092720
221.135391	724.005676	766.804016	742.507141	43.229397
221.511581	723.634094	768.513000	750.085938	58.940479
221.887772	725.937561	770.816406	752.537903	59.271450
222.263931	727.646545	772.228210	754.023987	59.166569
222.640060	727.795166	778.395325	751.200500	46.255455
223.016159	729.281189	776.909241	749.640137	42.745708
223.392212	730.767273	778.692566	748.079773	36.123932
223.768265	733.665039	779.584167	747.856873	30.906147
224.144302	734.556824	776.983582	751.349121	39.579498
224.520294	735.745605	769.404724	754.469788	55.628853
224.896286	734.853943	759.893860	755.881531	83.976265
225.272217	743.250061	763.014648	754.098328	54.887394
225.648148	744.216064	760.859863	758.036377	83.035805
226.024048	745.702148	766.729736	754.618469	42.402966
226.399902	734.036560	765.392334	758.259277	77.251221
226.775772	729.132568	763.683350	756.476013	79.139877
227.151581	726.680603	758.630798	759.596680	103.023087
227.527374	734.333740	762.717468	749.863098	54.712185
227.903137	738.569031	770.816345	741.392578	8.755915
228.278870	743.695984	773.119812	737.157288	-22.222452
228.654572	737.082947	774.085693	743.101501	16.265156
229.030273	736.637207	775.348877	744.438965	20.153503
229.405930	729.132629	775.423157	742.804382	29.534666
229.781555	729.578430	777.206482	743.770325	29.797344
230.157181	725.640381	776.686340	752.612305	52.838509
230.532761	727.795166	776.463562	766.209656	78.931076
230.908325	735.374023	771.187988	766.952637	88.174019
231.283859	740.278015	769.404724	759.671082	66.581726
231.659332	741.021057	776.017578	753.503906	35.668827
232.034821	731.361633	777.577942	755.361511	51.929455
232.410263	717.987122	777.949463	756.921814	64.931908
232.785690	713.528992	770.147766	754.544128	72.440880
233.161087	716.649719	770.296387	748.599915	59.556721
233.536469	722.593994	765.763855	749.937317	63.338917
233.911804	720.810730	768.141602	750.234558	62.166252
234.287140	720.141907	763.609070	756.698914	84.102585
234.662430	724.154297	770.370605	748.674255	53.054775
235.037704	727.497864	767.472839	754.841309	68.401405
235.412933	727.795166	770.519226	749.863098	51.652237
235.788162	722.222412	771.782410	762.940369	82.158913
236.163345	726.532043	773.045471	748.674255	47.603912
236.538513	732.253357	775.943359	754.692688	51.360332
236.913635	730.767273	777.726563	746.965271	34.493702
237.288742	730.024231	781.813232	752.240723	42.898090
237.663834	727.423645	790.135071	748.228333	33.175274
238.038879	732.476257	792.810059	746.222229	22.783201
238.413910	728.612488	794.890442	748.451233	29.932646
238.788910	725.714661	793.404480	746.073547	30.076735
239.163879	725.194519	788.351868	753.132324	44.235241
239.538834	723.708496	781.813232	757.739075	58.567650
239.913757	726.680603	776.983582	762.791748	71.787292
240.288651	728.389587	774.011414	761.900085	73.452774
240.663528	729.281250	775.200256	759.819580	66.504768
241.038361	726.234863	768.736023	759.968262	79.370537
241.413177	728.463867	777.577942	756.847473	57.791183
241.787979	729.801331	781.441711	763.014648	64.316559
242.162735	725.714661	789.615051	759.150879	52.325531
242.537476	726.531982	785.008240	752.092102	43.710251
242.912170	727.720886	793.553040	748.525635	31.602716
243.286865	731.658936	796.525146	742.358459	16.494757
243.661514	725.714661	806.927490	745.999329	24.977171
244.036148	725.789001	797.342468	745.924988	28.141174
244.410751	726.606262	796.153625	755.212891	41.132584
244.785339	726.011902	791.175476	756.624695	46.978382
245.159882	720.885010	795.856445	756.178772	47.076279
245.534378	719.621887	795.707825	753.578308	44.629036
245.908890	722.816895	797.788330	748.897156	34.786930
246.283356	721.033630	808.042053	742.135559	24.252743
246.657791	726.160461	812.425964	737.157410	12.747793
247.032196	726.680603	819.856262	742.432800	16.905914
247.406586	728.835388	828.252441	747.411133	18.684666
247.780960	725.640381	836.722961	750.085938	22.006651
248.155289	723.039795	834.791016	745.479187	20.079773
248.529602	731.658875	821.193665	741.912659	11.452291
248.903870	733.665039	815.249451	745.999329	15.118439
249.278122	736.934387	814.877930	754.767090	22.879000
249.652344	732.922058	817.552734	750.160339	20.368834
250.026550	735.745544	813.317566	736.265686	0.670527
250.400711	736.711426	805.738708	733.367859	-4.843834
250.774857	736.934387	804.401184	738.569031	2.422886
251.148987	719.547546	800.537415	744.884766	31.284431
251.523071	713.008972	803.361023	739.312012	29.111723
251.897125	714.197754	804.772766	739.906433	28.383854
252.271164	728.984070	816.512512	740.203674	12.818238
252.645187	735.448303	829.887024	745.256287	10.385553
253.019165	732.996338	824.908875	743.695862	11.640985
253.393112	729.875671	822.754089	758.779297	31.119852
253.767044	727.572266	820.673523	757.516296	32.162865
254.140930	724.080017	825.057434	756.401672	32.008797
254.514801	730.470032	827.212219	743.844543	13.824901
254.888657	732.847717	817.998718	744.067566	13.176414
255.262466	735.522644	818.518799	745.330566	11.817322
255.636276	730.470032	811.831543	754.098328	29.041122
256.010010	729.429871	818.295898	752.092102	25.501570
256.383759	731.881836	818.890320	751.200500	22.203196
256.757446	730.024231	831.075989	742.952881	12.794087
257.131134	731.213074	834.419617	743.621643	12.023046
257.504791	726.829285	839.695068	747.931152	18.696426
257.878418	726.457703	843.038757	757.367676	26.513720
258.252014	718.061462	845.862122	761.380066	33.895447
258.625580	726.680664	856.115906	762.345886	27.554491
258.999115	732.699219	861.242859	754.246887	16.762920
259.372650	727.943787	875.583252	756.773254	19.526939
259.746124	723.039795	894.307556	753.355286	17.700640
260.119598	719.547546	918.084412	757.367615	19.049393
260.493042	727.572266	938.889160	762.717346	16.631458
260.866425	732.996399	945.502136	764.352051	14.755202
261.239838	730.395691	941.935547	761.825867	14.857803
261.613159	735.596924	924.994629	753.132385	9.258539
261.986511	724.674500	906.195984	752.315125	15.227192
262.359802	728.538269	900.177490	752.686584	14.069229
262.733063	729.132629	894.976257	752.686523	14.202472
263.106293	738.049011	898.394226	755.510071	10.889667
263.479523	733.813660	890.072266	744.067444	6.562060
263.852692	727.349304	887.025879	742.581360	9.539318
264.225861	725.343201	886.951660	740.946777	9.655173
264.598969	719.101746	889.552246	751.720642	19.136873
264.972076	714.049133	889.403625	752.983704	22.203350
265.345154	717.095520	888.660461	753.281006	21.091421
265.718201	725.640381	892.747131	755.807312	18.052490
266.091217	737.603210	907.459167	762.345947	14.566894
266.464203	730.024231	918.901672	762.791748	17.348560
266.837158	727.349304	937.923279	763.683411	17.254795
267.210114	719.696106	945.725098	755.807312	15.976360
267.583038	723.634277	954.269836	750.457520	11.630141
267.955902	725.045959	952.635193	746.445129	9.402540
268.328766	730.618652	946.542419	750.085999	9.015842
268.701569	730.098572	950.034668	750.531799	9.290529
269.074371	729.578430	953.526855	749.714539	8.991405
269.447144	723.262695	974.331543	746.073669	9.085546
269.819885	728.538269	980.721619	755.584412	10.724793
270.192596	727.943848	993.501648	757.962097	11.303847
270.565277	738.271790	993.724609	762.717468	9.569548
270.937927	733.590820	1008.362244	756.996094	8.518088
271.310577	731.510254	1033.476563	760.859863	9.719498
271.683136	723.857117	1066.689819	758.853699	10.208064
272.055725	724.377197	1092.844360	761.974426	10.203685
272.428284	727.349365	1101.314941	751.200500	6.377896
272.800812	741.095276	1098.565796	756.996094	4.448148
273.173279	749.268555	1089.500854	753.132324	1.135627
273.545776	752.240723	1071.519531	753.429626	0.372372
273.918152	745.999329	1069.141846	744.290344	-0.528864
274.290558	734.779602	1064.757935	742.432800	2.319303
274.662964	735.448425	1064.015015	746.147949	3.256425
275.035278	731.956055	1059.705444	748.079834	4.919545
275.407593	731.584656	1058.145142	746.222229	4.482347
275.779907	728.686768	1068.844727	747.113953	5.417243
276.152161	731.584656	1076.274902	743.175842	3.362783
276.524384	739.832214	1099.085815	747.559753	2.150998
276.896606	730.990234	1109.339722	748.228455	4.556163
277.268799	735.076843	1120.039185	756.104492	5.462261
277.640930	724.525818	1125.017456	757.962097	8.348808
278.013031	730.618652	1133.339355	748.079834	4.335804
278.385162	724.154297	1138.911987	748.377014	5.840209
278.757233	727.126465	1140.992554	741.689758	3.518842
279.129272	729.281250	1146.119507	755.955872	6.399274
279.501282	732.253235	1151.617798	754.692688	5.350822
279.873230	734.408020	1158.230835	758.407898	5.662715
280.245178	737.751709	1179.258423	760.265442	5.099296
280.617126	732.476257	1204.595703	756.253113	5.036195
280.988983	727.869446	1222.874146	759.225159	6.334427
281.360870	725.789001	1242.861694	750.754700	4.828276
281.732697	726.754883	1269.313354	759.671082	6.066848
282.104492	730.990234	1301.486450	760.488342	5.170605
282.476288	726.680664	1324.817505	762.345947	5.962730
282.848053	729.058289	1334.848511	758.705078	4.893904
283.219757	730.915833	1337.151733	759.522461	4.718729
283.591461	730.024231	1331.579102	760.339783	5.039532
283.963135	730.098633	1329.498535	756.401672	4.388229
284.334747	729.801331	1336.334351	753.578186	3.920125
284.706360	736.414307	1349.040161	751.051941	2.389327
285.077942	730.767273	1372.371094	754.915710	3.763762
285.449524	732.401855	1395.182251	759.373779	4.069511
285.821014	731.361633	1417.101563	761.082764	4.334169
286.192535	742.135559	1439.912476	756.921814	2.119052
286.563995	742.432800	1468.370483	748.525574	0.839297
286.935425	738.123230	1486.128784	751.126221	1.738355
287.306824	728.166687	1493.261719	748.079834	2.602702
287.678223	729.801270	1479.218750	752.166443	2.984341
288.049561	734.631042	1464.803833	746.816650	1.668866
288.420898	735.745544	1444.147827	748.005432	1.730639
288.792145	731.287354	1436.940308	747.262451	2.263875
289.163452	728.909668	1443.033203	752.612305	3.319123
289.534668	729.355469	1470.302246	756.698914	3.690339
289.905914	721.702332	1494.376343	759.819641	4.933168
290.277039	722.519714	1528.332642	759.522461	4.591977
290.648193	724.748718	1561.917603	758.705078	4.056094
291.019318	729.875671	1598.102905	755.064270	2.901153
291.390381	732.773438	1625.372070	752.760803	2.239233
291.761475	734.110840	1621.359741	752.909485	2.118757
292.132507	734.408020	1616.975952	754.544128	2.281536
292.503510	733.962219	1595.205078	758.853699	2.890181
292.874481	731.584656	1584.059570	763.757629	3.774067
293.245422	731.807556	1578.264160	764.946533	3.915024
293.616364	731.064453	1598.697266	760.636963	3.408413
293.987213	733.813660	1638.598022	761.157043	3.022089
294.358093	734.110840	1685.111450	761.379883	2.867405
294.728943	737.751770	1731.625000	770.221924	3.267032
295.099731	735.894226	1773.308716	766.804016	2.979502
295.470490	736.265686	1805.184692	765.169434	2.704017
295.841248	728.166687	1834.014038	760.488342	2.922795
296.211975	726.903564	1849.320313	764.723633	3.369521
296.582642	725.566101	1885.134277	769.924805	3.825450
296.953308	725.789001	1923.177368	765.392334	3.307476
297.323883	724.525818	1980.464844	756.847473	2.573505
297.694519	727.497864	2006.842163	750.457458	1.794638
298.065063	731.138855	2010.260132	759.819580	2.242221
298.435608	725.714661	1982.545288	764.500671	3.086017
298.806122	722.073792	1934.545776	762.345947	3.321492
299.176575	720.587830	1872.131348	754.692688	2.961665
299.547028	730.990173	1821.977173	753.355286	2.049989
299.917450	738.197571	1796.862915	756.773254	1.754632
300.287872	743.101501	1790.249878	755.212891	1.156607
300.658234	743.993164	1794.187866	761.528625	1.669734
301.028564	741.987000	1788.466431	768.587341	2.541888
301.398865	732.773438	1784.379883	767.101257	3.264322
301.769135	727.126465	1780.738892	760.414063	3.159378
302.139374	720.513489	1796.119751	752.909485	3.011883
302.509583	721.628113	1804.813110	755.138611	3.093700
302.879791	721.182190	1803.847046	755.064270	3.129508
303.249939	724.600098	1795.599487	754.841309	2.823644
303.620087	729.281250	1791.290039	754.692688	2.392771
303.990173	730.544434	1784.528320	752.835205	2.114906
304.360260	730.841553	1781.407837	751.200500	1.937902
304.730286	731.436035	1792.924683	759.448059	2.638938
305.100281	731.287354	1797.085571	762.717468	2.948974
305.470276	724.228699	1808.305298	758.556458	3.166543
305.840179	721.330811	1806.967773	750.160217	2.655529
306.210144	719.993408	1822.794312	748.897156	2.620940
306.579987	721.107910	1825.023438	755.881531	3.150026
306.949890	724.377197	1833.568237	758.110657	3.041267
307.319702	727.572266	1849.097534	756.550293	2.583805
307.689484	732.327637	1863.214966	758.928040	2.352171
308.059265	735.299805	1895.388062	764.946533	2.555558
308.429016	732.922058	1931.202026	772.376770	3.292612
308.798737	735.374023	1983.808228	772.896973	3.005601
309.168396	735.448425	2034.928589	769.330383	2.607347
309.538055	745.479187	2072.674316	763.237549	1.338037
309.907684	746.593750	2098.531738	752.909485	0.467162
310.277313	743.175781	2109.825928	745.107666	0.141359
310.646851	737.305908	2119.336426	747.931213	0.768818
311.016388	741.243958	2140.364014	752.463684	0.801913
311.385895	742.952881	2152.921387	759.299561	1.159365
311.755371	740.129395	2169.416748	762.345947	1.554380
312.124817	735.819824	2172.908691	764.129150	1.969908
312.494232	737.677429	2166.295654	767.472839	2.085610
312.863617	738.643372	2155.596436	762.940369	1.714735
313.232971	736.934326	2137.094971	764.203430	1.947570
313.602295	735.968445	2120.005127	759.745300	1.717935
313.971619	736.637146	2119.559326	762.940369	1.902003
314.340820	734.928223	2130.853271	768.513000	2.405915
314.710083	734.630920	2162.952148	769.479004	2.439793
315.079285	731.807434	2183.682617	761.602844	2.052202
315.448486	740.946716	2216.227295	749.194336	0.559054
315.817596	736.785828	2222.171631	750.680359	0.935416
316.186707	740.203674	2197.651611	756.178772	1.096101
316.555786	727.349365	2144.673828	762.866028	2.505895
316.924866	723.485657	2101.355225	763.014648	2.868849
317.293884	723.559875	2087.386230	758.927979	2.593299
317.662872	731.213074	2094.667969	761.974426	2.256133
318.031830	728.240967	2108.339600	759.225159	2.245071
318.400757	717.764221	2123.720459	763.163269	3.229051
318.769684	715.609436	2125.726318	758.036316	3.008749
319.138550	726.680603	2136.723145	758.779297	2.276434
319.507416	732.179016	2155.744873	760.859863	2.014719
319.876190	729.206848	2180.784668	767.027039	2.605454
320.244995	732.030457	2195.645264	765.838135	2.309875
320.613770	736.042786	2178.406982	767.175598	2.158457
320.982483	738.048889	2154.035889	760.116882	1.558488
321.351166	735.894104	2129.590088	757.144775	1.524771
321.719818	732.699036	2111.980469	753.429688	1.503004
322.088440	739.089172	2110.865967	756.476013	1.267469
322.457062	736.934326	2133.974121	758.259277	1.526438
322.825623	745.776367	2173.726318	748.599915	0.197734
323.194183	742.878662	2219.570801	747.485352	0.311960
323.562653	741.169617	2257.390869	753.206726	0.793889
323.931183	725.120300	2316.015625	760.265442	2.209142
324.299591	722.742493	2378.950195	759.002258	2.189325
324.668060	721.405090	2428.733154	756.401672	2.049787
325.036407	732.179016	2472.051514	759.150879	1.550221
325.404755	733.070618	2497.686279	760.116882	1.532700
325.773102	739.014832	2510.243408	765.095154	1.472443
326.141388	734.110840	2511.580811	765.540955	1.768250
326.509674	727.200745	2518.862305	763.163269	2.007216
326.877899	714.346375	2542.787842	756.921875	2.328513
327.246124	716.798340	2556.905273	761.008484	2.402586
327.614288	723.559875	2559.580322	764.872253	2.250104
327.982422	726.680664	2549.549316	767.547119	2.241876
328.350525	725.714661	2538.032471	759.893860	1.885938
328.718628	725.491699	2519.308105	756.921814	1.752137
329.086700	726.086121	2525.029541	759.968262	1.883447
329.454712	728.835388	2528.595947	760.116882	1.738092
329.822693	730.098572	2546.205811	756.847473	1.472870
330.190674	735.522644	2549.400879	748.674255	0.725055
330.558563	737.751709	2569.388184	751.200500	0.734250
330.926483	730.098572	2591.604736	754.395508	1.305230
331.294312	730.990234	2616.347656	752.835205	1.158665
331.662231	719.993408	2642.873779	761.825867	2.175510
332.029999	720.959290	2683.071533	766.358215	2.313778
332.397766	719.398926	2720.148438	774.085754	2.733317
332.765503	733.070618	2761.014893	760.636902	1.359322
333.133240	736.934387	2814.215576	757.441895	0.987228
333.500916	734.185242	2870.016846	759.076599	1.165418
333.868561	722.519714	2911.552002	763.386169	1.866873
334.236176	720.959290	2927.675781	761.751465	1.848546
334.603790	724.303040	2929.533203	758.482117	1.549910
334.971344	725.491882	2922.326172	761.677185	1.647157
335.338867	728.241028	2903.527588	763.163269	1.605409
335.706360	725.045898	2914.821289	762.494568	1.710160
336.073853	730.618652	2927.452881	765.466614	1.586281
336.441284	729.652649	2955.687744	763.906250	1.538772
336.808655	735.151123	2928.567383	759.671082	1.117889
337.176086	729.652771	2896.468750	755.732910	1.203616
337.543396	732.550598	2813.175049	757.144714	1.182055
337.910706	728.761169	2760.643311	759.448059	1.510269
338.277954	729.281250	2758.934326	752.537903	1.145844
338.645264	727.795166	2842.153564	759.671082	1.507593
339.012421	724.674377	2966.833252	764.946533	1.796133
339.379669	730.024170	3088.318359	774.977356	1.906174
339.746796	724.302917	3185.506104	777.057861	2.143462
340.113953	725.045898	3246.434326	775.274597	1.992105
340.481018	721.999512	3265.381592	771.039368	1.928136
340.848114	722.148132	3265.901611	773.268372	2.009638
341.215118	725.194580	3261.889404	771.708008	1.833623
341.582153	722.742615	3272.440430	770.667786	1.879641
341.949066	726.309082	3286.929688	766.655457	1.575648
342.316010	721.479492	3309.666016	767.472839	1.777049
342.682922	720.662109	3328.836182	762.791687	1.615290
343.049835	721.182190	3350.904297	759.076660	1.441007
343.416656	730.767273	3397.789063	762.568848	1.192400
343.783478	733.144836	3471.794678	776.389160	1.579038
344.150269	736.860107	3573.589111	775.943359	1.377758
344.516998	741.912659	3676.647217	773.788574	1.086160
344.883728	743.175781	3771.606201	768.215820	0.826832
345.250427	739.089172	3847.468994	762.197266	0.743413
345.617065	728.835449	3889.673096	763.832031	1.107193
345.983704	730.915833	3904.979492	762.568848	0.997239
346.350281	733.367859	3885.586670	773.045471	1.258720
346.716827	733.219238	3844.943115	770.073425	1.184366
347.083405	727.943665	3800.806885	767.027039	1.271888
347.449860	729.949951	3745.154297	771.633789	1.382455
347.816376	730.470032	3707.185547	774.011414	1.462732
348.182770	734.036621	3664.981689	778.766785	1.526134
348.549194	726.754883	3649.526611	772.228210	1.555829
348.915558	718.730225	3655.545654	766.283997	1.619229
349.281921	722.593994	3669.588623	767.844299	1.535473
349.648193	723.039795	3713.129883	770.221985	1.577952
350.014526	729.058289	3755.036377	771.930969	1.416821
350.380737	730.395691	3807.345703	766.952698	1.188092
350.746948	730.767273	3866.565186	760.785461	0.957274
351.113159	730.247131	3919.023193	762.940247	1.025256
351.479309	721.182190	3951.641846	770.742126	1.534145
351.845428	723.039795	3969.028564	775.274597	1.609211
352.211517	723.336975	3983.666016	775.497559	1.599856
352.577576	720.513489	4022.006592	767.472839	1.422367
352.943604	721.925293	4068.296875	758.556458	1.094653
353.309601	728.612488	4138.215332	760.562683	0.937065
353.675537	737.900391	4221.062988	769.404724	0.904475
354.041473	733.070618	4319.514160	775.348877	1.178835
354.407379	728.018066	4432.975098	774.011475	1.241402
354.773254	727.720886	4540.639648	765.243713	0.984097
355.139038	735.968445	4626.310547	765.243713	0.752511
355.504913	737.528809	4706.483398	760.191101	0.570989
355.870636	731.361633	4801.962402	766.358215	0.859740
356.236389	725.863281	4909.478516	766.878357	0.980374
356.602081	730.098572	5044.708984	770.965027	0.947164
356.967804	738.791992	5162.924316	771.187988	0.732256
357.333405	739.757874	5299.121094	774.754456	0.767576
357.699036	735.225403	5421.275391	768.587341	0.711942
358.064606	731.658875	5574.785156	758.853699	0.561514
358.430176	735.448242	5697.978516	753.578125	0.365335
358.795654	734.630920	5749.470215	758.556458	0.477095
359.161163	737.751709	5740.256348	763.088867	0.506489
359.526581	742.358459	5718.411621	767.398438	0.503210
359.892029	747.262512	5737.730469	771.559387	0.486866
360.257416	740.872375	5821.767090	774.828796	0.668316
360.622772	729.801331	5995.263672	766.952698	0.705567
360.988098	722.148132	6238.902344	764.426453	0.766362
361.353394	720.067688	6525.413574	764.872253	0.771781
361.718658	727.720886	6799.665527	772.674011	0.740341
362.083893	733.962341	7043.154785	770.667786	0.581777
362.449097	740.872498	7184.255859	768.735901	0.432434
362.814209	739.163574	7190.571777	763.832031	0.382373
363.179382	739.683594	7001.619629	764.500732	0.396317
363.544434	738.643372	6697.721191	762.345947	0.397756
363.909546	737.751709	6319.669434	764.946472	0.487194
364.274536	734.853943	6016.068359	765.689514	0.583873
364.639587	737.825928	5793.457520	771.708008	0.670185
365.004517	735.151062	5679.997559	771.559509	0.736291
365.369507	737.157227	5614.610840	777.577942	0.828726
365.734344	722.445313	5570.326660	778.023865	1.146450
366.099274	724.377258	5523.664063	782.853516	1.218436
366.464081	727.052063	5495.280762	783.819397	1.190533
366.828918	738.420410	5496.171875	781.590332	0.907360
367.193665	742.135559	5501.076660	777.800842	0.749437
367.558411	734.408142	5515.416504	771.856689	0.783277
367.923126	735.745605	5509.695313	761.454285	0.538520
368.287781	733.367859	5507.688965	761.900085	0.597618
368.652435	734.853943	5481.609375	759.819580	0.525952
369.017059	738.791931	5450.996094	764.203430	0.539270
369.381653	738.717590	5422.761230	770.221985	0.672590
369.746185	744.736145	5397.646484	768.364441	0.507818
370.110687	738.717590	5404.259766	771.039307	0.692775
370.475220	738.717712	5452.259277	768.141602	0.624242
370.839661	733.293640	5522.772949	775.051758	0.871872
371.204041	733.293640	5595.515137	772.525391	0.806869
371.568451	740.203674	5641.730957	772.599670	0.660937
371.932770	737.380188	5695.229004	770.296326	0.663920
372.297150	736.637207	5733.420410	775.125977	0.770271
372.661377	733.219238	5775.921875	781.293152	0.953336
373.025696	743.993164	5810.101563	782.853516	0.767065
373.389862	738.048889	5812.701660	783.447937	0.894624
373.754059	736.117004	5810.918457	780.921692	0.882886
374.118225	719.250305	5810.695313	789.392090	1.377640
374.482361	727.869446	5840.714355	795.559265	1.323917
374.846436	730.470032	5899.338379	788.128906	1.115503
375.210510	738.643311	5979.808594	784.042297	0.866200
375.574524	738.569031	6091.187988	778.469666	0.745441
375.938538	735.299744	6240.239746	779.955750	0.811199
376.302460	732.476257	6377.253906	780.327148	0.847702
376.666412	732.699158	6556.545410	783.150635	0.866291
377.030304	730.098572	6702.253906	790.878174	1.017716
377.394196	733.442200	6865.645020	785.974121	0.856657
377.757996	728.463867	6979.477051	775.868958	0.758358
378.121796	732.327637	7059.724121	768.141418	0.566011
378.485565	734.631042	7080.454590	762.791687	0.443767
378.849304	733.665100	7012.914063	765.689514	0.510004
379.212982	727.423645	6873.521973	760.116882	0.531935
379.576630	724.897278	6708.867188	772.079590	0.788478
379.940277	725.120300	6588.496094	777.206360	0.888329
380.303864	723.782898	6498.812988	786.048523	1.078187
380.667450	725.714661	6465.673828	786.048523	1.051120
381.030945	721.925293	6455.865723	793.330139	1.245301
381.394501	730.692932	6481.352051	796.153625	1.138316
381.757935	734.482422	6507.357910	791.844055	0.993641
382.121399	748.451355	6502.008301	789.169189	0.707698
382.484741	746.816650	6533.289551	789.912292	0.744765
382.848145	746.147949	6564.273926	792.884338	0.803289
383.211487	745.925049	6652.991699	794.890564	0.828931
383.574768	737.825989	6737.474121	798.457031	1.010577
383.938019	731.807556	6834.810059	810.048279	1.282004
384.301270	717.912903	6918.623535	814.432129	1.556583
384.664459	725.417480	7009.049316	822.531067	1.545501
385.027649	728.835449	7067.600098	815.843933	1.372641
385.390778	739.683594	7133.878418	817.478516	1.216649
385.753876	740.946716	7169.320801	823.720032	1.287624
386.116943	741.541199	7209.221191	834.419617	1.436039
386.479980	733.219238	7219.400879	846.828125	1.751553
386.842987	723.485596	7277.283203	847.422546	1.891071
387.205994	719.696106	7321.344238	860.276917	2.129481
387.568909	725.194519	7385.542480	866.146790	2.116290
387.931793	723.039734	7404.191895	873.874329	2.257613
388.294678	722.816895	7452.042969	882.716309	2.376193
388.657471	721.256531	7490.457031	896.239441	2.584986
389.020294	730.172852	7509.851074	923.062683	2.845118
389.383057	731.807434	7521.812988	929.972839	2.918487
389.745819	731.584534	7523.001953	952.858093	3.258135
390.108521	728.240967	7537.490723	969.427551	3.542043
390.471191	718.061523	7584.747559	1003.532532	4.157333
390.833801	719.250305	7693.972656	1032.733521	4.494562
391.196442	717.987244	7873.116699	1063.123413	4.823619
391.558960	722.148193	8064.074219	1097.376953	5.110767
391.921509	723.857117	8256.370117	1125.314697	5.329663
392.284027	725.491760	8436.777344	1163.506348	5.680176
392.646484	732.699219	8552.616211	1212.026001	6.129563
393.008911	735.002502	8574.459961	1251.852417	6.592929
393.371307	730.693054	8509.444336	1297.622681	7.288183
393.733673	725.714661	8463.303711	1329.349976	7.801336
394.096008	719.250305	8405.717773	1378.612671	8.578224
394.458344	729.281250	8420.801758	1423.565918	9.026625
394.820587	739.312073	8436.702148	1488.060669	9.727304
395.182831	744.513245	8500.379883	1547.725708	10.356193
395.545013	735.002502	8476.379883	1604.641602	11.233648
395.907196	731.436035	8379.489258	1647.217163	11.974042
396.269287	736.934387	8235.044922	1699.303223	12.834818
396.631409	737.305847	8102.117676	1749.531860	13.744085
396.993469	727.943787	7986.131348	1801.989380	14.797711
397.355530	714.494934	7893.178223	1858.236694	15.932472
397.717499	717.689941	7879.432129	1917.381714	16.751396
398.079468	729.355469	7869.921387	1980.687500	17.524269
398.441376	730.395691	7870.962402	2058.705322	18.602299
398.803284	730.395752	7843.990234	2127.806885	19.644234
399.165131	723.485596	7857.364746	2206.047607	20.781990
399.526978	725.491882	7883.741699	2278.641602	21.697338
399.888763	729.058289	7907.072754	2362.826416	22.760723
400.250519	726.829163	7913.908203	2431.333740	23.716236
400.612244	732.253357	7938.428223	2513.884033	24.723667
400.973938	734.779602	7947.419434	2592.570557	25.757435
401.335602	738.049011	7986.874512	2689.684326	26.923468
401.697205	731.733215	8039.257813	2770.154297	27.894825
402.058807	731.064514	8106.204590	2862.140625	28.895399
402.420349	727.423645	8202.425781	2957.916992	29.839369
402.781860	726.309082	8297.310547	3041.804688	30.583742
403.143341	719.919006	8426.299805	3153.035889	31.572758
403.504822	725.343079	8575.797852	3268.799805	32.398846
403.866241	729.504089	8759.844727	3417.256592	33.469967
404.227631	735.819824	8919.818359	3548.846680	34.372280
404.588959	734.482422	9088.782227	3689.427002	35.370342
404.950287	736.414246	9231.666992	3814.776123	36.236259
405.311554	730.544434	9344.831055	3915.530273	36.973297
405.672821	738.049011	9375.294922	3998.600830	37.749901
406.034027	740.426575	9354.563477	4065.696289	38.602474
406.395203	744.067444	9267.778320	4111.020996	39.501030
406.756348	730.618652	9186.045898	4139.775879	40.319157
407.117493	726.606262	9096.064453	4153.076172	40.940166
407.478516	722.519714	9084.176758	4190.450684	41.474205
407.839600	725.343201	9093.018555	4241.719238	42.023331
408.200592	728.463928	9117.538086	4308.666016	42.676964
408.561554	725.789001	9092.126953	4371.972168	43.581589
408.922485	725.045959	9102.380859	4436.912598	44.308445
409.283417	725.343201	9112.336914	4487.290039	44.854530
409.644257	727.200745	9221.413086	4558.174805	45.100994
410.005096	729.504150	9339.331055	4652.167480	45.560303
410.365906	730.692932	9469.063477	4746.086426	45.951286
410.726715	735.968445	9561.868164	4843.199707	46.536125
411.087433	736.860046	9650.584961	4903.384766	46.742805
411.448120	733.590759	9754.386719	4983.186035	47.108871
411.808807	728.538147	9780.094727	5019.742676	47.408470
412.169434	732.104736	9714.114258	5045.525879	48.022892
412.530029	727.795166	9637.286133	5029.402344	48.281178
412.890564	729.801331	9610.387695	5034.900879	48.477654
413.251099	734.259460	9630.895508	5048.126953	48.488754
413.611572	739.386414	9660.765625	5099.841309	48.876469
413.972076	736.191406	9711.959961	5158.763672	49.272350
414.332489	726.903503	9755.500977	5212.633301	49.683575
414.692871	723.336975	9881.816406	5296.224121	49.930637
415.053223	733.887939	10009.914063	5388.433594	50.178230
415.413574	737.305908	10238.023438	5510.884277	50.244396
415.773834	741.912659	10403.496094	5616.170410	50.449886
416.134094	744.736145	10580.929688	5722.646484	50.608097
416.494263	738.940613	10710.291992	5805.717285	50.813339
416.854462	737.900391	10954.226563	5935.078125	50.871300
417.214630	728.240967	11207.079102	6082.644043	51.097301
417.574738	731.436035	11493.145508	6261.564453	51.387085
417.934784	730.395813	11763.235352	6427.408203	51.636860
418.294861	732.922058	12116.916992	6615.468750	51.673836
418.654846	731.436035	12549.655273	6834.513184	51.641262
419.014832	733.070618	12967.385742	7058.906738	51.705681
419.374756	728.463867	13464.840820	7322.235840	51.771175
419.734680	734.110840	13974.929688	7602.134277	51.870083
420.094543	729.578430	14499.581055	7883.295410	51.951454
420.454376	734.630920	14956.320313	8089.337402	51.714718
420.814148	732.104675	15371.300781	8322.647461	51.850819
421.173920	733.888000	15842.159180	8573.568359	51.889988
421.533691	736.637207	16279.429688	8847.819336	52.186131
421.893341	734.928223	16630.806641	9031.199219	52.191334
422.253021	736.042786	16851.560547	9174.082031	52.359715
422.612640	735.819824	16893.986328	9231.666992	52.579281
422.972260	739.906494	16863.894531	9246.156250	52.755249
423.331757	736.265625	16766.039063	9231.592773	52.997177
423.691315	730.990173	16782.904297	9225.351563	52.918060
424.050781	724.600159	16890.791016	9305.226563	53.077602
424.410248	723.262695	17014.951172	9362.068359	53.025845
424.769653	719.473328	17164.968750	9453.238281	53.107334
425.128998	725.566101	17213.191406	9486.749023	53.137928
425.488373	725.491760	17146.541016	9469.659180	53.249748
425.847656	732.030457	16947.482422	9405.981445	53.491886
426.206940	727.943787	16749.169922	9273.127930	53.336643
426.566193	727.572266	16431.822266	9117.017578	53.421497
426.925385	722.296692	16107.714844	8917.291992	53.264690
427.284576	730.544373	15609.218750	8703.002930	53.583122
427.643677	735.596985	15275.450195	8528.615234	53.597637
428.002777	740.649597	14929.942383	8390.561523	53.913273
428.361847	739.237793	14609.327148	8223.379883	53.958858
428.720856	735.596985	14301.936523	8036.582031	53.816910
429.079865	739.460693	14064.687500	7896.670410	53.711731
429.438812	731.881836	13915.637695	7823.333496	53.789314
429.797760	729.504089	13796.828125	7782.689941	53.975750
430.156616	721.405090	13629.051758	7700.957031	54.073002
430.515503	715.832336	13550.140625	7640.697754	53.955887
430.874268	715.906677	13514.401367	7631.855469	54.037201
431.233093	724.748718	13564.706055	7669.600098	54.087811
431.591827	732.847717	13622.438477	7686.244141	53.945827
431.950562	738.569092	13654.461914	7710.912598	53.982670
432.309204	732.179016	13711.750000	7717.080566	53.814575
432.667877	731.361633	13791.105469	7793.983887	54.079330
433.026459	733.962219	13928.194336	7846.961426	53.909912
433.385010	742.135559	14052.575195	7933.227051	54.025951
433.743561	740.872375	14270.208008	8019.937988	53.802090
434.102051	733.219238	14407.296875	8107.244141	53.927036
434.460510	729.727051	14588.668945	8191.279785	53.839268
434.818939	731.138733	14607.617188	8224.196289	53.998264
435.177338	725.566101	14635.851563	8256.889648	54.142124
435.535675	721.256531	14537.475586	8233.632813	54.373608
435.894012	721.107910	14508.200195	8213.497070	54.343506
436.252289	731.881775	14550.999023	8202.649414	54.061108
436.610535	728.389587	14576.113281	8199.973633	53.955322
436.968719	729.652771	14675.976563	8281.781250	54.151390
437.326935	726.309082	14755.331055	8350.213867	54.343811
437.685028	732.550476	14895.020508	8465.605469	54.602448
438.043152	731.213074	14995.032227	8515.759766	54.575474
438.401215	727.795166	15188.442383	8630.854492	54.652184
438.759277	724.005676	15423.015625	8733.022461	54.486778
439.117249	729.949890	15819.421875	8935.125000	54.376820
439.475250	736.934387	16143.828125	9093.687500	54.240349
439.833130	740.575256	16532.058594	9301.437500	54.211895
440.191071	737.231628	16801.705078	9431.987305	54.124126
440.548889	745.033386	17086.580078	9600.357422	54.189022
440.906708	740.798096	17380.968750	9747.106445	54.123898
441.264496	742.878601	17580.767578	9898.014648	54.372231
441.622223	730.172852	17761.248047	9980.862305	54.316536
441.979950	732.476257	17829.308594	10038.149414	54.429222
442.337616	728.761047	17830.794922	10055.758789	54.537365
442.695251	722.742493	17711.763672	10017.641602	54.711212
443.052887	723.708496	17502.451172	9926.917969	54.850410
443.410461	723.559875	17338.912109	9816.578125	54.726608
443.768005	738.569092	17182.058594	9734.325195	54.707096
444.125458	737.305847	17098.617188	9669.383789	54.592678
444.482941	732.476135	17139.185547	9684.690430	54.564350
444.840393	729.206848	17255.470703	9768.207031	54.694759
445.197754	731.807434	17532.619141	9931.153320	54.755363
445.555084	742.358459	17810.955078	10090.383789	54.767395
445.912415	741.392578	18180.835938	10294.344727	54.777851
446.269714	740.203796	18433.464844	10438.863281	54.815552
446.626953	733.665100	18741.375000	10610.651367	54.848656
446.984161	730.024231	19037.099609	10765.423828	54.817051
447.341309	724.451599	19324.800781	10924.282227	54.836769
447.698456	722.222473	19500.898438	11058.028320	55.040119
448.055542	729.132629	19573.937500	11121.112305	55.145061
448.412598	735.522705	19520.439453	11133.668945	55.353703
448.769653	739.609314	19381.195313	11058.250977	55.352810
449.126617	730.024231	19071.501953	10897.608398	55.434921
449.483582	725.937561	18841.982422	10741.499023	55.285587
449.840515	723.188293	18478.566406	10578.701172	55.507195
450.197388	725.863220	18273.937500	10498.529297	55.690819
450.554230	727.200745	18019.748047	10390.046875	55.878674
450.911041	729.132629	17885.111328	10295.088867	55.758732
451.267822	728.538147	17751.291016	10204.512695	55.666527
451.624573	730.767273	17567.466797	10109.703125	55.705311
451.981262	729.578430	17467.083984	10053.975586	55.709599
452.337921	731.956116	17282.664063	9958.124023	55.744858
452.694580	732.847839	17233.177734	9934.199219	55.764652
453.051147	733.665039	17189.933594	9909.531250	55.759090
453.407715	727.720886	17121.128906	9888.651367	55.881794
453.764221	721.182190	17097.873047	9892.739258	56.003723
454.120728	719.919128	16866.716797	9800.677734	56.238758
454.477142	725.789001	16813.517578	9762.040039	56.168594
454.833557	725.194519	16633.705078	9656.752930	56.143272
455.189911	729.875549	16516.974609	9598.796875	56.178284
455.546265	731.435852	16326.239258	9498.933594	56.220638
455.902557	737.380188	16195.245117	9456.655273	56.406723
456.258820	738.494690	16178.601563	9429.015625	56.285366
456.615051	740.129395	16247.776367	9477.163086	56.340164
456.971252	739.014832	16252.604492	9450.636719	56.154778
457.327393	732.476257	16444.677734	9561.422852	56.191658
457.683502	734.556641	16679.623047	9685.582031	56.136646
458.039612	737.157288	17135.916016	9941.109375	56.125912
458.395630	736.711426	17543.021484	10174.717773	56.157513
458.751648	729.652649	17995.822266	10440.647461	56.242901
459.107605	719.176086	18619.445313	10801.461914	56.324772
459.463562	716.649719	19301.990234	11175.946289	56.277134
459.819458	718.210144	19972.794922	11514.023438	56.068798
460.175323	720.810730	20509.855469	11815.321289	56.063904
460.531158	727.572266	20996.390625	12127.987305	56.246075
460.886932	729.504150	21260.164063	12339.526367	56.549679
461.242676	732.699158	21373.773438	12414.944336	56.597080
461.598419	734.705322	21127.978516	12302.598633	56.724064
461.954102	734.333801	20717.679688	12084.890625	56.800083
462.309723	731.584656	20060.992188	11748.225586	56.994194
462.665344	728.612488	19427.486328	11384.737305	56.988060
463.020905	723.782715	18872.666016	11070.659180	57.011097
463.376373	726.531982	18488.892578	10857.855469	57.038155
463.731873	732.104675	18137.812500	10668.755859	57.088467
464.087341	734.705261	17875.376953	10524.980469	57.117222
464.442749	737.083008	17713.099609	10433.291016	57.117100
464.798126	725.566101	17639.093750	10393.835938	57.162941
465.153503	726.234863	17700.021484	10445.848633	57.262489
465.508820	722.593933	17747.205078	10457.811523	57.183201
465.864105	726.977844	17902.052734	10530.180664	57.078083
466.219330	735.002625	18157.060547	10667.715820	57.012280
466.574524	733.367920	18391.781250	10808.964844	57.058334
466.929657	730.172852	18562.083984	10914.177734	57.111126
467.284790	723.782776	18737.064453	11020.801758	57.163479
467.639893	724.600098	18890.128906	11128.245117	57.271355
467.994934	727.795227	19051.589844	11253.518555	57.442924
468.349945	725.640442	19092.232422	11289.407227	57.516205
468.704926	733.293518	19031.453125	11259.612305	57.526649
469.059875	729.429871	18827.417969	11162.276367	57.646442
469.414764	728.463867	18546.775391	11032.691406	57.829426
469.769653	723.336975	18345.416016	10934.018555	57.942551
470.124451	728.018005	18261.529297	10887.131836	57.941128
470.479248	730.841492	18150.373047	10803.393555	57.823322
470.834015	733.665039	18090.259766	10765.573242	57.798832
471.188721	731.510254	18167.388672	10790.018555	57.688560
471.543365	729.504089	18292.810547	10855.849609	57.656261
471.898010	730.841553	18401.439453	10941.817383	57.785118
472.252625	735.225403	18510.070313	11019.688477	57.859646
472.607178	736.042725	18762.552734	11154.546875	57.795460
472.961700	731.213074	19015.626953	11264.960938	57.610531
473.316193	727.349365	19339.513672	11421.071289	57.455551
473.670654	728.538269	19464.490234	11517.664063	57.585152
474.025055	733.219238	19654.111328	11655.496094	57.726017
474.379456	729.727051	19745.353516	11759.445313	58.003445
474.733795	726.903503	19897.080078	11844.448242	57.993965
475.088104	730.470032	20032.978516	11908.497070	57.909714
475.442383	735.968445	20061.214844	11919.122070	57.868103
475.796570	739.906494	20175.791016	11958.799805	57.722576
476.150787	737.157288	20340.445313	12067.429688	57.797821
476.504944	741.763977	20628.886719	12207.120117	57.652161
476.859070	741.466858	20929.218750	12393.469727	57.718178
477.213135	731.287354	21236.460938	12535.909180	57.568993
477.567200	725.417480	21652.037109	12767.510742	57.544384
477.921173	725.863281	22034.619141	12994.950195	57.577679
478.275146	733.442139	22511.494141	13311.109375	57.753864
478.629089	737.603027	22803.728516	13475.393555	57.725544
478.983002	734.110840	23195.974609	13734.709961	57.878544
479.336823	740.723816	23491.548828	13927.971680	57.963825
479.690643	734.408020	23901.849609	14199.695313	58.121597
480.044403	733.887939	24393.287109	14468.968750	58.053383
480.398163	721.776611	25084.375000	14821.015625	57.872478
480.751862	726.903503	25995.251953	15324.637695	57.770832
481.105499	733.442200	27115.515625	15917.945313	57.556137
481.459137	735.002502	28580.986328	16729.332031	57.438549
481.812744	728.761047	30372.203125	17721.642578	57.324253
482.166290	725.194519	32559.525391	18996.380859	57.394596
482.519806	723.411316	35216.296875	20511.935547	57.369869
482.873291	724.080017	38326.382813	22320.166016	57.432877
483.226715	724.154358	41898.636719	24419.962891	57.549744
483.580139	724.451599	45383.656250	26617.390625	57.978954
483.933502	727.423645	48725.792969	28859.177734	58.609810
484.286804	725.566101	51446.386719	31007.787109	59.703728
484.640106	728.463867	53510.515625	32870.707031	60.896160
484.993347	724.897400	54637.093750	34089.792969	61.887470
485.346558	726.234863	54899.828125	34506.035156	62.354736
485.699738	733.144958	54222.035156	34107.105469	62.394192
486.052887	733.665039	52984.156250	33124.375000	61.991207
486.405975	732.104736	51374.386719	31807.138672	61.361835
486.759064	729.429749	49756.000000	30466.419922	60.654846
487.112061	734.779602	48402.652344	29348.755859	60.027805
487.464996	732.996338	47607.984375	28662.791016	59.583576
487.817963	731.064514	47443.402344	28421.607422	59.278866
488.170868	727.349304	47511.464844	28457.494141	59.272560
488.523743	728.909729	47600.625000	28568.132813	59.394505
488.876587	728.909668	47485.832031	28553.718750	59.509495
489.229401	736.934387	47060.824219	28382.226563	59.678261
489.582153	741.392578	46267.636719	27917.687500	59.693691
489.934845	742.358582	45187.125000	27286.560547	59.724022
490.287537	746.965271	44062.261719	26538.109375	59.542809
490.640198	748.228333	43202.351563	25927.712891	59.309864
490.992798	750.457458	42621.675781	25502.849609	59.115528
491.345337	737.231628	42533.105469	25364.273438	58.922180
491.697876	732.179016	42586.234375	25371.851563	58.870453
492.050354	726.160461	42972.085938	25605.087891	58.890717
492.402832	725.640320	43217.808594	25828.740234	59.077003
492.755219	728.166687	43088.593750	25843.900391	59.290562
493.107605	729.206848	42354.332031	25480.556641	59.462524
493.459930	737.305847	41033.011719	24796.525391	59.706654
493.812225	743.027161	39304.656250	23811.718750	59.822918
494.164490	742.358459	37354.207031	22660.103516	59.865170
494.516724	740.575195	35390.757813	21454.689453	59.780674
494.868896	732.253235	33593.375000	20337.992188	59.662415
495.221039	736.191345	32156.953125	19431.052734	59.498436
495.573120	742.878601	31015.443359	18681.636719	59.257477
495.925201	745.924988	30403.335938	18243.025391	58.997395
496.277222	746.890930	30035.166016	18007.337891	58.932961
496.629211	734.705261	29984.787109	17960.824219	58.892551
496.981140	728.240967	29914.796875	17943.291016	58.982807
497.333069	733.813660	29997.271484	17987.427734	58.959587
497.684967	736.637207	30074.771484	18037.134766	58.969318
498.036804	740.649475	30179.537109	18094.123047	58.947449
498.388580	737.751709	30090.220703	18069.751953	59.047844
498.740326	737.825989	29938.052734	17979.697266	59.047047
499.092072	743.695984	29614.462891	17844.169922	59.231106
499.443756	732.699158	29314.056641	17652.693359	59.199406
499.795410	739.832214	28956.664063	17461.511719	59.261364
500.147003	735.968445	28661.158203	17232.437500	59.073795
500.498566	737.751709	28278.427734	17021.193359	59.125061
500.850098	725.566101	27869.314453	16795.460938	59.202930
501.201599	719.398926	27479.599609	16636.900391	59.481998
501.553009	721.033630	27133.349609	16445.197266	59.533455
501.904449	728.092346	26945.806641	16341.620117	59.553349
502.255859	735.374023	26756.333984	16196.877930	59.419418
502.607178	738.420410	26726.093750	16181.051758	59.422905
502.958405	734.333801	26630.390625	16123.319336	59.425980
503.309692	732.104675	26565.750000	16076.878906	59.398411
503.660919	730.841553	26566.492188	16056.000977	59.317875
504.012115	731.658875	26588.337891	16084.534180	59.376823
504.363251	729.801270	26711.009766	16165.968750	59.412815
504.714294	728.612488	26791.927734	16199.627930	59.359356
505.065369	722.891174	26865.486328	16211.960938	59.248398
505.416443	723.559875	26834.875000	16219.020508	59.343857
505.767395	721.405090	26776.771484	16248.371094	59.592197
506.118317	728.018066	26721.634766	16241.163086	59.680592
506.469238	726.606262	26764.062500	16252.753906	59.630047
506.820160	726.309082	26732.111328	16233.286133	59.628910
507.170929	722.593994	26765.326172	16254.909180	59.641651
507.521729	722.668274	26869.423828	16276.382813	59.486214
507.872498	725.343262	26991.130859	16337.979492	59.440964
508.223236	727.423645	27131.490234	16449.285156	59.543335
508.573883	728.463867	27269.541016	16571.439453	59.692284
508.924500	730.098572	27503.896484	16682.669922	59.582771
509.275116	734.408020	27736.687500	16788.107422	59.453125
509.625702	734.333740	27997.490234	16921.552734	59.373974
509.976196	728.761047	28262.302734	17074.392578	59.366253
510.326660	725.343262	28537.669922	17217.945313	59.299614
510.677124	724.897400	28750.771484	17407.937500	59.527279
511.027557	728.538147	28945.666016	17542.947266	59.589371
511.377869	727.795166	29146.951172	17701.287109	59.725533
511.728180	728.612488	29343.853516	17771.056641	59.557228
512.078430	731.213074	29488.076172	17843.724609	59.507572
512.428650	728.984070	29612.009766	17903.908203	59.463730
512.778931	731.287415	29687.130859	17971.896484	59.541035
513.129028	724.228577	29741.818359	18047.240234	59.698315
513.479126	728.240967	29770.201172	18081.046875	59.750809
513.829285	726.903503	29718.859375	18058.236328	59.779797
514.179382	732.624817	29631.775391	17988.761719	59.711571
514.529297	729.058289	29501.599609	17914.310547	59.727959
514.879272	732.847717	29476.929688	17900.935547	59.727383
515.229187	729.206848	29419.640625	17862.968750	59.719425
515.579163	725.566101	29464.669922	17902.050781	59.766945
515.928955	719.398926	29473.509766	17920.181641	59.820255
516.278748	725.640320	29679.775391	18008.082031	59.689026
516.628540	733.293518	29936.119141	18181.429688	59.748112
516.978333	738.717590	30419.755859	18466.234375	59.726742
517.327942	735.374023	30963.576172	18800.076172	59.761089
517.677612	731.807434	31612.759766	19131.541016	59.582794
518.027222	727.200684	32220.109375	19479.423828	59.544270
518.376831	727.200684	32940.179688	19913.724609	59.561470
518.726379	726.606262	33582.972656	20330.488281	59.665401
519.075867	725.714661	34108.886719	20654.001953	59.695606
519.425293	723.857178	34482.183594	20916.365234	59.814892
519.774658	719.770508	34644.535156	21032.052734	59.874493
520.124084	725.863281	34682.425781	21082.134766	59.947975
520.473389	734.779602	34437.902344	20965.701172	60.026852
520.822693	742.952881	34068.839844	20818.953125	60.241459
521.171997	737.231628	33614.402344	20590.099609	60.384960
521.521240	733.144958	33181.816406	20314.736328	60.346359
521.870361	730.915833	32823.750000	20026.367188	60.123863
522.219482	733.888000	32516.580078	19794.763672	59.972500
522.568604	734.333801	32276.287109	19677.587891	60.057327
522.917664	732.996338	32128.570313	19582.482422	60.038673
523.266724	729.355469	32162.826172	19580.625000	59.971962
523.615662	733.516418	32451.562500	19669.044922	59.699543
523.964600	737.231628	32914.988281	19941.289063	59.681156
524.313538	742.581360	33513.496094	20264.876953	59.572018
524.662354	735.374023	34154.359375	20671.388672	59.654762
525.011169	733.888000	35010.847656	21147.818359	59.555832
525.359985	731.213074	36017.871094	21780.431641	59.652065
525.708740	735.448425	37223.359375	22510.083984	59.676300
526.057434	735.225403	38586.890625	23320.505859	59.667870
526.406067	736.637207	40109.355469	24238.142578	59.689823
526.754700	727.497986	41800.855469	25268.943359	59.750275
527.103333	730.692932	43698.324219	26454.072266	59.866875
527.451782	733.219238	45820.925781	27806.900391	60.046703
527.800293	732.699036	48010.925781	29241.908203	60.300926
528.148743	726.383362	50109.675781	30763.109375	60.823662
528.497131	717.467041	51969.402344	32267.369141	61.558464
528.845642	721.925232	53491.500000	33632.828125	62.367195
529.193909	720.662109	54667.562500	34865.660156	63.293720
529.542175	723.262695	55447.957031	35740.355469	63.987736
529.890503	724.228699	55786.035156	36269.832031	64.555824
530.238770	732.030457	55511.488281	36201.996094	64.750488
530.586914	736.339905	54707.535156	35572.128906	64.545151
530.934998	738.346191	53440.300781	34456.925781	63.979752
531.283142	737.825989	51960.933594	33154.917969	63.286068
531.631226	736.414307	50174.250000	31656.523438	62.543411
531.979248	738.197510	48381.996094	30309.337891	62.067139
532.327148	735.968445	46744.878906	28992.771484	61.415936
532.675110	733.813721	45635.097656	28158.578125	61.077904
533.023071	727.349304	45070.988281	27627.384766	60.662666
533.370850	731.510254	44967.410156	27486.656250	60.482883
533.718689	729.504150	45187.574219	27575.000000	60.383854
534.066467	735.151123	45402.531250	27763.505859	60.510281
534.414246	726.086243	45507.667969	27879.421875	60.635052
534.761963	728.240906	45303.925781	27853.638672	60.852455
535.109619	728.315247	44947.574219	27677.615234	60.944714
535.457153	730.172852	44288.214844	27325.943359	61.058228
535.804749	731.510254	43521.484375	26842.156250	61.020481
536.152344	722.891174	42571.152344	26250.187500	60.999660
536.499817	725.863281	41648.234375	25621.287109	60.835732
536.847229	727.200745	40711.500000	24996.548828	60.697193
537.194641	730.767273	39908.878906	24493.966797	60.654270
537.542114	735.596863	39305.246094	24139.244141	60.678921
537.889404	730.470032	38823.097656	23811.718750	60.592426
538.236694	726.829285	38426.765625	23515.773438	60.448227
538.583984	720.364929	38014.308594	23261.880859	60.442829
538.931213	724.823059	37731.218750	23116.021484	60.506298
539.278381	727.720886	37543.750000	23027.603516	60.571129
539.625488	725.863281	37612.781250	23038.970703	60.490570
539.972595	728.612549	37967.207031	23218.562500	60.394196
540.319641	726.532043	38678.433594	23572.462891	60.197067
540.666687	730.172852	39658.187500	24085.896484	59.997208
541.013611	726.977844	40930.917969	24817.257813	59.920193
541.360596	734.259460	42329.441406	25656.359375	59.915829
541.707458	737.825989	43709.613281	26547.546875	60.062012
542.054260	739.683594	44887.238281	27359.822266	60.298103
542.401062	733.070740	45863.425781	28053.140625	60.535908
542.747864	727.423645	46392.019531	28510.919922	60.842529
543.094666	725.268860	46350.781250	28564.416016	61.016624
543.441284	724.823059	45664.371094	28237.337891	61.221169
543.787903	730.247131	44623.464844	27633.257813	61.291950
544.134460	728.092346	43323.613281	26849.958984	61.325386
544.481079	732.253357	41945.222656	25977.273438	61.255039
544.827637	724.005676	40409.535156	25004.724609	61.182800
545.174072	720.587830	38848.878906	23943.679688	60.907768
545.520508	719.919128	37439.656250	23046.771484	60.803406
545.866943	720.216309	36273.769531	22284.796875	60.653793
546.213318	727.052063	35412.007813	21800.044922	60.755421
546.559631	729.875671	34725.894531	21321.908203	60.571896
546.905823	735.894104	34178.136719	20916.439453	60.344475
547.252136	737.454590	33774.675781	20591.439453	60.095802
547.598389	733.962341	33350.406250	20349.880859	60.141193
547.944458	728.761047	32971.457031	20162.787109	60.274197
548.290588	729.281250	32352.666016	19883.333984	60.569267
548.636658	738.346130	31736.177734	19530.841797	60.625195
548.982727	740.352295	30950.500000	19095.576172	60.758472
549.328735	734.928223	30268.921875	18661.500000	60.698097
549.674622	725.491699	29484.732422	18167.089844	60.646935
550.020569	716.798340	28780.638672	17727.216797	60.613297
550.366455	718.953125	28042.070313	17259.037109	60.535130
550.712280	720.736389	27380.703125	16849.626953	60.498539
551.058044	723.782898	26874.849609	16528.193359	60.435051
551.403748	718.135803	26476.585938	16271.254883	60.380650
551.749512	717.244141	26206.939453	16103.406250	60.362282
552.095154	719.250305	26036.490234	15983.854492	60.293320
552.440735	726.234863	25965.306641	15957.996094	60.349926
552.786316	726.977844	25973.556641	15944.992188	60.277534
553.131897	734.110901	25998.968750	15960.819336	60.268330
553.477417	736.934387	26064.132813	15990.317383	60.225304
553.822815	738.420410	26090.806641	16030.514648	60.318161
554.168213	737.380188	26067.994141	15997.523438	60.243877
554.513672	736.934387	25955.875000	15922.403320	60.214539
554.859009	738.569031	25749.236328	15802.703125	60.230835
555.204285	739.312012	25528.708984	15714.656250	60.410278
555.549500	739.014893	25266.716797	15579.051758	60.503170
555.894714	732.476257	25037.193359	15420.043945	60.430935
556.239990	738.271790	24733.146484	15222.250000	60.362801
556.585022	734.036621	24432.591797	15047.118164	60.396435
556.930115	736.414307	24119.330078	14894.055664	60.546947
557.275146	738.271790	23832.447266	14726.129883	60.568771
557.620178	739.237793	23656.427734	14602.937500	60.494762
557.965149	743.547363	23502.619141	14478.109375	60.347637
558.310059	730.172852	23359.068359	14383.893555	60.337551
558.654968	732.327576	23182.818359	14285.442383	60.368904
558.999756	725.566101	23049.669922	14209.726563	60.401798
559.344604	732.773438	22992.009766	14177.850586	60.402241
559.689331	728.166687	22954.117188	14167.448242	60.466618
560.033997	730.990173	22914.515625	14152.291992	60.501213
560.378723	726.086182	22889.398438	14134.309570	60.497379
560.723389	729.652771	22884.791016	14066.543945	60.197735
561.067932	728.538147	22913.250000	14062.754883	60.105434
561.412476	726.754883	22924.765625	14049.976563	60.019886
561.757019	723.411316	22907.974609	14082.149414	60.216370
562.101501	722.371094	22913.173828	14107.708008	60.319302
562.445862	727.423645	22878.328125	14089.653320	60.323631
562.790222	730.990173	22912.728516	14066.395508	60.118847
563.134644	734.185242	22876.541016	14050.495117	60.139534
563.478943	734.333801	22882.115234	14078.730469	60.251617
563.823181	734.408142	22818.810547	14043.734375	60.265728
564.167358	729.206848	22833.150391	14042.916992	60.232285
564.511536	729.875549	22865.619141	14060.006836	60.219936
564.855774	732.030457	22934.130859	14119.226563	60.296982
565.199768	739.237793	23083.921875	14158.532227	60.055874
565.543823	734.631042	23260.021484	14208.687500	59.817196
565.887817	726.383484	23494.000000	14371.781250	59.933357
566.231812	723.931396	23678.865234	14502.479492	60.024342
566.575745	726.457703	23835.939453	14617.722656	60.110668
566.919617	734.631042	24013.599609	14694.179688	59.966354
567.263428	735.076843	24126.017578	14794.340820	60.105591
567.607239	732.030457	24263.626953	14879.269531	60.120186
567.950989	730.321472	24274.921875	14856.977539	59.999561
568.294678	728.463867	24284.953125	14832.829102	59.874653
568.638367	726.457703	24144.593750	14769.151367	59.965034
568.981995	723.262695	23982.615234	14725.833008	60.201893
569.325623	727.720886	23786.900391	14636.819336	60.319138
569.669128	733.887939	23668.091797	14549.364258	60.239620
570.012573	735.299744	23590.146484	14464.140625	60.069710
570.356140	730.841492	23560.130859	14454.331055	60.113522
570.699524	723.931335	23540.365234	14449.723633	60.157482
571.042908	722.148132	23603.076172	14521.872070	60.311031
571.386230	719.398926	23715.048828	14539.704102	60.099648
571.729492	721.182190	23881.787109	14608.879883	59.962582
572.072815	722.222473	24035.517578	14676.644531	59.856068
572.416016	724.748718	24171.640625	14770.266602	59.903534
572.759094	728.612488	24336.146484	14870.204102	59.902878
573.102234	735.299744	24435.193359	14916.718750	59.837479
573.445374	729.801270	24471.304688	14942.425781	59.864048
573.788391	719.696106	24429.623047	14931.132813	59.938759
574.131409	717.392822	24391.429688	14941.012695	60.081093
574.474365	727.869446	24327.453125	14918.351563	60.130222
574.817261	739.534973	24198.537109	14826.958008	60.051247
575.160156	739.163391	24027.568359	14701.610352	59.954502
575.502930	742.061279	23806.146484	14560.065430	59.911343
575.845703	741.763977	23596.240234	14462.727539	60.036221
576.188477	739.906494	23350.076172	14329.354492	60.103256
576.531250	731.213074	23117.435547	14203.930664	60.183079
576.873901	733.739319	22818.068359	14034.817383	60.228584
577.216431	733.813721	22542.703125	13867.191406	60.220299
577.559082	742.432800	22225.728516	13670.660156	60.178047
577.901611	736.117004	21909.421875	13467.739258	60.130539
578.244080	733.144958	21581.373047	13290.527344	60.232372
578.586487	730.767273	21248.423828	13106.182617	60.315929
578.928955	757.739197	20926.990234	12916.338867	60.282848
579.271301	760.042542	20605.185547	12711.411133	60.223141
579.613647	758.556458	20298.759766	12497.867188	60.077732
579.955872	732.179016	20011.580078	12296.133789	59.980885
580.298157	737.231628	19731.830078	12125.683594	59.956268
580.640320	736.488525	19518.732422	12006.874023	60.005531
580.982483	736.414307	19308.304688	11885.684570	60.033039
581.324524	735.671204	19104.046875	11788.350586	60.172333
581.666626	735.225403	18930.847656	11679.718750	60.149044
582.008728	734.259460	18824.447266	11633.949219	60.251942
582.350647	733.665039	18713.363281	11567.745117	60.257294
582.692566	739.014893	18645.748047	11523.014648	60.223160
583.034424	734.779602	18529.166016	11475.906250	60.362446
583.376343	733.070618	18448.474609	11381.690430	60.109383
583.718201	726.754883	18352.474609	11321.950195	60.112133
584.059937	737.603088	18278.617188	11258.645508	59.979668
584.401611	726.383362	18179.943359	11209.457031	60.062664
584.743347	719.919128	18104.080078	11172.825195	60.128910
585.085022	710.631165	18026.880859	11110.485352	60.058353
585.426514	717.912903	17995.525391	11088.566406	60.023643
585.768127	725.417480	17908.515625	11030.387695	59.971554
586.109619	729.949951	17854.943359	10999.254883	59.966763
586.451172	730.767273	17809.171875	10964.333008	59.921085
586.792542	731.287415	17811.328125	10935.799805	59.745247
587.133850	731.287415	17779.154297	10902.141602	59.660568
587.475220	732.996338	17761.544922	10894.562500	59.673706
587.816589	728.835449	17727.439453	10879.625977	59.715443
588.157776	735.894226	17751.291016	10919.825195	59.851269
588.498962	734.333801	17796.021484	10937.731445	59.802979
588.840210	729.949890	17842.164063	10983.057617	59.916893
589.181335	726.234802	17913.271484	11002.747070	59.792229
589.522400	731.287354	17955.251953	11019.019531	59.729176
589.863403	744.438965	17990.398438	11027.786133	59.627579
590.204407	745.033386	17984.826172	11039.377930	59.712692
590.545410	740.649597	18016.626953	11083.586914	59.868900
590.886353	730.098450	18041.517578	11092.503906	59.858784
591.227112	728.835449	18023.166016	11064.343750	59.762405
591.567932	722.965515	17930.437500	11000.219727	59.725529
591.908752	727.572266	17795.947266	10949.843750	59.890125
592.249512	724.674500	17705.001953	10923.020508	60.059769
592.590149	727.349365	17602.462891	10886.314453	60.200871
592.930786	723.708557	17576.160156	10848.345703	60.078125
593.271423	720.959290	17522.884766	10790.092773	59.928452
593.612000	722.816895	17516.273438	10746.774414	59.689659
593.952576	720.810730	17507.429688	10744.395508	59.711754
594.292969	725.714661	17557.287109	10759.924805	59.615406
594.633484	729.875671	17625.794922	10796.185547	59.578346
594.973877	734.110840	17683.527344	10803.838867	59.410473
595.314209	731.436035	17768.751953	10852.878906	59.407497
595.654480	733.442200	17905.097656	10952.145508	59.509129
595.994812	740.129395	18125.554688	11047.922852	59.289852
596.335022	741.689758	18360.500000	11183.227539	59.263580
596.675171	735.076843	18552.052734	11278.558594	59.176601
597.015320	724.080017	18740.333984	11410.372070	59.314728
597.355408	721.479431	18862.861328	11467.063477	59.232441
597.695496	726.160461	18967.552734	11526.135742	59.205872
598.035461	733.367859	18948.009766	11519.299805	59.215721
598.375366	736.637207	18895.775391	11526.804688	59.420044
598.715271	734.631042	18776.373047	11466.991211	59.486275
599.055176	732.179016	18564.089844	11361.331055	59.607479
599.395081	728.686768	18293.923828	11227.661133	59.771324
599.734802	723.336975	17974.943359	11042.350586	59.814800
600.074524	725.120300	17641.173828	10868.926758	59.965565
600.414246	728.463867	17280.582031	10629.821289	59.819279
600.753906	732.476257	16929.205078	10426.677734	59.852837
601.093506	730.841553	16657.628906	10253.627930	59.791004
601.433044	733.070618	16467.193359	10126.420898	59.700504
601.772583	733.442200	16340.057617	10034.062500	59.594090
602.112122	735.299744	16329.731445	9987.698242	59.331425
602.451538	739.609314	16396.232422	9981.084961	59.025982
602.790894	742.061218	16547.216797	10036.514648	58.806465
603.130310	742.878601	16697.900391	10130.803711	58.839939
603.469604	728.612488	16907.435547	10272.202148	58.988159
603.808838	722.222473	17206.281250	10430.616211	58.895649
604.148010	722.816895	17506.464844	10605.375977	58.882065
604.487305	724.005676	17809.025391	10762.674805	58.757141
604.826416	720.736328	17968.775391	10913.583008	59.095684
605.165527	718.358704	18147.398438	11001.038086	58.997398
605.504456	723.708496	18259.076172	11093.768555	59.137974
605.843445	731.287415	18349.576172	11126.833008	59.004288
606.182434	730.841553	18347.943359	11114.573242	58.941200
606.521423	739.832214	18218.953125	11052.827148	59.001793
606.860229	739.832214	18024.578125	10941.594727	59.021767
607.199036	736.191406	17760.281250	10830.290039	59.293030
607.537903	721.776611	17482.462891	10665.561523	59.328033
607.876648	724.080017	17208.435547	10477.278320	59.166389
608.215271	730.618652	16934.929688	10312.920898	59.134281
608.553955	736.488525	16701.468750	10173.379883	59.109947
608.892578	737.900391	16520.392578	10071.956055	59.141834
609.231140	736.860107	16416.740234	9982.644531	58.965912
609.569641	735.968506	16367.848633	9937.393555	58.863201
609.908081	736.191345	16364.430664	9929.444336	58.824623
610.246521	736.711426	16333.520508	9955.598633	59.107521
610.584961	735.745544	16345.780273	9965.629883	59.127892
610.923340	726.309082	16290.500000	9967.932617	59.377468
611.261597	726.829285	16223.627930	9891.475586	59.138966
611.599854	725.343079	16078.812500	9798.002930	59.091919
611.938110	725.194519	15924.335938	9690.041016	58.982586
612.276245	727.423645	15718.592773	9587.206055	59.100010
612.614319	731.436035	15442.186523	9420.991211	59.069420
612.952393	732.847717	15143.042969	9245.338867	59.072697
613.290466	731.510254	14830.227539	9071.172852	59.151924
613.628479	732.996338	14544.980469	8917.143555	59.253960
613.966370	734.928223	14291.534180	8752.415039	59.140816
614.304260	730.172852	14081.332031	8624.911133	59.131481
614.642151	732.699036	13899.291992	8496.739258	58.967724
614.979980	737.751709	13755.143555	8416.937500	58.991737
615.317749	735.819824	13616.717773	8308.752930	58.791962
615.655396	725.640381	13542.934570	8289.508789	59.012989
615.993164	719.473206	13475.914063	8257.558594	59.092388
616.330811	721.405090	13461.870117	8271.750977	59.262718
616.668396	730.024231	13450.723633	8239.502930	59.033535
617.005859	728.018066	13426.948242	8202.649414	58.860325
617.343445	732.773438	13409.858398	8176.048828	58.714409
617.680908	731.584656	13398.414063	8181.695801	58.815914
618.018311	737.083008	13404.953125	8202.649414	58.933083
618.355652	730.395752	13412.532227	8192.618164	58.840420
618.692993	730.841553	13403.468750	8175.750488	58.747955
619.030273	727.869446	13397.523438	8172.630371	58.760567
619.367554	735.225403	13366.835938	8165.571777	58.823429
619.704712	730.098572	13345.140625	8161.633301	58.910107
620.041870	736.488586	13318.167969	8159.330566	58.997223
620.379028	727.943665	13294.836914	8135.701660	58.946609
620.716064	729.355530	13211.692383	8104.123047	59.081627
621.053040	727.646484	13129.514648	8034.873047	58.920368
621.389954	730.544373	13046.815430	7997.498535	59.002872
621.726929	728.463867	13008.028320	7969.709473	58.969891
622.063843	726.754944	12960.995117	7962.205566	59.140987
622.400635	728.018066	12918.344727	7952.843262	59.266872
622.737427	731.807434	12891.225586	7920.521484	59.120541
623.074219	730.841614	12842.184570	7878.763672	59.018410
623.410889	725.268860	12796.414063	7813.228516	58.718201
623.747559	722.891174	12763.499023	7786.404785	58.664097
624.084167	722.148193	12758.446289	7772.064453	58.572128
624.420715	728.018127	12753.691406	7793.611816	58.754250
624.757324	728.463928	12795.003906	7811.296387	58.698124
625.093750	723.857178	12858.679688	7841.240234	58.652550
625.430176	724.080078	12948.585938	7865.462891	58.418579
625.766602	723.559875	12954.976563	7871.184082	58.436600
626.102905	728.315247	13048.078125	7915.840332	58.341423
626.439209	724.897400	13151.359375	7973.870605	58.334972
626.775452	730.098572	13300.781250	8032.197754	58.088326
627.111694	724.748718	13395.815430	8089.931641	58.125992
627.447876	728.612488	13459.046875	8112.445313	58.001423
627.783997	723.262634	13497.386719	8140.234863	58.062473
628.120056	725.194519	13500.210938	8144.915527	58.079933
628.456055	728.092285	13484.234375	8144.023926	58.136162
628.792053	729.504089	13452.210938	8120.470215	58.092716
629.128052	729.355469	13362.601563	8080.197754	58.186489
629.463928	726.977783	13255.382813	8061.250488	58.541149
629.799744	721.256531	13158.566406	8028.111816	58.749485
630.135559	728.538147	13049.563477	7952.174316	58.628532
630.471375	722.222412	12917.007813	7839.160156	58.360500
630.807068	728.984070	12716.390625	7721.092285	58.328785
631.142700	724.897400	12557.976563	7640.548828	58.443378
631.478333	732.104736	12436.714844	7560.821777	58.342110
631.813965	733.144958	12352.604492	7516.091309	58.375744
632.149475	730.767273	12258.461914	7425.219238	58.072777
632.484924	727.572266	12162.538086	7366.817871	58.060913
632.820435	725.789001	12097.002930	7320.452637	57.994370
633.155884	733.144958	12037.635742	7298.607422	58.078354
633.491150	734.185120	11973.734375	7275.871094	58.202389
633.826477	729.206970	11883.531250	7222.075684	58.209431
634.161804	726.829285	11835.531250	7175.933594	58.054527
634.497009	727.572266	11807.742188	7135.364746	57.831177
634.832153	733.367859	11752.907227	7101.630859	57.790649
635.167297	731.881836	11667.237305	7049.692871	57.774170
635.502380	731.064453	11547.312500	7009.198730	58.043549
635.837463	732.624817	11477.020508	6960.232910	57.961456
636.172424	729.355469	11372.848633	6933.038574	58.286156
636.507324	734.556702	11310.062500	6879.169434	58.102306
636.842224	733.070618	11234.051758	6834.884277	58.107079
637.177124	731.361633	11131.735352	6767.566406	58.038342
637.511963	725.566101	10999.105469	6690.736816	58.063446
637.846741	725.714661	10853.918945	6602.911621	58.028027
638.181396	728.835449	10736.519531	6531.580566	57.982899
638.516113	722.148132	10631.009766	6476.745605	58.075268
638.850769	714.866516	10539.618164	6429.562988	58.166317
639.185303	713.900574	10451.867188	6395.755371	58.347446
639.519836	718.730225	10367.385742	6340.697754	58.266853
639.854370	729.652649	10243.670898	6287.942871	58.422108
640.188843	737.900330	10157.924805	6216.314453	58.157112
640.523254	741.243958	10083.696289	6181.911621	58.235970
640.857605	740.352356	10023.510742	6120.314941	57.954010
641.191895	736.934387	9956.563477	6079.746094	57.950397
641.526184	733.813660	9878.844727	6020.006348	57.803989
641.860413	734.036621	9809.371094	6014.730469	58.187321
642.194580	730.692932	9764.567383	6000.910156	58.338398
642.528748	737.157227	9704.901367	5971.115234	58.364265
642.862793	737.008606	9670.127930	5913.457031	57.946705
643.196838	743.398682	9619.454102	5860.924316	57.655399
643.530823	733.590759	9581.114258	5841.308594	57.730480
643.864746	733.219299	9538.091797	5820.652344	57.779751
644.198669	725.268860	9492.990234	5805.123535	57.938137
644.532532	727.423645	9454.128906	5785.283691	57.958412
644.866333	726.457703	9422.922852	5768.045410	57.972843
645.200073	721.553711	9384.209961	5737.656250	57.904900
645.533813	720.959290	9344.086914	5698.795410	57.726570
645.867554	713.454773	9329.449219	5690.770996	57.768337
646.201172	718.210144	9315.406250	5692.033691	57.854019
646.534729	723.188416	9320.235352	5710.238281	58.008869
646.868225	722.742615	9323.430664	5691.736816	57.774376
647.201782	730.618652	9337.028320	5679.625000	57.503723
647.535217	726.234802	9330.564453	5662.015625	57.363918
647.868591	727.275085	9321.796875	5677.842285	57.601433
648.201965	727.052063	9303.666992	5692.777344	57.898426
648.535278	726.903564	9323.952148	5697.681152	57.819576
648.868591	726.383362	9308.125000	5688.467285	57.821411
649.201782	723.336914	9288.434570	5668.925781	57.741184
649.534912	730.470032	9247.567383	5664.914063	57.935745
649.868103	733.442139	9226.986328	5633.409668	57.690498
650.201172	738.866211	9209.450195	5605.769043	57.456520
650.534180	737.900391	9183.519531	5581.025879	57.344826
650.867188	738.197571	9144.064453	5568.914063	57.468388
651.200134	733.813660	9125.265625	5567.576660	57.603416
651.533020	736.414246	9099.557617	5530.425781	57.323082
651.865845	739.757874	9063.148438	5495.652344	57.138908
652.198608	743.695984	9023.173828	5460.581055	56.970806
652.531433	735.448303	8975.842773	5460.061035	57.334789
652.864136	734.333801	8936.314453	5457.089355	57.580669
653.196777	801.057678	8952.661133	5549.967285	58.257370
653.529358	804.549988	8916.104492	5518.686035	58.116310
653.861938	807.893555	8859.262695	5463.924316	57.829056
654.194519	735.225403	8738.075195	5308.483887	57.145374
654.526978	731.956116	8675.734375	5274.602051	57.184956
654.859375	734.779602	8629.369141	5271.035645	57.460316
655.191833	735.448303	8598.831055	5249.858887	57.410542
655.524170	737.157288	8563.165039	5215.085449	57.218552
655.856445	726.457703	8525.047852	5182.985840	57.145306
656.188660	730.172852	8502.237305	5167.234375	57.089870
656.520874	734.631042	8484.329102	5159.060547	57.091637
656.853088	738.866211	8477.866211	5156.906250	57.087997
657.185181	735.745544	8459.809570	5150.144531	57.151249
657.517212	736.042786	8477.197266	5162.701660	57.183445
657.849243	741.838379	8509.519531	5161.513184	56.898251
658.181274	735.448425	8573.346680	5190.564941	56.840706
658.513123	733.293518	8623.945313	5204.013672	56.658440
658.844971	726.532043	8716.081055	5256.322754	56.696449
659.176819	735.522644	8779.014648	5299.863770	56.745766
659.508667	739.609192	8898.270508	5341.548340	56.405567
659.840393	739.832214	8970.641602	5385.832520	56.446457
660.172058	732.253235	9042.416992	5417.856934	56.384007
660.503662	723.411316	9053.711914	5451.590332	56.758804
660.835266	729.949951	9072.288086	5464.742188	56.756176
661.166931	735.745605	9020.202148	5462.513184	57.055851
661.498413	743.101501	8967.670898	5427.441895	56.955448
661.829773	738.494690	8860.452148	5371.195313	57.039215
662.161194	733.070618	8738.000977	5281.660645	56.822353
662.492615	731.213074	8572.454102	5196.063965	56.940617
662.823975	729.652771	8420.504883	5097.241211	56.789394
663.155212	734.853943	8300.356445	5031.706055	56.795330
663.486450	733.962341	8177.088379	4960.821289	56.788757
663.817627	747.336731	8043.714844	4893.651855	56.827030
664.148743	746.073547	7901.574219	4811.547363	56.816067
664.479858	744.290344	7786.404785	4749.355957	56.873058
664.810913	731.510254	7697.910156	4695.561035	56.902428
665.141907	733.888000	7643.298340	4666.805664	56.921181
665.472778	739.460754	7584.450684	4630.396973	56.843567
665.803711	743.770264	7556.587402	4604.911621	56.674664
666.134583	743.027161	7521.589844	4559.586426	56.303371
666.465454	736.339905	7489.417480	4552.973145	56.516949
666.796143	738.048889	7441.120605	4527.933594	56.539524
667.126831	735.299622	7408.724609	4529.047852	56.848595
667.457458	735.894104	7403.077637	4487.958496	56.276604
667.788147	736.191345	7386.804688	4476.664551	56.242531
668.118774	737.305908	7347.424316	4463.810547	56.375763
668.449219	740.352295	7323.870605	4474.732910	56.723171
668.779663	730.024231	7317.554688	4476.739258	56.875870
669.110107	724.377258	7317.777832	4465.444824	56.739578
669.440552	719.324646	7316.514160	4457.048828	56.656311
669.770874	722.816895	7304.700684	4448.726563	56.608559
670.101135	729.058350	7302.619629	4437.358887	56.412350
670.431396	724.005676	7261.529785	4425.990234	56.626709
670.761597	722.371094	7201.048340	4392.851563	56.654781
671.091797	719.919128	7122.955566	4369.148926	56.992172
671.421875	730.990173	7095.166504	4329.693848	56.546261
671.751892	739.014832	7073.024902	4297.892090	56.186794
672.081909	734.259460	7060.541504	4275.527344	55.977077
672.411865	730.247131	7014.994629	4258.288574	56.136566
672.741821	722.073914	6956.072266	4245.731445	56.523232
673.071716	732.773438	6935.490234	4216.010254	56.156631
673.401550	733.516418	6879.540527	4191.564941	56.264809
673.731262	737.305847	6859.923828	4165.410645	55.990829
674.060974	728.983948	6811.775879	4137.547363	56.036167
674.390625	731.213074	6788.965332	4112.878418	55.823761
674.720276	732.030334	6741.337891	4088.953125	55.862057
675.049927	737.305969	6688.879395	4072.754883	56.043148
675.379395	731.956116	6656.929688	4056.185547	56.105389
675.708923	731.138733	6616.954590	4043.925537	56.284241
676.038330	725.194519	6568.731934	4038.055664	56.692730
676.367737	726.531921	6512.484863	4025.349854	57.014252
676.697083	719.473206	6492.869141	4013.758789	57.059757
677.026428	720.364807	6489.822266	3998.229492	56.814091
677.355652	720.364929	6499.853027	3969.400146	56.216660
677.684875	731.584656	6512.930176	3967.393799	55.969826
678.013977	743.101501	6513.525391	3946.663086	55.516918
678.343079	744.364685	6494.355469	3944.657227	55.657349
678.672180	735.596924	6493.314941	3940.793701	55.667835
679.001221	725.937561	6530.466309	3955.654053	55.641323
679.330139	725.268860	6598.750000	3997.412109	55.710461
679.659058	728.463867	6636.570313	4016.285156	55.649323
679.987976	730.618652	6681.374512	4033.671875	55.506447
680.316772	732.922058	6713.027344	4043.553711	55.360756
680.645630	731.064453	6768.383301	4060.123779	55.141354
680.974304	728.686829	6795.207031	4093.337158	55.462612
681.302979	731.064453	6815.565918	4100.172852	55.371971
681.631653	735.894226	6815.342285	4107.603027	55.460770
681.960266	737.157288	6840.457031	4108.717285	55.241592
682.288757	731.584534	6848.704590	4118.971191	55.375515
682.617249	728.463867	6854.054199	4125.732910	55.460270
682.945679	730.247070	6808.804199	4110.352539	55.607037
683.274109	732.922058	6760.433594	4088.655518	55.673611
683.602478	732.550537	6696.606934	4048.383545	55.596939
683.930725	731.361755	6617.251465	4009.894775	55.701569
684.259033	730.098572	6548.596191	3967.691162	55.643101
684.587280	728.463867	6458.095215	3930.465088	55.884945
684.915344	733.516418	6406.603516	3880.385498	55.470139
685.243469	735.151123	6333.786621	3835.803711	55.382290
685.571533	737.454590	6271.669922	3792.782471	55.207970
685.899536	730.024231	6205.094238	3767.816650	55.484085
686.227539	730.470032	6146.915527	3727.321533	55.328751
686.555420	730.990173	6131.237793	3714.764648	55.252548
686.883301	731.881775	6119.126465	3705.625244	55.199711
687.211121	730.841553	6120.761230	3720.634033	55.470074
687.538940	732.699158	6127.521973	3710.603516	55.199299
687.866638	733.516418	6142.828613	3712.386719	55.069302
688.194336	732.922058	6157.688965	3714.318604	54.958977
688.521973	733.813660	6135.026855	3717.810547	55.246788
688.849609	730.321472	6101.962402	3693.439453	55.162247
689.177063	729.429871	6056.117188	3679.693604	55.386459
689.504578	728.315247	5996.898438	3642.245361	55.307663
689.832031	730.692932	5942.730957	3638.010010	55.780811
690.159485	734.110840	5860.924316	3583.174561	55.571823
690.486816	728.983948	5797.692871	3557.762939	55.808670
690.814087	729.875671	5715.811035	3515.781982	55.875298
691.141296	729.281250	5646.115234	3474.469727	55.832443
691.468506	730.692871	5569.138184	3427.881592	55.744946
691.795715	731.287354	5477.150879	3377.504639	55.758396
692.122803	723.188293	5426.401855	3349.938232	55.850113
692.449829	724.302917	5351.579590	3314.792969	55.983036
692.776855	727.126404	5293.325684	3256.242188	55.387764
693.103821	731.956116	5222.218262	3202.521484	55.020515
693.430664	730.321472	5187.519043	3167.153320	54.671833
693.757568	715.758118	5141.524902	3168.342529	55.416039
694.084351	718.433044	5102.367676	3156.973877	55.624477
694.411133	715.832336	5063.507324	3146.348877	55.903828
694.737854	733.442139	5029.922363	3118.188232	55.504642
695.064575	732.030334	5000.647461	3091.364990	55.271641
695.391174	740.798096	4969.588867	3062.535156	54.903091
695.717773	731.436035	4964.684570	3047.229248	54.704872
696.044250	732.624817	4979.173828	3048.343506	54.531780
696.370789	727.646545	4996.263184	3048.937744	54.380409
696.697205	724.897278	5021.006348	3067.959717	54.539177
697.023621	723.411194	5030.071289	3084.900391	54.833424
697.349915	720.513428	5075.098633	3120.639893	55.117226
697.676208	726.606262	5149.698730	3154.522217	54.891823
698.002380	725.789001	5251.270996	3201.184326	54.699043
698.328674	726.680603	5366.588379	3243.908203	54.251671
698.654724	729.355469	5492.976563	3295.623047	53.872204
698.980896	728.018066	5590.982422	3357.442627	54.070404
699.306946	736.562927	5662.461426	3397.046143	54.010109
699.632935	728.761047	5681.037598	3422.680420	54.397598
699.958862	728.315247	5703.253906	3429.739258	54.300652
700.284729	717.838623	5687.427734	3436.278076	54.701496
700.610596	721.702332	5653.174316	3418.890869	54.693375
700.936340	725.640381	5583.701172	3391.027588	54.865253
701.262146	728.835449	5480.568848	3335.300781	54.852936
701.587830	733.442139	5373.721191	3268.725342	54.636436
701.913513	738.420410	5235.221191	3186.695068	54.444809
702.239075	737.083008	5101.327148	3108.677490	54.341473
702.564697	728.092346	4960.449707	3044.405518	54.728676
702.890137	722.816895	4831.608887	2979.167236	54.915176
703.215698	727.423645	4738.433105	2923.143311	54.742321
703.541016	738.643372	4636.043945	2853.967529	54.275257
703.866455	736.488586	4559.363281	2808.940186	54.211864
704.191711	744.884766	4485.283691	2764.581299	53.996822
704.517029	735.596924	4415.959473	2750.315186	54.742386
704.842163	739.683594	4380.442871	2715.541504	54.270489
705.167419	728.315247	4325.756348	2696.742920	54.717442
705.492493	736.340027	4305.471680	2669.770996	54.170906
705.817566	734.333801	4259.775391	2650.303711	54.346951
706.142578	735.151123	4238.301758	2639.975586	54.374611
706.467590	734.631042	4205.607910	2627.343994	54.529690
706.792480	735.151062	4190.079590	2627.938477	54.785137
707.117371	742.729980	4191.268066	2618.056396	54.380329
707.442200	733.219238	4205.683105	2619.691162	54.326611
707.766907	734.185242	4216.456543	2600.966797	53.608158
708.091675	731.807617	4216.085449	2614.267090	54.027248
708.416321	736.562927	4211.032715	2614.861572	54.060009
708.741028	732.476257	4218.462891	2630.761963	54.454762
709.065552	729.206970	4241.348145	2619.839600	53.831337
709.390137	733.144958	4273.818359	2623.183350	53.380760
709.714600	734.631042	4283.106445	2631.208008	53.447655
710.039063	735.596924	4304.728516	2646.291260	53.533871
710.363403	729.058289	4325.384277	2658.848389	53.660042
710.687744	725.937561	4378.956543	2683.071045	53.575783
711.012085	721.256531	4427.847656	2708.780029	53.621330
711.336304	723.931396	4490.931152	2727.950195	53.199333
711.660461	724.897278	4521.320801	2741.770508	53.125614
711.984619	726.754883	4523.104004	2749.126221	53.271481
712.308716	727.795105	4500.664551	2757.968506	53.809795
712.632751	731.064453	4487.661621	2763.764404	54.110138
712.956726	733.739441	4452.293457	2758.042969	54.437920
713.280701	739.312073	4410.089355	2730.996338	54.257835
713.604553	737.528809	4348.046387	2699.789307	54.348454
713.928467	730.172852	4312.009766	2663.975342	53.989128
714.252258	722.816895	4271.960449	2641.610352	54.063564
714.575989	720.959290	4228.419434	2618.130615	54.089607
714.899719	727.126465	4174.921387	2590.787354	54.053703
715.223267	730.024231	4140.519043	2570.354004	53.960785
715.546936	734.705322	4120.234863	2553.041504	53.709064
715.870422	735.968445	4105.745605	2533.945801	53.355972
716.193970	735.002502	4083.751953	2516.930420	53.211742
716.517395	738.271790	4048.383789	2487.357910	52.840694
716.840820	735.968445	4015.616211	2477.550049	53.102703
717.164124	741.243958	3964.198486	2461.649170	53.379757
717.487488	738.346191	3932.322998	2439.432861	53.259205
717.810730	744.810486	3903.641846	2422.714600	53.117874
718.133972	735.522644	3874.738281	2396.485596	52.910126
718.457092	730.915833	3830.304932	2380.436279	53.220825
718.780212	724.377197	3763.061279	2348.783447	53.457558
719.103210	728.538147	3703.990479	2324.783447	53.647148
719.426208	732.550537	3652.795898	2296.771240	53.564701
719.749207	732.401917	3608.660156	2272.697266	53.552055
720.072083	726.754944	3566.456299	2253.304199	53.757389
720.394958	724.600159	3530.716797	2244.759521	54.173065
720.717773	723.411316	3480.710938	2225.218018	54.466576
721.040527	726.457703	3445.120117	2192.524658	53.926037
721.363281	729.058289	3402.618408	2166.815918	53.776894
721.685913	734.259521	3378.544189	2148.240479	53.473099
722.008545	745.033447	3355.882568	2133.899658	53.195957
722.331055	740.129456	3315.535889	2113.912598	53.342384
722.653503	737.677490	3297.628906	2098.531982	53.159386
722.976013	726.011963	3269.616943	2094.667969	53.807728
723.298401	726.457703	3283.214111	2088.203613	53.260681
723.620789	725.863281	3269.022461	2091.175537	53.685677
723.943115	724.080078	3260.923828	2082.556641	53.549870
724.265381	723.114075	3234.694580	2079.361572	53.999763
724.587585	720.216309	3229.493408	2068.141846	53.717682
724.909790	727.869446	3236.998047	2065.912842	53.327015
725.231873	734.259460	3247.251953	2064.723877	52.943428
725.553894	743.250183	3262.707031	2069.405029	52.636536
725.875916	778.766846	3315.907471	2121.937012	52.940311
726.197937	782.110413	3316.650391	2129.292969	53.152943
726.519775	777.503662	3319.696533	2133.231201	53.329060
726.841675	741.243958	3276.155518	2093.999268	53.364990
727.163513	741.095398	3287.449463	2093.925049	53.128105
727.485291	733.367859	3302.012939	2095.039551	53.011280
727.806946	726.829285	3330.916748	2097.417236	52.632175
728.128662	723.336975	3367.324951	2113.838135	52.591057
728.450256	724.971680	3376.984131	2125.949463	52.826969
728.771790	725.417480	3388.278564	2144.228027	53.281433
729.093323	724.600159	3395.114258	2145.416992	53.203869
729.414795	726.903564	3407.522705	2143.930908	52.861942
729.736145	731.956116	3391.027588	2124.909424	52.384953
730.057495	729.058350	3375.052002	2118.296631	52.503464
730.378845	728.538269	3375.275146	2121.714111	52.637489
730.700134	726.309082	3377.132813	2118.593506	52.522709
731.021301	723.559875	3386.272217	2120.450928	52.461208
731.342468	729.206848	3382.557373	2120.005127	52.416683
731.663574	729.652649	3399.200928	2135.831787	52.674797
731.984680	731.510254	3401.355713	2136.872070	52.638321
732.305664	725.566101	3421.937500	2138.506592	52.401550
732.626648	723.114075	3427.584717	2139.398193	52.368256
732.947571	724.302917	3430.482422	2137.169189	52.208889
733.268433	725.343201	3418.222412	2141.775879	52.599190
733.589233	723.708496	3403.510498	2140.661377	52.875282
733.909973	720.587830	3392.067627	2145.788086	53.348717
734.230713	722.593933	3364.947266	2126.469482	53.129742
734.551331	727.497864	3326.607422	2104.995850	52.998844
734.871948	732.327637	3286.037842	2064.352295	52.160370
735.192505	732.179016	3237.369873	2038.346313	52.138432
735.513062	731.510315	3201.258545	2005.727661	51.593002
735.833435	732.550537	3148.206299	1990.718628	52.083916
736.153931	731.361755	3111.203369	1970.805298	52.080929
736.474304	728.092346	3060.305908	1960.180054	52.829109
736.794617	716.278259	3017.804932	1943.759155	53.333336
737.114807	716.946960	2986.597656	1934.545532	53.646961
737.434998	726.234802	2989.421143	1923.846069	52.917046
737.755188	739.906494	3001.904297	1920.353882	52.186054
738.075256	737.157288	3006.585205	1919.907837	52.116680
738.395325	735.225403	3008.219727	1924.143188	52.306232
738.715271	731.138733	3026.795898	1925.629272	52.032616
739.035278	729.727051	3055.922607	1922.954224	51.295223
739.355164	728.315247	3078.287354	1927.858398	51.044998
739.675049	725.417480	3079.327393	1939.969727	51.597229
739.994873	734.631042	3077.916016	1943.833618	51.602886
740.314636	733.219238	3065.135986	1935.140015	51.542183
740.634277	732.178955	3046.931641	1919.907837	51.311264
740.953979	729.652649	3016.913330	1914.632446	51.807812
741.273499	721.182190	2984.888672	1903.115601	52.212303
741.593140	720.587830	2941.644775	1897.022827	52.967354
741.912598	723.262695	2904.939209	1878.744263	52.963013
742.232117	726.457703	2861.100586	1858.013794	53.009155
742.551453	738.866211	2839.850342	1833.568237	52.104252
742.870850	731.807434	2821.199951	1812.317505	51.714073
743.190063	744.141785	2797.125977	1793.296021	51.103867
743.509338	741.169617	2759.305908	1770.856812	51.021690
743.828552	747.856934	2713.312256	1760.528809	51.523525
744.147705	730.767273	2698.006104	1747.005859	51.658123
744.466797	726.680664	2672.594482	1738.980957	52.021847
744.785828	727.572266	2651.269775	1715.798462	51.371185
745.104858	731.361633	2620.582764	1706.139038	51.596786
745.423706	731.287415	2606.316650	1696.331177	51.468197
745.742615	728.018066	2599.034912	1699.823364	51.939953
746.061401	737.454529	2585.511963	1693.507690	51.732872
746.380249	736.414307	2584.620361	1678.498535	50.972900
746.698975	736.265625	2578.750244	1668.244751	50.582737
747.017639	737.677429	2571.245850	1662.969116	50.463985
747.336304	738.643372	2564.409912	1671.439575	51.090660
747.654907	744.884827	2549.177979	1673.743164	51.480453
747.973389	743.398743	2549.103760	1675.154907	51.600685
748.291931	735.448425	2540.113037	1672.182617	51.906277
748.610352	731.658936	2549.549072	1655.984741	50.846077
748.928711	727.423645	2554.155762	1647.365601	50.359982
749.247070	733.293518	2560.843262	1644.245117	49.845512
749.565308	724.302917	2562.329346	1657.991089	50.798409
749.883545	729.206848	2551.852783	1659.402710	51.035465
750.201782	726.086182	2543.976563	1654.647339	51.079052
750.519836	728.612488	2530.750732	1650.040527	51.129711
750.837952	727.943787	2518.639404	1652.863892	51.651443
751.155884	729.355530	2506.156494	1649.297485	51.775181
751.473877	730.470032	2492.410645	1639.118042	51.570862
751.791809	731.287415	2487.803711	1628.195679	51.061764
752.109619	732.253357	2479.333252	1617.495972	50.669842
752.427490	728.612488	2463.358154	1611.403198	50.888771
752.745300	727.349304	2453.104248	1611.700317	51.244301
753.062988	726.160461	2453.921631	1614.746704	51.429920
753.380615	730.767273	2458.082764	1610.437134	50.926994
753.698303	729.949890	2453.847412	1603.601196	50.678844
754.015808	735.894104	2434.528564	1598.994507	50.811424
754.333374	738.643372	2423.606201	1594.759277	50.809185
754.650757	736.414246	2414.689697	1584.653931	50.542343
754.968262	735.968445	2426.652588	1575.440552	49.652805
755.285583	727.943787	2426.875244	1579.527344	50.124657
755.602905	725.491760	2424.720947	1584.282593	50.540020
755.920105	720.439209	2411.940674	1587.180298	51.240929
756.237305	727.423645	2412.832275	1579.750366	50.570923
756.554443	727.349304	2395.742676	1567.118774	50.334023
756.871582	733.888000	2382.293945	1569.942261	50.718952
757.188599	737.825989	2368.473633	1565.632690	50.765514
757.505615	740.500916	2394.405273	1577.818237	50.626709
757.822510	739.460693	2415.656006	1577.446777	49.993343
758.139465	735.819824	2439.061035	1583.539551	49.770973
758.456238	738.643311	2438.243652	1583.316772	49.698357
758.773010	735.151123	2450.801025	1592.530273	49.974014
759.089783	732.253357	2455.927979	1603.972778	50.573318
759.406433	730.395752	2475.097900	1613.557983	50.619656
759.723145	733.293640	2480.001953	1624.257446	51.008163
760.039673	731.287415	2491.593018	1629.235718	51.010929
760.356201	732.624817	2484.534424	1636.368774	51.586220
760.672668	735.002502	2485.797607	1629.235718	51.075832
760.989136	735.596924	2488.323975	1628.938477	50.968662
761.305481	731.733154	2497.686279	1630.944824	50.919338
761.621826	728.092285	2497.611572	1630.944702	51.022469
761.938049	734.259460	2508.905762	1626.189453	50.259594
762.254333	733.145020	2542.564697	1635.254272	49.856274
762.570496	735.299744	2598.960449	1658.362305	49.529541
762.886597	730.024231	2685.671631	1705.098755	49.859421
763.202637	736.860046	2799.652100	1756.813599	49.445293
763.518677	732.401917	2957.470947	1830.521851	49.352169
763.834656	730.024231	3104.144531	1902.892578	49.402229
764.150574	725.863281	3232.911377	1969.988159	49.625092
764.466370	726.680603	3284.031494	2006.099121	50.029057
764.782288	731.138733	3293.988281	2018.061890	50.214539
765.097961	735.522644	3266.793213	2011.523438	50.409496
765.413696	734.259521	3210.546631	1980.167480	50.313549
765.729309	733.813721	3132.156982	1940.787109	50.325298
766.044861	733.590820	3014.015625	1877.109741	50.144997
766.360474	734.482422	2877.967041	1814.175293	50.370918
766.675903	734.482422	2734.563232	1737.569336	50.152321
766.991394	723.708496	2618.650879	1677.532593	50.335255
767.306763	727.200684	2533.053955	1634.065430	50.218075
767.622131	727.720886	2467.147705	1599.960571	50.145237
767.937378	736.339905	2402.578369	1565.855591	49.783730
768.252625	736.711426	2339.718262	1531.899048	49.606003
768.567810	737.528809	2283.322510	1506.859009	49.769268
768.882996	733.813660	2235.768799	1490.363892	50.371029
769.197998	733.516418	2213.626709	1462.351929	49.241970
769.513062	724.674500	2189.032227	1443.924805	49.117119
769.828064	727.275085	2166.295898	1424.903320	48.479374
770.142944	725.566101	2135.162842	1422.153931	49.417526
770.457825	727.274963	2105.516113	1410.711426	49.587582
770.772705	727.795166	2072.228516	1392.804565	49.463917
771.087402	735.225403	2040.724121	1380.990356	49.465000
771.402100	739.163513	2017.616089	1376.755249	49.872143
771.716736	741.689758	2010.185913	1378.835571	50.228439
772.031372	734.631042	1997.628540	1368.953247	50.223549
772.345947	733.813660	1981.727905	1361.894531	50.330448
772.660461	727.869446	1961.591797	1353.275513	50.692608
772.974854	731.658875	1954.904663	1349.634644	50.519344
773.289246	734.110901	1947.697266	1335.888794	49.586735
773.603638	735.671204	1937.146118	1332.322144	49.659878
773.917908	731.361633	1926.520874	1320.285156	49.275738
774.232178	739.163513	1913.369263	1317.089966	49.218498
774.546265	732.030457	1903.189819	1302.675415	48.724789
774.860474	729.429749	1874.286011	1294.204834	49.331532
775.174561	723.262695	1857.939453	1290.192505	49.963993
775.488586	724.600098	1841.369995	1285.139771	50.192944
775.802551	726.977844	1834.905640	1279.864380	49.902763
776.116516	723.188416	1828.515625	1265.078125	49.025280
776.430359	728.835388	1817.295898	1256.979126	48.522087
776.744202	732.773438	1811.277344	1255.344360	48.453316
777.057922	735.819824	1804.292969	1251.926514	48.303196
777.371704	738.048889	1801.618164	1254.304321	48.539894
777.685303	725.194519	1788.540649	1243.753296	48.766693
777.998962	722.445374	1781.407715	1242.935913	49.150993
778.312500	723.114075	1785.568726	1234.688354	48.150227
778.626038	733.887939	1793.741821	1239.146606	47.672485
778.939453	731.881775	1786.311890	1244.273438	48.594177
779.252869	730.024231	1766.473022	1255.493042	50.698967
779.566223	723.336914	1767.810547	1259.654053	51.348080
779.879578	726.606262	1774.869141	1256.013306	50.503269
780.192749	724.377258	1777.915527	1243.307495	49.255943
780.505920	729.950012	1768.553345	1231.418945	48.283012
780.819031	729.429871	1760.602905	1230.527466	48.594906
781.132141	728.389465	1753.766968	1243.158813	50.202915
781.445190	725.566101	1736.306030	1246.279541	51.518044
781.758118	722.965515	1725.829468	1231.418945	50.700142
782.071045	724.971680	1720.999634	1211.728882	48.869835
782.383911	720.959290	1714.683960	1205.710327	48.781223
782.696838	727.943787	1703.538452	1196.496704	48.027416
783.009583	735.076843	1694.399292	1189.214966	47.339466
783.322266	740.278015	1682.362183	1183.122192	47.006859
783.634888	737.825989	1662.969116	1188.917847	48.759144
783.947510	724.154297	1648.182983	1189.809448	50.394016
784.260132	724.748718	1638.969360	1184.608276	50.300720
784.572571	719.696228	1623.440063	1178.961304	50.818058
784.885010	723.336975	1612.963501	1166.552612	49.820415
785.197449	722.816833	1603.972778	1169.078979	50.645081
785.509766	725.788879	1614.449585	1165.661133	49.498337
785.822083	726.977783	1607.910767	1165.735352	49.806011
786.134277	728.389587	1607.093628	1155.035767	48.554024
786.446533	733.070618	1595.205078	1149.017212	48.246140
786.758606	732.476257	1590.301147	1144.707642	48.055424
787.070740	730.618652	1594.313477	1147.011108	48.210598
787.382690	730.618652	1614.598022	1147.679810	47.179966
787.694641	737.231628	1635.700073	1164.026489	47.502487
788.006653	743.101563	1661.706055	1177.549438	47.294334
788.318481	742.209961	1675.377808	1194.862061	48.507038
788.630310	735.151123	1701.309448	1195.159302	47.612091
788.942017	733.219238	1717.433105	1205.190063	47.954094
789.253784	731.584534	1740.838501	1218.118774	48.207314
789.565430	736.414246	1741.284302	1219.456177	48.070087
789.877014	732.179016	1727.612671	1217.450073	48.749714
790.188538	730.024231	1703.389771	1198.948608	48.175568
790.500061	723.857117	1678.498413	1199.468872	49.820992
790.811462	721.850891	1662.820679	1183.122192	49.020840
791.122925	720.587708	1641.049805	1181.487549	50.072659
791.434204	723.634216	1619.873535	1157.933594	48.457970
791.745483	730.172852	1605.235962	1142.032837	47.066319
792.056702	733.293518	1584.282593	1128.732544	46.468166
792.367920	737.677429	1574.400391	1126.577881	46.479000
792.678955	732.773438	1548.171509	1119.296143	47.402946
792.990112	731.436035	1549.731812	1113.500610	46.690277
793.301086	727.720886	1539.403809	1107.407715	46.777729
793.612122	730.915955	1535.540039	1111.122925	47.252747
793.922974	731.287415	1523.280151	1114.838013	48.428551
794.233826	730.247070	1511.911743	1113.946411	49.087460
794.544556	729.652649	1507.305054	1115.952515	49.675133
794.855286	727.720886	1504.333008	1108.745239	49.062374
795.166016	731.287415	1510.871582	1115.729614	49.313751
795.476624	731.807556	1526.252319	1114.763794	48.204262
795.787292	734.631042	1536.060181	1114.317993	47.376236
796.097778	726.829163	1553.744263	1111.345703	46.500122
796.408264	725.194519	1558.202515	1119.964966	47.390957
796.718689	719.324707	1561.694702	1129.327026	48.672474
797.029053	731.064514	1553.521118	1134.305298	49.028820
797.339355	734.036621	1551.515137	1125.314575	47.864006
797.649658	740.129456	1558.796875	1125.834839	47.113808
797.959839	732.476257	1556.047485	1120.336426	47.094913
798.270020	732.178955	1550.400757	1126.429321	48.183800
798.580078	735.894104	1535.317017	1118.255981	47.829739
798.890137	735.968445	1532.345093	1112.088867	47.228962
799.200195	725.789001	1520.753784	1098.862915	46.929615
799.510071	725.566101	1501.955200	1098.788696	48.071590
799.820007	720.439209	1484.494141	1099.531616	49.615856
800.129883	729.652771	1479.367065	1095.073608	48.741344
800.439575	716.946960	1469.113403	1085.934326	49.056610
800.749329	723.114075	1458.562378	1081.253174	48.696705
801.058960	722.296692	1449.794556	1077.760986	48.861214
801.368591	729.132629	1452.246704	1071.519531	47.348946
801.678162	727.869446	1456.110352	1060.745728	45.709637
801.987671	722.445313	1443.553223	1058.516602	46.604855
802.297119	721.925293	1422.079712	1046.925415	46.418350
802.606506	726.977844	1409.374023	1046.330933	46.798779
802.915894	724.005676	1406.253296	1043.730347	46.863434
803.225159	730.321472	1412.940430	1046.999512	46.391628
803.534424	725.417480	1413.609253	1052.795288	47.570724
803.843628	732.401855	1412.048828	1045.290649	46.036957
804.152771	739.609192	1409.671265	1046.851074	45.852749
804.461792	738.346130	1408.407837	1044.919189	45.752960
804.770874	741.169678	1407.813599	1055.024414	47.079815
805.079773	727.423645	1419.182007	1058.739380	47.894722
805.388733	736.860046	1425.274780	1052.943848	45.914734
805.697571	730.470032	1438.129028	1054.206909	45.747581
806.006470	730.767334	1442.141602	1061.488647	46.490479
806.315125	724.971680	1454.847290	1070.702148	47.368408
806.623901	731.733215	1455.293091	1076.349121	47.627834
806.932495	735.374023	1461.683228	1074.343018	46.670067
807.241150	726.011902	1450.091919	1074.119995	48.075916
807.549622	725.491760	1441.250000	1068.993286	47.991280
807.858154	727.572205	1424.754761	1063.866333	48.236164
808.166565	734.779602	1409.968384	1065.278198	48.949066
808.474915	732.624817	1413.832153	1055.692993	47.425823
808.783264	725.640381	1414.203735	1056.213135	48.009052
809.091492	728.240967	1421.262329	1041.575562	45.212833
809.399719	729.801331	1400.234741	1036.374390	45.727592
809.707825	733.145020	1393.918945	1024.337280	44.068363
810.015930	730.321472	1376.086304	1022.702637	45.276726
810.323975	728.315247	1369.101929	1018.244446	45.245823
810.632080	730.915833	1354.464355	1018.987549	46.198765
810.939880	732.253235	1349.783203	1012.003113	45.301426
811.247864	728.315247	1344.061890	1017.724426	47.001343
811.555664	722.816833	1336.334473	1014.306458	47.511204
811.863464	719.993347	1326.823608	1021.365234	49.663292
812.171143	716.426819	1325.932007	1012.077393	48.506653
812.478882	718.210144	1319.913574	1011.260071	48.703384
812.786438	722.816895	1317.535767	1009.105225	48.138432
813.094055	737.157288	1320.805176	1005.687317	46.008911
813.401489	741.764099	1317.610107	1005.613037	45.819359
813.708984	743.844543	1318.798950	1001.600769	44.830723
814.016357	742.804382	1313.077759	1007.990723	46.501617
814.323730	738.717712	1307.579346	1002.863831	46.434158
814.630981	730.693054	1306.316162	1003.235352	47.347351
814.938232	726.977844	1298.811523	1000.337585	47.804066
815.245361	728.538147	1302.823853	1004.424133	48.039848
815.552490	731.138733	1301.412109	1006.133118	48.221500
815.859619	729.058350	1308.322266	1012.746094	48.973835
816.166565	730.395752	1304.904419	1011.854431	48.991199
816.473572	736.191345	1305.127319	1008.882324	47.929993
816.780457	742.952881	1301.412109	1002.789490	46.527409
817.087341	738.791931	1308.916870	1005.018616	46.696201
817.394043	734.259460	1314.712402	1001.452148	46.031757
817.700806	728.315247	1325.337646	1008.510803	46.932167
818.007507	726.011902	1326.675171	1007.396301	46.845615
818.314209	726.680603	1329.052734	1010.071106	47.045753
818.620667	725.937561	1338.860718	1009.625427	46.284409
818.927246	725.640381	1356.619141	1007.916443	44.736221
819.233704	732.327637	1381.139038	1025.600464	45.201553
819.540161	731.510254	1404.990234	1044.919067	46.535728
819.846497	729.281189	1458.785278	1066.987183	46.292542
820.152832	730.692932	1510.276978	1095.742188	46.826157
820.458984	735.225403	1570.313843	1118.107300	45.849262
820.765259	736.191345	1639.860962	1156.150391	46.472630
821.071350	727.275085	1732.144897	1198.651611	46.909214
821.377502	726.160461	1901.257935	1274.217407	46.639278
821.683472	722.222473	2209.242920	1414.352417	46.544746
821.989441	721.479431	2762.203857	1649.371704	45.468769
822.295349	722.073914	3515.633057	1963.152222	44.426422
822.601196	733.590759	4360.826660	2331.842285	44.062519
822.907043	730.915833	5079.779785	2640.050049	43.899612
823.212769	720.736389	5487.181641	2833.980225	44.335846
823.518494	721.033630	5530.574707	2861.769287	44.510185
823.824097	719.324646	5268.434082	2765.993164	44.990532
824.129700	722.222412	4872.549316	2607.059814	45.414188
824.435242	720.439209	4441.668457	2435.940430	46.100391
824.740723	725.045959	4063.838867	2291.570313	46.918884
825.046082	729.206970	3739.433350	2161.391846	47.577312
825.351501	727.795166	3433.231689	2015.758667	47.606495
825.656799	725.863281	3123.240479	1866.335815	47.571678
825.962036	728.612488	2824.469482	1725.160522	47.548477
826.267212	730.321472	2594.056641	1619.799316	47.725552
826.572449	733.293640	2475.840820	1546.611206	46.674065
826.877502	732.773438	2491.370361	1537.620483	45.766430
827.182495	734.482422	2605.722168	1582.425171	45.314491
827.487488	737.825989	2756.630859	1652.863892	45.325722
827.792419	737.008606	2870.537109	1702.498169	45.253181
828.097290	735.522644	2899.217773	1713.123535	45.182007
828.402100	737.008606	2829.967529	1680.653320	45.086632
828.706848	742.358459	2685.300293	1616.975708	45.015102
829.011597	736.414246	2495.233887	1544.381958	45.938068
829.316223	725.120300	2328.126953	1474.463257	46.746094
829.620789	717.095520	2177.441162	1407.813599	47.298260
829.925354	726.606262	2053.950195	1347.479858	46.775635
830.229797	725.120178	1919.165039	1290.638306	47.361546
830.534302	728.240906	1793.370483	1232.830811	47.373566
830.838562	719.473145	1672.479980	1171.307983	47.411499
831.142944	722.222412	1570.982422	1108.596558	45.522190
831.447144	722.668152	1489.843750	1067.730103	44.978222
831.751404	725.640320	1435.751587	1044.919189	44.961807
832.055542	732.847717	1400.457642	1029.315552	44.407345
832.359619	727.349304	1393.399048	1022.702637	44.344036
832.663635	722.965515	1400.383423	1022.405457	44.203133
832.967651	716.872559	1439.912476	1057.401978	47.096905
833.271545	724.822998	1508.122192	1090.615356	46.698933
833.575439	731.733154	1621.359497	1138.169067	45.686138
833.879211	732.996338	1760.900024	1192.632935	44.715919
834.183044	726.160461	1896.205444	1246.874023	44.503723
834.486694	723.114075	1999.486328	1287.369019	44.207706
834.790344	732.773438	2028.092773	1301.263672	43.888039
835.093933	742.061279	2003.498535	1296.433838	43.947693
835.397522	744.141785	1932.613892	1275.183228	44.682697
835.700928	738.717590	1853.853027	1233.796753	44.396324
836.004395	735.225403	1773.754517	1203.481079	45.088356
836.307739	732.104736	1708.516724	1171.159546	44.966145
836.611023	729.949951	1646.325317	1146.862549	45.495831
836.914307	723.114075	1574.474609	1118.553101	46.447891
837.217529	724.600098	1496.679688	1092.472900	47.647007
837.520691	733.219238	1420.519409	1052.126465	46.399994
837.823730	737.380188	1356.247559	1022.851257	46.127987
838.126831	729.429871	1298.811523	991.049622	45.948048
838.429749	715.832458	1248.211304	977.526550	49.155613
838.732727	714.346375	1214.700806	961.700012	49.435684
839.035522	720.587830	1198.948608	953.972656	48.788452
839.338379	721.999512	1196.050903	958.356445	49.858925
839.641113	724.005676	1200.211792	954.789978	48.463112
839.943848	728.538147	1220.422241	958.876648	46.827801
840.246460	724.005676	1252.000732	959.693909	44.638340
840.549072	720.439209	1287.071655	974.108643	44.767899
840.851563	723.114075	1303.195313	983.545105	44.895615
841.154053	735.671204	1308.099487	984.511047	43.470921
841.456482	736.711426	1282.242065	977.600891	44.156910
841.758850	732.773438	1260.248535	965.415283	44.104801
842.061157	734.036560	1228.669800	949.365906	43.533134
842.363403	731.510254	1212.620483	934.505310	42.193047
842.665588	726.829285	1185.648438	923.731445	42.914982
842.967712	718.507324	1161.500122	921.353760	45.790009
843.269775	719.101746	1142.924438	917.192810	46.739136
843.571777	724.005676	1120.410767	907.830627	46.373005
843.873840	725.120178	1101.537964	899.657288	46.367924
844.175659	725.640381	1079.990112	888.883484	46.068359
844.477600	724.674377	1067.507202	885.093994	46.792374
844.779297	724.674377	1061.488647	880.635803	46.304874
845.081116	727.943665	1055.024292	880.338623	46.592476
845.382751	728.686707	1048.337036	883.607910	48.465836
845.684387	734.259460	1040.015137	880.933105	47.970867
845.985962	730.024231	1022.851318	878.332520	50.647053
846.287537	730.024231	1005.092957	874.171570	52.404118
846.588989	728.835449	999.371582	862.431702	49.382038
846.890381	735.819824	1004.795715	858.270691	45.524849
847.191711	738.569031	1008.139343	846.679443	40.104717
847.493042	740.872375	1000.411804	856.784668	44.660763
847.794250	735.596924	991.198303	852.995300	45.930260
848.095459	734.036621	987.111633	857.230469	48.678787
848.396606	723.188293	980.424377	849.428711	49.075703
848.697693	719.473206	975.669128	852.252258	51.827152
848.998657	716.798340	977.303711	851.286316	51.625797
849.299622	722.073914	989.563721	850.989075	48.194420
849.600464	721.925293	986.963074	844.004578	46.061089
849.901367	716.055359	981.316101	843.187256	47.927143
850.202087	716.649719	960.511230	846.679504	53.321159
850.502808	718.210144	961.997314	851.211975	54.556534
850.803467	723.411316	962.888977	841.998474	49.519089
851.104065	722.891174	965.712402	832.190491	45.012257
851.404663	722.445374	958.728027	831.075928	45.974831
851.705139	721.702332	952.338074	835.831299	49.484509
852.005615	722.816895	955.978821	834.939636	48.087929
852.306030	727.943787	956.127441	829.961426	44.708565
852.606384	733.590637	959.025208	829.144043	42.386314
852.906616	730.098572	950.629089	835.534119	47.809959
853.206909	728.761047	951.223450	844.821960	52.171024
853.506958	730.544373	950.926270	842.147034	50.640575
853.807129	737.900330	955.533020	843.707336	48.617241
854.107178	741.689758	958.356506	836.202820	43.621395
854.407166	745.181946	959.248108	841.032471	44.776123
854.707092	739.460693	964.597961	838.357605	43.927383
855.007019	742.730042	960.511230	834.419617	42.101696
855.306763	734.928223	953.006653	829.961426	43.577534
855.606567	736.191345	948.845703	830.927429	44.549328
855.906250	724.897278	940.003723	827.955261	47.910225
856.205933	723.262695	937.700378	832.859192	51.108788
856.505493	718.953125	928.189636	829.441223	52.805363
856.805054	729.281250	944.090332	835.682678	49.533020
857.104492	730.841614	956.498840	834.568176	45.966427
857.403931	735.151123	964.597900	836.797180	44.300495
857.703308	728.538147	960.659851	842.369934	49.039700
858.002563	728.463867	951.372070	838.134705	49.200001
858.301819	733.887939	955.012878	842.072754	48.924747
858.601013	745.033386	951.817871	830.035706	41.106720
858.900208	747.856873	955.532959	828.475342	38.819332
859.199219	746.519470	952.709412	819.187500	35.243248
859.498291	740.129395	948.325623	822.605469	39.614586
859.797302	734.556702	937.328796	828.772644	46.463959
860.096191	734.928223	937.700378	829.738464	46.757030
860.395020	729.429749	938.591980	834.048035	50.017773
860.693787	735.671204	945.427734	835.385437	47.538082
860.992554	726.160461	943.050110	842.369934	53.579998
861.291260	725.566101	935.174072	835.311218	52.357319
861.589844	722.742493	937.551758	833.602234	51.608456
861.888428	726.160400	937.551758	831.298828	49.736389
862.186890	728.761047	944.164734	839.026367	51.190079
862.485413	730.172852	936.437256	832.933533	49.819881
862.783813	730.841553	930.418701	823.571350	46.463135
863.082153	735.002502	931.904724	820.524902	43.433945
863.380371	739.237793	938.814880	821.044983	40.990273
863.678589	743.993164	946.319519	823.348450	39.221428
863.976746	738.717590	948.845764	817.850098	37.659161
864.274902	728.463867	948.994385	810.271179	37.095688
864.572937	724.451477	956.573242	812.723145	38.028175
864.870911	729.875671	958.802246	810.865540	35.378098
865.168884	737.751709	959.173828	820.524902	37.382530
865.466736	738.346191	943.198730	819.336121	39.535721
865.764587	738.791992	939.483582	826.023438	43.465420
866.062317	735.522644	942.975830	828.995544	45.057346
866.360107	731.658875	951.669250	829.812805	44.613319
866.657715	726.531921	953.824036	829.069824	45.112827
866.955322	725.788879	950.183167	826.914978	45.066254
867.252808	733.144958	948.325623	827.137878	43.680931
867.550293	731.807434	945.725037	833.082031	47.342808
867.847717	728.761047	942.752930	838.951965	51.493038
868.145081	726.011902	941.341125	841.552551	53.657673
868.442383	724.600159	944.610535	831.150208	48.429558
868.739624	722.519714	947.211121	831.075989	48.313496
869.036804	721.330811	949.960266	824.091553	44.946415
869.333984	725.937561	948.771484	835.757019	49.283096
869.631042	728.909668	949.291565	831.373108	46.493584
869.928101	731.138733	942.530029	834.196594	48.752178
870.224976	732.624756	946.839600	828.475403	44.745102
870.521851	732.104675	945.279236	830.184326	46.009079
870.818726	731.956116	945.353516	843.187256	52.123943
871.115479	728.612488	941.638367	838.877625	51.761379
871.412231	729.875671	943.867432	840.735168	51.805496
871.708862	729.058289	945.056335	830.927246	47.161980
872.005493	734.259521	950.554688	839.323547	48.574375
872.302063	736.265625	951.743469	835.088318	45.862114
872.598572	732.179016	955.978821	836.425781	46.580364
872.895020	731.584534	949.440186	834.568176	47.271503
873.191406	733.590820	951.372070	835.311218	46.707600
873.487671	735.448425	953.972656	838.134705	46.990799
873.783997	738.271912	959.694031	842.592957	47.114101
874.080200	737.603088	954.418457	854.109802	53.735451
874.376343	741.318298	958.430725	857.973450	53.730297
874.672424	738.643311	962.294495	850.989075	50.232582
874.968445	734.408020	968.164368	843.855957	46.821377
875.264465	734.779541	964.746521	841.775574	46.526695
875.560364	732.253357	965.266602	839.026367	45.822723
875.856201	723.336975	964.969421	836.797302	46.955750
876.152039	723.559875	971.582336	833.825195	44.457794
876.447754	723.559875	971.136536	832.784912	44.117664
876.743469	738.271790	975.594727	832.710510	39.793339
877.039063	740.649597	967.347168	819.558899	34.808182
877.334595	741.243958	966.826965	825.874695	37.516449
877.630127	731.658936	967.347168	826.989258	40.447639
877.925537	731.584656	968.313049	838.134705	45.009407
878.221008	737.231628	971.136536	830.853027	40.025410
878.516296	739.980774	974.480164	832.116211	39.290268
878.811646	730.544250	990.306641	833.007813	39.445110
879.106812	727.274963	1008.956604	849.354431	43.339520
879.401978	729.652649	1023.445618	856.710266	43.247330
879.697083	739.014832	1041.352661	864.809265	41.607243
879.992126	735.968445	1061.860229	879.818542	44.140450
880.287109	730.395752	1097.822632	893.861755	44.489395
880.582031	720.885071	1159.345337	914.889404	44.246731
880.876892	723.857117	1284.842651	961.179993	42.304634
881.171753	727.720886	1501.955078	1057.625000	42.610378
881.466492	735.225403	1829.853149	1216.707153	43.985893
881.761230	740.129395	2233.837158	1375.492065	42.535942
882.055786	737.083008	2622.142822	1539.180664	42.550251
882.350403	738.197510	2878.784912	1648.554321	42.528366
882.644958	726.680664	2955.093750	1702.795288	43.803127
882.939453	728.761169	2904.939209	1681.024780	43.758537
883.233826	723.708557	2787.094971	1628.567017	43.853077
883.528137	724.971680	2654.316162	1583.465210	44.496643
883.822449	728.761047	2529.115967	1534.202515	44.737926
884.116577	732.996338	2414.615479	1491.404297	45.099865
884.410828	737.231628	2298.406006	1435.751465	44.743233
884.704956	739.089172	2149.206299	1370.736694	44.793972
884.999023	737.528809	1969.913696	1282.390625	44.211983
885.292969	732.401917	1764.838257	1194.713501	44.778706
885.586914	725.714661	1573.285767	1117.067261	46.173424
885.880798	723.857117	1439.095093	1065.055298	47.704147
886.174622	726.309082	1341.758545	1013.414795	46.649761
886.468384	735.374023	1286.328613	982.281982	44.814575
886.762085	736.191406	1219.901978	955.458679	45.330261
887.055664	733.665039	1177.846680	938.740540	46.169289
887.349304	728.538269	1149.017212	920.016296	45.538078
887.642822	728.686829	1127.989624	898.096985	42.426491
887.936340	734.408020	1114.020752	890.666748	41.162666
888.229736	730.172852	1076.943726	882.493469	43.925434
888.523071	723.114075	1059.333984	884.796814	48.088390
888.816284	718.061523	1041.204102	879.075500	49.827534
889.109619	727.869446	1032.139038	873.725769	47.936543
889.402710	740.872375	1012.968994	863.471985	45.057381
889.695862	740.872375	992.238586	864.437805	49.157532
889.988892	731.361633	978.864075	858.122070	51.215832
890.281921	718.210083	973.217102	842.592773	48.776184
>>>>>End Processed Spectral Data<<<<<
