Jaz Data File
++++++++++++++++++++++++++++++++++++
Date: Fri Jun 04 16:36:27 2021
User: jaz
Dark Spectrum Present: Yes
Reference Spectrum Present: Yes
Processed Spectrum Present: Yes
Spectrometers: JAZA3586
Integration Time (usec): 40000 (JAZA3586)
Spectra Averaged: 10 (JAZA3586)
Boxcar Smoothing: 1 (JAZA3586)
Correct for Electrical Dark: No (JAZA3586)
Strobe/Lamp Enabled: Yes (JAZA3586)
Correct for Detector Non-linearity: No (JAZA3586)
Correct for Stray Light: No (JAZA3586)
Number of Pixels in Processed Spectrum: 2048
>>>>>Begin Processed Spectral Data<<<<<
W	D	R	S	P
191.335022	0.000000	0.000000	0.000000	0.000000
191.713211	235.539627	237.917343	241.335251	243.747513
192.091385	476.280426	474.943024	481.110138	-361.126312
192.469528	722.668274	719.027527	728.686829	-165.310974
192.847641	729.504150	732.847717	732.773438	97.778427
193.225739	737.825989	749.268555	740.500977	23.377518
193.603790	744.141785	755.807312	746.073547	16.559584
193.981842	754.246887	753.429626	751.572021	327.296478
194.359863	759.968262	752.612305	755.658691	58.586128
194.737854	758.482239	759.225281	755.955872	-340.003296
195.115829	763.088928	769.701965	754.841370	-124.716652
195.493774	763.534851	771.782410	755.955872	-91.893616
195.871704	769.627625	772.451172	756.030273	-481.569794
196.249603	763.683411	763.757629	763.980652	400.493408
196.627457	755.881592	764.500671	768.810242	150.000351
197.005310	756.401672	763.386169	769.999023	194.679031
197.383133	756.104492	766.283936	765.169373	89.050842
197.760910	762.717468	769.256042	761.974365	-11.364909
198.138687	758.259277	768.958801	761.454285	29.861210
198.516449	763.609070	776.314758	765.095154	11.696210
198.894180	757.962097	772.822571	766.952698	60.500095
199.271866	760.191101	764.797913	767.249939	153.226105
199.649536	755.212891	757.367676	766.952637	544.822144
200.027191	756.401672	762.345886	763.980530	127.499741
200.404816	749.565857	763.014648	762.494446	96.131973
200.782410	748.302734	770.965027	767.992920	86.885231
201.159988	756.550293	771.633789	767.918640	75.369446
201.537537	759.448059	786.419983	766.804138	27.273098
201.915070	757.516296	790.209473	761.157166	11.136480
202.292557	752.389343	789.912292	765.318054	34.455475
202.670029	759.893982	793.181458	766.432617	19.642929
203.047485	755.361389	786.122803	759.002258	11.835832
203.424911	751.646301	790.432373	755.361511	9.578722
203.802292	742.507080	787.608887	755.584290	28.994869
204.179688	745.924988	791.101074	762.791748	37.335594
204.557037	746.890869	787.311707	763.831970	41.911800
204.934357	749.045715	786.122803	755.881592	18.436930
205.311661	749.120056	783.076355	751.274841	6.345760
205.688934	746.222229	785.008301	742.581360	-9.387053
206.066177	740.203613	777.949524	749.937317	25.787439
206.443390	738.494690	772.971191	753.429626	43.319176
206.820587	739.534973	766.655457	757.516174	66.301186
207.197769	743.175781	775.125977	757.962097	46.279266
207.574921	747.485352	779.955627	749.937439	7.551791
207.952042	749.714539	777.355042	751.200500	5.376030
208.329147	745.702087	779.584167	750.308899	13.596601
208.706223	752.983826	793.553040	767.101318	34.798538
209.083267	749.342957	799.200012	759.373840	20.119286
209.460297	759.225159	798.754211	752.240723	-17.669121
209.837280	752.760803	787.460205	736.265686	-47.537182
210.214264	747.411133	791.175354	736.711426	-24.448526
210.591217	738.271912	781.293152	741.392578	7.253781
210.968124	733.070618	783.596497	738.197510	10.147061
211.345016	739.832214	783.150696	747.411133	17.495808
211.721893	738.346130	781.887512	741.318176	6.825796
212.098724	740.129395	780.104309	742.507080	5.947944
212.475555	743.547302	774.605896	740.129456	-11.004512
212.852356	740.055115	774.828796	745.256348	14.957383
213.229126	738.866272	775.794678	754.915710	43.460957
213.605865	737.454529	767.844238	757.813477	66.992897
213.982590	742.061340	767.844238	752.092102	38.904709
214.359283	746.890930	760.042480	749.194336	17.514328
214.735931	741.169678	767.770020	739.906494	-4.748749
215.112579	745.479187	770.221985	741.615479	-15.615487
215.489197	737.083008	771.782410	740.352356	9.421915
215.865799	736.637207	775.646057	742.878601	15.999944
216.242355	728.092285	773.491272	748.525574	45.008247
216.618896	734.110840	778.915344	746.816650	28.358334
216.995407	735.968445	770.816406	751.720642	45.202637
217.371902	738.271790	773.342773	749.788757	32.839020
217.748367	735.522644	765.392334	741.169617	18.905361
218.124802	740.426575	775.125977	737.231628	-9.207497
218.501236	746.147949	772.005310	732.104736	-54.310310
218.877609	748.079773	777.652344	740.129395	-26.884298
219.253983	741.095276	769.553284	740.278015	-2.871813
219.630295	736.934387	769.107422	745.330566	26.096945
220.006592	736.934387	763.460449	743.695984	25.490391
220.382889	739.237793	764.797852	739.163391	-0.291086
220.759140	737.231628	767.992920	734.779602	-7.971142
221.135391	739.609314	776.389160	734.408142	-14.141364
221.511581	742.729980	777.949524	733.962219	-24.894590
221.887772	746.147949	781.218811	740.798096	-15.254412
222.263931	749.194275	777.280762	744.959045	-15.079243
222.640060	748.154053	779.286926	750.828918	8.591773
223.016159	747.633972	780.921631	752.835144	15.624926
223.392212	738.866211	789.243469	752.612305	27.286308
223.768265	736.414246	790.135071	742.061279	10.511815
224.144302	738.049011	788.574707	731.733215	-12.500166
224.520294	744.884766	777.652283	730.395752	-44.217613
224.896286	750.606140	781.293030	732.922058	-57.627483
225.272217	750.531738	777.875183	737.900391	-46.195160
225.648148	752.017822	774.382996	741.392578	-47.507988
226.024048	741.987000	776.314880	752.315125	30.086695
226.399902	738.420410	786.419983	752.686584	29.721460
226.775772	739.832214	798.828613	752.983826	22.292227
227.151581	749.194336	795.261963	746.816650	-5.161294
227.527374	748.154114	792.438477	741.912659	-14.094038
227.903137	747.411072	788.574707	724.971680	-54.512657
228.278870	742.061279	788.054688	723.188416	-41.033844
228.654572	749.417236	785.454102	731.436035	-49.896687
229.030273	740.352356	787.980408	746.445129	12.792405
229.405930	741.987000	786.048523	750.383118	19.055443
229.781555	729.652649	782.184814	742.507080	24.469639
230.157181	729.652771	788.574768	738.866211	15.636673
230.532761	730.470032	785.602600	736.785828	11.455653
230.908325	736.934387	786.345642	743.621643	13.533872
231.283859	737.305908	782.779114	748.897156	25.490280
231.659332	739.683594	790.357971	754.321289	28.885792
232.034821	743.547363	794.964783	751.349121	15.173375
232.410263	747.931152	789.837891	743.175781	-11.347509
232.785690	743.695984	781.961853	735.745422	-20.777163
233.161087	739.460693	775.423157	739.163391	-0.826702
233.536469	736.562805	766.655518	746.296570	32.345921
233.911804	730.915833	767.547180	746.890930	43.610455
234.287140	736.562805	766.135437	740.649597	13.819508
234.662430	739.832214	780.995911	739.312012	-1.263741
235.037704	753.206726	784.933899	738.791992	-45.433403
235.412933	751.349121	791.546875	736.042786	-38.077587
235.788162	750.308899	786.642883	731.807434	-50.920551
236.163345	744.438965	786.865784	734.408020	-23.642935
236.538513	742.209961	784.636780	741.243896	-2.277014
236.913635	737.008728	790.580994	740.872375	7.212029
237.288742	735.522644	793.330139	744.587585	15.681256
237.663834	736.488586	791.621155	748.005554	20.889591
238.038879	739.237793	782.779114	752.463684	30.375494
238.413910	737.974609	784.190918	750.160339	26.366732
238.788910	742.878601	789.540710	744.810547	4.140288
239.163879	738.271790	791.175354	739.683594	2.668637
239.538834	739.312073	782.110413	735.448425	-9.027564
239.913757	733.665039	779.955627	732.253357	-3.049609
240.288651	734.556641	781.664612	732.773438	-3.785353
240.663528	735.299744	789.615051	736.414307	2.052024
241.038361	735.002441	788.500488	737.008728	3.750205
241.413177	736.562805	784.933899	737.974609	2.918694
241.787979	730.915833	787.460266	738.791931	13.929043
242.162735	731.807556	795.187744	736.860107	7.971815
242.537476	737.677429	801.503479	743.695984	9.429621
242.912170	747.485352	795.336365	744.067383	-7.142939
243.286865	745.999329	787.608887	746.816650	1.964265
243.661514	738.346191	784.785339	738.791992	0.959968
244.036148	737.677429	786.791504	739.980774	4.689785
244.410751	740.203796	798.308411	741.243958	1.790152
244.785339	742.135559	805.070007	743.770264	2.597472
245.159882	738.271790	801.577698	740.352356	3.286528
245.534378	739.980774	800.686218	753.503906	22.276638
245.908890	746.668152	793.776062	755.807312	19.400478
246.283356	744.736267	794.073242	755.287170	21.385387
246.657791	742.581360	791.026794	735.448425	-14.723646
247.032196	737.008728	799.943115	734.556702	-3.896163
247.406586	736.637207	811.905823	733.888000	-3.652527
247.780960	730.395813	814.506348	741.764099	13.515888
248.155289	731.733215	806.258789	742.432800	14.356931
248.529602	733.813660	798.308411	744.959167	17.281263
248.903870	740.278015	786.568604	742.729980	5.296898
249.278122	738.791992	788.946289	737.900330	-1.777839
249.652344	736.340027	792.958679	739.534973	5.642922
250.026550	736.860046	800.686096	742.878601	9.429621
250.400711	735.225403	797.491028	750.308899	24.224436
250.774857	737.603210	794.147461	751.572021	24.704210
251.148987	740.278076	789.466492	758.259277	36.555763
251.523071	739.460693	794.296082	750.903320	20.867231
251.897125	737.603027	798.531311	750.457520	21.097742
252.271164	731.733154	807.967773	741.466858	12.768088
252.645187	740.055115	813.837708	747.411133	9.969855
253.019165	733.070618	810.642761	750.903320	22.988539
253.393112	741.689758	814.506409	753.280945	15.918319
253.767044	735.894104	814.060608	752.092102	20.722429
254.140930	745.330627	812.500244	746.593750	1.880497
254.514801	735.745605	799.868835	751.200500	24.101866
254.888657	737.677429	787.088684	752.315125	29.624212
255.262466	742.284180	784.859680	757.367676	35.427643
255.636276	744.067566	790.358093	748.302734	9.149104
256.010010	745.702148	804.921387	744.661865	-1.756664
256.383759	740.129395	811.608643	734.853943	-7.380396
256.757446	741.318176	819.038879	733.442139	-10.133770
257.131134	739.534973	811.608643	731.658875	-10.927845
257.504791	738.791931	810.419739	737.083008	-2.385838
257.878418	735.968445	807.001892	743.695984	10.878733
258.252014	736.860046	812.500244	748.154053	14.931223
258.625580	739.906433	824.908875	748.079773	9.615417
258.999115	740.946716	831.521729	745.925049	5.496364
259.372650	738.643311	845.564941	749.343018	10.007055
259.746124	738.271790	855.224304	752.315125	12.007724
260.119598	736.637207	866.815613	752.017883	11.815075
260.493042	740.426575	865.255188	743.175842	2.202434
260.866425	737.528809	863.100403	745.033386	5.976334
261.239838	736.860107	855.298645	741.615417	4.015002
261.613159	735.076843	852.549500	741.763977	5.692502
261.986511	737.825989	845.490723	725.491760	-11.456145
262.359802	738.569031	840.883972	725.640381	-12.636131
262.733063	743.250061	833.007874	728.835449	-16.059450
263.106293	739.832214	827.137878	741.021057	1.361702
263.479523	743.027283	830.555847	747.485413	5.093343
263.852692	730.915833	832.339050	743.101563	12.014734
264.225861	734.779602	835.162598	731.956116	-2.812714
264.598969	737.305847	835.459778	727.943848	-9.538079
264.972076	739.386414	831.967529	734.482422	-5.296968
265.345154	737.900330	834.791016	741.169678	3.374265
265.718201	734.928223	831.224548	750.457520	16.126572
266.091217	743.250061	844.004578	749.565857	6.268499
266.464203	745.479187	848.462708	757.144775	11.327626
266.837158	748.897156	856.710388	748.525635	-0.344597
267.210114	748.302734	861.614258	744.884766	-3.016435
267.583038	750.234558	873.502747	735.151123	-12.236276
267.955902	750.160217	871.793762	736.637207	-11.117829
268.328766	748.599915	872.611145	738.866211	-7.849050
268.701569	746.965149	867.187012	743.101501	-3.213764
269.074371	742.284180	875.806152	745.256287	2.225931
269.447144	740.203674	877.960938	739.832214	-0.269648
269.819885	735.596924	887.323059	745.702148	6.660174
270.192596	739.757874	894.456116	747.856934	5.235393
270.565277	736.117004	908.425049	758.705078	13.109123
270.937927	743.101501	912.214539	752.909485	5.799661
271.310577	740.723816	925.143250	749.788757	4.915394
271.683136	741.838379	932.424866	744.067444	1.169582
272.055725	738.049011	938.963440	741.689758	1.812088
272.428284	739.683594	933.093567	744.513245	2.497105
272.800812	742.878662	935.174072	745.627747	1.429615
273.173279	745.702148	932.722107	752.909485	3.853779
273.545776	740.723816	938.369141	752.835144	6.127809
273.918152	734.036621	933.093567	751.794922	8.921216
274.290558	732.624817	937.774597	747.262451	7.135096
274.662964	738.197510	924.251526	739.683594	0.798738
275.035278	743.175781	919.793396	738.717590	-2.524205
275.407593	738.940613	919.867737	745.553467	3.654982
275.779907	742.432800	933.910950	749.342957	3.608849
276.152161	741.689758	951.594971	748.451233	3.221204
276.524384	744.290344	957.316223	746.073669	0.837140
276.896606	744.513245	964.895081	747.559753	1.382377
277.268799	755.064270	969.724792	753.578186	-0.692295
277.640930	753.652527	977.823792	753.206726	-0.198866
278.013031	750.754700	979.532776	754.024109	1.429075
278.385162	744.141785	973.885742	750.085938	2.587295
278.757233	754.246887	974.851746	743.993164	-4.648004
279.129272	752.537903	983.990906	741.169678	-4.911677
279.501282	757.516296	996.548096	738.346191	-8.019897
279.873230	748.897156	998.702881	742.135681	-2.706693
280.245178	742.730042	997.588379	741.020996	-0.670586
280.617126	735.596985	1010.219788	744.067383	3.084375
280.988983	735.819824	1028.126831	750.531738	5.033035
281.360870	743.918884	1047.891235	752.760925	2.908831
281.732697	743.993164	1054.429810	747.039551	0.981323
282.104492	744.661865	1068.918823	740.723816	-1.214484
282.476288	736.191406	1091.952759	740.278015	1.148694
282.848053	738.866211	1104.732788	745.553467	1.827785
283.219757	736.785828	1101.983643	748.525635	3.214643
283.591461	740.129395	1097.451172	756.030273	4.450017
283.963135	741.764160	1095.667969	764.352112	6.382512
284.334747	738.049011	1104.955811	768.215820	8.221927
284.706360	740.575195	1105.550293	756.996094	4.499183
285.077942	738.494812	1118.181641	749.491516	2.896256
285.449524	743.250183	1134.453979	742.655701	-0.151962
285.821014	737.603088	1153.846924	739.757874	0.517674
286.192535	740.055176	1171.382446	735.968445	-0.947478
286.563995	737.751709	1191.072632	728.538147	-2.032459
286.935425	747.708252	1201.772217	735.745544	-2.634586
287.306824	750.160217	1196.273804	745.330566	-1.082606
287.678223	754.767029	1184.979858	750.308899	-1.036261
288.049561	752.983704	1178.441162	753.503906	0.122269
288.420898	748.376953	1175.097534	746.370789	-0.470135
288.792145	749.937317	1180.521606	748.822754	-0.258849
289.163452	750.977600	1175.469116	744.141785	-1.610354
289.534668	748.897156	1186.243042	746.816589	-0.475726
289.905914	748.599915	1198.057129	749.491516	0.198373
290.277039	746.370850	1227.183716	753.726807	1.529900
290.648193	753.578186	1252.966797	749.268616	-0.862969
291.019318	744.513367	1266.935669	741.912659	-0.497817
291.390381	742.581482	1277.635254	734.482422	-1.513691
291.761475	740.649597	1271.096558	737.083008	-0.672374
292.132507	743.175781	1268.421753	743.175781	0.000000
292.503510	747.039551	1258.836670	744.959167	-0.406486
292.874481	744.959045	1262.923340	745.776367	0.157795
293.245422	745.999329	1268.347412	743.547363	-0.469412
293.616364	745.925049	1282.019043	741.689758	-0.790028
293.987213	745.850769	1299.331665	741.318176	-0.818925
294.358093	746.667969	1330.167236	742.804260	-0.662162
294.728943	740.649475	1359.294067	747.633972	1.129000
295.099731	737.603027	1393.176147	752.389343	2.255479
295.470490	738.123230	1415.689819	752.463623	2.116455
295.841248	735.299744	1432.482056	754.172607	2.707020
296.211975	735.002502	1443.033203	749.714417	2.077864
296.582642	735.002502	1452.395142	750.977539	2.226819
296.953308	741.689758	1481.298950	748.228333	0.884058
297.323883	744.216064	1509.608398	750.308899	0.796041
297.694519	744.587585	1534.796997	744.661865	0.009400
298.065063	743.918762	1546.908325	751.126221	0.897578
298.435608	741.912659	1534.871216	754.841370	1.630440
298.806122	736.637207	1508.939575	756.624695	2.588039
299.176575	735.448242	1464.803711	745.925049	1.436447
299.547028	732.699036	1429.435669	733.590820	0.127995
299.917450	733.962219	1411.751587	732.104675	-0.274059
300.287872	737.974609	1410.859985	740.500916	0.375444
300.658234	741.095398	1424.160156	749.120056	1.174802
301.028564	745.330566	1431.441772	748.451355	0.454852
301.398865	751.943542	1438.797852	739.089172	-1.871484
301.769135	751.349121	1433.893921	742.952881	-1.230138
302.139374	753.503906	1430.104492	748.154114	-0.790687
302.509583	741.095276	1426.612183	752.017883	1.593339
302.879791	748.451355	1427.206665	745.553528	-0.426933
303.249939	748.079773	1425.571899	736.488586	-1.710896
303.620087	750.754639	1424.160278	736.934387	-2.052292
303.990173	746.445129	1425.200562	745.404846	-0.153263
304.360260	740.055115	1431.664917	751.943542	1.718950
304.730286	740.426575	1433.596680	758.184875	2.561897
305.100281	738.420410	1442.587280	749.565857	1.582785
305.470276	737.677429	1446.302368	753.355286	2.212434
305.840179	737.677429	1453.286987	750.754700	1.827431
306.210144	729.578430	1460.122681	749.194336	2.685108
306.579987	730.544373	1462.054688	751.572021	2.874553
306.949890	725.194580	1475.131836	753.503906	3.774893
307.319702	736.340027	1483.973999	750.308838	1.868402
307.689484	739.906555	1496.085327	746.965271	0.933472
308.059265	742.804382	1511.985962	740.872375	-0.251177
308.429016	736.860107	1536.505981	744.364685	0.938488
308.798737	738.123230	1572.691406	740.798157	0.320516
309.168396	741.541199	1601.520874	741.764099	0.025919
309.538055	742.061279	1619.799316	740.723816	-0.152376
309.907684	738.420471	1642.313110	743.993164	0.616522
310.277313	726.977844	1656.505005	745.627869	2.006399
310.646851	732.624817	1675.675171	747.262451	1.552158
311.016388	738.940613	1684.219849	743.027161	0.432311
311.385895	750.011719	1698.114380	742.507019	-0.791549
311.755371	752.612305	1700.343384	739.832214	-1.348493
312.124817	753.801086	1709.557007	741.095398	-1.329386
312.494232	752.017822	1702.721069	736.860168	-1.594362
312.863617	742.135559	1703.761353	744.587646	0.254994
313.232971	742.581360	1689.792603	741.838379	-0.078439
313.602295	742.581360	1679.910278	750.903320	0.887838
313.971619	748.228455	1674.040161	746.445068	-0.192629
314.340820	739.163513	1688.603516	748.451355	0.978244
314.710083	743.918884	1723.823120	745.553467	0.166810
315.079285	739.609375	1758.299683	741.615417	0.196924
315.448486	747.262512	1771.971313	737.974609	-0.906394
315.817596	750.457520	1760.380249	743.027161	-0.735735
316.186707	750.606140	1746.039673	741.095276	-0.955449
316.555786	749.268738	1725.234985	745.776367	-0.357837
316.924866	745.702148	1713.866577	743.175781	-0.260944
317.293884	746.965332	1705.767578	747.782654	0.085244
317.662872	748.005554	1698.040039	749.268616	0.132949
318.031830	745.776367	1687.489136	741.020996	-0.504970
318.400757	745.553528	1689.049438	743.175781	-0.252015
318.769684	743.844543	1701.532227	741.318176	-0.263799
319.138550	739.312073	1723.823120	742.581360	0.332072
319.507416	743.695984	1740.244141	739.237793	-0.447363
319.876190	746.445129	1749.160278	743.175842	-0.326043
320.244995	753.652527	1759.042603	750.383118	-0.325188
320.613770	752.760925	1748.194336	753.280945	0.052241
320.982483	744.290344	1732.070679	749.491516	0.526551
321.351166	733.293640	1711.043091	750.829041	1.793445
321.719818	729.801331	1700.046265	752.537903	2.343385
322.088440	735.819885	1712.529297	757.144714	2.183334
322.457062	740.203674	1727.761230	745.924988	0.579340
322.825623	738.791992	1749.234741	745.033386	0.617689
323.194183	737.157288	1777.841309	746.445129	0.892475
323.562653	736.117004	1808.528320	757.813477	2.023148
323.931183	740.723816	1846.794067	758.184998	1.578668
324.299591	740.500916	1883.648438	757.590515	1.494960
324.668060	739.683533	1928.824341	755.584412	1.337174
325.036407	741.912659	1974.074707	750.754700	0.717604
325.404755	748.525635	2001.269531	744.736145	-0.302495
325.773102	753.652527	2000.898071	738.569031	-1.209345
326.141388	746.519470	1995.176758	743.250061	-0.261834
326.509674	741.615479	2000.823730	749.714539	0.643187
326.877899	739.163513	2028.315796	752.835144	1.060513
327.246124	735.671204	2037.603516	750.457458	1.135716
327.614288	737.454529	2037.380493	750.308838	0.988849
327.982422	740.352356	2020.811157	750.680359	0.806586
328.350525	748.376953	2018.730591	758.259277	0.777919
328.718628	747.336731	2014.049683	753.503845	0.486860
329.086700	747.188171	2011.969116	749.862976	0.211484
329.454712	744.736145	2005.802124	743.324402	-0.111948
329.822693	738.866211	2008.253906	750.085938	0.883869
330.190674	734.853943	2022.594360	753.652527	1.459812
330.558563	728.686768	2036.488892	759.893982	2.386234
330.926483	729.058289	2043.547729	752.612244	1.791871
331.294312	731.658875	2063.312256	750.977539	1.450728
331.662231	734.482422	2096.525635	745.404785	0.801910
332.029999	730.618652	2139.472412	740.649597	0.711993
332.397766	726.754883	2161.020264	745.924988	1.336580
332.765503	730.395752	2184.277100	744.587585	0.976134
333.133240	741.318176	2213.626709	752.092102	0.731771
333.500916	745.107666	2258.876953	744.959045	-0.009818
333.868561	740.203674	2292.239014	742.729980	0.162774
334.236176	728.389587	2314.455566	733.219238	0.304505
334.603790	727.646484	2318.616455	742.581360	0.938728
334.971344	732.773438	2322.034180	748.154114	0.967788
335.338867	737.454407	2317.724854	753.206726	0.996812
335.706360	737.974609	2309.774414	748.302734	0.657089
336.073853	737.974609	2313.043701	743.027161	0.320783
336.441284	744.067383	2312.523682	734.110901	-0.634795
336.808655	740.203674	2315.124268	728.761047	-0.726553
337.176086	734.259460	2282.951172	723.188416	-0.714864
337.543396	727.869446	2229.601807	727.200684	-0.044533
337.910706	731.436035	2186.729248	732.401855	0.066366
338.277954	742.432800	2197.874512	749.342957	0.474781
338.645264	746.073669	2278.492920	761.900146	1.032777
339.012421	750.234619	2391.358643	759.596680	0.570466
339.379669	744.736145	2489.661133	753.132324	0.481177
339.746796	745.256287	2554.453125	747.113831	0.102672
340.113953	739.312012	2587.369385	749.788818	0.566909
340.481018	740.129395	2600.743896	744.513245	0.235613
340.848114	744.736145	2606.242432	742.507080	-0.119745
341.215118	744.810547	2606.167969	746.593689	0.095798
341.582153	751.274902	2614.787354	756.847473	0.299036
341.949066	742.952942	2619.765625	763.683350	1.104554
342.316010	746.593750	2626.378174	756.104492	0.505949
342.682922	739.237793	2644.582520	750.457520	0.588855
343.049835	745.033386	2664.792969	743.175781	-0.096762
343.416656	747.336731	2708.482666	747.262451	-0.003788
343.783478	749.565857	2756.853760	741.020996	-0.425692
344.150269	742.507080	2833.534180	744.216064	0.081729
344.516998	732.550476	2908.283203	745.181946	0.580562
344.883728	733.219238	2973.520752	751.646301	0.822526
345.250427	735.894104	3027.613037	750.383118	0.632233
345.617065	740.872375	3052.875732	747.485352	0.286028
345.983704	740.426575	3062.460693	745.702148	0.227196
346.350281	739.089172	3056.591064	746.742371	0.330235
346.716827	737.231628	3029.767822	750.531738	0.580148
347.083405	737.900330	3015.427002	754.915588	0.747094
347.449860	745.181946	2980.727783	756.773254	0.518500
347.816376	756.253113	2959.848877	752.538025	-0.168592
348.182770	748.748535	2927.081299	745.776367	-0.136442
348.549194	741.169617	2915.564453	746.296570	0.235788
348.915558	731.807434	2917.793701	739.312012	0.343304
349.281921	734.631042	2930.425049	739.609192	0.226713
349.648193	741.763977	2967.725342	739.163391	-0.116830
350.014526	749.863037	3003.613281	745.181946	-0.207702
350.380737	750.828918	3037.495117	747.708313	-0.136470
350.746948	750.085938	3083.711670	747.039551	-0.130543
351.113159	744.290344	3120.565674	745.627869	0.056287
351.479309	743.695984	3159.946045	742.878601	-0.033829
351.845428	736.562805	3178.447266	746.742371	0.416873
352.211517	736.191345	3204.453369	748.302734	0.490685
352.577576	737.677429	3224.292236	748.228333	0.424308
352.943604	738.866272	3268.799561	744.810486	0.234955
353.309601	733.813660	3326.012451	746.147949	0.475823
353.675537	736.562927	3398.531982	749.194336	0.474514
354.041473	737.231628	3463.101318	744.884766	0.280759
354.407379	737.454529	3531.237061	743.175781	0.204785
354.773254	730.321472	3603.979248	743.844543	0.470587
355.139038	735.151123	3657.848633	744.216003	0.310155
355.504913	743.770264	3718.479736	742.061218	-0.057453
355.870636	753.801086	3785.946533	737.454529	-0.539109
356.236389	754.098328	3870.131592	739.460693	-0.469752
356.602081	752.463684	3974.378174	742.284180	-0.315946
356.967804	753.578308	4058.934814	751.943542	-0.049458
357.333405	749.342957	4160.060547	749.937317	0.017426
357.699036	741.987000	4258.734863	747.856873	0.166912
358.064606	733.070618	4383.563477	734.631042	0.042746
358.430176	736.042786	4463.290039	735.745544	-0.007975
358.795654	740.723816	4522.880859	736.637207	-0.108050
359.161163	745.256348	4527.116211	738.569092	-0.176825
359.526581	740.352356	4512.032715	738.494812	-0.049250
359.892029	742.432800	4532.837402	738.569092	-0.101934
360.257416	734.482361	4586.186523	745.479187	0.285505
360.622772	743.844543	4737.764160	747.411072	0.089299
360.988098	753.578186	4891.199707	747.708252	-0.141867
361.353394	760.488342	5119.605957	749.194336	-0.259089
361.718658	751.794922	5312.124512	745.850769	-0.130345
362.083893	739.163391	5485.621094	743.918945	0.100192
362.449097	739.386414	5590.685059	741.541199	0.044417
362.814209	742.952942	5620.480469	750.085938	0.146242
363.179382	742.284180	5510.587402	753.355286	0.232181
363.544434	747.039551	5286.118164	758.556458	0.253728
363.909546	741.987000	4997.972168	751.349121	0.219975
364.274536	738.791992	4783.386230	752.909485	0.349046
364.639587	731.658875	4624.527344	749.714417	0.463811
365.004517	733.887939	4546.212402	755.212830	0.559367
365.369507	737.305908	4485.581543	749.640137	0.329064
365.734344	736.265686	4461.358398	747.336853	0.297205
366.099274	741.318176	4434.460449	741.764099	0.012074
366.464081	740.575195	4419.600098	742.358582	0.048474
366.828918	742.358459	4397.755371	749.491516	0.195138
367.193665	733.665039	4407.711426	753.578125	0.541993
367.558411	736.637207	4422.943359	758.110657	0.582519
367.923126	737.900330	4444.565918	751.869202	0.376858
368.287781	748.599915	4440.851074	748.897156	0.008050
368.652435	755.658691	4412.615723	745.256287	-0.284455
369.017059	760.488342	4391.365234	746.965271	-0.372446
369.381653	758.630859	4382.894531	748.228455	-0.287021
369.746185	746.147949	4386.535156	755.807312	0.265339
370.110687	739.163513	4383.414551	751.646301	0.342534
370.475220	731.807556	4413.209961	748.971436	0.466232
370.839661	733.516541	4458.534668	741.615479	0.217420
371.204041	727.869446	4518.497070	738.940491	0.292064
371.568451	734.631042	4561.741211	739.906494	0.137844
371.932770	738.197571	4607.065918	749.342957	0.288079
372.297150	742.284180	4659.077637	752.166443	0.252305
372.661377	743.398743	4691.102051	756.401672	0.329380
373.025696	743.250061	4709.900879	746.519470	0.082422
373.389862	744.959045	4690.136230	750.903320	0.150672
373.754059	739.163513	4678.767578	753.281006	0.358348
374.118225	739.980774	4703.139160	749.863098	0.249355
374.482361	740.575195	4757.157715	744.141785	0.088797
374.846436	745.033386	4821.801270	740.872498	-0.102063
375.210510	743.473083	4884.512207	748.748535	0.127394
375.574524	745.107727	4970.480469	757.219055	0.286633
375.938538	750.531799	5075.915527	760.934143	0.240495
376.302460	749.714539	5184.472168	757.739075	0.180946
376.666412	751.200500	5314.947754	754.172607	0.065124
377.030304	743.695862	5425.732910	742.135559	-0.033325
377.394196	748.599915	5540.011230	746.816650	-0.037218
377.757996	745.107727	5642.771484	737.008728	-0.165365
378.121796	740.649475	5706.671875	745.107727	0.089775
378.485565	731.510254	5727.922363	741.095398	0.191841
378.849304	734.556641	5657.706543	749.863037	0.310907
379.212982	743.175781	5563.787598	747.782532	0.095564
379.576630	745.553528	5426.253418	746.147949	0.012699
379.940277	744.067444	5342.811523	746.370789	0.050086
380.303864	741.764099	5279.654297	744.810486	0.067132
380.667450	746.668030	5273.710449	754.395508	0.170696
381.030945	746.816650	5266.131348	756.698914	0.218667
381.394501	747.411072	5289.090332	768.364441	0.461357
381.757935	747.113831	5320.224121	768.141541	0.459812
382.121399	744.216064	5333.449707	763.906250	0.429052
382.484741	742.729980	5372.161621	758.927979	0.349892
382.848145	742.729980	5398.167480	747.782654	0.108533
383.211487	744.959045	5457.014160	748.897156	0.083575
383.574768	746.519470	5529.311035	746.370850	-0.003107
383.938019	739.163391	5603.242188	750.680359	0.236776
384.301270	742.878601	5682.597656	745.330566	0.049638
384.664459	738.791931	5748.207031	747.336731	0.170575
385.027649	745.404968	5810.918457	751.646301	0.123212
385.390778	745.033386	5882.025879	759.299500	0.277713
385.753876	750.085938	5914.720215	759.968262	0.191346
386.116943	743.027161	5948.750000	759.671082	0.319724
386.479980	734.779602	5948.973145	760.859863	0.500178
386.842987	735.225403	5978.619629	761.900085	0.508729
387.205994	734.259521	6024.241699	761.751465	0.519698
387.568909	737.157288	6076.328125	765.540955	0.531612
387.931793	732.030457	6115.560059	761.082764	0.539652
388.294678	738.123230	6134.135254	765.169434	0.501226
388.657471	739.312012	6167.200684	765.466614	0.481856
389.020294	738.197510	6164.599609	773.788574	0.655887
389.383057	737.008728	6170.246094	775.943298	0.716600
389.745819	735.968445	6169.800781	775.348877	0.724727
390.108521	744.364563	6207.397949	770.890686	0.485557
390.471191	751.869202	6265.205566	766.655457	0.268191
390.833801	746.816589	6350.950684	764.054871	0.307599
391.196442	739.683594	6489.970703	776.909241	0.647370
391.558960	732.773438	6626.167969	780.029968	0.801856
391.921509	737.157288	6785.101563	794.816223	0.953364
392.284027	734.333801	6929.843262	796.896667	1.009810
392.646484	734.185242	7031.192871	807.299072	1.161088
393.008911	738.866272	7057.421387	810.939941	1.140667
393.371307	743.101563	7022.796387	809.825378	1.062533
393.733673	739.386414	6967.886719	811.757263	1.161931
394.096008	733.739441	6933.261719	816.289734	1.331559
394.458344	727.497864	6947.082031	833.007813	1.696415
394.820587	728.686768	6966.994629	850.246094	1.948595
395.182831	733.070618	7002.585938	858.493652	2.000522
395.545013	735.968445	6979.997559	866.889832	2.096745
395.907196	733.665039	6956.369629	870.307800	2.195874
396.269287	734.705261	6865.571777	882.939209	2.417830
396.631409	738.494812	6766.229004	878.704041	2.326068
396.993469	745.181946	6663.170410	883.162170	2.331539
397.355530	750.383240	6594.068848	887.620300	2.348468
397.717499	754.246887	6566.354004	905.081482	2.595179
398.079468	753.206726	6550.676270	922.171143	2.914451
398.441376	744.216064	6563.457031	933.985291	3.261065
398.803284	742.061279	6582.403809	940.672424	3.400676
399.165131	743.695984	6620.892578	952.932373	3.560139
399.526978	751.423523	6630.626465	971.953857	3.751024
399.888763	744.810486	6648.013184	994.244690	4.225405
400.250519	740.203796	6659.976074	1012.225891	4.595144
400.612244	741.095398	6690.439941	1016.906982	4.635999
400.973938	740.129395	6696.532715	1032.287598	4.904943
401.335602	741.243958	6710.427246	1040.758057	5.017673
401.697205	733.813660	6731.380371	1060.968506	5.454793
402.058807	736.562805	6789.411621	1071.445190	5.532641
402.420349	736.488586	6863.045410	1091.878540	5.800811
402.781860	734.779602	6960.456543	1111.568726	6.052179
403.143341	735.448303	7083.427246	1132.893677	6.260975
403.504822	739.312012	7209.519043	1150.577637	6.356298
403.866241	741.169617	7342.298340	1175.097534	6.573541
404.227631	742.507080	7445.652832	1204.001343	6.884742
404.588959	739.757874	7596.710449	1226.589233	7.099821
404.950287	743.472961	7703.111816	1240.855591	7.146673
405.311554	743.695862	7789.451660	1256.904907	7.283946
405.672821	748.748535	7819.173340	1280.310181	7.518101
406.034027	740.872375	7827.568848	1302.452271	7.924425
406.395203	737.603088	7790.193848	1303.492676	8.023854
406.756348	734.482422	7732.981934	1308.693848	8.204779
407.117493	740.426575	7686.914063	1309.288208	8.189198
407.478516	739.312073	7686.096191	1332.247803	8.535398
407.839600	737.305969	7681.414551	1341.832886	8.705609
408.200592	734.779602	7698.950684	1361.002930	8.992073
408.561554	736.488586	7680.300781	1367.913086	9.093341
408.922485	734.036621	7709.130371	1391.987305	9.432858
409.283417	739.460693	7716.932129	1400.680664	9.476498
409.644257	741.615479	7771.247559	1423.640015	9.702137
410.005096	742.804382	7851.345703	1436.717407	9.761680
410.365906	745.107605	7951.134277	1460.122681	9.922460
410.726715	745.924988	8075.813965	1469.930664	9.877443
411.087433	746.519470	8144.915527	1484.642578	9.976799
411.448120	745.850769	8207.107422	1504.333008	10.165609
411.808807	742.804382	8205.992188	1512.432007	10.312317
412.169434	738.940613	8191.429199	1510.945801	10.359025
412.530029	731.510315	8162.450684	1504.927368	10.408064
412.890564	737.528809	8168.320801	1519.787720	10.527262
413.251099	742.135559	8162.599609	1528.555664	10.597991
413.611572	741.243958	8187.045410	1548.394531	10.840345
413.972076	734.779602	8210.895508	1547.577148	10.871923
414.332489	726.383362	8253.694336	1570.908081	11.219474
414.692871	728.389465	8376.889648	1568.901978	10.989246
415.053223	729.727051	8476.973633	1589.706665	11.100455
415.413574	739.609314	8672.019531	1600.777832	10.856329
415.773834	736.711487	8780.500977	1634.585571	11.162327
416.134094	736.860046	8896.041992	1660.517212	11.320462
416.494263	733.516418	8988.623047	1680.430298	11.470644
416.854462	739.609314	9211.680664	1701.012207	11.347908
417.214630	738.197571	9463.194336	1730.584595	11.374067
417.574738	742.878601	9721.098633	1764.392456	11.377688
417.934784	733.144958	9935.610352	1804.144531	11.638180
418.294861	731.881836	10204.141602	1839.735352	11.695768
418.654846	724.377258	10542.738281	1871.016602	11.678521
419.014832	730.024231	10909.347656	1904.750122	11.540314
419.374756	740.203796	11321.801758	1943.313477	11.369829
419.734680	747.188171	11739.606445	1999.857788	11.395761
420.094543	749.714417	12160.531250	2045.999878	11.360146
420.454376	739.683594	12534.721680	2081.887939	11.379398
420.814148	741.838379	12902.816406	2117.404541	11.311312
421.173920	744.513367	13312.893555	2162.432129	11.281634
421.533691	752.389404	13732.554688	2213.924072	11.259754
421.893341	745.033386	14036.601563	2236.660400	11.222355
422.253021	744.959167	14235.583008	2251.000977	11.163618
422.612640	738.197571	14278.604492	2258.728271	11.229579
422.972260	749.863098	14267.012695	2260.957275	11.179090
423.331757	745.553528	14205.640625	2262.369385	11.268991
423.691315	751.794922	14206.457031	2271.731445	11.296727
424.050781	743.472961	14324.895508	2301.006592	11.468119
424.410248	748.079773	14437.612305	2302.492920	11.354756
424.769653	740.352295	14579.604492	2299.149170	11.263592
425.128998	743.250183	14627.604492	2290.530029	11.144053
425.488373	742.135559	14577.450195	2289.043945	11.180869
425.847656	745.479248	14418.961914	2287.632324	11.278422
426.206940	741.838379	14250.963867	2274.332031	11.344137
426.566193	742.061340	13982.210938	2252.784424	11.410167
426.925385	737.157288	13730.101563	2216.227295	11.383640
427.284576	738.643372	13347.071289	2180.264648	11.433791
427.643677	731.064453	13067.024414	2169.490967	11.660435
428.002777	733.293640	12783.708008	2152.772949	11.779506
428.361847	726.160461	12500.020508	2127.064209	11.898424
428.720856	726.234802	12225.323242	2084.711670	11.813778
429.079865	730.321472	12042.464844	2059.002686	11.745618
429.438812	738.197510	11917.635742	2053.950195	11.769399
429.797760	746.445129	11831.890625	2065.615479	11.900022
430.156616	746.593750	11670.282227	2058.854004	12.012978
430.515503	742.135559	11611.657227	2049.343506	12.026362
430.874268	732.179016	11582.902344	2037.232056	12.027336
431.233093	726.754944	11613.515625	2046.817017	12.125388
431.591827	732.253235	11633.057617	2056.847900	12.151348
431.950562	734.928162	11654.233398	2067.473145	12.203568
432.309204	740.203674	11713.526367	2070.816895	12.125893
432.667877	735.002502	11802.465820	2079.956055	12.152321
433.026459	739.386414	11929.078125	2093.479248	12.101253
433.385010	738.569092	12045.511719	2109.008545	12.120337
433.743561	742.730042	12187.875000	2126.989746	12.094734
434.102051	742.581360	12341.012695	2149.280518	12.128357
434.460510	746.445129	12475.426758	2169.787842	12.135263
434.818939	747.782532	12569.940430	2179.372803	12.109383
435.177338	747.633972	12607.760742	2176.846680	12.050568
435.535675	739.460693	12566.372070	2173.280273	12.123364
435.894012	737.825989	12502.026367	2175.063477	12.217044
436.252289	732.550598	12510.942383	2177.292725	12.266040
436.610535	736.711487	12547.500000	2188.066406	12.288383
436.968719	738.866272	12677.233398	2200.697754	12.244820
437.326935	744.290344	12776.278320	2226.109375	12.315662
437.685028	751.274841	12863.510742	2238.889648	12.281917
438.043152	750.606140	12939.819336	2259.322754	12.377473
438.401215	750.680359	13101.426758	2272.622803	12.322676
438.759277	739.386414	13290.082031	2291.570068	12.367311
439.117249	733.888000	13598.585938	2327.681396	12.388891
439.475250	734.185242	13826.324219	2351.160889	12.350737
439.833130	739.460693	14160.686523	2389.055420	12.290939
440.191071	743.398743	14380.770508	2407.556641	12.202923
440.548889	745.479187	14677.165039	2445.005127	12.198997
440.906708	742.432800	14980.989258	2473.909180	12.160477
441.264496	739.163391	15222.547852	2490.478516	12.091891
441.622223	733.516418	15361.641602	2497.463135	12.058598
441.979950	742.507080	15395.671875	2493.673584	11.950773
442.337616	743.473083	15401.245117	2500.806885	11.989092
442.695251	743.621643	15311.117188	2487.506592	11.971069
443.052887	735.596985	15150.770508	2479.184570	12.095502
443.410461	741.095398	14990.574219	2463.432373	12.087017
443.768005	751.051941	14860.840820	2468.633545	12.172978
444.125458	755.732971	14802.290039	2466.627686	12.180172
444.482941	754.469788	14827.627930	2465.735840	12.159787
444.840393	752.537903	14940.418945	2459.197266	12.028995
445.197754	752.240723	15152.925781	2489.067139	12.060720
445.555084	754.098328	15372.415039	2528.447510	12.137849
445.912415	748.228333	15694.739258	2582.762695	12.273998
446.269714	742.209778	15931.543945	2606.390869	12.272962
446.626953	738.940491	16232.172852	2636.854980	12.249959
446.984161	737.008728	16502.931641	2661.746338	12.208214
447.341309	741.689758	16707.041016	2690.204102	12.204644
447.698456	738.866211	16860.998047	2700.680908	12.168457
448.055542	743.547302	16929.802734	2704.396240	12.114284
448.412598	740.352295	16941.320313	2703.058838	12.114749
448.769653	737.231628	16859.212891	2694.142334	12.138152
449.126617	735.894226	16616.689453	2678.390137	12.231730
449.483582	740.798096	16429.296875	2648.446289	12.159533
449.840515	749.714539	16132.754883	2621.771484	12.169616
450.197388	744.959045	15956.805664	2598.737793	12.186416
450.554230	742.209900	15803.296875	2590.118408	12.269423
450.911041	743.027161	15656.698242	2584.471436	12.347358
451.267822	745.479187	15513.442383	2587.517822	12.473207
451.624573	742.432800	15307.995117	2579.344727	12.611335
451.981262	735.522644	15257.765625	2565.301270	12.599834
452.337921	735.745605	15135.092773	2548.509033	12.589205
452.694580	737.677429	15088.132813	2541.301514	12.568410
453.051147	738.420471	15072.528320	2544.050781	12.596741
453.407715	746.519470	15016.282227	2530.453613	12.501498
453.764221	750.383240	15044.963867	2535.506104	12.488109
454.120728	747.188171	14840.706055	2519.828125	12.577697
454.477142	737.677429	14827.034180	2523.840576	12.677393
454.833557	730.172852	14671.590820	2511.134766	12.774611
455.189911	733.144958	14559.097656	2495.902588	12.749628
455.546265	735.374023	14404.918945	2486.466553	12.810174
455.902557	744.587585	14306.468750	2474.652344	12.756820
456.258820	746.370850	14305.206055	2480.819336	12.792017
456.615051	743.547363	14329.875000	2481.785156	12.794022
456.971252	746.296570	14315.682617	2485.054688	12.813830
457.327393	754.321228	14451.433594	2519.456787	12.886917
457.683502	754.098328	14642.688477	2547.320313	12.911476
458.039612	747.782532	15001.273438	2595.319580	12.961997
458.395630	731.881775	15363.574219	2637.523438	13.024068
458.751648	733.219238	15740.363281	2695.108154	13.073032
459.107605	722.148132	16300.902344	2756.036377	13.055526
459.463562	733.665039	16863.076172	2825.137939	12.966827
459.819458	735.076843	17419.900391	2883.762695	12.878085
460.175323	748.079834	17910.373047	2938.895264	12.765284
460.531158	748.451355	18392.896484	2981.322266	12.654809
460.886932	750.308899	18704.298828	3004.876221	12.557472
461.242676	748.005554	18850.826172	3013.867188	12.516622
461.598419	740.798157	18737.363281	2981.916748	12.453036
461.954102	740.426575	18405.972656	2954.499023	12.533280
462.309723	732.773438	17883.251953	2907.985596	12.683099
462.665344	736.785828	17298.416016	2856.196533	12.797113
463.020905	735.819885	16856.462891	2798.983643	12.798273
463.376373	738.866211	16488.517578	2754.625000	12.798752
463.731873	742.655701	16198.364258	2736.792236	12.902265
464.087341	742.804260	15902.343750	2713.758057	13.001410
464.442749	740.723816	15723.645508	2707.591064	13.127394
464.798126	733.145020	15612.710938	2690.352783	13.153662
465.153503	723.039734	15672.079102	2707.219482	13.272958
465.508820	725.491699	15746.159180	2718.067627	13.265561
465.864105	729.652649	15899.666992	2747.640381	13.302478
466.219330	740.946777	16158.315430	2785.163086	13.259177
466.574524	746.668030	16318.289063	2813.546875	13.273370
466.929657	745.181946	16498.697266	2835.540283	13.269155
467.284790	747.708313	16673.457031	2871.577148	13.336069
467.639893	740.798096	16854.904297	2909.025635	13.455462
467.994934	745.925049	17052.177734	2950.337891	13.518819
468.349945	746.222229	17109.017578	2955.761963	13.503438
468.704926	755.435730	17123.953125	2934.883057	13.314873
469.059875	754.469788	16919.472656	2916.902100	13.377247
469.414764	754.618408	16711.572266	2878.338867	13.309059
469.769653	746.073669	16525.667969	2867.787842	13.445935
470.124451	742.878601	16436.654297	2850.030029	13.426669
470.479248	737.008728	16291.762695	2838.661377	13.511320
470.834015	737.454529	16200.073242	2831.305420	13.541372
471.188721	736.265686	16254.315430	2833.385498	13.514069
471.543365	739.832214	16366.511719	2844.308350	13.467199
471.898010	744.958984	16484.207031	2864.666992	13.467657
472.252625	743.695862	16599.525391	2866.301758	13.386912
472.607178	740.649475	16781.642578	2905.459229	13.495485
472.961700	740.129395	16967.546875	2940.827393	13.561603
473.316193	742.729980	17201.525391	2996.703125	13.694643
473.670654	741.243958	17364.025391	3025.606689	13.742362
474.025055	741.689758	17601.869141	3039.427002	13.628190
474.379456	734.110901	17758.720703	3069.148193	13.715659
474.733795	737.528809	17916.689453	3081.556641	13.644601
475.088104	734.408020	17997.009766	3100.355225	13.705624
475.442383	740.129395	17994.410156	3100.726807	13.681227
475.796570	739.386414	18069.457031	3107.339844	13.663841
476.150787	732.253357	18231.064453	3121.308838	13.652673
476.504944	736.860046	18463.111328	3141.518799	13.565522
476.859070	732.624817	18730.824219	3168.119141	13.531878
477.213135	735.522644	18979.439453	3208.911377	13.557334
477.567200	735.225403	19377.925781	3248.589111	13.481757
477.921173	737.231628	19731.236328	3293.022217	13.455775
478.275146	737.974670	20168.804688	3349.938232	13.442368
478.629089	734.110840	20408.357422	3383.820068	13.467907
478.983002	731.435974	20747.623047	3446.531494	13.564499
479.336823	733.367859	21052.636719	3483.385742	13.534039
479.690643	729.875671	21458.181641	3537.329346	13.544057
480.044403	740.426575	21909.939453	3589.118408	13.456577
480.398163	743.027161	22481.251953	3668.251221	13.456592
480.751862	749.565857	23274.806641	3787.655518	13.487491
481.105499	741.912659	24180.111328	3921.548828	13.566043
481.459137	744.959045	25395.851563	4089.918701	13.569324
481.812744	749.417236	26820.310547	4298.412598	13.612864
482.166290	747.411133	28685.900391	4558.248535	13.640099
482.519806	752.612244	30924.195313	4868.537598	13.641727
482.873291	747.411133	33616.035156	5216.125488	13.595684
483.226715	751.200500	36722.406250	5603.019531	13.488063
483.580139	750.754700	39923.441406	6002.322266	13.406197
483.933502	752.760925	43227.312500	6392.931152	13.278941
484.286804	753.875427	46222.824219	6745.349121	13.177067
484.640106	742.655762	48794.890625	6992.851563	13.007087
484.993347	744.290344	50480.894531	7130.534668	12.840129
485.346558	742.581482	51138.402344	7114.708496	12.644157
485.699738	749.640137	50650.531250	7000.876953	12.527305
486.052887	746.890930	49382.406250	6779.900879	12.404535
486.405975	743.770264	47642.531250	6563.902832	12.409992
486.759064	738.643311	45787.792969	6355.334473	12.467919
487.112061	739.014832	44143.250000	6232.214844	12.655909
487.464996	740.278015	43063.554688	6156.054688	12.796213
487.817963	741.392517	42825.488281	6143.125488	12.835567
488.170868	739.237793	42852.093750	6143.645996	12.833156
488.523743	740.278015	43090.972656	6137.924316	12.745119
488.876587	739.906494	43047.804688	6106.568848	12.684776
489.229401	751.200500	42877.351563	6033.157715	12.538427
489.582153	759.373840	42151.562500	5951.425293	12.543553
489.934845	769.033203	41183.917969	5841.160156	12.550146
490.287537	761.082764	40084.535156	5751.327637	12.690251
490.640198	753.801086	39258.359375	5693.966309	12.830078
490.992798	743.175781	38567.050781	5689.433594	13.077079
491.345337	740.054993	38347.636719	5713.433594	13.224403
491.697876	741.392517	38374.753906	5718.634277	13.225610
492.050354	752.538025	38806.082031	5734.980957	13.093243
492.402832	751.497742	39110.500000	5735.129395	12.992079
492.755219	754.172668	39170.910156	5704.442871	12.885712
493.107605	743.918884	38723.605469	5615.130859	12.825834
493.459930	743.101563	37759.972656	5471.503906	12.773642
493.812225	734.853943	36300.148438	5288.942383	12.804867
494.164490	732.624817	34562.800781	5087.210449	12.871897
494.516724	729.355530	32733.474609	4885.106934	12.985052
494.868896	730.841614	30991.369141	4708.860840	13.145902
495.221039	729.504150	29509.326172	4575.041504	13.361922
495.573120	732.104675	28338.093750	4489.147461	13.609521
495.925201	741.763977	27691.658203	4430.894043	13.688848
496.277222	750.680359	27313.162109	4390.547852	13.703039
496.629211	751.274719	27220.654297	4364.393066	13.650182
496.981140	741.020996	27203.193359	4356.071777	13.661202
497.333069	736.934387	27302.312500	4381.705566	13.720005
497.684967	736.117004	27419.859375	4409.123535	13.764960
498.036804	734.408142	27471.427734	4431.562988	13.827849
498.388580	732.030457	27467.193359	4403.104980	13.731259
498.740326	732.179016	27381.966797	4361.644043	13.619115
499.092072	735.299805	27170.126953	4320.480469	13.562338
499.443756	738.494690	26879.828125	4291.353516	13.590962
499.795410	735.002502	26584.326172	4269.285645	13.672633
500.147003	741.095398	26270.546875	4231.539551	13.672225
500.498566	743.250061	25920.357422	4198.103516	13.722202
500.850098	743.324463	25533.015625	4161.844238	13.790086
501.201599	738.866272	25271.025391	4150.847168	13.908197
501.553009	737.974670	25034.521484	4123.058105	13.932364
501.904449	748.451355	24858.349609	4117.039551	13.971806
502.255859	751.274841	24631.203125	4087.541260	13.971007
502.607178	756.104492	24495.750000	4082.934326	14.013815
502.958405	758.110657	24402.500000	4069.485596	14.004909
503.309692	761.082764	24365.498047	4061.089600	13.980464
503.660919	750.754700	24377.458984	4081.671143	14.098100
504.012115	755.658630	24415.501953	4088.507080	14.086519
504.363251	748.971497	24505.484375	4103.145020	14.118964
504.714294	756.550354	24580.156250	4099.578613	14.032420
505.065369	745.330566	24602.892578	4104.556641	14.080340
505.416443	751.794922	24611.289063	4115.627441	14.098507
505.767395	745.702087	24628.156250	4110.724121	14.089933
506.118317	748.971375	24640.937500	4099.652832	14.024302
506.469238	748.154114	24633.728516	4108.940430	14.070360
506.820160	753.206726	24595.687500	4120.011230	14.121033
507.170929	748.971436	24569.607422	4147.800781	14.268424
507.521729	746.668030	24633.359375	4161.844238	14.297401
507.872498	744.290344	24757.666016	4176.853027	14.294378
508.223236	747.633972	24976.562500	4207.316895	14.279141
508.573883	745.999329	25163.431641	4227.007324	14.256242
508.924500	746.816650	25350.380859	4257.620605	14.269493
509.275116	742.730042	25483.751953	4279.762207	14.296226
509.625702	743.473083	25691.501953	4319.143066	14.332475
509.976196	742.581360	25916.865234	4361.495605	14.375442
510.326660	750.457520	26171.648438	4388.541504	14.311225
510.677124	750.011658	26404.291016	4405.408203	14.248681
511.027557	751.349121	26593.611328	4421.531738	14.202250
511.377869	744.959167	26834.873047	4446.869141	14.189046
511.728180	742.952881	26944.916016	4457.123047	14.175160
512.078430	742.432800	27015.353516	4469.085938	14.184389
512.428650	741.021057	27075.466797	4460.020996	14.122189
512.778931	746.593750	27229.939453	4480.603027	14.099463
513.129028	751.646301	27367.773438	4485.581543	14.028846
513.479126	750.234558	27436.281250	4495.389160	14.034130
513.829285	752.017883	27365.693359	4498.435059	14.077038
514.179382	750.903320	27327.796875	4478.967285	14.027463
514.529297	755.435791	27212.927734	4479.339355	14.075044
514.879272	755.807312	27233.507813	4465.593262	14.010982
515.229187	752.760925	27111.205078	4481.568359	14.146539
515.579163	751.943542	27142.412109	4485.432617	14.147111
515.928955	745.999329	27128.890625	4507.128906	14.255942
516.278748	747.336731	27310.486328	4533.134766	14.252068
516.628540	753.652527	27538.521484	4571.400879	14.253377
516.978333	747.559753	27943.916016	4622.297852	14.247270
517.327942	737.528809	28426.734375	4682.780762	14.248340
517.677612	729.355530	28956.216797	4768.822754	14.310720
518.027222	736.934387	29498.703125	4846.320801	14.287668
518.376831	741.689758	30155.314453	4916.462891	14.193331
518.726379	740.946777	30792.087891	4969.514160	14.071238
519.075867	740.055115	31322.015625	5016.845215	13.984682
519.425293	739.460693	31706.828125	5055.631348	13.937804
519.774658	736.340027	31915.173828	5089.662109	13.962428
520.124084	732.847717	31988.140625	5098.281738	13.967024
520.473389	731.807556	31842.580078	5078.219727	13.970762
520.822693	732.699036	31606.966797	5023.532715	13.897766
521.171997	728.909668	31205.507813	4968.028809	13.909424
521.521240	729.206970	30837.634766	4930.877441	13.955131
521.870361	729.875671	30460.103516	4900.784668	14.029186
522.219482	736.117126	30195.365234	4867.496582	14.024049
522.568604	739.014893	29914.203125	4833.020020	14.032490
522.917664	741.169678	29728.814453	4818.085449	14.064322
523.266724	736.785828	29683.787109	4841.565430	14.180327
523.615662	735.522644	29904.990234	4901.750488	14.282839
523.964600	733.590759	30266.843750	4977.316406	14.369312
524.313538	738.123230	30751.521484	5031.482910	14.304811
524.662354	742.061279	31337.023438	5101.253418	14.248072
525.011169	750.903320	32096.099609	5209.512695	14.224219
525.359985	749.565857	33036.402344	5352.099121	14.255138
525.708740	748.525635	34138.757813	5503.082031	14.239365
526.057434	744.290344	35312.222656	5649.904297	14.191227
526.406067	745.776428	36668.542969	5830.162598	14.153661
526.754700	747.262451	38133.343750	6038.359375	14.152584
527.103333	749.863098	39856.425781	6274.791016	14.127879
527.451782	748.897156	41732.199219	6551.642578	14.158805
527.800293	746.445129	43754.199219	6857.770020	14.209821
528.148743	738.494812	45878.511719	7183.958496	14.278825
528.497131	737.008728	48008.769531	7484.587891	14.274016
528.845642	734.482422	49876.667969	7732.685059	14.240723
529.193909	733.442139	51426.328125	7919.630371	14.175931
529.542175	731.138733	52492.125000	8027.220215	14.095716
529.890503	735.002502	53056.824219	8030.712402	13.943914
530.238770	737.751709	53022.125000	7944.446777	13.783650
530.586914	742.878601	52352.582031	7757.798340	13.592250
530.934998	742.655701	51098.203125	7528.797363	13.476453
531.283142	745.850769	49424.753906	7265.468750	13.393108
531.631226	750.903320	47472.230469	7012.467285	13.401939
531.979248	752.315125	45533.222656	6790.302734	13.483397
532.327148	748.897156	43753.156250	6595.704590	13.595881
532.675110	746.147888	42465.566406	6469.314941	13.718233
533.023071	743.993164	41707.675781	6401.922363	13.812061
533.370850	749.194336	41515.976563	6406.677734	13.877680
533.718689	749.045715	41697.050781	6436.175781	13.888662
534.066467	748.599854	42005.558594	6469.240723	13.865881
534.414246	738.123230	42160.402344	6468.200684	13.833323
534.761963	734.631042	42095.386719	6439.371094	13.792641
535.109619	730.544250	41884.519531	6374.653809	13.714615
535.457153	736.711487	41444.199219	6301.762207	13.670828
535.804749	740.798096	40746.574219	6226.716797	13.712817
536.152344	745.999329	39872.621094	6143.794922	13.795711
536.499817	752.240723	38945.324219	6041.479980	13.848684
536.847229	749.045715	38052.949219	5926.756348	13.879809
537.194641	751.126221	37227.964844	5827.117188	13.915655
537.542114	743.175781	36635.699219	5755.265625	13.964161
537.889404	744.364563	36145.597656	5706.002441	14.015437
538.236694	745.107666	35775.718750	5640.096191	13.973460
538.583984	743.175781	35403.910156	5591.650879	13.988379
538.931213	738.420410	35171.488281	5564.530762	14.015918
539.278381	728.909668	35029.644531	5583.181152	14.152092
539.625488	736.117004	34997.847656	5625.607422	14.270996
539.972595	733.144958	35217.332031	5678.288574	14.340322
540.319641	736.117126	35712.191406	5784.615234	14.434147
540.666687	725.863281	36517.855469	5896.738281	14.447017
541.013611	723.708496	37643.468750	6057.826172	14.447865
541.360596	727.943787	38894.800781	6218.469238	14.385585
541.707458	737.231628	40264.792969	6374.355957	14.261250
542.054260	748.154114	41480.906250	6517.537598	14.163990
542.401062	750.308899	42504.949219	6611.158691	14.036403
542.747864	746.445129	43183.105469	6655.369141	13.924102
543.094666	741.912659	43355.714844	6616.583496	13.785841
543.441284	739.906494	43020.382813	6526.602051	13.686448
543.787903	741.466858	42166.347656	6391.371582	13.638917
544.134460	740.649597	41021.714844	6229.837402	13.627216
544.481079	733.887939	39622.746094	6035.684082	13.633200
544.827637	737.528809	38111.500000	5866.348145	13.722971
545.174072	743.993164	36509.683594	5701.024902	13.859739
545.520508	747.485352	35197.941406	5568.542969	13.994176
545.866943	742.581360	34112.156250	5455.231445	14.122595
546.213318	736.265686	33302.996094	5357.449219	14.189891
546.559631	742.432800	32594.373047	5291.691406	14.282517
546.905823	740.649597	32044.310547	5213.301270	14.287951
547.252136	739.534973	31647.533203	5157.500488	14.293922
547.598389	734.556702	31243.103516	5087.730469	14.268703
547.944458	734.928223	30881.029297	5044.560059	14.295818
548.290588	741.615479	30374.880859	4985.860840	14.322570
548.636658	742.135559	29871.921875	4917.725586	14.334434
548.982727	743.473083	29264.945313	4813.998535	14.271792
549.328735	743.027161	28624.529297	4741.479980	14.340880
549.674622	743.027161	27912.187500	4663.015625	14.428082
550.020569	742.209900	27229.271484	4603.870605	14.579422
550.366455	735.374023	26553.859375	4494.869141	14.561255
550.712280	735.448303	25952.529297	4420.565918	14.613578
551.058044	735.968445	25412.271484	4368.925781	14.722454
551.403748	741.541199	24990.828125	4340.839355	14.842903
551.749512	741.243958	24679.945313	4316.319824	14.934294
552.095154	739.312073	24484.677734	4284.814941	14.931347
552.440735	741.838379	24401.978516	4287.712891	14.986701
552.786316	743.621643	24386.226563	4294.325684	15.018244
553.131897	745.404968	24440.171875	4316.913574	15.072984
553.477417	740.352295	24520.865234	4320.851563	15.056442
553.822815	735.448303	24538.177734	4306.882813	15.004308
554.168213	736.340027	24492.330078	4292.097168	14.967834
554.513672	735.819824	24382.437500	4272.629395	14.956937
554.859009	736.339905	24221.943359	4252.419434	14.971212
555.204285	737.008728	24037.896484	4223.589355	14.963294
555.549500	733.070618	23823.976563	4196.988770	15.001223
555.894714	730.024231	23643.796875	4167.713379	15.002720
556.239990	728.166687	23375.041016	4138.587402	15.059122
556.585022	737.380127	23112.009766	4113.250488	15.087939
556.930115	743.027161	22851.578125	4106.116699	15.211715
557.275146	746.073669	22631.865234	4071.788818	15.195773
557.620178	748.005554	22488.240234	4047.046143	15.174816
557.965149	746.593750	22302.037109	4013.684326	15.156685
558.310059	750.977539	22168.365234	3994.737061	15.145450
558.654968	747.856873	22001.406250	3968.433838	15.153126
558.999756	750.383118	21886.833984	3958.106201	15.176262
559.344604	748.971375	21783.179688	3957.288818	15.252855
559.689331	749.714417	21713.853516	3959.443359	15.310570
560.033997	747.485413	21652.628906	3948.297852	15.311125
560.378723	743.770264	21649.880859	3952.161377	15.346666
560.723389	738.569092	21659.986328	3960.929443	15.402208
561.067932	736.934387	21702.488281	3972.297852	15.431805
561.412476	730.395752	21668.158203	3966.873779	15.457612
561.757019	730.172852	21655.007813	3958.625977	15.428810
562.101501	733.516418	21692.679688	3950.527100	15.348946
562.445862	740.649475	21724.332031	3955.654053	15.321451
562.790222	740.872375	21686.808594	3943.096924	15.288048
563.134644	730.098572	21623.875000	3935.072266	15.339369
563.478943	730.544434	21633.164063	3920.360107	15.260364
563.823181	726.011902	21657.236328	3932.025635	15.316895
564.167358	737.751770	21685.470703	3944.508545	15.308382
564.511536	736.562805	21707.986328	3948.223633	15.314463
564.855774	745.330566	21744.617188	3954.688232	15.283175
565.199768	742.284180	21838.906250	3973.486572	15.316208
565.543823	741.541199	21986.697266	3999.864258	15.336781
565.887817	739.312073	22171.859375	4023.046875	15.321254
566.231812	743.398743	22351.896484	4048.086670	15.293465
566.575745	738.123230	22522.789063	4077.362061	15.328391
566.919617	734.631042	22722.142578	4102.996094	15.319446
567.263428	734.036621	22852.990234	4114.587402	15.283503
567.607239	736.488525	22937.994141	4110.872070	15.198895
567.950989	746.965149	22972.916016	4098.240723	15.078210
568.294678	745.330566	23011.109375	4080.853760	14.980492
568.638367	750.754700	22934.056641	4078.625000	15.001690
568.981995	749.937317	22796.968750	4075.281250	15.082956
569.325623	748.897156	22643.382813	4058.934570	15.118132
569.669128	750.903320	22492.474609	4040.433350	15.130140
570.012573	739.460693	22350.478516	4024.532471	15.200912
570.356140	737.380188	22259.757813	4027.727783	15.288031
570.699524	737.528809	22229.291016	4031.145752	15.325021
571.042908	741.169678	22324.250000	4044.074463	15.303213
571.386230	752.760925	22430.875000	4058.563477	15.249494
571.729492	749.120056	22553.548828	4072.309326	15.240891
572.072815	750.308899	22675.257813	4091.776611	15.240481
572.416016	740.872375	22811.900391	4106.117188	15.247341
572.759094	738.048889	23022.546875	4132.271973	15.231319
573.102234	741.466858	23119.216797	4140.742188	15.190425
573.445374	745.776428	23157.853516	4139.553223	15.142626
573.788391	749.342957	23119.812500	4133.757324	15.128938
574.131409	741.021057	23115.130859	4123.875488	15.119505
574.474365	730.767273	23092.171875	4127.590332	15.190562
574.817261	730.470032	22990.599609	4118.451172	15.219954
575.160156	742.135498	22836.791016	4099.132813	15.193707
575.502930	749.268555	22608.830078	4061.758545	15.153505
575.845703	744.141785	22404.500000	4020.371826	15.125466
576.188477	741.838379	22172.453125	3988.049805	15.147542
576.531250	741.838318	21951.326172	3947.480469	15.114189
576.873901	743.547302	21735.255859	3917.908203	15.121974
577.216431	739.460693	21513.384766	3885.586670	15.144592
577.559082	735.299805	21267.443359	3869.611572	15.265389
577.901611	736.637207	20984.576172	3831.197021	15.283332
578.244080	736.042786	20692.265625	3778.218750	15.244247
578.586487	742.284180	20399.068359	3736.089111	15.230390
578.928955	788.426208	20107.505859	3711.718018	15.131630
579.271301	789.986572	19810.220703	3691.433594	15.254528
579.613647	782.481934	19466.941406	3651.309814	15.354086
579.955872	735.374023	19157.841797	3603.681885	15.569617
580.298157	733.590759	18899.865234	3568.090820	15.603088
580.640320	736.340027	18712.693359	3538.146729	15.586068
580.982483	740.872498	18529.390625	3515.633057	15.598604
581.324524	747.262451	18324.462891	3493.788330	15.625502
581.666626	756.698914	18185.664063	3473.057861	15.585314
582.008728	751.794922	18058.978516	3461.094971	15.654194
582.350647	749.194336	17954.583984	3449.578125	15.694986
582.692566	745.776367	17810.660156	3444.971436	15.817249
583.034424	750.457458	17689.992188	3436.129639	15.854462
583.376343	747.336731	17568.431641	3433.380127	15.968303
583.718201	742.432800	17478.080078	3427.212891	16.042284
584.059937	742.655579	17423.617188	3421.640625	16.060137
584.401611	746.816589	17347.531250	3411.163818	16.049593
584.743347	736.488586	17333.412109	3403.882080	16.071613
585.085022	735.745605	17242.689453	3396.228760	16.117357
585.426514	732.773438	17186.888672	3374.680908	16.056211
585.768127	746.965332	17094.677734	3368.216797	16.034363
586.109619	742.061279	17066.369141	3344.216797	15.940373
586.451172	739.386414	17054.628906	3350.309814	16.002970
586.792542	731.733215	17032.041016	3334.854736	15.969769
587.133850	733.888000	16998.232422	3340.576172	16.027010
587.475220	736.860107	16978.990234	3331.510986	15.974819
587.816589	739.832214	16936.562500	3334.854492	16.021889
588.157776	738.197510	16952.984375	3332.105469	15.997175
588.498962	741.466797	17013.689453	3332.253906	15.921532
588.840210	746.519348	17076.029297	3333.591553	15.842927
589.181335	756.253113	17170.914063	3345.405518	15.773415
589.522400	752.315002	17177.673828	3364.575439	15.903826
589.863403	747.633972	17257.847656	3370.891357	15.888695
590.204407	743.101563	17219.283203	3370.148438	15.944512
590.545410	740.649475	17276.943359	3370.000000	15.900484
590.886353	745.924988	17271.814453	3370.297119	15.880369
591.227112	741.243896	17279.173828	3358.705811	15.827023
591.567932	740.278015	17213.193359	3349.120850	15.837164
591.908752	734.556641	17128.783203	3343.250732	15.912273
592.249512	741.169617	17069.044922	3346.594482	15.956913
592.590149	741.838379	16995.931641	3329.950439	15.922832
592.930786	744.216003	16923.412109	3321.182861	15.927656
593.271423	741.838379	16848.291016	3318.285156	15.996364
593.612000	748.154114	16766.111328	3300.229736	15.932591
593.952576	748.822754	16751.921875	3291.164795	15.886560
594.292969	744.884766	16771.833984	3283.585938	15.840202
594.633484	741.466797	16835.806641	3305.059570	15.928536
594.973877	735.968445	16921.107422	3320.217529	15.966802
595.314209	736.785706	17011.162109	3337.083984	15.977868
595.654480	737.528809	17142.009766	3353.430420	15.946263
595.994812	739.832214	17301.091797	3368.216797	15.870680
596.335022	744.438965	17506.017578	3398.457764	15.833943
596.675171	747.856934	17731.601563	3435.535156	15.825005
597.015320	748.674133	17914.013672	3463.918701	15.818182
597.355408	743.027161	18009.791016	3470.382813	15.795407
597.695496	732.476257	18077.406250	3464.364258	15.750355
598.035461	725.714661	18090.259766	3454.853516	15.716732
598.375366	729.578430	18090.853516	3444.748779	15.639234
598.715271	731.510254	18001.988281	3412.352783	15.522688
599.055176	736.637207	17797.134766	3370.668945	15.439361
599.395081	735.819824	17555.279297	3329.876221	15.422948
599.734802	735.596863	17262.750000	3301.121094	15.523087
600.074524	742.284180	16989.242188	3268.353760	15.547955
600.414246	745.330566	16674.050781	3226.447021	15.576370
600.753906	750.606140	16334.859375	3201.035400	15.723751
601.093506	747.931213	16025.387695	3185.951904	15.958290
601.433044	740.203796	15773.797852	3169.902588	16.161797
601.772583	748.674255	15658.257813	3153.555908	16.129770
602.112122	744.067444	15662.715820	3148.280518	16.115488
602.451538	752.760803	15716.661133	3165.295898	16.122368
602.790894	741.615417	15811.543945	3185.654541	16.217987
603.130310	746.370850	15937.264648	3205.567627	16.188625
603.469604	745.627747	16140.706055	3223.474854	16.095060
603.808838	749.194336	16390.509766	3256.688232	16.031221
604.148010	752.760925	16675.166016	3288.266846	15.924138
604.487305	747.633972	16923.857422	3315.387451	15.873627
604.826416	745.404968	17140.300781	3327.126953	15.747108
605.165527	742.878601	17310.677734	3351.795898	15.746915
605.504456	741.987000	17456.310547	3363.535889	15.684444
605.843445	745.479187	17551.789063	3361.083740	15.563229
606.182434	738.271790	17567.244141	3349.195313	15.514456
606.521423	741.095398	17470.353516	3320.365967	15.417723
606.860229	740.278015	17286.009766	3291.684814	15.420331
607.199036	743.547363	17057.900391	3264.044189	15.449566
607.537903	739.163391	16839.373047	3238.038330	15.520761
607.876648	736.711426	16582.507813	3216.862061	15.651789
608.215271	731.361633	16297.410156	3177.258545	15.713024
608.553955	730.618652	16033.040039	3162.546631	15.892439
608.892578	731.361633	15797.055664	3149.320557	16.049437
609.231140	735.299744	15679.286133	3159.128662	16.219427
609.569641	732.476257	15600.823242	3155.710693	16.297941
609.908081	726.754883	15640.054688	3148.503662	16.238853
610.246521	730.321472	15665.762695	3134.385986	16.096375
610.584961	737.231628	15698.456055	3136.763672	16.038340
610.923340	743.993164	15667.249023	3129.779297	15.987035
611.261597	741.318176	15597.105469	3114.101563	15.972116
611.599854	744.884766	15491.372070	3080.590820	15.839067
611.938110	739.089111	15379.325195	3065.061279	15.887531
612.276245	735.299622	15184.726563	3036.529297	15.926097
612.614319	735.225403	14934.104492	3010.894775	16.027107
612.952393	742.729980	14617.278320	2959.180420	15.974937
613.290466	751.943542	14358.926758	2931.316650	16.016577
613.628479	751.274841	14092.476563	2900.183838	16.107311
613.966370	747.485352	13862.956055	2869.274170	16.177755
614.304260	743.472961	13630.165039	2828.555908	16.180126
614.642151	743.175781	13430.440430	2805.150635	16.252319
614.979980	744.587585	13280.719727	2801.806885	16.410318
615.317749	745.107666	13131.965820	2797.794678	16.571489
615.655396	744.810486	13051.495117	2792.444580	16.638390
615.993164	746.370850	12962.034180	2778.847412	16.638283
616.330811	747.485352	12934.320313	2775.578125	16.641670
616.668396	742.952881	12903.039063	2768.890869	16.660557
617.005859	744.141785	12898.506836	2774.240479	16.702629
617.343445	751.794922	12904.004883	2772.457275	16.627941
617.680908	752.760925	12886.247070	2775.726563	16.672583
618.018311	750.977539	12901.256836	2782.859619	16.722925
618.355652	740.872375	12891.745117	2790.290039	16.866425
618.692993	740.055115	12914.778320	2778.921875	16.746719
619.030273	734.185120	12891.596680	2784.122803	16.861631
619.367554	733.442200	12885.950195	2781.745117	16.854982
619.704712	732.104797	12872.500000	2799.057617	17.025415
620.041870	736.265686	12869.750977	2791.627686	16.939585
620.379028	736.562805	12823.906250	2780.333740	16.908356
620.716064	735.745544	12772.563477	2759.157227	16.810186
621.053040	738.569092	12715.350586	2748.829102	16.784643
621.389954	739.237793	12636.960938	2738.872314	16.806868
621.726929	741.912659	12565.184570	2723.640381	16.761248
622.063843	743.993164	12514.882813	2709.300049	16.696333
622.400635	743.250183	12489.323242	2696.594482	16.629765
622.737427	743.993164	12460.046875	2693.993896	16.643835
623.074219	735.522644	12390.499023	2679.579102	16.680054
623.410889	734.928223	12343.093750	2671.777344	16.685230
623.747559	741.020996	12345.768555	2669.845459	16.620995
624.084167	743.993164	12338.190430	2667.393311	16.589334
624.420715	739.980774	12330.684570	2670.959717	16.659721
624.757324	735.076843	12308.245117	2670.291260	16.721561
625.093750	736.339905	12340.343750	2679.356201	16.744362
625.430176	743.472961	12407.440430	2692.284668	16.707966
625.766602	750.903320	12441.620117	2708.631104	16.746002
626.102905	748.599915	12556.268555	2719.702393	16.693409
626.439209	746.816711	12666.608398	2737.980713	16.704687
626.775452	741.243958	12801.243164	2753.881592	16.688540
627.111694	749.194336	12840.401367	2762.649414	16.652225
627.447876	752.835144	12883.200195	2757.671143	16.527416
627.783997	746.445129	12964.190430	2750.240967	16.400702
628.120056	741.169617	13029.799805	2751.875732	16.362329
628.456055	740.055115	13034.332031	2745.262695	16.310089
628.792053	749.714417	12978.010742	2727.801514	16.176311
629.128052	744.959045	12918.940430	2714.575684	16.178904
629.463928	744.661865	12855.782227	2707.888428	16.210115
629.799744	735.002502	12766.916992	2699.195068	16.324856
630.135559	739.757813	12631.981445	2697.485840	16.462254
630.471375	736.191345	12485.605469	2678.984619	16.535234
630.807068	743.398682	12319.835938	2670.291260	16.644953
631.142700	741.095398	12180.221680	2644.582520	16.640144
631.478333	744.736145	12047.813477	2625.783936	16.641909
631.813965	741.764099	11927.071289	2610.254639	16.704865
632.149475	739.980896	11817.327148	2582.019531	16.628880
632.484924	733.293640	11721.253906	2571.840088	16.732372
632.820435	732.104675	11645.317383	2557.722656	16.728510
633.155884	736.042786	11574.358398	2560.694580	16.835197
633.491150	740.946777	11549.838867	2549.400635	16.731167
633.826477	743.398743	11496.860352	2533.945557	16.650888
634.161804	741.318298	11462.532227	2521.760010	16.606716
634.497009	740.203796	11376.414063	2529.784668	16.825361
634.832153	743.250061	11331.909180	2522.800049	16.806189
635.167297	743.770264	11240.664063	2516.484619	16.887991
635.502380	739.757874	11198.014648	2484.831543	16.686087
635.837463	737.083008	11129.582031	2472.943115	16.703009
636.172424	732.699158	11054.461914	2448.126221	16.619516
636.507324	736.117004	10947.093750	2439.507080	16.681952
636.842224	736.562927	10846.190430	2418.107666	16.633102
637.177124	747.633972	10736.446289	2409.711670	16.639391
637.511963	746.965271	10641.338867	2391.507568	16.620983
637.846741	746.593750	10508.262695	2376.498291	16.696987
638.181396	739.163513	10414.417969	2357.031006	16.721703
638.516113	742.581360	10315.297852	2349.303467	16.784391
638.850769	740.500977	10255.558594	2339.792725	16.808008
639.185303	748.525574	10191.211914	2328.647461	16.733816
639.519836	747.782532	10105.467773	2312.003662	16.715899
639.854370	748.748535	10000.774414	2305.464844	16.825682
640.188843	747.113831	9914.583008	2292.610352	16.858488
640.523254	749.342957	9846.745117	2281.390625	16.840496
640.857605	752.017822	9764.269531	2272.771729	16.874294
641.191895	748.971375	9671.984375	2261.254639	16.948124
641.526184	749.342957	9583.862305	2250.554932	16.992571
641.860413	744.290344	9529.249023	2244.685303	17.079136
642.194580	746.147949	9511.416992	2243.273438	17.080198
642.528748	741.838379	9452.940430	2237.477783	17.169348
642.862793	744.141785	9394.538086	2226.852539	17.140379
643.196838	742.878601	9304.632813	2217.564697	17.224112
643.530823	741.243958	9248.086914	2209.985596	17.265415
643.864746	745.033386	9204.992188	2205.304688	17.260973
644.198669	742.432800	9178.987305	2204.635986	17.331757
644.532532	744.364563	9147.258789	2195.868164	17.273853
644.866333	747.782532	9112.411133	2183.311035	17.161892
645.200073	741.615479	9095.396484	2166.518799	17.056986
645.533813	739.832214	9079.717773	2166.147217	17.102331
645.867554	731.213074	9089.823242	2174.617920	17.268478
646.201172	736.414246	9075.408203	2191.335693	17.447205
646.534729	737.528809	9095.098633	2201.366699	17.515114
646.868225	738.866272	9098.293945	2200.326416	17.482779
647.201782	742.209900	9100.300781	2194.679688	17.378008
647.535217	745.553528	9072.957031	2194.382080	17.398325
647.868591	745.999329	9062.406250	2202.258301	17.510675
648.201965	744.290344	9061.440430	2211.100342	17.635969
648.535278	741.392578	9076.597656	2211.174561	17.633423
648.868591	748.005554	9071.991211	2209.985840	17.563465
649.201782	750.085938	9047.321289	2194.307861	17.406061
649.534912	749.640137	8997.613281	2185.763184	17.411831
649.868103	747.485352	8956.821289	2166.221436	17.281984
650.201172	742.507080	8906.816406	2158.197021	17.339983
650.534180	748.079773	8906.221680	2158.197021	17.284784
650.867188	742.432800	8887.422852	2151.212158	17.296267
651.200134	745.033386	8889.206055	2155.596191	17.319902
651.533020	738.346008	8831.323242	2149.280518	17.434061
651.865845	735.745422	8775.670898	2152.178467	17.617491
652.198608	735.745544	8704.118164	2139.175049	17.612497
652.531433	739.609314	8675.363281	2125.057861	17.458309
652.864136	735.225403	8641.256836	2109.751465	17.385792
653.196777	854.258484	8764.749023	2303.161377	18.316219
653.529358	862.431702	8725.590820	2307.842529	18.382063
653.861938	865.849609	8659.759766	2293.353271	18.315628
654.194519	745.999329	8460.702148	2086.345947	17.373926
654.526978	740.129395	8426.745117	2069.405029	17.293379
654.859375	740.055115	8385.358398	2067.027344	17.356697
655.191833	741.763977	8369.161133	2056.922119	17.242556
655.524170	734.036621	8316.034180	2048.749023	17.339922
655.856445	738.940613	8290.177734	2044.067871	17.283621
656.188660	745.702087	8246.041992	2050.532227	17.396946
656.520874	750.234558	8203.466797	2039.164063	17.293564
656.853088	752.983704	8205.324219	2040.278442	17.273697
657.185181	740.129395	8185.261719	2038.495239	17.439123
657.517212	733.665039	8182.513184	2044.365234	17.596012
657.849243	732.327637	8190.462891	2049.343506	17.658783
658.181274	739.237793	8256.220703	2043.176147	17.346565
658.513123	738.048828	8340.480469	2061.157471	17.403755
658.844971	742.655579	8423.031250	2079.361572	17.404177
659.176819	740.500916	8499.042969	2096.896973	17.482615
659.508667	751.126160	8571.710938	2103.732666	17.295464
659.840393	746.296570	8636.206055	2104.550049	17.215069
660.172058	745.181946	8668.007813	2117.404541	17.319864
660.503662	747.039551	8690.223633	2119.113525	17.273602
660.835266	740.203674	8709.245117	2125.726563	17.386318
661.166931	743.324402	8703.968750	2114.060791	17.218912
661.498413	742.729980	8678.557617	2117.627197	17.325190
661.829773	742.284180	8590.805664	2096.748291	17.257570
662.161194	744.736145	8475.786133	2077.949707	17.244923
662.492615	746.445129	8357.049805	2047.559937	17.096077
662.823975	754.692688	8210.153320	2024.823242	17.036247
663.155212	753.355286	8078.488281	2001.269409	17.036060
663.486450	750.680359	7920.224121	1972.439941	17.040966
663.817627	746.370789	7804.237793	1958.248047	17.170588
664.148743	753.726868	7681.341309	1942.050171	17.153427
664.479858	747.931213	7597.230469	1934.768433	17.327862
664.810913	748.376953	7513.937500	1921.988403	17.346848
665.141907	739.089172	7440.451660	1919.313599	17.611708
665.472778	737.528809	7351.808594	1910.843140	17.739109
665.803711	738.940613	7296.006348	1905.790527	17.795305
666.134583	736.637146	7275.350098	1891.375610	17.660028
666.465454	738.866211	7261.976563	1887.586304	17.610006
666.796143	741.912659	7221.035156	1881.642090	17.590799
667.126831	749.194336	7175.859375	1889.741089	17.747101
667.457458	741.392578	7138.335938	1888.180664	17.927126
667.788147	739.757813	7131.871582	1890.409790	18.001118
668.118774	734.853821	7114.782715	1879.933105	17.948153
668.449219	750.828918	7113.816895	1871.165405	17.607080
668.779663	749.268616	7095.538574	1859.128418	17.488380
669.110107	743.472961	7096.281250	1857.270874	17.532370
669.440552	735.745544	7093.160156	1861.431763	17.706667
669.770874	735.374023	7087.587402	1854.596069	17.619402
670.101135	745.553528	7077.705566	1848.428833	17.417068
670.431396	746.965271	7040.256348	1835.574585	17.297935
670.761597	748.822754	6991.143066	1835.945923	17.415369
671.091797	740.649475	6935.787598	1830.967407	17.599573
671.421875	740.649475	6888.011230	1830.298828	17.725481
671.751892	737.900330	6863.639160	1829.927368	17.826864
672.081909	744.959045	6835.775879	1831.710571	17.842459
672.411865	750.457458	6803.899902	1824.949097	17.750093
672.741821	751.349121	6753.225098	1815.215454	17.725563
673.071716	744.216064	6712.878906	1797.308594	17.643692
673.401550	729.206848	6668.000000	1792.404663	17.902590
673.731262	734.259460	6646.378906	1784.379883	17.762163
674.060974	737.380188	6592.583496	1781.110474	17.825687
674.390625	746.296570	6574.824707	1771.525391	17.589840
674.720276	739.534973	6537.673828	1764.020874	17.669220
675.049927	741.318298	6504.088379	1761.568848	17.704168
675.379395	740.203674	6483.209473	1762.163208	17.794855
675.708923	740.129395	6439.222656	1755.550293	17.817236
676.038330	742.284180	6401.179199	1756.813477	17.928045
676.367737	746.222229	6350.132813	1751.760864	17.943516
676.697083	746.445129	6313.650879	1752.875488	18.077837
677.026428	741.912781	6295.892578	1747.971558	18.114195
677.355652	736.191406	6279.693848	1735.934448	18.034502
677.684875	744.067566	6283.187012	1728.801392	17.777803
678.013977	743.324402	6282.666504	1725.086304	17.723438
678.343079	746.222168	6285.192871	1731.030640	17.779629
678.672180	746.965149	6298.195801	1738.386597	17.859489
679.001221	754.544128	6355.705566	1743.364624	17.653847
679.330139	755.732910	6403.705566	1748.788696	17.582518
679.659058	748.451355	6433.501465	1750.572144	17.627298
679.987976	737.677429	6448.361816	1755.698853	17.826609
680.316772	740.203796	6467.011719	1768.702026	17.959364
680.645630	742.878662	6521.847656	1774.869141	17.857693
680.974304	743.621765	6554.466309	1770.113892	17.665112
681.302979	733.145020	6589.611328	1775.166382	17.792664
681.631653	732.922058	6600.385254	1787.574829	17.974596
681.960266	736.934326	6612.125000	1796.491211	18.034426
682.288757	746.073547	6609.673340	1792.776001	17.850851
682.617249	743.398743	6599.048340	1790.770020	17.886511
682.945679	742.878601	6572.818848	1804.144531	18.203716
683.274109	736.637207	6546.664063	1804.293091	18.376093
683.602478	737.900330	6494.132324	1788.095093	18.244484
683.930725	740.203674	6424.956543	1772.491577	18.158886
684.259033	747.485352	6338.542480	1759.265625	18.096403
684.587280	749.120056	6272.412598	1758.819702	18.280756
684.915344	743.695984	6201.527344	1742.547363	18.301250
685.243469	748.302673	6145.726563	1722.262695	18.044905
685.571533	743.993164	6090.742188	1712.529175	18.114485
685.899536	747.262451	6033.306641	1694.622192	17.921904
686.227539	736.637207	5977.876953	1690.387085	18.197029
686.555420	735.745605	5929.580078	1684.145508	18.260111
686.883301	734.259460	5928.688965	1699.823608	18.588453
687.211121	736.265625	5916.949219	1708.368164	18.763983
687.538940	742.432800	5924.973145	1710.894531	18.687008
687.866638	742.507141	5922.149902	1712.083374	18.718979
688.194336	745.330566	5945.183594	1714.906860	18.646225
688.521973	745.033386	5933.072266	1708.219604	18.565516
688.849609	749.788818	5900.007813	1703.538452	18.518623
689.177063	746.965332	5868.800781	1695.142090	18.512442
689.504578	742.952942	5819.091797	1694.176392	18.739115
689.832031	743.324402	5778.225098	1681.322144	18.629915
690.159485	739.312073	5702.808594	1674.560547	18.842533
690.486816	735.894104	5645.520996	1649.223267	18.602821
690.814087	736.711487	5588.976563	1635.551392	18.524130
691.141296	744.290344	5513.261719	1611.625977	18.187059
691.468506	750.903320	5430.859863	1613.260620	18.426609
691.795715	742.135559	5330.105469	1600.926392	18.718319
692.122803	740.352356	5268.805664	1587.180298	18.700159
692.449829	736.562988	5206.985840	1568.381836	18.607162
692.776855	741.095398	5153.116699	1549.731812	18.328026
693.103821	741.763977	5106.603027	1542.004272	18.333788
693.430664	742.952881	5047.012207	1537.917603	18.470114
693.757568	746.073547	4996.263184	1533.608032	18.529398
694.084351	748.822754	4936.747070	1528.778442	18.623920
694.411133	746.965271	4905.613770	1517.781616	18.535261
694.737854	741.912598	4866.679688	1505.744629	18.518187
695.064575	739.757874	4845.354492	1500.023438	18.517784
695.391174	743.695984	4821.800293	1499.429077	18.531481
695.717773	743.770325	4814.741699	1503.218384	18.655205
696.044250	741.838379	4798.395020	1499.503296	18.677538
696.370789	743.472961	4808.277832	1496.456909	18.524479
696.697205	739.089172	4835.844238	1502.549438	18.635733
697.023621	743.473083	4878.122070	1511.168823	18.567375
697.349915	745.702087	4922.480957	1522.388306	18.595341
697.676208	749.194336	4979.471191	1533.013672	18.528795
698.002380	741.838379	5069.674805	1550.623535	18.687979
698.328674	740.649475	5171.320801	1568.159058	18.676844
698.654724	742.284180	5268.285645	1574.771851	18.393446
698.980896	738.791931	5342.662598	1581.682007	18.308292
699.306946	736.191345	5405.374512	1593.421875	18.359325
699.632935	740.426575	5465.261719	1604.938843	18.297195
699.958862	748.525574	5493.943359	1601.223633	17.968872
700.284729	752.537903	5499.962402	1596.542480	17.778158
700.610596	749.565857	5462.513184	1585.991577	17.747402
700.936340	749.565918	5406.637207	1577.298218	17.773666
701.262146	741.987000	5303.728027	1552.258179	17.762321
701.587830	746.445129	5213.524902	1533.756836	17.624752
701.913513	747.782532	5092.187988	1512.060547	17.592236
702.239075	748.748535	4972.709473	1483.899780	17.404310
702.564697	744.661926	4829.454102	1465.695435	17.651657
702.890137	743.324402	4711.461426	1454.773071	17.929035
703.215698	750.234558	4614.570313	1448.382935	18.066452
703.541016	748.897156	4523.029785	1428.395508	18.004093
703.866455	754.172607	4428.516602	1406.624878	17.756973
704.191711	747.039551	4353.842285	1389.535156	17.813438
704.517029	747.336731	4282.883301	1382.996582	17.979111
704.842163	742.507019	4240.010254	1374.303101	18.064203
705.167419	743.398743	4205.311035	1374.971802	18.243473
705.492493	748.079773	4191.713379	1376.903687	18.260477
705.817566	744.661926	4147.949219	1380.173218	18.673454
706.142578	748.154053	4110.798340	1379.652954	18.779831
706.467590	743.695984	4084.197510	1376.309204	18.937672
706.792480	749.863037	4075.949951	1371.182251	18.680185
707.117371	743.993164	4073.349609	1359.219604	18.478840
707.442200	744.513367	4072.308838	1358.030762	18.436152
707.766907	737.825989	4065.473389	1359.665649	18.687065
708.091675	733.590820	4058.711670	1361.523193	18.884499
708.416321	731.436035	4045.560303	1358.179565	18.911285
708.741028	741.689758	4048.012451	1366.947144	18.910961
709.065552	753.503906	4076.544678	1369.622070	18.540794
709.390137	752.315002	4087.690186	1372.445435	18.592524
709.714600	744.959167	4131.677246	1370.439453	18.468626
710.039063	739.534973	4157.608887	1393.176147	19.123085
710.363403	740.872498	4209.695313	1408.705200	19.252430
710.687744	739.014893	4245.434570	1421.633911	19.467693
711.012085	740.352356	4277.013184	1429.138672	19.475611
711.336304	743.324402	4306.808594	1438.426392	19.506247
711.660461	741.764099	4336.900879	1445.262085	19.568045
711.984619	742.804199	4372.714844	1447.268188	19.407200
712.308716	746.816589	4377.916504	1446.079468	19.257605
712.632751	746.222229	4378.437012	1448.754395	19.341702
712.956726	746.890930	4341.582520	1435.677246	19.161207
713.280701	743.175842	4323.378418	1423.417358	19.000084
713.604553	741.243958	4278.647949	1409.894165	18.902285
713.928467	739.089172	4231.837402	1398.600220	18.882296
714.252258	737.008728	4181.757324	1389.163696	18.931860
714.575989	744.959045	4121.571777	1376.829468	18.713144
714.899719	746.742371	4058.785889	1370.216431	18.824453
715.223267	749.863037	4011.455078	1370.513672	19.029070
715.546936	743.324402	3995.182861	1358.699463	18.923796
715.870422	739.460693	3983.814453	1365.386719	19.292780
716.193970	735.671204	3953.499023	1352.978149	19.183964
716.517395	740.723816	3919.022705	1351.343506	19.212154
716.840820	745.999329	3893.462158	1332.842163	18.644949
717.164124	742.581360	3856.459961	1326.972168	18.767296
717.487488	742.581360	3828.150391	1324.223022	18.850386
717.810730	733.144958	3803.184814	1317.089966	19.020763
718.133972	731.881836	3772.348877	1306.836182	18.910067
718.457092	726.903503	3710.455078	1284.099487	18.675594
718.780212	728.240967	3652.053467	1272.434082	18.612450
719.103210	731.361633	3602.567627	1268.941772	18.723146
719.426208	733.219238	3571.434814	1270.056519	18.914606
719.749207	742.655701	3525.812744	1263.740601	18.722799
720.072083	744.290344	3482.940186	1246.576782	18.340658
720.394958	738.271790	3447.051758	1241.226929	18.567589
720.717773	734.853943	3407.745361	1239.815186	18.891949
721.040527	738.866272	3363.164063	1245.164917	19.292728
721.363281	740.872375	3328.984619	1237.734741	19.197866
721.685913	741.392578	3296.737549	1234.539673	19.298651
722.008545	743.250183	3280.316406	1224.062988	18.951529
722.331055	747.633972	3253.196045	1216.112671	18.697550
722.653503	741.763977	3233.431641	1202.515259	18.491682
722.976013	735.151123	3217.604736	1208.310913	19.060167
723.298401	738.717590	3189.889893	1213.363403	19.364033
723.620789	745.553528	3182.385742	1216.409912	19.322477
723.943115	745.404968	3167.822266	1207.270752	19.066319
724.265381	741.095398	3156.528076	1201.177856	19.047621
724.587585	738.346130	3139.141357	1195.307983	19.033772
724.909790	739.237793	3142.039307	1198.800171	19.126106
725.231873	738.123291	3146.646240	1199.765991	19.167046
725.553894	746.296570	3165.890625	1204.521362	18.938086
725.875916	796.748047	3217.605225	1247.914185	18.636627
726.197937	802.915222	3233.877686	1258.019531	18.721157
726.519775	798.011230	3231.276611	1268.793335	19.347750
726.841675	748.377014	3193.679688	1229.115601	19.659676
727.163513	747.633972	3203.264893	1227.109497	19.525555
727.485291	742.284119	3220.354492	1233.350830	19.816496
727.806946	737.974609	3239.672852	1236.322998	19.920404
728.128662	733.219238	3254.979248	1237.511841	19.997644
728.450256	729.875671	3264.638428	1230.155884	19.736767
728.771790	731.584656	3269.691406	1232.087646	19.719542
729.093323	734.705322	3281.951172	1230.007202	19.444605
729.414795	739.757874	3297.034424	1228.223999	19.101028
729.736145	744.661865	3300.155518	1227.480835	18.893373
730.057495	741.318298	3297.034424	1227.406616	19.019653
730.378845	737.305908	3299.412109	1232.756470	19.337627
730.700134	735.522644	3292.427734	1235.059814	19.536791
731.021301	739.089172	3290.793213	1234.316772	19.407721
731.342468	745.107727	3272.885986	1235.951416	19.417988
731.663574	743.250183	3273.703857	1231.418945	19.291750
731.984680	745.256348	3269.617188	1244.421875	19.773937
732.305664	739.683594	3279.127686	1242.564331	19.802788
732.626648	736.785828	3284.997314	1241.375610	19.801723
732.947571	733.739441	3295.919922	1232.236328	19.455963
733.268433	734.779602	3300.526611	1227.035156	19.185661
733.589233	743.101501	3303.795898	1232.533447	19.113251
733.909973	739.014832	3292.353516	1238.923462	19.578627
734.230713	741.987000	3255.945068	1243.158813	19.935568
734.551331	733.590759	3218.571045	1231.418945	20.033487
734.871948	740.203796	3175.846924	1218.861816	19.652224
735.192505	738.049011	3143.227783	1206.676147	19.484089
735.513062	741.987000	3106.225342	1201.846436	19.450638
735.833435	735.894226	3056.516602	1189.140747	19.531248
736.153931	737.677429	3016.467529	1179.630005	19.394176
736.474304	742.432800	2977.384521	1172.868530	19.259285
736.794617	743.398743	2961.186523	1169.673462	19.220716
737.114807	741.764099	2942.982422	1168.187378	19.372149
737.434998	733.813660	2932.059814	1158.825195	19.334120
737.755188	737.231628	2921.063232	1158.379395	19.284811
738.075256	738.940613	2920.022705	1160.459839	19.326153
738.395325	741.243958	2930.945313	1173.239990	19.728537
738.715271	740.055115	2939.341553	1183.865234	20.179733
739.035278	736.860046	2951.229736	1178.664063	19.951683
739.355164	742.804260	2954.276123	1177.475098	19.655273
739.675049	738.866211	2971.588623	1180.075806	19.761059
739.994873	742.581360	2978.201416	1190.403809	20.031240
740.314636	735.448303	2984.294189	1199.617310	20.640320
740.634277	742.432800	2969.731201	1193.524536	20.252865
740.953979	734.556641	2942.090576	1185.945679	20.447660
741.273499	733.367859	2910.066406	1173.462891	20.218466
741.593140	722.445313	2882.722656	1170.119263	20.722984
741.912598	731.807434	2863.701172	1160.311157	20.099674
742.232117	734.631042	2813.769775	1147.234009	19.844898
742.551453	738.717590	2775.949951	1132.744995	19.341309
742.870850	739.609314	2746.971436	1128.807007	19.388515
743.190063	746.890930	2724.532227	1126.354980	19.187708
743.509338	753.355286	2682.254150	1121.228149	19.071651
743.828552	754.989990	2633.139893	1108.819458	18.839256
744.147705	751.423523	2604.236084	1101.760742	18.908401
744.466797	750.160339	2585.808838	1092.175659	18.631853
744.785828	747.039551	2563.146729	1095.147827	19.167828
745.104858	743.250183	2546.948486	1093.438843	19.415035
745.423706	746.296570	2537.660889	1097.376953	19.598492
745.742615	738.940613	2530.082031	1091.878540	19.704638
746.061401	739.832214	2526.292725	1079.172729	18.995132
746.380249	731.807434	2508.459961	1081.327515	19.672956
746.698975	740.129395	2505.636475	1083.259399	19.435209
747.017639	746.519470	2502.813232	1092.250000	19.685234
747.336304	744.736145	2494.193604	1089.352173	19.698450
747.654907	743.770264	2494.119385	1095.444946	20.091688
747.973389	734.705322	2472.348877	1095.667847	20.773106
748.291931	735.374084	2477.029785	1093.810425	20.580206
748.610352	730.915955	2465.884521	1088.088989	20.586716
748.928711	734.185242	2478.441650	1085.117065	20.119280
749.247070	742.729980	2487.655029	1088.757813	19.830526
749.565308	743.027161	2498.948975	1088.460571	19.672482
749.883545	738.494690	2495.085205	1092.398682	20.147209
750.201782	738.866211	2497.165771	1087.866211	19.848722
750.519836	743.993164	2482.379639	1086.305786	19.691399
750.837952	746.370789	2465.810059	1083.779419	19.623178
751.155884	740.278015	2435.123047	1086.825806	20.447168
751.473877	741.392578	2416.918945	1083.259399	20.403547
751.791809	749.045715	2411.420654	1082.962280	20.086718
752.109619	748.451355	2391.656006	1078.503906	20.085907
752.427490	743.844543	2393.290771	1069.884888	19.766655
752.745300	738.494690	2395.668213	1064.312134	19.661034
753.062988	744.661926	2395.371094	1059.408203	19.067337
753.380615	742.804382	2385.860107	1067.507202	19.762131
753.698303	746.222229	2381.030518	1060.448364	19.220978
754.015808	745.776367	2383.854248	1062.380249	19.327766
754.333374	748.525635	2389.129639	1054.950073	18.677538
754.650757	747.188171	2371.742676	1063.197632	19.452070
754.968262	746.668030	2365.278320	1066.615601	19.766806
755.285583	745.702148	2345.588135	1078.504028	20.801600
755.602905	743.695984	2337.712158	1079.321289	21.055326
755.920105	740.575195	2338.083740	1065.872559	20.362793
756.237305	737.900330	2330.504639	1057.996460	20.098913
756.554443	740.798096	2327.458496	1056.138794	19.874493
756.871582	736.934387	2311.260498	1066.244019	20.917498
757.188599	737.900330	2323.594971	1066.169800	20.701935
757.505615	732.104736	2325.155273	1064.089233	20.839546
757.822510	731.510254	2351.978516	1065.575195	20.615334
758.139465	737.157288	2356.659424	1070.107788	20.558817
758.456238	741.987000	2377.018311	1078.429810	20.577148
758.773010	750.606140	2385.265869	1074.194458	19.795454
759.089783	752.983826	2386.380615	1077.612427	19.874449
759.406433	748.302673	2388.609619	1079.247070	20.175760
759.723145	744.736145	2389.129639	1080.807251	20.437389
760.039673	741.392578	2407.110840	1081.178833	20.398783
760.356201	737.008728	2414.095459	1090.169434	21.057987
760.672668	736.042725	2419.891113	1094.033325	21.260263
760.989136	735.002502	2423.160400	1101.463501	21.707743
761.305481	741.541199	2422.640381	1085.711304	20.472921
761.621826	741.689758	2421.600098	1096.559570	21.124331
761.938049	744.216003	2420.708252	1100.348999	21.242746
762.254333	745.107666	2436.163330	1113.426270	21.780396
762.570496	745.107666	2473.909180	1113.574829	21.313446
762.886597	741.392578	2542.119141	1124.794556	21.291515
763.202637	738.346130	2652.012695	1155.555786	21.801586
763.518677	737.751709	2790.141357	1188.174683	21.946270
763.834656	738.048889	2935.774658	1219.233398	21.894655
764.150574	738.420410	3054.659180	1239.369385	21.627691
764.466370	741.318176	3124.949951	1261.362915	21.817326
764.782288	743.250183	3158.385986	1269.982056	21.809618
765.097961	746.667969	3161.358154	1268.198853	21.598253
765.413696	742.729980	3117.965088	1255.938843	21.606655
765.729309	747.559631	3033.037109	1228.521240	21.044250
766.044861	749.565857	2916.753174	1198.354370	20.708340
766.360474	750.457520	2803.739014	1160.311401	19.960920
766.675903	741.318298	2690.873047	1131.853394	20.032015
766.991394	739.237793	2578.675781	1106.962036	19.991119
767.306763	743.993164	2472.645996	1097.748413	20.464216
767.622131	742.655701	2386.529053	1079.469849	20.489058
767.937378	733.367859	2319.285156	1066.021118	20.975449
768.252625	733.888000	2267.273193	1049.451660	20.579542
768.567810	735.596924	2220.090820	1037.934692	20.366386
768.882996	744.438965	2176.401123	1033.848022	20.210665
769.197998	739.089172	2141.850342	1023.668457	20.287079
769.513062	746.965271	2113.466797	1019.804871	19.966286
769.828064	745.627747	2083.968506	1011.185730	19.842329
770.142944	749.417236	2050.532227	1005.761658	19.701904
770.457825	743.398682	2027.721191	1009.030945	20.682676
770.772705	745.627747	2010.111450	1005.687317	20.566463
771.087402	737.751709	1994.582397	1002.046448	21.028667
771.402100	741.912598	1972.068726	992.610046	20.379320
771.716736	746.668030	1954.013062	986.220032	19.841223
772.031372	755.287109	1946.434082	985.402649	19.318819
772.345947	749.120056	1922.137207	988.226257	20.383863
772.660461	743.472961	1904.824585	985.105469	20.806147
772.974854	740.352234	1884.168457	978.195313	20.793821
773.289246	744.661865	1878.595703	966.381165	19.553106
773.603638	750.680359	1867.450317	965.638184	19.248173
773.917908	748.525635	1846.794312	959.545410	19.213858
774.232178	745.553528	1845.976929	970.467834	20.438889
774.546265	741.392517	1838.323608	962.740417	20.178833
774.860474	741.838379	1830.893433	963.706299	20.372517
775.174561	739.832214	1805.258789	957.539124	20.433781
775.488586	738.271790	1783.859741	961.477234	21.347363
775.802551	739.534973	1774.200195	960.734192	21.378819
776.116516	741.392578	1767.290161	958.579407	21.170420
776.430359	740.798157	1757.556641	961.105713	21.667639
776.744202	738.569031	1753.395630	966.826965	22.492310
777.057922	741.987000	1744.404907	963.483398	22.096212
777.371704	736.711487	1737.717773	956.498962	21.956654
777.685303	741.318176	1731.327759	951.372070	21.217360
777.998962	733.293640	1720.256470	952.932373	22.254002
778.312500	735.374023	1729.544434	961.105652	22.705526
778.626038	728.835449	1714.683960	963.780518	23.831762
778.939453	734.185242	1722.708618	959.248047	22.767576
779.252869	738.420410	1718.621948	953.749695	21.967857
779.566223	737.008606	1723.748657	949.217285	21.506037
779.879578	737.900330	1704.578735	947.285400	21.660261
780.192749	738.494690	1697.148438	942.381409	21.268024
780.505920	743.027161	1706.882202	938.294739	20.259020
780.819031	744.810486	1701.903809	934.208191	19.788843
781.132141	750.977600	1703.910034	945.873596	20.452236
781.445190	753.281006	1690.906860	941.564148	20.080839
781.758118	748.376953	1699.303223	944.016113	20.573536
782.071045	744.141663	1682.882446	920.462219	18.782667
782.383911	742.284119	1663.712280	921.130859	19.409733
782.696838	749.268616	1644.244751	918.530273	18.912422
783.009583	741.020996	1622.028320	922.394043	20.587008
783.322266	739.386414	1610.065796	917.861572	20.498379
783.634888	734.036621	1595.502319	911.100037	20.553740
783.947510	735.076843	1600.852173	905.007141	19.627529
784.260132	737.008606	1601.595215	909.762512	19.981098
784.572571	735.819824	1600.406372	905.453064	19.620157
784.885010	739.386414	1584.802734	907.756348	19.915625
785.197449	737.974670	1576.183594	905.527283	19.989361
785.509766	733.219238	1566.821411	912.437500	21.499256
785.822083	735.745544	1563.329102	916.003967	21.781296
786.134277	735.374023	1552.852539	914.963806	21.968746
786.446533	747.336731	1555.453125	910.802734	20.228027
786.758606	743.844543	1555.676147	910.877014	20.574768
787.070740	749.565857	1559.168335	918.753113	20.897572
787.382690	748.599915	1566.004028	923.359863	21.379871
787.694641	748.154114	1577.075195	919.347595	20.652567
788.006653	745.404968	1606.127563	916.895569	19.924026
788.318481	737.677429	1624.108887	922.691162	20.871748
788.630310	735.819824	1647.365723	937.997559	22.179655
788.942017	740.575195	1654.350098	946.245117	22.507723
789.253784	742.878601	1668.467651	950.480408	22.429155
789.565430	746.445129	1668.541992	954.418457	22.554390
789.877014	743.175842	1665.495483	947.508301	22.154192
790.188538	741.838379	1657.545044	940.300964	21.673162
790.500061	740.278015	1653.458496	931.384583	20.927580
790.811462	736.860046	1637.334839	924.325928	20.818560
791.122925	737.825989	1614.078125	928.486816	21.758673
791.434204	732.476257	1584.876953	923.434265	22.402376
791.745483	735.671204	1563.923706	923.136963	22.633890
792.056702	738.866211	1537.843384	919.124695	22.561155
792.367920	745.924988	1529.075684	910.728455	21.043648
792.678955	750.085938	1512.060547	910.802734	21.092146
792.990112	747.633972	1509.831421	899.360168	19.906416
793.301086	745.627869	1497.348511	899.062988	20.411188
793.612122	735.076843	1487.911987	892.524231	20.913927
793.922974	737.677429	1485.311401	892.375671	20.691708
794.233826	742.135559	1478.624146	892.004150	20.349072
794.544556	743.398743	1482.265015	893.193054	20.273535
794.855286	748.377014	1478.549927	898.394226	20.545437
795.166016	746.816711	1485.757446	900.549011	20.804415
795.476624	750.011719	1497.422852	902.406555	20.389692
795.787292	741.392578	1505.224609	898.171326	20.525291
796.097778	738.717590	1506.339233	899.508789	20.946674
796.408264	743.844543	1503.738647	901.663513	20.768547
796.718689	749.714539	1508.196655	905.304382	20.513317
797.029053	745.553467	1523.057251	908.870911	21.005356
797.339355	740.129395	1528.332642	912.957458	21.926840
797.649658	738.643311	1537.769165	918.084473	22.454681
797.959839	743.398682	1522.611328	908.722351	21.216759
798.270020	746.370789	1515.255249	898.914368	19.839598
798.580078	747.262451	1494.673462	892.672852	19.455212
798.890137	750.234558	1476.469360	898.394226	20.401070
799.200195	743.993164	1459.974121	897.799805	21.481945
799.510071	739.980774	1455.590210	903.446838	22.842916
799.820007	735.076843	1456.853394	906.344666	23.728649
800.129883	734.036621	1459.825562	913.923523	24.785015
800.439575	735.225403	1448.828735	909.019531	24.354445
800.749329	734.928223	1441.844360	894.827698	22.619299
801.058960	741.615479	1426.166382	892.895813	22.099209
801.368591	741.615479	1412.568970	882.864929	21.052048
801.678162	740.946777	1399.417358	888.214661	22.365143
801.987671	735.374023	1392.581665	875.360352	21.300167
802.297119	728.686829	1382.996582	881.378906	23.336359
802.606506	727.720886	1383.888306	876.029053	22.602184
802.915894	735.671204	1378.018188	875.508972	21.769817
803.225159	739.089172	1381.807617	871.793762	20.647390
803.534424	742.878601	1375.046265	874.171448	20.768675
803.843628	740.500977	1372.222656	875.731873	21.406721
804.152771	743.398743	1373.857056	873.131287	20.577497
804.461792	746.296570	1377.423828	874.394470	20.296682
804.770874	744.438965	1381.064575	877.515137	20.903364
805.079773	748.228333	1382.104980	885.316895	21.627008
805.388733	745.330566	1389.683716	890.295227	22.497704
805.697571	749.640137	1395.627930	885.168274	20.979984
806.006470	749.045715	1402.166626	882.939270	20.500576
806.315125	751.051941	1404.990234	884.648254	20.429499
806.623901	753.429504	1406.921997	891.484070	21.125654
806.932495	752.463623	1397.931274	893.713135	21.883284
807.241150	752.835144	1392.804565	889.329285	21.328228
807.549622	750.085938	1391.095581	891.038269	21.989113
807.858154	748.748535	1397.262695	889.477844	21.700268
808.166565	742.729980	1397.857056	889.255066	22.365902
808.474915	741.912659	1388.643555	879.521301	21.277575
808.783264	742.878662	1379.801758	878.704041	21.325239
809.091492	750.234558	1367.095825	873.279846	19.946995
809.399719	744.587585	1364.718018	880.115723	21.854780
809.707825	734.928223	1353.869751	875.211731	22.665066
810.015930	733.962341	1343.244507	871.793884	22.621956
810.323975	742.729980	1343.690430	865.478210	20.425343
810.632080	746.445129	1348.520142	860.276917	18.906578
810.939880	742.655762	1348.074219	858.865234	19.194901
811.247864	739.757874	1337.300415	860.499817	20.206417
811.555664	739.534973	1324.668945	861.540100	20.850801
811.863464	737.008606	1313.003418	860.202637	21.388044
812.171143	733.590820	1297.399780	858.716614	22.192942
812.478882	738.866211	1286.403076	856.933289	21.563311
812.786438	740.872375	1289.300781	863.917786	22.436003
813.094055	741.764099	1292.198730	867.484314	22.840172
813.401489	742.952881	1296.210938	871.793884	23.287687
813.708984	748.599915	1286.997437	862.580322	21.170307
814.016357	754.767090	1277.115234	860.574158	20.256044
814.323730	752.760925	1272.434082	861.540039	20.932217
814.630981	746.147949	1268.941895	860.945618	21.958492
814.938232	741.169617	1280.755981	853.515381	20.820719
815.245361	744.661865	1280.161621	841.775574	18.135155
815.552490	747.485352	1284.545410	844.598938	18.082445
815.859619	742.507080	1277.709595	854.555603	20.935724
816.166565	738.791931	1277.635254	861.317139	22.738560
816.473572	737.603027	1280.533081	859.682434	22.485292
816.780457	747.411072	1286.848877	854.629883	19.876028
817.087341	749.565857	1286.848755	854.109863	19.457907
817.394043	752.537903	1291.381348	860.722717	20.077225
817.700806	746.965271	1296.285278	859.905457	20.559999
818.007507	747.633972	1308.693726	861.020020	20.209265
818.314209	743.695984	1315.009521	862.728943	20.834963
818.620667	738.494690	1323.925781	874.245789	23.188229
818.927246	736.042725	1337.894775	885.837097	24.888903
819.233704	740.129395	1353.572632	897.502502	25.654062
819.540161	744.959045	1384.036743	906.344543	25.252876
819.846497	748.748535	1414.277954	915.186584	25.008368
820.152832	737.900330	1462.129028	925.737610	25.936182
820.458984	735.522644	1511.688965	928.041016	24.803753
820.765259	733.888000	1582.573730	940.003723	24.286461
821.071350	741.689758	1667.947632	967.718689	24.402376
821.377502	743.250061	1819.970703	1002.195129	24.049419
821.683472	738.866211	2095.039307	1083.556519	25.416395
821.989441	740.575195	2579.196045	1214.180786	25.758741
822.295349	738.420471	3241.233398	1406.030396	26.674383
822.601196	741.541199	4001.201416	1604.195679	26.464552
822.907043	736.711426	4655.140137	1764.095093	26.219276
823.212769	740.649597	5048.498047	1851.400879	25.784361
823.518494	750.829041	5123.841309	1867.301636	25.530975
823.824097	759.670959	4939.273438	1802.807007	24.957779
824.129700	757.813477	4622.966797	1707.773804	24.577559
824.435242	744.141785	4282.214355	1583.390991	23.720520
824.740723	739.312073	3978.018799	1490.066772	23.180695
825.046082	743.621582	3692.102295	1406.253296	22.473667
825.351501	742.507141	3395.337158	1326.897827	22.028954
825.656799	743.027161	3073.160400	1250.811890	21.792089
825.962036	737.083008	2781.076416	1188.323364	22.076410
826.267212	735.225403	2548.731934	1151.394897	22.948332
826.572449	733.590820	2416.770264	1124.274414	23.211048
826.877502	738.123230	2395.296875	1134.602539	23.925032
827.182495	748.228333	2481.265137	1166.627075	24.142519
827.487488	747.485352	2621.400146	1214.180786	24.904837
827.792419	746.742371	2717.176270	1239.666626	25.016027
828.097290	736.117004	2739.169922	1250.440430	25.676975
828.402100	734.259460	2680.173340	1231.418945	25.548895
828.706848	734.928223	2582.167969	1193.227417	24.809946
829.011597	742.730042	2425.538086	1139.060669	23.551743
829.316223	747.559753	2261.997803	1093.810303	22.863304
829.620789	744.587585	2123.274658	1061.042847	22.953379
829.925354	748.228333	2015.461426	1037.340210	22.814419
830.229797	745.999329	1905.047485	1005.761536	22.411684
830.534302	741.689758	1773.977539	974.182922	22.522125
830.838562	731.956055	1650.486450	947.211121	23.434725
831.142944	729.355469	1544.084961	920.684998	23.483810
831.447144	734.705322	1454.401367	902.035095	23.250061
831.751404	745.033447	1396.296753	878.703918	20.524797
832.055542	756.178772	1363.826538	878.555359	20.139395
832.359619	759.299500	1362.043213	868.004395	18.035011
832.663635	749.342957	1369.250610	880.264343	21.119499
832.967651	748.599915	1400.160522	893.861755	22.294449
833.271545	741.912598	1459.528320	919.050293	24.684198
833.575439	746.816650	1558.648071	942.158508	24.061874
833.879211	735.299744	1673.891602	965.935364	24.572514
834.183044	746.742371	1781.407715	991.867004	23.691200
834.486694	745.181946	1869.382202	1011.185730	23.661602
834.790344	753.355286	1918.942017	1021.662415	23.019062
835.093933	749.640137	1930.235962	1023.222839	23.173273
835.397522	751.720642	1880.304688	1005.835938	22.516294
835.700928	755.955872	1809.939941	981.018860	21.353546
836.004395	756.773254	1742.918945	963.260498	20.938818
836.307739	756.476074	1684.888306	946.690979	20.488195
836.611023	752.315125	1624.406128	929.229797	20.286263
836.914307	745.702148	1551.143555	913.997742	20.894827
837.217529	742.284180	1477.732544	901.514893	21.650835
837.520691	740.203674	1403.355469	887.248840	22.173681
837.823730	738.271790	1344.359009	869.341858	21.625612
838.126831	736.860046	1291.009644	856.041687	21.507124
838.429749	733.219238	1254.155640	849.502991	22.322063
838.732727	734.185242	1218.044556	837.094482	21.268421
839.035522	731.881836	1210.242798	826.766418	19.835352
839.338379	747.856934	1198.279907	823.645691	16.826130
839.641113	750.383240	1192.781494	828.846924	17.735985
839.943848	749.045715	1195.456421	841.032532	20.605871
840.246460	732.253357	1215.295288	849.948792	24.365469
840.549072	726.606262	1244.421875	855.149963	24.824223
840.851563	736.637207	1253.115356	864.140625	24.687088
841.154053	738.643372	1260.842773	863.323303	23.875923
841.456482	745.181946	1255.641724	860.499756	22.590969
841.758850	742.878601	1239.592285	847.050964	20.972317
842.061157	740.055115	1212.100342	840.660950	21.312754
842.363403	742.358459	1180.447388	836.054260	21.387394
842.665588	744.438965	1166.701416	836.128601	21.713898
842.967712	752.537903	1154.515747	835.385498	20.609991
843.269775	747.931152	1138.912109	830.927307	21.227673
843.571777	748.525574	1114.095093	823.794250	20.589430
843.873840	745.850769	1091.581299	812.277405	19.213413
844.175659	750.903320	1074.417358	810.642761	18.465796
844.477600	754.618408	1063.717773	805.292969	16.394262
844.779297	753.578186	1042.244263	809.528137	19.382240
845.081116	746.742371	1033.402222	802.989502	19.621559
845.382751	741.689758	1028.201050	795.113464	18.646282
845.684387	736.117126	1024.411499	796.748047	21.030907
845.985962	736.711487	1020.027649	797.862610	21.584057
846.287537	738.123230	1004.424133	802.692200	24.246620
846.588989	747.856873	1010.962830	798.531311	19.260088
846.890381	750.160339	1009.328125	792.661438	16.399067
847.191711	749.937317	1012.374573	794.964844	17.157444
847.493042	737.826111	997.662598	791.249695	20.560463
847.794250	735.819824	991.941223	797.639709	24.136946
848.095459	733.367859	982.653503	792.067078	23.546970
848.396606	735.299744	982.802063	791.918457	22.876034
848.697693	739.089172	980.201477	781.961853	17.781208
848.998657	736.934326	984.213867	786.940125	20.222376
849.299622	742.432800	986.294250	786.642883	18.129181
849.600464	738.346130	981.687500	789.392090	20.977098
849.901367	739.534973	968.610291	782.704834	18.845270
850.202087	735.596924	964.077820	779.584167	19.252045
850.502808	733.219238	965.415283	784.562439	22.112005
850.803467	734.259583	976.040527	784.339539	20.712946
851.104065	739.163574	979.458496	785.231140	19.171261
851.404663	747.485352	981.018799	782.184753	14.858429
851.705139	749.640137	970.542175	786.419983	16.649845
852.005615	750.829041	965.861023	786.642883	16.655125
852.306030	748.822815	966.232605	793.627258	20.608292
852.606384	740.946777	972.176758	798.456970	24.871426
852.906616	733.293518	968.461609	799.422913	28.120054
853.206909	726.606262	962.591736	783.002136	23.898027
853.506958	730.247070	964.152100	767.249939	15.819613
853.807129	738.494812	965.043701	759.225281	9.150550
854.107178	745.033386	965.935364	767.844421	10.326316
854.407166	747.262451	955.904480	784.190918	17.699438
854.707092	742.432800	957.167542	790.803894	22.525974
855.007019	742.507141	944.759033	796.822449	26.855278
855.306763	746.519470	950.257507	792.810059	22.720642
855.606567	749.640137	947.136719	794.221863	22.573416
855.906250	745.702148	954.046875	795.039063	23.680424
856.205933	733.887939	948.697083	791.175354	26.668983
856.505493	736.711426	947.954102	795.039124	27.611702
856.805054	742.507019	947.805481	790.952454	23.597563
857.104492	748.971436	948.994324	789.912292	20.468086
857.403931	741.095276	948.622864	783.373596	20.372385
857.703308	736.340027	948.994324	777.577942	19.391996
858.002563	737.380188	953.972656	773.862854	16.843922
858.301819	742.804260	957.687805	769.776184	12.551880
858.601013	744.290344	953.526855	771.187988	12.855139
858.900208	737.454529	957.390625	773.491272	16.385098
859.199219	742.135559	952.115051	782.110413	19.037504
859.498291	739.757874	958.133606	788.946289	22.524672
859.797302	750.531738	947.285339	793.850281	22.016645
860.096191	746.742371	947.136719	786.197083	19.688536
860.395020	750.829041	941.638367	787.014465	18.964180
860.693787	752.092102	938.740540	788.649109	19.586023
860.992554	748.599915	930.715820	796.971008	26.560610
861.291260	743.027161	931.161682	793.330139	26.737772
861.589844	731.658936	932.350586	783.224915	25.694132
861.888428	730.470032	934.505371	774.828796	21.740726
862.186890	741.169678	938.889221	773.862793	16.535095
862.485413	745.776428	938.294861	776.463379	15.939747
862.783813	748.154114	947.508301	779.361328	15.654156
863.082153	745.702148	944.833435	779.881348	17.164154
863.380371	746.519470	948.920105	783.002136	18.024977
863.678589	748.599915	951.966492	783.373535	17.098986
863.976746	752.909485	949.143005	779.138367	13.366158
864.274902	758.259277	950.108887	774.457214	8.443039
864.572937	758.779358	952.189453	780.698669	11.333076
864.870911	750.085999	955.755920	780.698669	14.884370
865.168884	747.113953	955.830261	788.128906	19.651054
865.466736	748.674255	953.824036	784.562439	17.493650
865.764587	747.485352	950.777588	789.466309	20.650547
866.062317	742.581482	946.988098	787.534485	21.991951
866.360107	735.968506	943.421631	783.745117	23.030075
866.657715	733.293640	945.502136	780.995911	22.478964
866.955322	740.798157	950.108887	777.280762	17.429878
867.252808	741.466858	950.851868	776.091858	16.536522
867.550293	743.770264	947.731201	775.794739	15.701279
867.847717	742.284180	946.096497	774.234375	15.676283
868.145081	743.027161	940.969666	775.868958	16.591583
868.442383	747.708252	945.204895	781.515930	17.118103
868.739624	740.723816	942.158508	784.562317	21.763134
869.036804	739.386292	934.802551	789.317810	25.551363
869.333984	734.779602	934.356689	784.413879	24.869728
869.631042	738.643372	936.511536	785.751282	23.807726
869.928101	743.175842	942.158508	782.481934	19.753525
870.224976	744.438965	942.901550	789.689270	22.800421
870.521851	754.321228	949.588684	798.159851	22.450552
870.818726	747.633972	955.161438	790.729492	20.766176
871.115479	748.599854	959.099548	784.933899	17.260855
871.412231	743.398682	951.817871	779.881348	17.504465
871.708862	741.243958	951.446350	783.076416	19.901039
872.005493	741.243958	946.542297	783.522278	20.593601
872.302063	738.866272	951.743591	777.949524	18.359520
872.598572	744.364685	958.950928	788.871887	20.740940
872.895020	741.912598	960.882751	783.076355	18.798798
873.191406	739.980774	961.848633	791.101074	23.040876
873.487671	744.513184	961.848633	790.432434	21.128284
873.783997	748.822815	964.597839	794.816223	21.315445
874.080200	752.240723	974.182922	791.324036	17.609680
874.376343	748.525574	976.040527	788.203308	17.439615
874.672424	753.280945	978.715393	794.296082	18.193819
874.968445	750.977600	979.681335	793.181458	18.453506
875.264465	753.132385	969.947754	794.816223	19.225500
875.560364	749.120056	971.508118	787.237305	17.139971
875.856201	747.931152	964.746521	785.676941	17.409185
876.152039	745.776367	965.861084	780.624329	15.833885
876.447754	740.278015	971.656677	781.516052	17.822748
876.743469	739.683594	977.972412	780.698730	17.212362
877.039063	735.745605	981.390320	787.237366	20.961884
877.334595	733.590759	972.028137	789.020691	23.247166
877.630127	734.333740	970.096375	789.540710	23.416336
877.925537	738.346191	980.201477	780.847229	17.572920
878.221008	742.804260	992.758606	777.132141	13.733661
878.516296	744.810486	992.981506	777.132141	13.023944
878.811646	738.346191	990.826721	790.952454	20.835770
879.106812	738.271912	998.257080	798.457031	23.149443
879.401978	745.776428	1012.300293	804.104065	21.884583
879.697083	756.921875	1037.265991	806.927551	17.837248
879.992126	756.996094	1055.321533	814.134949	19.153196
880.287109	750.457520	1088.609009	828.401062	23.049889
880.582031	745.850769	1140.398193	838.580566	23.502827
880.876892	743.695984	1252.149536	867.261414	24.302206
881.171753	735.596985	1447.342651	910.728455	24.605906
881.466492	738.717590	1735.860229	989.637878	25.163931
881.761230	738.643311	2090.432617	1091.358276	26.092451
882.055786	749.863037	2436.609131	1191.592651	26.188269
882.350403	747.039551	2701.201172	1262.254639	26.365019
882.644958	752.240723	2833.906006	1283.208008	25.506851
882.939453	741.689758	2834.648682	1270.205078	25.252064
883.233826	754.172668	2744.742432	1235.431274	24.176928
883.528137	753.503906	2624.594971	1197.908447	23.751091
883.822449	757.516296	2500.657959	1165.512573	23.405802
884.116577	745.999329	2392.547607	1128.509766	23.231049
884.410828	745.702148	2276.115234	1096.188110	22.901396
884.704956	744.513184	2133.379639	1058.070679	22.576504
884.999023	744.438904	1956.019165	1014.603699	22.298546
885.292969	740.129395	1762.980835	967.718567	22.250462
885.586914	738.346191	1600.480835	925.811829	21.744358
885.880798	734.408020	1469.633423	892.672852	21.526030
886.174622	737.157227	1369.919312	863.026062	19.891968
886.468384	737.974609	1289.300781	849.874512	20.296497
886.762085	737.008606	1230.898804	841.032532	21.062157
887.055664	735.374023	1179.035522	843.038635	24.267288
887.349304	737.974609	1150.280396	832.413391	22.905035
887.642822	742.135559	1120.484985	826.023376	22.172049
887.936340	743.473083	1100.274780	812.351624	19.304432
888.229736	747.559631	1071.891113	807.150391	18.373411
888.523071	744.513245	1062.306030	808.933777	20.271238
888.816284	744.513245	1061.488647	810.568359	20.839193
889.109619	737.900330	1059.111084	806.853271	21.466574
889.402710	738.717712	1043.953247	803.509583	21.226843
889.695862	739.312073	1015.123718	798.159851	21.336220
889.988892	739.312073	987.854675	793.850281	21.943203
890.281921	736.488525	966.975464	785.305481	21.179922
>>>>>End Processed Spectral Data<<<<<
