Jaz Data File
++++++++++++++++++++++++++++++++++++
Date: Fri Jun 04 16:18:40 2021
User: jaz
Dark Spectrum Present: Yes
Reference Spectrum Present: Yes
Processed Spectrum Present: Yes
Spectrometers: JAZA3586
Integration Time (usec): 40000 (JAZA3586)
Spectra Averaged: 10 (JAZA3586)
Boxcar Smoothing: 1 (JAZA3586)
Correct for Electrical Dark: No (JAZA3586)
Strobe/Lamp Enabled: Yes (JAZA3586)
Correct for Detector Non-linearity: No (JAZA3586)
Correct for Stray Light: No (JAZA3586)
Number of Pixels in Processed Spectrum: 2048
>>>>>Begin Processed Spectral Data<<<<<
W	D	R	S	P
191.335022	0.000000	0.000000	0.000000	0.000000
191.713211	302.709259	311.922791	303.823822	12.097023
192.091385	614.260559	623.697021	605.269958	-95.275116
192.469528	925.737549	936.511475	917.489990	-76.551102
192.847641	941.043945	939.334961	927.966736	765.203552
193.225739	943.644531	952.486572	942.827332	-9.242207
193.603790	944.016113	964.152100	945.650696	8.117718
193.981842	948.622864	970.021973	955.904480	34.027660
194.359863	958.876648	966.455505	960.436951	20.587572
194.737854	973.662903	971.953857	969.650452	234.777328
195.115829	975.297607	974.554504	966.678406	1159.893188
195.493774	979.532715	978.195313	972.251038	544.464233
195.871704	981.613220	970.690735	972.771301	80.951530
196.249603	985.922791	974.554504	976.337830	84.313156
196.627457	980.721680	972.399658	969.724854	132.141281
197.005310	977.675293	975.000305	964.895081	477.767120
197.383133	973.142761	974.108704	960.659851	-1292.303833
197.760910	981.613220	970.913757	957.019043	229.863663
198.138687	975.669006	967.867249	955.458679	259.048370
198.516449	972.771179	966.158203	953.601135	289.885284
198.894180	962.220215	971.582336	955.978821	-66.666451
199.271866	966.083984	966.381104	949.514465	-5576.725586
199.649536	964.152161	962.591736	953.378174	690.452148
200.027191	959.545410	962.071594	952.263672	-288.250488
200.404816	956.053040	967.272888	958.430725	21.191780
200.782410	950.777649	981.687683	962.666016	38.461189
201.159988	955.755920	997.811279	969.353271	32.332031
201.537537	953.303955	1012.523193	981.910400	48.306000
201.915070	964.523621	1007.321960	976.114746	27.083120
202.292557	958.282227	998.182678	987.408875	72.998291
202.670029	960.659912	993.501648	980.127197	59.276054
203.047485	948.771484	991.049622	986.220032	88.576622
203.424911	953.303955	989.563660	977.823792	67.622826
203.802292	955.904541	989.340637	987.854675	95.555817
204.179688	961.254333	992.015625	988.374817	88.164322
204.557037	959.768250	994.764832	985.476990	73.460716
204.934357	958.653748	996.176575	975.074646	43.762424
205.311661	961.848694	999.074402	975.966248	37.924206
205.688934	962.294617	996.993958	970.021973	22.269461
206.066177	960.362732	998.405701	971.359436	28.906010
206.443390	955.681641	1001.600647	964.820801	19.902782
206.820587	951.743591	1001.600647	975.669006	47.988022
207.197769	950.331848	991.272644	971.582336	51.905411
207.574921	950.480286	994.319031	974.628723	55.084690
207.952042	943.793152	992.387024	967.867188	49.541298
208.329147	939.112061	993.353027	967.570007	52.465782
208.706223	954.492676	992.535706	977.080750	59.375065
209.083267	968.535889	993.724609	977.006409	33.628227
209.460297	972.102356	994.021790	981.390320	42.373192
209.837280	954.715576	986.740051	967.867249	41.067566
210.214264	943.644531	987.334473	965.861084	50.850498
210.591217	945.204895	989.563660	962.220215	38.358418
210.968124	945.873596	985.402649	957.390564	29.135450
211.345016	956.870422	987.260254	962.071594	17.114843
211.721893	954.938660	991.495605	960.362610	14.836989
212.098724	953.824036	997.439758	971.879578	41.396866
212.475555	952.560852	995.210632	965.489563	30.313663
212.852356	950.480408	987.928955	972.176758	57.936428
213.229126	952.858093	983.990906	962.666016	31.503490
213.605865	942.678528	983.247864	956.647522	34.432396
213.982590	943.124451	986.219971	944.907715	4.137934
214.359283	946.319519	983.247864	943.273132	-8.249454
214.735931	942.381409	982.727783	949.737366	18.232016
215.112579	937.700378	985.105469	955.087219	36.677158
215.489197	934.876770	988.895020	956.870422	40.715225
215.865799	950.108887	995.507813	958.876648	19.312706
216.242355	955.755859	994.913391	960.957092	13.282842
216.618896	955.012878	990.455261	961.551514	18.448633
216.995407	939.557922	978.715393	968.015808	72.675499
217.371902	937.105957	977.898132	965.117981	68.670090
217.748367	939.409363	982.579163	967.867249	65.920822
218.124802	948.622864	984.511047	965.489563	46.997917
218.501236	951.966492	989.637939	975.594727	62.721867
218.877609	951.297852	990.009460	978.269714	69.673836
219.253983	951.817932	995.804993	974.257324	51.013622
219.630295	947.285339	992.387146	968.833191	47.776028
220.006592	949.068604	994.839111	966.901367	38.961254
220.382889	951.743591	992.164246	971.508118	48.897095
220.759140	955.087158	987.706116	971.062256	48.974888
221.135391	945.427795	989.712219	978.938293	75.671074
221.511581	942.158447	992.015625	976.932129	69.746590
221.887772	938.889160	997.216797	986.814453	82.165672
222.263931	945.873718	998.108459	981.984680	69.132080
222.640060	939.780823	1005.538757	981.984680	64.180634
223.016159	939.037842	1010.888489	972.473938	46.535553
223.392212	940.895447	1009.328125	969.724792	42.128040
223.768265	952.858093	1001.303467	971.136536	37.730007
224.144302	959.916809	992.758728	968.758850	26.923035
224.520294	958.802246	991.569824	970.393555	35.374321
224.896286	952.635193	994.467590	970.839355	43.516899
225.272217	952.040710	993.724609	975.669128	56.684761
225.648148	951.372009	997.439758	980.795959	63.871040
226.024048	950.926208	997.291199	978.492615	59.455219
226.399902	953.824036	999.817383	975.148926	46.365162
226.775772	953.303894	991.123962	967.644287	37.917416
227.151581	948.399902	991.346863	969.427551	48.961903
227.527374	942.158447	984.213806	970.170654	66.607941
227.903137	933.019226	987.185852	971.062256	70.233337
228.278870	942.530029	990.529541	971.730957	60.835884
228.654572	943.718811	999.074402	966.678406	41.476559
229.030273	953.972595	997.737000	969.873474	36.332905
229.405930	950.406067	990.232422	968.312988	44.962490
229.781555	946.542419	990.604004	975.371765	65.429665
230.157181	940.598145	997.142578	967.347168	47.306202
230.532761	937.328857	994.541992	966.158264	50.389488
230.908325	939.483643	988.895020	962.443176	46.466087
231.283859	943.124451	983.545166	962.443176	47.794121
231.659332	947.582581	991.495422	958.430725	24.703810
232.034821	944.387512	996.102234	956.201660	22.844845
232.410263	942.307129	995.656433	963.780579	40.250664
232.785690	948.028503	986.517151	965.861023	46.331894
233.161087	957.464844	984.213806	969.576172	45.277748
233.536469	955.978821	984.065247	969.204773	47.090195
233.911804	957.019104	987.111633	974.777405	59.012325
234.287140	958.579407	999.148682	975.000305	40.476192
234.662430	965.861084	1005.687256	971.136536	13.246193
235.037704	955.384338	1002.566650	977.749512	47.401604
235.412933	951.074768	990.901123	984.362488	83.582138
235.788162	940.449524	984.956848	991.198242	114.023300
236.163345	944.090393	994.096130	984.065247	79.940536
236.538513	943.495911	1003.978333	982.430603	64.373566
236.913635	949.737488	1009.551086	981.613220	53.291782
237.288742	943.718933	1006.281738	982.579102	62.113853
237.663834	935.396973	1004.869934	979.086914	62.887691
238.038879	934.728271	1003.532532	974.182861	57.343235
238.413910	935.025452	1013.266174	971.359436	46.438713
238.788910	941.861328	1008.956543	970.467834	42.635689
239.163879	935.248352	1011.185730	973.365662	50.195713
239.538834	939.260681	999.445862	969.947754	50.987755
239.913757	935.917053	1003.978333	976.486328	59.606983
240.288651	949.663086	1002.640930	978.046692	53.576370
240.663528	954.864258	1010.442688	981.538879	47.994556
241.038361	959.991150	1009.551086	975.446106	31.184374
241.413177	955.161438	1004.795715	966.529785	22.904226
241.787979	953.452454	1000.709167	967.347107	29.402496
242.162735	954.789856	996.845398	968.015808	31.448774
242.537476	952.932373	1002.417969	973.142761	40.840950
242.912170	953.601074	1010.888489	967.272766	23.865088
243.286865	954.195557	1017.352783	967.644287	21.294048
243.661514	955.755859	1018.393066	968.981750	21.115072
244.036148	951.594910	1016.758484	974.108643	34.549568
244.410751	952.560852	1018.838928	972.102539	29.484390
244.785339	947.805481	1021.885315	969.353271	29.087255
245.159882	951.669250	1014.529297	958.133606	10.283727
245.534378	944.684875	1009.179504	961.477234	26.036833
245.908890	950.183167	1006.058838	959.545410	16.755491
246.283356	946.913879	1007.842102	966.455505	32.073193
246.657791	945.650696	1010.591309	958.282227	19.450895
247.032196	938.740540	1018.170105	963.557617	31.244131
247.406586	931.013123	1030.132935	972.622620	41.978992
247.780960	936.139954	1043.581665	981.910400	42.600258
248.155289	939.929382	1048.634277	980.127136	36.978790
248.529602	944.090332	1046.405151	977.155090	32.316685
248.903870	940.895325	1037.711792	970.839355	30.928654
249.278122	938.146179	1027.755249	968.833191	34.245430
249.652344	946.096497	1018.467468	963.111816	23.511250
250.026550	953.675476	1008.882385	969.650574	28.936773
250.400711	960.139709	1010.591309	972.696960	24.889698
250.774857	949.068665	1017.947266	977.303650	40.992390
251.148987	933.465088	1023.371399	974.925964	46.115646
251.523071	925.737610	1020.919434	974.034363	50.741570
251.897125	937.626038	1020.845032	976.337708	46.517830
252.271164	945.650696	1019.284668	971.062317	34.510731
252.645187	950.703308	1023.222839	966.604187	21.926340
253.019165	939.632263	1026.120605	965.861084	30.326424
253.393112	942.678650	1034.814087	968.015869	27.499971
253.767044	951.223450	1036.968750	979.607117	33.102299
254.140930	957.093445	1030.950317	981.018860	32.394299
254.514801	951.297791	1028.646851	983.916687	42.171032
254.888657	942.158508	1032.510620	977.303650	38.897976
255.262466	941.564148	1041.129761	968.981750	27.537220
255.636276	942.009827	1040.832520	973.514221	31.879717
256.010010	945.204895	1040.758179	971.359558	27.371809
256.383759	944.238953	1037.043091	979.978577	38.510807
256.757446	952.337891	1043.730347	977.155090	27.154539
257.131134	948.325623	1045.142090	974.183044	26.707670
257.504791	948.399902	1056.436035	970.913757	20.839190
257.878418	945.130615	1054.652832	974.628845	26.933558
258.252014	952.040710	1057.253418	978.343994	25.000101
258.625580	957.687805	1056.956177	978.418274	20.883257
258.999115	954.344177	1066.244141	973.662903	17.264282
259.372650	953.303894	1078.132446	978.789734	20.416676
259.746124	949.514465	1091.729858	977.080750	19.383474
260.119598	957.093323	1097.896973	977.600891	14.564657
260.493042	952.115051	1107.407715	973.588562	13.827769
260.866425	953.006653	1109.711182	970.244934	11.000500
261.239838	949.811707	1114.020752	970.096375	12.352954
261.613159	944.610535	1108.299438	964.226379	11.983613
261.986511	936.808777	1103.023926	965.043762	16.987011
262.359802	935.248352	1095.593628	959.768250	15.291936
262.733063	943.867493	1088.311890	964.300720	14.146085
263.106293	951.520691	1089.203613	970.170593	13.545545
263.479523	948.919983	1095.370605	970.021973	14.408945
263.852692	940.523743	1094.776245	972.622559	20.809267
264.225861	938.220398	1090.466797	973.588562	23.230871
264.598969	947.731140	1081.773438	982.876404	26.219532
264.972076	949.811707	1083.630981	982.133362	24.153214
265.345154	948.771484	1081.104614	984.956848	27.344145
265.718201	944.164734	1089.277954	980.201477	24.833536
266.091217	949.143005	1100.348999	984.213867	23.194096
266.464203	948.399963	1106.739136	980.944519	20.553698
266.837158	945.502136	1116.695557	980.350098	20.355900
267.210114	938.666260	1120.113525	971.285217	17.977100
267.583038	943.793152	1134.676758	970.987976	14.246810
267.955902	948.622803	1136.757324	978.418274	15.837322
268.328766	956.647461	1131.779053	986.368652	16.970778
268.701569	952.263611	1130.292969	985.402649	18.614367
269.074371	947.879700	1143.964722	977.749512	15.233092
269.447144	949.440186	1153.698364	983.619446	16.733362
269.819885	950.554749	1159.494019	986.888733	17.389734
270.192596	948.177063	1156.893433	991.346863	20.683475
270.565277	940.449524	1168.410278	987.854675	20.795313
270.937927	942.307129	1185.128418	983.025085	16.768694
271.310577	942.604309	1205.561646	974.034424	11.952553
271.683136	948.548523	1221.165161	968.015869	7.140924
272.055725	949.960266	1232.161987	968.907532	6.714086
272.428284	952.263672	1236.917480	975.000305	7.987469
272.800812	951.817871	1244.273315	974.405945	7.723595
273.173279	947.582703	1239.740845	978.864075	10.707000
273.545776	953.675476	1235.802856	980.795898	9.612829
273.918152	952.189453	1229.338501	981.167480	10.455755
274.290558	944.684814	1225.028931	975.966248	11.158227
274.662964	938.666321	1226.812134	974.405823	12.403270
275.035278	939.112122	1221.759644	979.978577	14.458451
275.407593	940.821045	1228.149658	984.585388	15.231461
275.779907	948.697205	1232.607910	980.647278	11.253564
276.152161	947.434021	1244.942017	976.189148	9.665329
276.524384	959.248108	1255.270142	970.690735	3.865465
276.896606	948.177063	1259.431152	973.588440	8.164190
277.268799	948.994324	1266.861450	980.127136	9.794285
277.640930	946.690918	1262.254517	982.430481	11.325629
278.013031	942.827148	1269.313354	976.857849	10.423320
278.385162	942.752869	1267.752930	973.068359	9.327842
278.757233	945.799316	1281.870483	977.006409	9.285858
279.129272	952.040771	1280.607300	983.693665	9.633633
279.501282	953.452454	1287.889038	974.182922	6.198625
279.873230	943.644531	1300.297729	972.548279	8.104160
280.245178	944.981995	1317.164429	965.489502	5.510068
280.617126	941.489746	1335.071289	975.223145	8.570879
280.988983	945.576416	1340.049683	973.068359	6.969279
281.360870	949.365906	1364.792358	980.721497	7.547808
281.732697	946.616699	1386.340210	974.405823	6.319681
282.104492	947.582703	1414.203735	973.365662	5.525460
282.476288	945.947937	1431.070435	971.953857	5.360692
282.848053	946.542297	1431.962036	978.343933	6.551369
283.219757	947.582520	1432.853638	976.189148	5.894979
283.591461	944.238953	1426.835083	973.365723	6.035434
283.963135	951.372009	1433.596680	974.108704	4.714959
284.334747	951.669189	1433.893921	982.653503	6.425285
284.706360	948.028381	1443.553223	988.523438	8.172154
285.077942	947.359680	1460.717163	987.780334	7.873783
285.449524	943.273132	1486.203125	986.963074	8.047068
285.821014	947.434021	1500.171875	983.247864	6.479354
286.192535	944.238953	1528.555664	978.715515	5.900321
286.563995	944.907715	1542.004395	976.560730	5.301154
286.935425	949.960266	1561.694702	977.229431	4.457680
287.306824	950.703308	1560.654297	983.545105	5.384334
287.678223	949.365906	1551.515015	976.932190	4.577983
288.049561	940.523865	1535.465820	981.538879	6.893952
288.420898	934.059570	1525.880737	981.687500	8.047689
288.792145	936.214294	1527.812500	983.916687	8.063310
289.163452	940.077942	1538.512207	982.430603	7.077245
289.534668	941.861267	1550.549194	977.749512	5.896001
289.905914	935.471252	1582.127808	980.870300	7.020581
290.277039	933.910889	1609.248413	987.260254	7.899660
290.648193	939.780823	1636.294434	996.622375	8.160868
291.019318	945.873718	1641.569946	999.297302	7.679154
291.390381	950.108887	1657.990845	995.507813	6.413347
291.761475	951.743591	1652.864136	986.294250	4.927920
292.132507	954.418457	1653.458496	986.591553	4.602468
292.503510	957.390564	1632.876587	985.476990	4.157958
292.874481	956.721863	1629.161499	990.306641	4.994467
293.245422	957.687805	1626.560913	986.294373	4.276830
293.616364	952.189453	1642.907593	982.430481	4.378201
293.987213	954.567078	1657.025024	982.802063	4.019455
294.358093	941.935608	1692.690308	985.997070	5.868956
294.728943	944.684814	1731.104858	991.792725	5.990171
295.099731	941.043945	1775.017700	986.665833	5.470422
295.470490	947.433899	1808.602539	977.303711	3.468521
295.841248	939.780762	1822.497070	968.535950	3.257580
296.211975	939.855164	1834.905640	971.136536	3.494928
296.582642	943.198730	1861.654785	980.870300	4.101619
296.953308	946.839600	1899.697754	984.882568	3.992511
297.323883	950.703369	1949.629272	985.179749	3.451345
297.694519	953.601135	1959.585571	983.396484	2.961810
298.065063	954.195557	1963.598022	994.764832	4.019138
298.435608	946.988098	1941.455688	1002.046570	5.536477
298.806122	939.483582	1913.815063	1000.114685	6.222841
299.176575	938.369080	1872.205688	990.678162	5.601524
299.547028	936.288574	1846.274048	982.207703	5.046139
299.917450	940.821045	1821.456909	983.619446	4.859943
300.287872	943.495911	1814.100952	980.052917	4.199035
300.658234	949.440186	1806.819214	975.817688	3.076528
301.028564	955.904541	1813.432129	975.966309	2.339489
301.398865	950.703308	1820.639648	977.155090	3.040657
301.769135	945.502136	1812.466309	984.511047	4.499484
302.139374	942.901550	1813.580933	980.795898	4.352273
302.509583	942.307129	1814.249512	986.071350	5.019165
302.879791	951.743469	1815.661255	985.699890	3.930515
303.249939	952.189392	1817.147339	985.254089	3.822694
303.620087	951.817871	1814.843750	983.990967	3.727941
303.990173	943.570313	1811.500366	983.916687	4.648574
304.360260	938.517761	1808.676758	987.929016	5.678417
304.730286	946.022278	1810.608765	987.780457	4.829844
305.100281	949.960266	1819.599121	988.449158	4.425848
305.470276	947.433899	1824.503296	990.678162	4.930541
305.840179	944.981934	1834.682617	981.613220	4.117260
306.210144	935.768372	1849.171753	982.876404	5.157418
306.579987	937.774597	1861.060181	982.504883	4.844686
306.949890	943.347351	1866.855835	987.260254	4.755008
307.319702	951.149231	1870.125122	984.436768	3.622243
307.689484	954.864441	1895.759766	982.876404	2.977160
308.059265	950.851990	1914.261108	980.424377	3.069556
308.429016	948.622803	1952.898438	980.424377	3.166618
308.798737	941.712646	1978.087036	977.749512	3.477205
309.168396	942.009949	2013.306519	981.390320	3.675954
309.538055	936.808777	2036.563477	982.504883	4.155118
309.907684	941.638367	2059.820068	987.260254	4.080007
310.277313	935.619812	2080.922119	983.842346	4.210464
310.646851	946.765320	2104.996094	983.470764	3.169096
311.016388	944.610535	2121.194092	985.328369	3.460684
311.385895	946.988220	2124.834961	994.839111	4.062574
311.755371	943.495911	2118.816406	992.981628	4.210402
312.124817	941.638367	2125.503418	987.408875	3.866193
312.494232	946.839539	2122.085449	984.362488	3.192775
312.863617	943.198730	2120.896729	982.653503	3.350161
313.232971	947.359680	2105.293213	981.390320	2.938911
313.602295	947.136719	2111.757568	983.990967	3.164485
313.971619	957.167664	2120.822510	993.055847	3.084092
314.340820	957.241943	2122.383057	1001.229187	3.775272
314.710083	951.297791	2133.454346	997.588379	3.915775
315.079285	946.319397	2145.937012	996.993958	4.224226
315.448486	945.576416	2182.270752	1004.275635	4.746461
315.817596	948.474182	2189.180908	1004.424133	4.509522
316.186707	943.941711	2180.710205	996.250793	4.229496
316.555786	950.257507	2142.741943	989.266418	3.271230
316.924866	949.960266	2113.243896	998.108398	4.138985
317.293884	952.337952	2093.702148	1006.653320	4.758811
317.662872	943.198730	2086.494873	1009.922668	5.836103
318.031830	938.517578	2089.095459	1001.749329	5.495652
318.400757	938.889160	2103.064453	1000.560364	5.297416
318.769684	944.016113	2119.039307	999.817383	4.748950
319.138550	945.799316	2142.593018	1003.458191	4.817779
319.507416	944.833435	2152.921143	1005.241516	5.000306
319.876190	942.901550	2158.419922	1009.328186	5.464881
320.244995	947.136780	2165.032959	1009.105286	5.088160
320.613770	954.567078	2154.853271	1010.814209	4.686143
320.982483	956.721863	2146.754150	1012.151672	4.657841
321.351166	954.418457	2119.410889	1014.380676	5.147005
321.719818	949.068604	2111.237549	1024.560181	6.495749
322.088440	949.142883	2119.262451	1028.572632	6.788173
322.457062	948.102722	2138.729736	1037.117310	7.476278
322.825623	949.068665	2164.884033	1033.848022	6.973045
323.194183	948.474304	2192.450439	1035.854126	7.024237
323.562653	948.399963	2229.676025	1040.758179	7.208299
323.931183	944.759094	2267.793213	1045.662109	7.626637
324.299591	943.570251	2310.517334	1047.668335	7.615371
324.668060	950.108826	2355.990723	1058.516602	7.711016
325.036407	949.068665	2393.885010	1068.398804	8.259191
325.404755	949.514465	2418.033447	1078.058228	8.753292
325.773102	945.650818	2418.702148	1084.448242	9.422443
326.141388	943.793213	2432.893799	1090.095215	9.824857
326.509674	948.325684	2451.395508	1096.708130	9.871960
326.877899	954.715637	2471.085693	1104.287109	9.863784
327.246124	958.282227	2471.159912	1115.135254	10.367859
327.614288	948.325623	2467.964844	1129.995728	11.954819
327.982422	935.916992	2456.968018	1139.729370	13.399444
328.350525	941.861267	2445.079834	1154.069824	14.116947
328.718628	951.372070	2432.151123	1157.933594	13.949517
329.086700	960.734131	2433.488525	1162.391724	13.692548
329.454712	961.848694	2449.983643	1168.410278	13.880568
329.822693	954.046936	2467.741943	1181.041748	14.996073
330.190674	956.498962	2483.642822	1196.273804	15.700869
330.558563	955.681641	2485.500244	1205.710327	16.343681
330.926483	958.802307	2488.249268	1218.416016	16.974352
331.294312	952.783875	2499.840576	1225.326172	17.616827
331.662231	948.102722	2542.936279	1245.016479	18.617226
332.029999	951.000488	2581.202148	1260.397095	18.979038
332.397766	947.805481	2624.074951	1285.511475	20.146282
332.765503	943.495911	2658.328369	1300.000366	20.789461
333.133240	936.882996	2701.795654	1317.461548	21.563593
333.500916	939.186340	2737.386719	1334.774048	21.999088
333.868561	947.656921	2759.008789	1346.291138	22.007553
334.236176	951.892151	2761.535156	1363.083374	22.722227
334.603790	943.421692	2767.850830	1379.058594	23.877983
334.971344	937.923279	2775.949951	1401.498047	25.221331
335.338867	937.700378	2785.311768	1411.083008	25.621332
335.706360	949.514465	2788.878174	1420.370728	25.598866
336.073853	957.539124	2792.444580	1429.435669	25.717756
336.441284	959.025208	2797.274414	1446.153809	26.499594
336.808655	954.195496	2797.943115	1457.001953	27.270895
337.176086	950.406067	2765.250000	1467.478638	28.491295
337.543396	946.393738	2725.498291	1475.280640	29.727703
337.910706	944.907715	2670.217041	1479.292847	30.973293
338.277954	945.130615	2679.356201	1488.209106	31.315332
338.645264	942.827209	2740.804688	1519.936523	32.097694
339.012421	943.793213	2856.791016	1558.350952	32.125378
339.379669	941.266907	2965.124268	1603.601196	32.726330
339.746796	948.994385	3041.878906	1627.006836	32.396076
340.113953	955.681641	3098.572021	1656.876587	32.721924
340.481018	954.269836	3119.079346	1676.789673	33.375675
340.848114	954.344177	3121.011475	1700.937866	34.458160
341.215118	947.285400	3117.147705	1718.324829	35.534027
341.582153	950.554688	3129.705078	1750.943726	36.729408
341.949066	953.452454	3151.326904	1774.126099	37.339424
342.316010	952.783752	3168.342041	1800.800781	38.275543
342.682922	946.170837	3174.434814	1814.026733	38.947624
343.049835	938.443359	3194.348389	1841.592896	40.034908
343.416656	942.975830	3227.412842	1879.784546	41.008297
343.783478	951.149170	3273.703857	1927.338257	42.030834
344.150269	946.245178	3347.486328	1989.306763	43.438431
344.516998	947.879883	3430.259033	2047.040039	44.278496
344.883728	944.239014	3518.233643	2105.293213	45.107094
345.250427	956.201660	3579.979492	2139.398193	45.095150
345.617065	949.885986	3607.100342	2156.636475	45.414120
345.983704	951.966492	3631.619873	2168.599365	45.402618
346.350281	944.907715	3630.579346	2188.437988	46.302395
346.716827	950.108887	3612.672607	2195.645508	46.779598
347.083405	950.331848	3569.428467	2201.589600	47.774403
347.449860	961.031311	3534.357422	2189.552490	47.740597
347.816376	968.164368	3512.141357	2191.484375	48.086914
348.182770	961.923035	3484.128906	2192.302002	48.781860
348.549194	959.322449	3458.494385	2207.756836	49.953918
348.915558	950.777527	3444.525635	2222.320313	50.989223
349.281921	958.133606	3457.305908	2229.898926	50.887463
349.648193	953.526855	3492.227783	2252.561279	51.169258
350.014526	947.805603	3540.970703	2274.554688	51.163307
350.380737	946.839600	3586.518311	2320.473877	52.037933
350.746948	942.827209	3636.300781	2357.328125	52.515865
351.113159	950.628967	3664.684326	2409.934326	53.768444
351.479309	952.040771	3710.306396	2445.376709	54.140396
351.845428	950.108887	3742.553711	2486.912109	55.034328
352.211517	954.344177	3781.414063	2516.856201	55.269665
352.577576	946.839600	3805.859619	2543.010742	55.829311
352.943604	952.189392	3835.506592	2563.369873	55.879402
353.309601	944.238953	3893.759766	2599.109375	56.106415
353.675537	941.564026	3969.622803	2666.724609	56.972496
354.041473	937.477356	4057.745850	2736.940674	57.670143
354.407379	931.310303	4133.534668	2813.546875	58.779034
354.773254	932.276184	4219.130859	2873.731689	59.067276
355.139038	924.177246	4282.140137	2930.425049	59.745979
355.504913	930.641541	4361.421387	2998.412109	60.271152
355.870636	927.595032	4415.885254	3056.591064	61.032654
356.236389	929.081238	4489.593262	3133.197266	61.904469
356.602081	926.034729	4584.774902	3204.007813	62.261135
356.967804	935.768494	4699.572754	3282.917236	62.361073
357.333405	946.393738	4820.388672	3378.024658	62.768044
357.699036	945.576355	4950.641113	3471.572021	63.070034
358.064606	946.542419	5091.371094	3583.694580	63.625118
358.430176	943.793152	5201.190430	3644.399658	63.433270
358.795654	955.012878	5261.301270	3695.817383	63.646557
359.161163	958.133545	5258.329590	3702.058594	63.809299
359.526581	961.774414	5234.105957	3718.256592	64.519386
359.892029	954.864258	5239.010254	3751.915771	65.288429
360.257416	952.783875	5312.867676	3823.321045	65.836739
360.622772	943.793152	5459.615234	3946.069092	66.483482
360.988098	943.941833	5642.623535	4097.126465	67.107857
361.353394	940.003723	5837.742188	4275.229492	68.097267
361.718658	950.034668	6058.570313	4450.435547	68.520630
362.083893	952.337891	6243.212402	4579.127930	68.548027
362.449097	958.505066	6395.830078	4648.749512	67.868744
362.814209	951.074768	6419.011719	4625.046875	67.191193
363.179382	952.486572	6309.415527	4521.691895	66.627831
363.544434	952.635071	6061.912598	4331.105469	66.124229
363.909546	956.201660	5772.058594	4131.528320	65.934822
364.274536	951.372070	5514.451172	3959.368896	65.920334
364.639587	949.514465	5350.687500	3855.196533	66.020630
365.004517	953.229553	5254.688477	3786.986572	65.878975
365.369507	959.173828	5193.239746	3741.736328	65.718452
365.734344	948.771484	5130.825684	3714.393311	66.130699
366.099274	946.765320	5087.804688	3705.476807	66.618813
366.464081	938.740540	5070.492188	3710.306396	67.079689
366.828918	939.037781	5086.020996	3714.690186	66.931839
367.193665	936.957275	5094.194336	3715.061523	66.825729
367.558411	944.461914	5116.856934	3704.287842	66.144882
367.923126	939.186340	5109.946777	3699.532471	66.183289
368.287781	934.059570	5110.466797	3697.303467	66.163185
368.652435	934.802551	5068.411621	3684.523438	66.521072
369.017059	951.149109	5059.346191	3694.108398	66.767952
369.381653	963.260498	5061.798340	3687.867188	66.477524
369.746185	962.443115	5071.978027	3704.956787	66.735374
370.110687	952.486572	5070.046387	3708.151611	66.924713
370.475220	948.399902	5083.271973	3732.299805	67.327354
370.839661	946.913879	5150.144531	3762.838135	66.994286
371.204041	948.622864	5206.391113	3813.735596	67.291428
371.568451	947.508362	5248.298340	3863.518311	67.801727
371.932770	949.514465	5290.651367	3901.412842	67.998283
372.297150	955.756042	5339.096191	3921.474609	67.658867
372.661377	959.545410	5383.975098	3917.685303	66.859238
373.025696	955.235840	5397.869629	3924.669678	66.839493
373.389862	950.406067	5389.250977	3917.908203	66.853027
373.754059	949.217285	5388.062012	3927.641846	67.099091
374.118225	953.006653	5400.841309	3933.363281	67.006912
374.482361	955.161438	5432.494141	3954.093506	66.980331
374.846436	951.669250	5499.367188	3989.461670	66.798470
375.210510	946.690979	5579.094238	4050.538330	67.002960
375.574524	949.663086	5670.337891	4121.497559	67.190277
375.938538	944.981995	5769.755371	4214.970215	67.774963
376.302460	947.582520	5873.332520	4304.059082	68.141434
376.666412	943.941711	6041.628906	4399.463379	67.786072
377.030304	954.121277	6178.048340	4478.819336	67.472191
377.394196	951.669250	6318.777832	4567.537109	67.370872
377.757996	952.040771	6432.238281	4644.365723	67.375771
378.121796	944.016052	6495.767090	4678.024902	67.258217
378.485565	941.712646	6507.506348	4642.656738	66.494453
378.849304	937.997498	6431.420410	4573.777832	66.184242
379.212982	940.895325	6341.514160	4485.209473	65.627930
379.576630	945.725037	6188.896484	4401.544434	65.910858
379.940277	947.954102	6082.718262	4308.071777	65.438599
380.303864	951.892273	6000.613281	4257.322754	65.470650
380.667450	953.229675	6006.334473	4242.462402	65.093300
381.030945	953.452576	5999.053223	4255.540039	65.444885
381.394501	946.839600	6022.904297	4292.022461	65.901108
381.757935	943.570251	6040.959473	4319.291504	66.224510
382.121399	939.334961	6043.857910	4336.380859	66.549721
382.484741	943.198730	6083.238281	4353.693848	66.351532
382.848145	945.947998	6108.724121	4393.148926	66.770294
383.211487	952.560852	6170.989746	4456.751465	67.150299
383.574768	946.542297	6239.050781	4532.540527	67.756119
383.938019	943.198730	6301.762207	4594.062988	68.131401
384.301270	943.941833	6397.092285	4664.947754	68.235893
384.664459	947.062500	6466.342285	4725.281738	68.454933
385.027649	945.427917	6535.369629	4778.036621	68.562584
385.390778	943.198730	6597.709473	4831.534668	68.765205
385.753876	953.080994	6623.195313	4851.967285	68.762039
386.116943	954.715637	6684.718750	4882.803223	68.552979
386.479980	955.755859	6687.839355	4899.298828	68.797722
386.842987	946.170837	6740.371094	4952.499512	69.143776
387.205994	954.715637	6789.039551	5007.854980	69.470596
387.568909	947.434021	6841.125488	5071.978027	69.982353
387.931793	947.136780	6881.397949	5107.420410	70.106178
388.294678	946.913879	6906.883301	5130.230957	70.190247
388.657471	955.384460	6945.744141	5124.064453	69.589813
389.020294	957.167664	6928.877441	5129.042480	69.860641
389.383057	949.737366	6937.125000	5157.352051	70.274635
389.745819	948.251282	6941.880371	5186.701660	70.715927
390.108521	945.799316	6984.604004	5228.459961	70.919014
390.471191	941.266907	7024.653809	5292.805664	71.531509
390.833801	939.186462	7132.467285	5398.984375	72.010262
391.196442	945.353516	7272.898926	5529.236816	72.443306
391.558960	947.434021	7422.693359	5641.657715	72.494759
391.921509	950.628967	7554.580078	5756.900879	72.778732
392.284027	952.189270	7704.894531	5854.385254	72.596031
392.646484	959.471008	7816.720215	5917.840332	72.308434
393.008911	953.526855	7850.306152	5919.400879	72.002800
393.371307	952.783875	7819.767090	5896.738281	71.996017
393.733673	953.898376	7763.593750	5882.025879	72.369278
394.096008	964.597900	7730.975098	5871.252441	72.515236
394.458344	954.789978	7739.892090	5875.785156	72.526474
394.820587	943.273010	7779.792480	5865.159668	71.994041
395.182831	937.105957	7847.704590	5899.338379	71.806114
395.545013	937.105957	7832.844238	5875.784668	71.619286
395.907196	936.734375	7763.297363	5843.091797	71.871559
396.269287	933.762390	7642.703613	5738.696777	71.619865
396.631409	942.530029	7538.902344	5659.415527	71.507271
396.993469	946.913879	7441.565918	5576.270996	71.279526
397.355530	948.920105	7355.968750	5541.273926	71.676590
397.717499	945.947937	7345.566895	5535.032715	71.708717
398.079468	947.731201	7328.402344	5543.428223	72.025299
398.441376	947.062439	7329.740234	5547.960938	72.084145
398.803284	944.164612	7314.433594	5554.128906	72.366867
399.165131	943.198792	7358.271973	5577.607910	72.242500
399.526978	943.793213	7392.525879	5603.763184	72.261795
399.888763	944.016113	7431.757813	5628.356934	72.202950
400.250519	943.273010	7435.770996	5648.121094	72.465912
400.612244	942.901550	7463.634277	5678.511719	72.623894
400.973938	948.177063	7456.872559	5684.826660	72.774178
401.335602	944.164734	7489.787598	5682.449219	72.388596
401.697205	949.588806	7527.459473	5711.575684	72.394051
402.058807	943.867493	7578.876953	5760.615723	72.595947
402.420349	946.616699	7651.991699	5856.243652	73.219276
402.781860	949.960266	7717.675781	5923.784668	73.493401
403.143341	951.223450	7818.429688	6027.362793	73.918549
403.504822	953.749756	7945.264160	6126.556152	73.986923
403.866241	945.873718	8114.302246	6250.939453	74.005981
404.227631	939.186462	8274.796875	6345.824219	73.703995
404.588959	942.307129	8437.965820	6443.755371	73.395126
404.950287	938.220398	8552.466797	6523.258301	73.349846
405.311554	946.765320	8614.434570	6603.060059	73.768112
405.672821	942.009949	8642.819336	6641.623047	74.013168
406.034027	944.684753	8643.487305	6630.180176	73.849091
406.395203	943.272949	8616.960938	6574.378906	73.382004
406.756348	947.285339	8549.567383	6519.395020	73.295227
407.117493	945.725037	8518.659180	6473.402344	72.992546
407.478516	946.690918	8511.897461	6459.582031	72.871651
407.839600	943.941833	8520.961914	6448.361816	72.646240
408.200592	948.994385	8495.178711	6451.928223	72.923393
408.561554	951.297791	8477.569336	6443.978027	72.980095
408.922485	954.864258	8491.686523	6468.052246	73.150032
409.283417	953.006653	8536.491211	6497.772949	73.116341
409.644257	950.183289	8635.239258	6571.257813	73.142921
410.005096	947.359680	8742.085938	6654.031250	73.211952
410.365906	951.817871	8844.030273	6732.049316	73.239685
410.726715	950.628967	8932.672852	6785.324707	73.097763
411.087433	946.616699	8998.059570	6839.713379	73.193054
411.448120	940.746765	9077.712891	6874.785156	72.926918
411.808807	946.245117	9085.663086	6899.378906	73.139549
412.169434	947.805481	9037.069336	6845.435059	72.906876
412.530029	951.446350	8993.006836	6844.618652	73.283943
412.890564	942.232849	8954.370117	6817.274902	73.326775
413.251099	947.285461	8978.443359	6841.274902	73.389038
413.611572	946.616699	8986.989258	6852.271484	73.450012
413.972076	955.384460	9047.025391	6920.035156	73.713737
414.332489	949.663086	9100.002930	6958.152344	73.720718
414.692871	946.988220	9206.181641	7058.312500	73.994202
415.053223	950.851868	9312.954102	7146.212891	74.088554
415.413574	950.926208	9491.579102	7294.669434	74.277023
415.773834	949.663086	9645.087891	7387.102051	74.032486
416.134094	940.523865	9788.491211	7486.371094	73.981361
416.494263	940.746765	9908.788086	7581.032715	74.043884
416.854462	945.799316	10135.633789	7765.228516	74.206230
417.214630	948.845764	10373.032227	7973.498535	74.538559
417.574738	950.034485	10659.914063	8201.459961	74.680893
417.934784	947.136719	10893.077148	8394.350586	74.876923
418.294861	948.102722	11212.281250	8633.976563	74.880554
418.654846	948.845764	11562.915039	8910.605469	75.011375
419.014832	947.508301	11937.473633	9214.652344	75.224487
419.374756	945.056335	12356.765625	9555.923828	75.456421
419.734680	951.520691	12767.065430	9913.989258	75.853195
420.094543	954.567078	13224.622070	10276.585938	75.973732
420.454376	956.647522	13616.866211	10572.013672	75.949448
420.814148	953.452454	14035.338867	10882.896484	75.902237
421.173920	951.000488	14444.598633	11194.671875	75.915054
421.533691	947.656921	14868.418945	11488.835938	75.722717
421.893341	945.947937	15194.163086	11695.916992	75.447830
422.253021	946.022278	15399.238281	11839.620117	75.371445
422.612640	941.935608	15485.058594	11891.110352	75.287643
422.972260	944.090393	15473.690430	11891.778320	75.347481
423.331757	945.056335	15398.199219	11847.495117	75.432999
423.691315	947.656921	15374.496094	11858.565430	75.629234
424.050781	936.585754	15464.179688	11943.493164	75.765518
424.410248	933.687988	15586.481445	12019.133789	75.654144
424.769653	934.728271	15726.691406	12093.289063	75.436646
425.128998	934.059570	15811.916992	12097.449219	75.033585
425.488373	932.350586	15787.840820	12042.687500	74.789436
425.847656	925.811829	15621.403320	11926.627930	74.857933
426.206940	931.979004	15389.875977	11771.557617	74.973412
426.566193	939.483582	15095.637695	11553.403320	74.977425
426.925385	950.257507	14787.875000	11315.784180	74.908318
427.284576	954.418457	14389.390625	11009.062500	74.839340
427.643677	950.703308	14092.625000	10769.139648	74.710815
428.002777	947.656921	13811.539063	10548.832031	74.636681
428.361847	946.393738	13493.671875	10308.090820	74.611382
428.720856	953.081055	13221.796875	10117.875977	74.700523
429.079865	951.372070	13022.741211	9964.885742	74.668526
429.438812	948.325623	12915.668945	9882.855469	74.657585
429.797760	943.347351	12826.135742	9791.539063	74.462250
430.156616	946.765320	12676.786133	9680.901367	74.459679
430.515503	953.378235	12606.645508	9631.266602	74.467430
430.874268	948.622864	12566.448242	9630.375977	74.727867
431.233093	946.393738	12602.484375	9658.387695	74.741989
431.591827	945.576355	12668.984375	9692.418945	74.610069
431.950562	944.164612	12680.799805	9716.046875	74.739326
432.309204	942.009949	12741.281250	9748.442383	74.635391
432.667877	936.808655	12810.977539	9815.018555	74.769104
433.026459	942.009827	12943.608398	9918.967773	74.798019
433.385010	939.929382	13067.620117	10036.142578	75.003670
433.743561	944.387512	13212.213867	10157.553711	75.100235
434.102051	939.334961	13384.372070	10256.969727	74.870285
434.460510	944.759094	13551.702148	10365.303711	74.725052
434.818939	940.598145	13626.078125	10416.647461	74.699959
435.177338	941.564148	13665.383789	10440.275391	74.652985
435.535675	933.539368	13593.756836	10387.520508	74.674713
435.894012	937.254578	13530.674805	10346.357422	74.714432
436.252289	940.375244	13512.618164	10348.661133	74.833794
436.610535	949.960266	13513.807617	10382.467773	75.076584
436.968719	954.492737	13642.872070	10473.637695	75.022545
437.326935	957.019043	13723.936523	10560.645508	75.222748
437.685028	958.059326	13881.829102	10667.714844	75.130211
438.043152	948.251282	13963.859375	10756.804688	75.359932
438.401215	948.994324	14159.573242	10903.924805	75.355751
438.759277	944.164612	14377.726563	11065.012695	75.340019
439.117249	949.142883	14734.081055	11343.945313	75.406960
439.475250	944.907715	14993.100586	11541.739258	75.431992
439.833130	943.495911	15298.856445	11821.786133	75.778595
440.191071	935.991394	15519.385742	11996.991211	75.846542
440.548889	939.632141	15789.625000	12222.872070	75.981453
440.906708	946.096497	16079.332031	12419.625000	75.816757
441.264496	950.331848	16271.403320	12571.128906	75.848465
441.622223	944.313293	16439.550781	12700.043945	75.866737
441.979950	946.616699	16507.685547	12727.907227	75.710037
442.337616	955.384338	16551.748047	12726.718750	75.474861
442.695251	962.517395	16432.267578	12617.864258	75.342827
443.052887	957.910706	16267.168945	12502.473633	75.409027
443.410461	950.183289	16080.000977	12390.573242	75.614853
443.768005	940.300964	15958.518555	12314.041992	75.732964
444.125458	943.867432	15855.756836	12246.128906	75.793625
444.482941	942.752869	15877.303711	12285.286133	75.948273
444.840393	952.189270	15967.877930	12344.356445	75.868431
445.197754	949.514465	16204.977539	12571.871094	76.184883
445.555084	945.947937	16466.226563	12768.699219	76.176155
445.912415	939.260742	16826.373047	13082.182617	76.432533
446.269714	941.712708	17074.392578	13248.101563	76.282356
446.626953	943.793213	17416.185547	13504.890625	76.255455
446.984161	949.068665	17712.208984	13715.242188	76.156219
447.341309	944.684814	17997.232422	13911.104492	76.038025
447.698456	951.669250	18149.404297	14003.538086	75.892960
448.055542	951.966492	18241.912109	14029.468750	75.636459
448.412598	950.628967	18153.046875	13948.403320	75.557831
448.769653	951.669250	18037.582031	13820.602539	75.318970
449.126617	949.440186	17746.537109	13570.871094	75.140541
449.483582	957.985046	17557.658203	13411.120117	75.020355
449.840515	952.635193	17210.294922	13211.097656	75.401154
450.197388	955.384460	17009.898438	13122.305664	75.785049
450.554230	948.474182	16810.841797	13011.223633	76.046333
450.911041	949.663147	16721.826172	12901.331055	75.776978
451.267822	946.839600	16587.785156	12794.036133	75.744759
451.624573	938.369080	16393.259766	12646.769531	75.758545
451.981262	940.969543	16257.584961	12553.445313	75.816200
452.337921	942.084167	16155.120117	12443.848633	75.604660
452.694580	952.486572	16144.643555	12442.434570	75.630791
453.051147	948.845703	16145.164063	12458.708008	75.741127
453.407715	951.074890	16051.691406	12380.838867	75.690712
453.764221	950.034668	16058.082031	12347.625977	75.440536
454.120728	948.399963	15855.829102	12155.553711	75.178314
454.477142	940.523926	15787.397461	12123.157227	75.319786
454.833557	941.192566	15575.188477	11997.734375	75.553810
455.189911	945.576477	15425.765625	11918.378906	75.778030
455.546265	955.755859	15260.442383	11803.729492	75.835106
455.902557	953.303955	15189.036133	11736.040039	75.744164
456.258820	956.350281	15220.614258	11765.612305	75.778618
456.615051	948.548523	15312.081055	11866.292969	76.010162
456.971252	944.536194	15321.071289	11908.422852	76.262375
457.327393	936.214294	15494.198242	12059.257813	76.405113
457.683502	947.656921	15707.372070	12218.786133	76.364136
458.039612	947.805481	16110.390625	12518.522461	76.310974
458.395630	955.904480	16523.439453	12850.432617	76.405983
458.751648	948.028503	16916.873047	13200.770508	76.729042
459.107605	952.486572	17511.666016	13697.112305	76.964111
459.463562	940.523865	18073.244141	14171.981445	77.229172
459.819458	945.576416	18680.447266	14647.221680	77.258217
460.175323	941.935547	19184.369141	15018.363281	77.163101
460.531158	948.845703	19727.892578	15361.122070	76.746582
460.886932	939.409363	20034.318359	15508.316406	76.297340
461.242676	947.136780	20179.580078	15534.174805	75.845993
461.598419	940.895325	19945.525391	15313.864258	75.628769
461.954102	947.656921	19559.001953	14981.210938	75.403221
462.309723	941.266907	18958.265625	14498.168945	75.245064
462.665344	943.421631	18339.470703	14014.086914	75.135826
463.020905	944.536194	17866.384766	13674.300781	75.226799
463.376373	949.217224	17502.748047	13414.166992	75.300850
463.731873	955.310059	17252.867188	13218.528320	75.245750
464.087341	956.647522	16995.037109	13010.629883	75.157059
464.442749	954.492859	16850.150391	12915.151367	75.244820
464.798126	953.526855	16737.728516	12851.695313	75.380234
465.153503	952.635254	16815.226563	12894.569336	75.283623
465.508820	954.418457	16892.128906	12934.914063	75.170746
465.864105	949.365906	17031.818359	13048.597656	75.232506
466.219330	939.632141	17295.964844	13249.438477	75.260185
466.574524	937.551697	17458.835938	13362.675781	75.206764
466.929657	937.254456	17687.093750	13482.823242	74.899635
467.284790	940.375244	17880.429688	13596.877930	74.713470
467.639893	937.477356	18091.300781	13751.426758	74.700249
467.994934	941.192566	18293.701172	13849.358398	74.387901
468.349945	943.495911	18329.070313	13880.565430	74.412666
468.704926	951.223450	18290.208984	13830.782227	74.280922
469.059875	952.560852	18064.998047	13702.609375	74.507500
469.414764	953.155334	17806.126953	13527.776367	74.613678
469.769653	946.988220	17605.880859	13417.956055	74.860725
470.124451	950.257507	17494.279297	13375.530273	75.104309
470.479248	950.851868	17376.953125	13299.444336	75.176651
470.834015	951.000488	17306.812500	13238.293945	75.124931
471.188721	945.353516	17371.974609	13284.286133	75.115463
471.543365	934.505371	17460.693359	13361.710938	75.197044
471.898010	933.762268	17566.648438	13452.730469	75.266357
472.252625	936.585876	17694.003906	13543.453125	75.231560
472.607178	947.508301	17934.521484	13716.727539	75.170471
472.961700	953.898376	18177.863281	13890.745117	75.109573
473.316193	955.607239	18435.396484	14077.393555	75.068329
473.670654	953.898254	18619.962891	14222.432617	75.107468
474.025055	950.703308	18859.144531	14367.992188	74.921593
474.379456	954.269775	19022.017578	14502.034180	74.983139
474.733795	953.601074	19158.289063	14591.198242	74.912560
475.088104	957.687744	19194.250000	14705.028320	75.383400
475.442383	952.486511	19184.517578	14734.823242	75.594086
475.796570	959.248047	19229.617188	14822.278320	75.877121
476.150787	954.864258	19403.486328	14955.280273	75.888687
476.504944	953.303955	19657.453125	15170.535156	76.011116
476.859070	951.594971	19943.220703	15404.440430	76.101151
477.213135	954.121277	20230.103516	15615.905273	76.062447
477.567200	956.350281	20645.455078	15933.624023	76.068840
477.921173	952.486572	21045.279297	16222.512695	75.997528
478.275146	942.158508	21492.656250	16593.876953	76.162239
478.629089	933.316467	21749.224609	16831.275391	76.374084
478.983002	930.047180	22141.990234	17148.474609	76.458946
479.336823	928.263916	22489.724609	17424.210938	76.506630
479.690643	939.260742	22932.197266	17731.974609	76.355034
480.044403	939.557922	23420.515625	18111.585938	76.384773
480.398163	950.183105	24027.718750	18607.705078	76.513901
480.751862	942.529968	24813.841797	19324.726563	77.005386
481.105499	946.468018	25780.294922	20222.822266	77.621361
481.459137	946.245117	27024.123047	21408.546875	78.466125
481.812744	950.183289	28631.289063	22840.656250	79.080917
482.166290	951.074890	30475.853516	24577.482422	80.022301
482.519806	954.567078	32802.863281	26649.859375	80.680275
482.873291	955.830261	35543.300781	29069.898438	81.283974
483.226715	951.669250	38880.164063	31825.267578	81.399475
483.580139	944.016113	42332.191406	34655.683594	81.452415
483.933502	948.102722	45887.355469	37489.960938	81.313896
484.286804	950.257507	49061.792969	39966.246094	81.094872
484.640106	956.276062	51666.472656	41959.042969	80.857048
484.993347	950.777588	53177.718750	43163.566406	80.825699
485.346558	954.418396	53527.015625	43353.109375	80.647888
485.699738	954.492676	52732.488281	42454.347656	80.149597
486.052887	962.814636	51050.203125	40777.632813	79.490707
486.405975	963.854797	48983.625000	38854.007813	78.905319
486.759064	963.706299	46930.343750	37160.128906	78.744987
487.112061	952.263672	45391.312500	36003.308594	78.874435
487.464996	941.415527	44630.671875	35534.308594	79.179405
487.817963	941.415466	44683.203125	35610.171875	79.257751
488.170868	945.204895	45071.886719	35864.140625	79.133385
488.523743	950.034485	45374.886719	36031.765625	78.968704
488.876587	940.152344	45339.000000	35916.078125	78.776649
489.229401	938.889160	44931.230469	35468.925781	78.491020
489.582153	935.619934	44037.812500	34690.605469	78.313850
489.934845	937.254578	42837.972656	33690.488281	78.168671
490.287537	929.972839	41565.835938	32734.656250	78.267525
490.640198	935.248291	40603.988281	32015.851563	78.350372
490.992798	940.226563	39983.632813	31605.775391	78.542198
491.345337	954.344177	39919.953125	31526.494141	78.459312
491.697876	954.715637	40192.125000	31663.212891	78.263313
492.050354	957.242004	40799.769531	32046.244141	78.029694
492.402832	952.412292	41309.488281	32319.156250	77.723038
492.755219	953.675476	41423.621094	32279.037109	77.404015
493.107605	949.217224	40857.656250	31671.162109	76.981079
493.459930	948.548584	39687.910156	30624.087891	76.603065
493.812225	948.771423	37975.078125	29130.156250	76.111786
494.164490	953.601074	35979.683594	27471.500000	75.709007
494.516724	956.870422	33902.027344	25827.476563	75.490929
494.868896	959.396729	32045.054688	24448.492188	75.562485
495.221039	958.802429	30596.671875	23471.931641	75.960686
495.573120	956.870422	29523.587891	22735.517578	76.237839
495.925201	952.040833	28945.884766	22405.242188	76.635422
496.277222	950.777649	28695.187500	22226.248047	76.683807
496.629211	953.898254	28679.734375	22265.851563	76.866768
496.981140	960.214050	28727.585938	22269.046875	76.740547
497.333069	964.375000	28846.916016	22366.083984	76.756668
497.684967	956.424622	28975.982422	22433.773438	76.651276
498.036804	952.783752	29081.640625	22508.523438	76.632118
498.388580	945.502136	29005.109375	22403.458984	76.472763
498.740326	944.461914	28870.544922	22249.951172	76.292435
499.092072	944.164734	28612.568359	21994.421875	76.080490
499.443756	940.523865	28332.744141	21750.636719	75.970886
499.795410	945.799316	28000.240234	21481.509766	75.905136
500.147003	945.799316	27644.994141	21171.371094	75.753487
500.498566	953.452454	27297.406250	20896.896484	75.704063
500.850098	950.926208	26923.664063	20584.380859	75.592552
501.201599	949.440125	26620.062500	20382.275391	75.700676
501.553009	944.164612	26339.794922	20143.318359	75.600227
501.904449	944.833313	26141.181641	19993.226563	75.599815
502.255859	944.833435	25943.318359	19787.408203	75.374863
502.607178	948.474304	25851.255859	19729.601563	75.417786
502.958405	952.263672	25763.130859	19619.113281	75.236588
503.309692	957.167664	25737.794922	19663.322266	75.487007
503.660919	959.471008	25764.617188	19703.000000	75.563065
504.012115	955.904602	25842.337891	19815.644531	75.783218
504.363251	948.028503	25954.906250	19888.013672	75.739105
504.714294	945.353516	26047.638672	19951.544922	75.714981
505.065369	941.118347	26092.515625	20029.117188	75.892395
505.416443	944.164734	26100.833984	20068.869141	76.022400
505.767395	947.136902	26075.203125	20078.900391	76.137032
506.118317	949.440186	26057.593750	20026.515625	75.979607
506.469238	952.635193	26060.640625	20021.314453	75.946609
506.820160	957.390564	26068.515625	19980.298828	75.754906
507.170929	965.266663	26096.898438	19990.255859	75.701370
507.521729	961.551453	26122.087891	20037.808594	75.818169
507.872498	956.053040	26222.767578	20132.693359	75.896851
508.223236	942.455750	26382.146484	20326.771484	76.197136
508.573883	939.483582	26578.453125	20491.947266	76.260719
508.924500	938.369080	26749.130859	20663.140625	76.420723
509.275116	947.805481	26940.681641	20815.240234	76.434151
509.625702	946.022217	27187.958984	20966.369141	76.291420
509.976196	943.495911	27445.791016	21179.320313	76.354988
510.326660	933.539368	27674.718750	21357.873047	76.377838
510.677124	933.019226	27886.181641	21580.408203	76.604698
511.027557	936.139954	28084.943359	21768.544922	76.734154
511.377869	950.554688	28321.671875	21938.474609	76.679077
511.728180	950.926270	28489.966797	22009.281250	76.467278
512.078430	954.641357	28638.349609	22080.390625	76.311127
512.428650	944.981995	28742.000000	22174.234375	76.372406
512.778931	951.669250	28852.265625	22274.767578	76.425240
513.129028	942.530090	28886.224609	22316.154297	76.488182
513.479126	952.189392	28953.689453	22343.125000	76.392105
513.829285	945.204895	28896.998047	22322.244141	76.478241
514.179382	950.183167	28854.201172	22284.353516	76.455551
514.529297	943.793152	28750.919922	22244.376953	76.601166
514.879272	948.176941	28759.240234	22221.123047	76.490952
515.229187	951.074768	28657.593750	22134.484375	76.456413
515.579163	950.926270	28612.267578	22122.000000	76.536682
515.928955	956.721924	28603.873047	22195.039063	76.819191
516.278748	952.783875	28774.322266	22406.208984	77.110855
516.628540	954.195557	29044.859375	22642.640625	77.208733
516.978333	943.124451	29434.501953	22942.156250	77.212944
517.327942	944.461914	30004.478516	23360.775391	77.137993
517.677612	943.050110	30565.687500	23858.974609	77.359497
518.027222	946.839600	31223.265625	24388.234375	77.424576
518.376831	946.839600	31946.232422	24984.437500	77.542160
518.726379	945.353516	32654.187500	25493.634766	77.417801
519.075867	942.455750	33199.125000	25931.947266	77.470772
519.425293	939.780762	33600.957031	26192.898438	77.318459
519.774658	944.313293	33800.679688	26335.335938	77.278854
520.124084	946.839600	33851.949219	26320.921875	77.112892
520.473389	938.666321	33597.238281	26114.062500	77.086639
520.822693	929.750000	33241.105469	25773.607422	76.888939
521.171997	932.647766	32722.916016	25361.822266	76.844818
521.521240	942.678528	32236.603516	24973.888672	76.791931
521.870361	943.347351	31778.828125	24647.775391	76.873871
522.219482	945.427795	31468.318359	24398.337891	76.837120
522.568604	949.960266	31246.521484	24248.767578	76.902481
522.917664	955.458679	31108.990234	24194.080078	77.067657
523.266724	951.074890	31152.083984	24305.906250	77.331299
523.615662	944.461914	31325.876953	24518.708984	77.594299
523.964600	947.805481	31750.072266	24904.416016	77.775482
524.313538	952.189392	32254.439453	25382.107422	78.045242
524.662354	955.161560	32878.062500	25978.015625	78.385277
525.011169	951.297791	33664.183594	26725.648438	78.789597
525.359985	955.532959	34621.277344	27577.531250	79.077400
525.708740	954.567078	35818.000000	28590.052734	79.267830
526.057434	958.950867	37087.613281	29690.771484	79.526382
526.406067	950.108887	38487.324219	30988.990234	80.024269
526.754700	947.582520	39940.164063	32373.843750	80.595490
527.103333	942.827209	41657.003906	33904.996094	80.959930
527.451782	939.334961	43560.121094	35591.746094	81.304016
527.800293	946.839539	45647.359375	37404.437500	81.559669
528.148743	951.520691	47847.015625	39327.167969	81.832268
528.497131	960.511230	49981.878906	41148.476563	81.980507
528.845642	956.870361	51902.082031	42830.246094	82.192955
529.193909	955.384277	53440.371094	44232.339844	82.455879
529.542175	955.087158	54534.558594	45237.875000	82.648796
529.890503	957.762024	55058.464844	45627.746094	82.568214
530.238770	946.170837	54906.144531	45243.300781	82.092567
530.586914	948.994324	54069.644531	44080.761719	81.195854
530.934998	940.375244	52576.234375	42344.082031	80.184021
531.283142	950.777649	50671.855469	40328.843750	79.197937
531.631226	947.582581	48418.996094	38281.359375	78.644753
531.979248	952.337891	46309.765625	36547.503906	78.477028
532.327148	953.006653	44541.878906	35253.445313	78.690811
532.675110	946.245117	43502.386719	34567.261719	79.003914
533.023071	949.960266	43144.546875	34332.910156	79.116669
533.370850	944.981995	43242.769531	34449.191406	79.210312
533.718689	948.474304	43675.582031	34748.855469	79.107582
534.066467	948.177063	44087.890625	35015.527344	78.969810
534.414246	948.399963	44314.066406	35109.894531	78.775444
534.761963	955.161438	44296.683594	34967.601563	78.475418
535.109619	956.573242	43916.550781	34636.656250	78.398743
535.457153	968.461670	43193.656250	34005.972656	78.241226
535.804749	956.647522	42148.441406	33213.238281	78.308296
536.152344	950.703308	41133.984375	32314.177734	78.051056
536.499817	943.644531	40159.066406	31506.507813	77.935829
536.847229	946.839539	39373.535156	30810.291016	77.715378
537.194641	946.690979	38704.285156	30344.638672	77.859695
537.542114	948.177063	38279.351563	29999.796875	77.821335
537.889404	952.560852	37919.281250	29717.375000	77.812737
538.236694	951.966492	37522.281250	29367.111328	77.700027
538.583984	948.920105	37117.703125	29089.070313	77.802315
538.931213	947.136719	36748.937500	28861.779297	77.969940
539.278381	948.697083	36484.644531	28742.298828	78.212631
539.625488	954.046875	36365.832031	28707.525391	78.373566
539.972595	958.430847	36510.722656	28947.150391	78.725494
540.319641	954.195496	37004.535156	29493.423828	79.164940
540.666687	950.554688	37895.429688	30327.916016	79.516747
541.013611	945.725098	39217.050781	31471.880859	79.762474
541.360596	945.353516	40693.519531	32677.740234	79.833588
541.707458	942.381409	42364.214844	33902.769531	79.572502
542.054260	937.254578	43726.480469	34906.824219	79.388138
542.401062	941.935547	44901.425781	35752.535156	79.187904
542.747864	943.496033	45498.453125	36196.273438	79.122009
543.094666	948.474182	45549.792969	36126.355469	78.871841
543.441284	954.121277	44937.093750	35462.609375	78.458748
543.787903	958.282227	43882.449219	34476.015625	78.085930
544.134460	954.864319	42526.941406	33229.511719	77.635391
544.481079	946.245178	41031.968750	31911.751953	77.248215
544.827637	930.567322	39371.972656	30583.962891	77.139206
545.174072	931.756165	37749.199219	29305.585938	77.066277
545.520508	932.721985	36336.410156	28270.474609	77.217247
545.866943	940.226624	35239.328125	27347.263672	76.990463
546.213318	953.155273	34420.511719	26722.750000	76.999191
546.559631	949.663086	33790.128906	26178.259766	76.821686
546.905823	946.245117	33215.542969	25813.880859	77.062843
547.252136	941.043945	32778.718750	25454.031250	76.993652
547.598389	944.090332	32419.095703	25175.396484	76.985870
547.944458	951.892090	32148.335938	24902.853516	76.774651
548.290588	948.622803	31729.490234	24490.101563	76.480881
548.636658	950.480408	31149.185547	24020.509766	76.394104
548.982727	950.108887	30421.166016	23444.884766	76.328362
549.328735	950.926270	29727.851563	22884.939453	76.220840
549.674622	954.121277	28984.447266	22264.291016	76.025406
550.020569	956.276062	28310.599609	21689.707031	75.795807
550.366455	950.777649	27559.173828	21162.677734	75.960609
550.712280	947.731201	26934.734375	20667.970703	75.885010
551.058044	949.663086	26397.822266	20276.841797	75.947258
551.403748	954.715637	25999.634766	19992.039063	76.012718
551.749512	959.025146	25746.265625	19842.169922	76.180908
552.095154	957.836365	25609.322266	19708.945313	76.064819
552.440735	956.647522	25631.615234	19711.396484	76.007187
552.786316	955.978821	25666.240234	19737.031250	76.005074
553.131897	951.743469	25736.158203	19796.324219	76.033997
553.477417	949.885925	25774.275391	19832.287109	76.063911
553.822815	947.656921	25806.375000	19807.693359	75.868904
554.168213	949.440186	25761.275391	19741.490234	75.738251
554.513672	950.554749	25680.507813	19628.548828	75.527817
554.859009	948.697083	25507.603516	19474.519531	75.434235
555.204285	945.725037	25291.310547	19329.109375	75.510132
555.549500	945.204834	24993.654297	19118.015625	75.567497
555.894714	948.399902	24722.076172	18927.578125	75.626411
556.239990	947.210999	24428.134766	18696.197266	75.588959
556.585022	941.564026	24184.123047	18481.687500	75.465546
556.930115	937.403137	23892.708984	18261.750000	75.469902
557.275146	944.313293	23670.171875	18076.515625	75.386383
557.620178	949.811707	23514.287109	17964.541016	75.404938
557.965149	951.966492	23388.564453	17854.648438	75.335312
558.310059	948.845764	23224.281250	17778.708984	75.553467
558.654968	946.542419	23088.380859	17652.468750	75.449593
558.999756	951.000488	22981.755859	17575.787109	75.461716
559.344604	952.932434	22973.880859	17510.476563	75.189972
559.689331	949.440186	22845.115234	17448.433594	75.352753
560.033997	945.947937	22767.912109	17395.751953	75.381866
560.378723	937.774658	22696.880859	17387.357422	75.598610
560.723389	940.969727	22733.585938	17409.871094	75.571014
561.067932	935.545593	22804.396484	17455.640625	75.541672
561.412476	938.294861	22819.257813	17462.400391	75.518181
561.757019	940.375244	22821.783203	17471.392578	75.548233
562.101501	941.786926	22823.197266	17482.835938	75.594070
562.445862	943.421631	22813.091797	17491.009766	75.664551
562.790222	937.700378	22787.009766	17485.583984	75.736412
563.134644	937.031677	22736.039063	17453.115234	75.765305
563.478943	937.031677	22742.281250	17435.875000	75.664551
563.823181	936.214294	22748.298828	17419.455078	75.569305
564.167358	941.043945	22772.669922	17432.458984	75.539108
564.511536	939.483582	22787.974609	17460.990234	75.618523
564.855774	940.152344	22822.898438	17516.496094	75.750748
565.199768	936.957336	22920.904297	17637.164063	75.965462
565.543823	937.180176	23095.367188	17804.269531	76.121254
565.887817	940.152344	23317.458984	18009.271484	76.278702
566.231812	938.294739	23546.234375	18191.013672	76.312653
566.575745	938.889099	23741.726563	18290.728516	76.095093
566.919617	937.700378	23958.244141	18427.742188	75.975800
567.263428	947.136780	24106.255859	18501.673828	75.799675
567.607239	953.081055	24229.373047	18581.773438	75.736679
567.950989	962.443176	24229.593750	18555.470703	75.613159
568.294678	951.594971	24225.062500	18547.371094	75.604446
568.638367	949.143005	24105.734375	18478.568359	75.699509
568.981995	942.307129	23980.236328	18345.861328	75.543053
569.325623	950.183167	23763.943359	18197.851563	75.602043
569.669128	945.056335	23585.095703	18049.839844	75.551033
570.012573	949.440186	23441.318359	18000.132813	75.808220
570.356140	944.759094	23399.859375	17989.580078	75.906235
570.699524	947.805481	23370.507813	18015.882813	76.119629
571.042908	942.975769	23424.005859	18055.041016	76.117798
571.386230	948.325623	23544.228516	18125.107422	76.017242
571.729492	947.136780	23718.914063	18266.878906	76.057930
572.072815	949.960266	23831.187500	18419.125000	76.347145
572.416016	941.935547	23947.099609	18538.603516	76.490082
572.759094	940.672424	24061.228516	18631.482422	76.515503
573.102234	936.734436	24205.150391	18705.412109	76.363930
573.445374	939.037781	24295.802734	18744.941406	76.234459
573.788391	940.375183	24289.412109	18727.107422	76.177582
574.131409	936.660095	24264.521484	18705.783203	76.171249
574.474365	928.263916	24164.359375	18622.414063	76.149414
574.817261	933.910889	24048.593750	18503.533203	76.010658
575.160156	935.694153	23862.765625	18327.064453	75.855179
575.502930	949.811707	23641.787109	18157.505859	75.831627
575.845703	943.793152	23454.843750	18011.796875	75.820557
576.188477	954.121277	23252.515625	17833.246094	75.696594
576.531250	947.211121	23035.031250	17699.947266	75.846039
576.873901	943.793213	22822.750000	17501.039063	75.676575
577.216431	940.449524	22540.992188	17310.529297	75.785500
577.559082	943.273010	22290.296875	17068.822266	75.540031
577.901611	954.492737	21955.265625	16795.611328	75.431114
578.244080	952.189392	21652.185547	16519.873047	75.206215
578.586487	951.966492	21317.228516	16234.476563	75.042053
578.928955	954.195557	21005.156250	16025.239258	75.163696
579.271301	955.681641	20676.441406	15812.585938	75.336372
579.613647	957.762146	20351.812500	15593.094727	75.463005
579.955872	956.201721	20060.843750	15326.050781	75.216530
580.298157	954.121277	19811.408203	15102.696289	75.029747
580.640320	952.189392	19562.568359	14932.171875	75.119278
580.982483	941.192566	19365.146484	14782.971680	75.129257
581.324524	940.598145	19211.712891	14634.515625	74.948448
581.666626	937.328857	19106.128906	14484.051758	74.560356
582.008728	940.746765	19018.005859	14430.554688	74.623077
582.350647	940.746765	18926.537109	14335.668945	74.475021
582.692566	947.954102	18849.039063	14271.546875	74.428963
583.034424	947.433899	18751.482422	14180.153320	74.324219
583.376343	947.434021	18661.572266	14146.272461	74.510193
583.718201	947.062500	18603.021484	14117.815430	74.596642
584.059937	945.725037	18481.390625	14065.281250	74.816414
584.401611	944.907715	18379.744141	14002.570313	74.894089
584.743347	943.124512	18270.220703	13960.886719	75.129509
585.085022	942.084167	18195.029297	13868.973633	74.925697
585.426514	947.433899	18150.148438	13801.433594	74.720764
585.768127	947.731201	18082.013672	13724.233398	74.566887
586.109619	950.777649	18065.591797	13729.656250	74.665604
586.451172	948.028503	18004.144531	13712.492188	74.838051
586.792542	945.056335	17956.664063	13695.773438	74.953041
587.133850	946.170898	17883.103516	13661.668945	75.075562
587.475220	942.381409	17891.126953	13669.397461	75.091194
587.816589	944.164734	17869.802734	13650.820313	75.073418
588.157776	947.508301	17926.720703	13688.715820	75.040031
588.498962	955.830261	17911.267578	13670.809570	74.990570
588.840210	957.836426	17949.162109	13724.679688	75.137421
589.181335	952.932373	17969.890625	13753.062500	75.219841
589.522400	950.331848	18052.812500	13802.398438	75.147385
589.863403	949.068665	18114.185547	13841.407227	75.107780
590.204407	955.087219	18110.769531	13853.742188	75.185913
590.545410	952.858093	18122.435547	13919.500000	75.521027
590.886353	948.994324	18144.947266	13889.333008	75.252235
591.227112	941.564026	18158.320313	13845.866211	74.951996
591.567932	940.746765	18107.498047	13778.473633	74.782501
591.908752	940.821106	18018.335938	13757.817383	75.051880
592.249512	944.833435	18020.119141	13760.640625	75.054718
592.590149	949.811707	17921.371094	13708.554688	75.177200
592.930786	957.242004	17888.378906	13669.768555	75.083717
593.271423	961.180115	17790.597656	13623.329102	75.238190
593.612000	957.687805	17751.810547	13598.809570	75.271103
593.952576	951.966492	17734.126953	13582.612305	75.262337
594.292969	952.115051	17750.621094	13582.909180	75.189987
594.633484	949.960266	17833.914063	13623.403320	75.062065
594.973877	948.474182	17917.208984	13690.051758	75.088554
595.314209	937.848938	18010.162109	13822.906250	75.473419
595.654480	939.632141	18158.767578	13964.082031	75.639397
595.994812	940.523865	18318.220703	14125.319336	75.871941
596.335022	938.591980	18531.916016	14266.643555	75.756302
596.675171	935.545593	18716.855469	14391.247070	75.673279
597.015320	936.362976	18891.691406	14529.377930	75.704628
597.355408	953.303894	18983.529297	14627.902344	75.842644
597.695496	956.498840	19072.097656	14711.492188	75.929001
598.035461	951.669189	19074.994141	14705.028320	75.887619
598.375366	949.663086	19022.759766	14650.192383	75.806206
598.715271	948.622803	18924.310547	14552.039063	75.676750
599.055176	953.006653	18742.712891	14332.995117	75.211967
599.395081	947.211121	18524.486328	14106.668945	74.866310
599.734802	952.189392	18162.705078	13831.971680	74.836700
600.074524	950.406067	17821.728516	13611.515625	75.045151
600.414246	947.879822	17416.037109	13350.637695	75.313568
600.753906	945.204895	17094.900391	13093.847656	75.225212
601.093506	949.365906	16788.773438	12859.200195	75.191162
601.433044	942.752930	16608.738281	12694.916992	75.017075
601.772583	937.477356	16475.068359	12617.196289	75.170715
602.112122	935.842773	16447.501953	12620.243164	75.326569
602.451538	946.765320	16503.525391	12680.875000	75.427719
602.790894	945.650696	16638.087891	12818.334961	75.658638
603.130310	942.604309	16828.822266	12960.028320	75.646851
603.469604	942.381348	17032.859375	13120.002930	75.682159
603.808838	943.867432	17284.595703	13289.414063	75.550774
604.148010	954.864197	17546.363281	13525.324219	75.764458
604.487305	955.087158	17821.580078	13768.739258	75.971054
604.826416	957.613464	18046.943359	13979.610352	76.199577
605.165527	953.229492	18262.419922	14115.956055	76.044724
605.504456	948.622803	18460.882813	14216.859375	75.765419
605.843445	948.251282	18544.992188	14273.776367	75.727242
606.182434	940.820984	18545.513672	14246.656250	75.581177
606.521423	942.752930	18385.615234	14147.015625	75.700089
606.860229	936.734375	18197.404297	13984.886719	75.594704
607.199036	940.895325	17895.511719	13770.078125	75.667778
607.537903	937.254456	17598.302734	13552.593750	75.717552
607.876648	945.353516	17307.705078	13285.327148	75.416870
608.215271	944.981934	17017.253906	13077.129883	75.484962
608.553955	939.706543	16775.025391	12887.063477	75.447533
608.892578	935.545593	16554.421875	12742.620117	75.594902
609.231140	936.734375	16473.804688	12658.210938	75.442001
609.569641	941.192566	16426.919922	12616.601563	75.394646
609.908081	942.604309	16474.697266	12636.886719	75.291092
610.246521	945.947998	16495.576172	12666.905273	75.377731
610.584961	948.102722	16557.767578	12715.721680	75.386749
610.923340	954.715637	16542.757813	12703.610352	75.371201
611.261597	951.817810	16465.333984	12651.821289	75.418129
611.599854	946.913818	16349.867188	12527.735352	75.185722
611.938110	941.638367	16186.178711	12392.950195	75.117462
612.276245	940.895325	15975.828125	12209.348633	74.948479
612.614319	946.393799	15678.096680	11973.289063	74.851463
612.952393	948.251282	15374.497070	11735.222656	74.773239
613.290466	947.211121	15107.971680	11494.110352	74.479752
613.628479	948.845764	14852.519531	11285.393555	74.344002
613.966370	947.136719	14593.796875	11099.117188	74.391685
614.304260	947.285339	14358.480469	10940.035156	74.510513
614.642151	943.124329	14145.083008	10790.687500	74.591682
614.979980	941.861267	14020.700195	10665.561523	74.346817
615.317749	939.483582	13909.542969	10556.186523	74.145401
615.655396	946.690979	13849.878906	10494.070313	73.992409
615.993164	946.765320	13789.247070	10458.254883	74.062706
616.330811	951.817871	13757.223633	10434.627930	74.053177
616.668396	950.331848	13714.424805	10407.433594	74.091454
617.005859	940.598145	13664.938477	10384.326172	74.217827
617.343445	937.328857	13645.916992	10358.765625	74.134407
617.680908	936.882996	13673.632813	10369.316406	74.056831
618.018311	951.594971	13731.737305	10371.471680	73.707138
618.355652	948.622864	13752.840820	10398.442383	73.802391
618.692993	948.622864	13741.768555	10398.294922	73.865120
619.030273	940.375305	13736.492188	10384.994141	73.808479
619.367554	937.551758	13728.096680	10357.799805	73.650093
619.704712	935.991394	13723.266602	10372.882813	73.799080
620.041870	939.780823	13706.028320	10359.657227	73.787354
620.379028	953.378235	13683.069336	10356.833984	73.870262
620.716064	957.687805	13619.019531	10295.756836	73.752663
621.053040	961.625793	13535.875000	10260.388672	73.950836
621.389954	956.127441	13463.578125	10187.274414	73.805176
621.726929	948.697083	13411.640625	10135.930664	73.716400
622.063843	941.043945	13343.059570	10079.089844	73.681938
622.400635	933.390808	13257.539063	10042.532227	73.912949
622.737427	927.966614	13187.098633	10011.250977	74.094025
623.074219	927.372253	13156.858398	9970.979492	73.949203
623.410889	934.133728	13116.808594	9958.868164	74.078430
623.747559	936.214294	13112.573242	9934.200195	73.897179
624.084167	940.821045	13071.409180	9924.762695	74.060234
624.420715	946.022278	13074.231445	9931.301758	74.085793
624.757324	952.709473	13057.811523	9949.283203	74.320518
625.093750	955.087219	13109.450195	9998.174805	74.401985
625.430176	945.204895	13166.367188	10039.784180	74.416649
625.766602	952.115051	13220.979492	10084.216797	74.433144
626.102905	952.263672	13288.743164	10148.637695	74.546181
626.439209	958.059326	13351.528320	10220.562500	74.736969
626.775452	950.480469	13482.898438	10294.864258	74.561699
627.111694	951.000549	13563.664063	10360.845703	74.606331
627.447876	945.130615	13676.010742	10399.854492	74.266068
627.783997	944.833313	13727.799805	10443.619141	74.308151
628.120056	938.443359	13782.709961	10478.393555	74.273994
628.456055	939.409241	13767.921875	10468.510742	74.280640
628.792053	937.923157	13732.331055	10451.867188	74.360176
629.128052	941.118225	13662.041992	10388.337891	74.265205
629.463928	948.251282	13597.621094	10339.594727	74.243568
629.799744	956.276062	13477.473633	10237.725586	74.125893
630.135559	960.288391	13373.821289	10130.135742	73.869766
630.471375	959.025208	13196.980469	10011.549805	73.970894
630.807068	963.483398	13051.941406	9913.543945	74.038063
631.142700	963.854980	12927.039063	9797.110352	73.836998
631.478333	962.368896	12814.768555	9706.610352	73.776123
631.813965	954.492737	12736.972656	9593.225586	73.318459
632.149475	950.034485	12588.960938	9516.618164	73.602867
632.484924	947.656921	12496.975586	9436.743164	73.502914
632.820435	946.690918	12396.370117	9384.359375	73.693481
633.155884	946.393738	12327.118164	9337.845703	73.733902
633.491150	955.607239	12256.160156	9294.528320	73.792152
633.826477	955.532959	12204.221680	9238.652344	73.636307
634.161804	952.709534	12157.635742	9205.661133	73.654671
634.497009	946.690979	12105.696289	9156.918945	73.574905
634.832153	945.279236	12012.817383	9106.393555	73.739204
635.167297	958.430847	11948.398438	9048.659180	73.614670
635.502380	959.693909	11872.831055	9000.362305	73.678802
635.837463	958.802307	11815.321289	8947.237305	73.581924
636.172424	945.576355	11739.903320	8891.137695	73.608681
636.507324	943.050110	11657.578125	8829.838867	73.608360
636.842224	943.050110	11577.627930	8778.049805	73.674759
637.177124	949.885925	11461.268555	8682.570313	73.564865
637.511963	946.468018	11349.368164	8596.750977	73.539909
637.846741	947.508301	11214.362305	8505.284180	73.613358
638.181396	942.009949	11091.166992	8409.359375	73.576057
638.516113	950.331787	10994.351563	8342.114258	73.593864
638.850769	948.325623	10873.459961	8261.125000	73.679596
639.185303	945.502136	10778.278320	8202.054688	73.799629
639.519836	941.638428	10681.610352	8112.816406	73.626266
639.854370	942.752930	10618.006836	8048.024902	73.437576
640.188843	946.690918	10537.686523	7970.972656	73.238289
640.523254	942.604309	10471.036133	7899.791016	73.015022
640.857605	946.245117	10387.297852	7830.614746	72.919510
641.191895	950.108887	10299.843750	7787.000000	73.123909
641.526184	948.845703	10218.407227	7755.494629	73.430107
641.860413	950.406067	10164.687500	7730.529297	73.582764
642.194580	946.616699	10111.708008	7705.117188	73.741768
642.528748	947.954102	10060.959961	7643.446777	73.471832
642.862793	940.226624	10008.576172	7571.818848	73.128990
643.196838	941.192566	9970.831055	7511.113770	72.759514
643.530823	944.759094	9919.190430	7476.339844	72.779877
643.864746	943.793152	9851.278320	7452.711426	73.072456
644.198669	948.474182	9807.291016	7417.417969	73.022667
644.532532	950.851868	9773.409180	7416.748535	73.288231
644.866333	950.406067	9759.290039	7374.842285	72.931328
645.200073	953.378174	9736.331055	7357.604004	72.916542
645.533813	950.257507	9706.536133	7320.229004	72.747475
645.867554	953.749695	9677.707031	7330.705566	73.097061
646.201172	944.907715	9670.796875	7316.514160	73.019569
646.534729	942.901550	9695.391602	7304.700684	72.685593
646.868225	945.353516	9742.870117	7297.046875	72.198708
647.201782	949.514404	9749.780273	7315.919922	72.343330
647.535217	951.892090	9739.377930	7336.130371	72.651474
647.868591	953.378235	9724.740234	7346.532715	72.886673
648.201965	949.068665	9748.887695	7352.552246	72.768349
648.535278	939.409363	9760.777344	7345.716309	72.622604
648.868591	934.282410	9755.426758	7358.050293	72.822388
649.201782	938.443359	9705.198242	7310.867676	72.688522
649.534912	948.697205	9663.143555	7276.093750	72.608131
649.868103	952.263672	9604.295898	7227.722656	72.531616
650.201172	952.189270	9581.782227	7223.264160	72.669418
650.534180	952.189270	9571.454102	7226.905762	72.798744
650.867188	956.647461	9536.308594	7219.623535	72.997940
651.200134	962.220154	9506.215820	7197.481934	72.978287
651.533020	962.814636	9453.015625	7161.519043	73.010101
651.865845	967.421387	9424.409180	7128.156738	72.847862
652.198608	962.443176	9382.055664	7108.392578	72.995628
652.531433	954.269958	9328.410156	7085.656250	73.218094
652.864136	945.947998	9290.812500	7066.411621	73.344078
653.196777	1017.947266	9312.360352	7206.546875	74.611664
653.529358	1023.965759	9260.719727	7185.964844	74.811012
653.861938	1016.535461	9207.295898	7142.794434	74.794754
654.194519	936.883057	9059.209961	6938.610840	73.891724
654.526978	939.186462	9004.969727	6885.558594	73.723427
654.859375	939.632263	8926.133789	6836.667969	73.837532
655.191833	943.124451	8890.246094	6788.965332	73.559219
655.524170	940.746765	8861.045898	6734.204590	73.146957
655.856445	946.245117	8843.807617	6698.464844	72.835381
656.188660	953.303894	8822.483398	6686.502441	72.856369
656.520874	949.365906	8762.148438	6668.817871	73.206337
656.853088	951.743591	8755.684570	6671.195313	73.289276
657.185181	945.130615	8742.383789	6660.124512	73.294968
657.517212	943.050110	8774.928711	6700.173828	73.508850
657.849243	943.718750	8806.433594	6727.220215	73.556038
658.181274	944.610413	8839.793945	6766.748535	73.742912
658.513123	951.297668	8901.094727	6826.488281	73.903656
658.844971	942.529968	8974.431641	6904.208496	74.224991
659.176819	940.895325	9073.774414	6986.312988	74.333054
659.508667	944.907715	9156.993164	7044.714844	74.278412
659.840393	948.102722	9224.237305	7102.373535	74.361656
660.172058	950.777649	9304.855469	7149.556152	74.200630
660.503662	943.273010	9348.396484	7176.677246	74.161964
660.835266	949.885925	9395.727539	7187.748047	73.857201
661.166931	950.406067	9345.127930	7155.277344	73.913956
661.498413	950.851868	9319.938477	7110.621582	73.601456
661.829773	950.777649	9207.742188	7027.402832	73.593933
662.161194	953.749756	9100.002930	6927.167969	73.327187
662.492615	956.201721	8936.090820	6817.349121	73.448982
662.823975	952.263672	8771.807617	6686.873047	73.336876
663.155212	948.474304	8624.911133	6580.546387	73.368309
663.486450	944.981995	8474.597656	6461.364746	73.262474
663.817627	941.415466	8340.703125	6365.811035	73.309700
664.148743	941.192566	8202.722656	6261.044434	73.260757
664.479858	947.731262	8120.470215	6188.971191	73.071663
664.810913	946.690918	8048.470703	6133.986816	73.042198
665.141907	953.675354	8012.359375	6084.427246	72.687088
665.472778	953.229675	7932.410156	6034.644531	72.808189
665.803711	958.876648	7875.270996	6003.957031	72.943794
666.134583	955.532959	7811.371094	5977.951172	73.257538
666.465454	956.870361	7798.367676	5925.344238	72.622612
666.796143	958.059265	7743.606934	5888.639160	72.662964
667.126831	958.579407	7720.349609	5872.589844	72.673431
667.457458	958.356506	7696.275391	5889.753906	73.188736
667.788147	959.322449	7695.830078	5870.583496	72.905151
668.118774	959.842529	7683.718750	5841.902344	72.607819
668.449219	957.316223	7662.097168	5818.794434	72.507637
668.779663	951.520691	7665.737793	5821.692871	72.535225
669.110107	950.480469	7649.167969	5829.643066	72.837593
669.440552	949.440247	7620.264160	5826.447754	73.109520
669.770874	949.960266	7575.831543	5804.528809	73.266869
670.101135	947.285400	7552.871582	5780.454590	73.167908
670.431396	948.622864	7532.884277	5753.185059	72.970406
670.761597	951.669250	7509.850098	5712.541504	72.594406
671.091797	951.149109	7482.357910	5697.978516	72.679184
671.421875	957.316223	7440.377441	5675.390137	72.775398
671.751892	951.743591	7409.021484	5664.616699	72.985443
672.081909	948.994324	7368.303223	5625.607910	72.852295
672.411865	940.746765	7337.542480	5608.740723	72.973946
672.741821	943.050110	7292.367188	5557.025879	72.668854
673.071716	948.548584	7267.847168	5535.775879	72.590767
673.401550	953.378235	7224.230469	5499.292969	72.492775
673.731262	950.257507	7217.617676	5498.847656	72.575851
674.060974	952.263672	7177.494141	5449.659180	72.244644
674.390625	948.474304	7135.364746	5418.080078	72.243172
674.720276	950.703308	7074.584473	5380.929199	72.343437
675.049927	943.867432	7014.325684	5358.563965	72.724274
675.379395	946.096497	6985.050293	5340.954102	72.775146
675.708923	948.474182	6942.994629	5306.551270	72.701012
676.038330	947.285400	6909.707031	5277.202148	72.620102
676.367737	945.130615	6860.295410	5243.617188	72.668915
676.697083	951.297791	6811.330078	5223.703613	72.907547
677.026428	951.594910	6774.996094	5219.097656	73.281967
677.355652	948.845703	6762.811035	5200.447266	73.127396
677.684875	947.359619	6770.687012	5222.812988	73.419418
678.013977	943.793152	6776.853516	5224.596191	73.388634
678.343079	943.644531	6783.318359	5236.632813	73.514175
678.672180	944.016113	6787.851074	5230.168457	73.344856
679.001221	950.480469	6793.498047	5231.654297	73.269913
679.330139	953.452454	6811.627441	5254.911621	73.426605
679.659058	948.622864	6849.150391	5266.130859	73.171562
679.987976	946.096619	6897.447266	5324.607422	73.571716
680.316772	939.112122	6932.518066	5336.496094	73.370369
680.645630	939.186462	6972.418457	5380.037109	73.606499
680.974304	943.718811	7034.461426	5384.346680	72.907822
681.302979	943.050110	7084.170410	5428.259766	73.035690
681.631653	947.136902	7111.811035	5436.135742	72.818108
681.960266	944.982117	7099.699707	5446.463379	73.138718
682.288757	950.108887	7106.535156	5434.946777	72.848076
682.617249	946.542297	7099.773438	5433.609375	72.922127
682.945679	946.096497	7097.173340	5399.801270	72.405289
683.274109	943.347351	7089.593750	5389.027344	72.331627
683.602478	936.660156	7043.154785	5333.598145	72.004288
683.930725	933.613708	6979.849121	5301.350586	72.238945
684.259033	938.071838	6881.324219	5224.224609	72.117966
684.587280	948.994324	6821.361816	5169.686035	71.873764
684.915344	956.647522	6747.132813	5108.534668	71.701889
685.243469	960.214050	6683.380859	5050.949707	71.476784
685.571533	957.019043	6599.567871	4992.994141	71.527519
685.899536	949.811707	6538.861816	4942.468262	71.437119
686.227539	950.034485	6481.723145	4900.635742	71.417641
686.555420	943.421570	6466.045410	4892.685059	71.510635
686.883301	944.684753	6453.488281	4881.094238	71.456703
687.211121	944.238953	6445.314941	4882.877441	71.597595
687.538940	947.434021	6427.556641	4871.731934	71.609673
687.866638	944.684814	6436.695801	4881.168457	71.676544
688.194336	943.941833	6449.327637	4886.667480	71.615791
688.521973	943.124512	6455.717285	4874.630371	71.318634
688.849609	951.000549	6430.380371	4854.716797	71.243759
689.177063	942.604309	6409.724121	4837.998535	71.251312
689.504578	937.923279	6358.083496	4816.451172	71.557442
689.832031	930.790222	6296.338379	4774.470215	71.636292
690.159485	939.483582	6220.623535	4711.758789	71.429184
690.486816	950.406067	6162.519531	4648.229980	70.946732
690.814087	953.452576	6101.813965	4599.709473	70.823639
691.141296	953.452454	6014.805176	4540.193359	70.865265
691.468506	952.412292	5915.833496	4486.324219	71.199112
691.795715	951.594910	5825.630371	4421.755371	71.196861
692.122803	951.223450	5764.553223	4374.052734	71.111465
692.449829	952.709534	5703.699219	4346.932129	71.442436
692.776855	951.892273	5628.802734	4302.796387	71.647812
693.103821	947.285400	5573.669922	4269.731934	71.815178
693.430664	940.895447	5522.400879	4209.621094	71.346107
693.757568	941.043945	5477.225098	4183.243164	71.474197
694.084351	942.901550	5414.513672	4135.243164	71.391289
694.411133	945.650696	5364.135742	4111.912109	71.659439
694.737854	940.821106	5336.866699	4082.191406	71.459007
695.064575	941.638367	5308.706543	4080.185303	71.868507
695.391174	940.449524	5285.895020	4061.981201	71.834564
695.717773	952.115051	5267.170898	4054.773682	71.903099
696.044250	951.297791	5265.462402	4034.414795	71.464981
696.370789	950.777649	5273.264160	4049.423828	71.686661
696.697205	948.622864	5280.694336	4074.984131	72.167816
697.023621	950.331787	5312.644043	4116.370605	72.577072
697.349915	945.947937	5359.975098	4169.645508	73.033020
697.676208	941.118164	5439.255859	4213.633301	72.752670
698.002380	944.610413	5522.697754	4284.666504	72.957458
698.328674	948.325684	5634.003906	4361.124512	72.834679
698.654724	953.824036	5729.408203	4452.590332	73.263634
698.980896	950.703369	5843.017090	4531.648438	73.195328
699.306946	953.081055	5922.595215	4578.235840	72.947868
699.632935	949.588867	5982.781250	4612.267090	72.770477
699.958862	949.663086	6011.833496	4626.681641	72.637192
700.284729	948.102722	6007.300781	4619.994629	72.578529
700.610596	942.752930	5979.064941	4589.010254	72.399353
700.936340	939.483582	5903.648438	4544.280273	72.616371
701.262146	944.164612	5799.625000	4470.125977	72.618477
701.587830	952.932373	5669.595215	4386.758301	72.802017
701.913513	952.783752	5522.252441	4280.133789	72.817001
702.239075	954.864258	5372.532715	4180.196777	73.009834
702.564697	952.337952	5240.199219	4072.904053	72.776749
702.890137	954.864258	5114.181641	3960.632568	72.265907
703.215698	951.223389	5018.628418	3884.769287	72.123276
703.541016	946.616638	4912.895996	3820.571533	72.459717
703.866455	945.576355	4826.109863	3779.259521	73.023033
704.191711	938.146057	4755.448242	3722.640625	72.944046
704.517029	944.461914	4703.584473	3670.703125	72.523338
704.842163	944.164551	4664.056152	3611.781006	71.712212
705.167419	945.724915	4625.195801	3579.385010	71.577141
705.492493	941.118164	4579.796387	3547.583252	71.632195
705.817566	934.208008	4543.016602	3531.608154	71.973900
706.142578	936.214294	4512.552734	3504.041992	71.800468
706.467590	938.369141	4505.939941	3492.450439	71.591606
706.792480	943.570251	4490.336426	3478.035889	71.458488
707.117371	947.285339	4477.630859	3480.561768	71.757179
707.442200	951.297668	4467.079590	3477.218506	71.845207
707.766907	960.882751	4456.156738	3483.014404	72.158340
708.091675	959.173828	4443.228027	3491.485107	72.682892
708.416321	955.755859	4437.655762	3494.531250	72.913506
708.741028	944.090332	4458.535156	3504.339111	72.849312
709.065552	942.307129	4482.237793	3505.750977	72.415085
709.390137	944.387512	4499.327148	3518.531250	72.410339
709.714600	952.635071	4513.890137	3519.719727	72.083710
710.039063	951.223389	4549.109375	3528.561768	71.634796
710.363403	952.709473	4597.035156	3546.171875	71.164398
710.687744	953.080994	4651.499023	3580.573975	71.043701
711.012085	959.991211	4697.046387	3605.910889	70.802261
711.336304	953.824036	4768.748535	3642.690674	70.482826
711.660461	956.201843	4818.234375	3662.232178	70.067520
711.984619	957.390625	4860.512207	3679.396240	69.739197
712.308716	965.786804	4862.815918	3677.316162	69.579399
712.632751	956.350342	4861.552246	3678.504883	69.705856
712.956726	951.743469	4835.175293	3674.641357	70.115761
713.280701	948.028503	4793.788574	3656.288086	70.421959
713.604553	961.105652	4748.018066	3622.926025	70.289993
713.928467	961.923035	4684.266113	3589.192627	70.581070
714.252258	968.015808	4623.264160	3562.666748	70.984261
714.575989	956.944763	4568.279785	3530.344971	71.258972
714.899719	953.303894	4523.104004	3501.143799	71.372063
715.223267	939.037781	4477.853516	3462.358154	71.304092
715.546936	942.381348	4439.067383	3433.380127	71.238846
715.870422	948.994324	4406.076660	3399.052002	70.870674
716.193970	952.635193	4373.829590	3372.303467	70.725830
716.517395	948.177002	4326.572754	3359.820313	71.384277
716.840820	945.056335	4292.542480	3336.415039	71.437447
717.164124	954.864258	4261.261230	3307.585693	71.156654
717.487488	956.721863	4231.763184	3279.721924	70.930405
717.810730	950.108887	4191.193848	3255.350830	71.125626
718.133972	947.508301	4139.107910	3229.568115	71.502068
718.457092	949.291504	4088.507080	3183.797607	71.180397
718.780212	950.926270	4032.557373	3131.785400	70.769638
719.103210	947.879883	3981.139648	3088.838623	70.582771
719.426208	944.759216	3929.647705	3063.649658	70.987259
719.749207	951.966492	3888.707031	3040.764404	71.126404
720.072083	948.920105	3852.447266	3011.340820	71.031563
720.394958	952.635254	3808.014404	2982.139648	71.076530
720.717773	953.378235	3761.203857	2940.752930	70.779846
721.040527	952.858154	3726.058350	2908.357178	70.514168
721.363281	950.703308	3699.532471	2883.762939	70.323021
721.685913	951.446289	3678.430420	2877.818604	70.641129
722.008545	951.223389	3653.167969	2868.382080	70.954773
722.331055	952.783752	3626.938721	2838.364014	70.511253
722.653503	951.074890	3611.855225	2820.977295	70.276466
722.976013	954.195557	3585.700439	2806.562500	70.391922
723.298401	947.805481	3582.059570	2803.961670	70.462311
723.620789	943.644531	3566.604736	2784.494385	70.182152
723.943115	943.421631	3565.936279	2780.407959	70.046753
724.265381	949.960266	3545.800049	2772.606201	70.214119
724.587585	954.715637	3537.552734	2776.915771	70.550331
724.909790	953.303955	3523.806641	2773.051758	70.793457
725.231873	950.777649	3535.471924	2780.853516	70.804344
725.553894	946.096497	3538.593018	2793.633789	71.264793
725.875916	980.870178	3589.564453	2826.550049	70.751099
726.197937	986.145691	3588.524170	2817.856445	70.386024
726.519775	989.415039	3582.357178	2814.958984	70.404343
726.841675	956.944763	3556.722656	2791.850586	70.579330
727.163513	951.520691	3556.351318	2808.345703	71.283905
727.485291	957.910706	3586.072266	2813.843750	70.617157
727.806946	954.492859	3600.115479	2819.416748	70.490929
728.128662	954.567078	3623.149414	2831.453857	70.332726
728.450256	947.359680	3642.839844	2845.274170	70.410995
728.771790	949.960205	3658.591797	2863.998291	70.664391
729.093323	953.229675	3673.303467	2861.100586	70.140411
729.414795	947.582703	3670.851563	2862.661133	70.322784
729.736145	946.319519	3665.055908	2849.658203	70.008209
730.057495	949.811707	3660.375000	2852.555908	70.197372
730.378845	949.663086	3659.483154	2850.846924	70.159042
730.700134	952.709473	3651.755859	2851.589844	70.353752
731.021301	951.000549	3650.567139	2850.252686	70.353966
731.342468	958.207947	3643.805664	2856.716553	70.692215
731.663574	956.944763	3647.891846	2860.208984	70.728416
731.984680	958.207825	3657.403076	2868.010498	70.754524
732.305664	954.269836	3666.839111	2858.128174	70.186531
732.626648	951.520691	3675.904297	2872.468750	70.509453
732.947571	946.096497	3689.352783	2880.641846	70.520035
733.268433	951.520569	3695.966064	2891.564453	70.689835
733.589233	956.498840	3693.662354	2883.540039	70.402855
733.909973	960.362610	3668.473633	2860.060547	70.148453
734.230713	956.350281	3646.331299	2840.890381	70.057747
734.551331	944.461914	3612.078125	2819.268311	70.280212
734.871948	946.765320	3582.357178	2795.342529	70.138977
735.192505	937.997559	3535.769531	2764.803955	70.322044
735.513062	946.616699	3479.373291	2737.089111	70.692635
735.833435	942.530029	3427.138428	2701.795654	70.806557
736.153931	957.687744	3380.178955	2662.563721	70.376976
736.474304	954.269836	3350.161133	2630.316406	69.955032
736.794617	956.127441	3314.644531	2607.505615	70.017647
737.114807	957.093445	3294.731201	2609.437500	70.684349
737.434998	958.133606	3288.266846	2598.440674	70.395424
737.755188	954.418457	3274.892578	2598.812256	70.864563
738.075256	945.650696	3276.378174	2585.660645	70.364723
738.395325	949.068665	3284.700439	2582.168457	69.921120
738.715271	952.412292	3311.895264	2594.354004	69.589043
739.035278	950.777649	3328.836182	2609.511719	69.751610
739.355164	942.975891	3339.089844	2617.387695	69.880310
739.675049	941.861328	3352.389893	2621.474365	69.678207
739.994873	946.690979	3355.510986	2616.793213	69.332794
740.314636	957.910645	3358.185791	2621.474365	69.307213
740.634277	954.641357	3349.046875	2612.334717	69.231941
740.953979	953.601074	3326.309814	2598.960205	69.345177
741.273499	942.604309	3299.412354	2576.818359	69.340141
741.593140	942.975891	3254.458984	2546.205566	69.359352
741.912598	941.192627	3226.372803	2531.270752	69.582176
742.232117	949.217285	3196.354248	2497.537354	68.901901
742.551453	953.081055	3153.258789	2470.714111	68.977745
742.870850	958.653625	3100.875244	2433.711182	68.856438
743.190063	956.721741	3053.767578	2419.668213	69.762253
743.509338	953.006653	3029.544922	2406.590820	70.000359
743.828552	946.319397	3014.981689	2390.764404	69.825073
744.147705	942.158508	2987.415283	2366.170166	69.625084
744.466797	942.158508	2965.941650	2342.244873	69.181641
744.785828	944.981995	2942.313232	2320.325439	68.859055
745.104858	955.830261	2920.988281	2311.334717	68.976868
745.423706	953.080994	2902.338623	2299.817627	69.089722
745.742615	958.728027	2880.493408	2292.387451	69.397621
746.061401	957.464844	2863.626953	2288.597900	69.833153
746.380249	965.266663	2849.658203	2279.607422	69.748817
746.698975	956.350342	2840.295898	2263.706787	69.394600
747.017639	956.350342	2831.305420	2241.638672	68.550354
747.336304	947.805603	2824.617920	2234.579834	68.561691
747.654907	951.966492	2816.444580	2237.477783	68.947510
747.973389	943.941833	2816.890381	2237.552002	69.068108
748.291931	947.434082	2819.490967	2237.254883	68.898590
748.610352	943.124512	2822.760498	2235.174316	68.739365
748.928711	944.982117	2828.184326	2247.954346	69.189186
749.247070	946.022278	2818.079346	2256.053467	69.978165
749.565308	947.211121	2815.552734	2253.304443	69.906555
749.883545	948.845764	2811.094727	2242.604736	69.472931
750.201782	949.068665	2809.311523	2238.741211	69.328186
750.519836	950.183167	2800.543701	2246.096924	70.035744
750.837952	948.994324	2777.658447	2232.648438	70.196274
751.155884	942.529968	2766.958740	2212.214844	69.593559
751.473877	946.765198	2766.290039	2194.456299	68.572357
751.791809	947.062500	2760.643311	2185.762939	68.301361
752.109619	956.276062	2746.600342	2184.648438	68.611725
752.427490	951.892151	2720.222656	2178.852783	69.385254
752.745300	943.421631	2728.098633	2177.069580	69.124435
753.062988	939.037781	2723.046143	2171.942871	69.108704
753.380615	942.530029	2723.714844	2170.010986	68.913734
753.698303	949.663086	2701.646729	2173.354736	69.846069
754.015808	951.000488	2692.879150	2161.317627	69.483437
754.333374	950.851868	2692.879150	2150.097656	68.841965
754.650757	950.480408	2693.325195	2143.261963	68.438766
754.968262	949.811707	2695.554199	2148.017334	68.635872
755.285583	948.622864	2693.473389	2157.973877	69.309723
755.602905	951.149170	2704.916260	2154.778564	68.631088
755.920105	955.904480	2696.297119	2148.760254	68.539459
756.237305	948.548523	2694.068115	2145.490967	68.572273
756.554443	943.867371	2669.697021	2135.460205	69.044640
756.871582	936.585693	2671.108398	2133.008301	68.977051
757.188599	943.867432	2659.368652	2117.107422	68.390511
757.505615	946.690918	2666.650391	2124.612061	68.485397
757.822510	951.669250	2667.244873	2128.475830	68.595436
758.139465	948.622864	2671.851563	2138.135010	69.028107
758.456238	951.594910	2681.882568	2139.918457	68.677803
758.773010	940.077942	2702.910156	2151.583740	68.724968
759.089783	939.037781	2720.222900	2160.871826	68.596687
759.406433	935.991394	2745.857178	2172.834473	68.338936
759.723145	949.440125	2749.052002	2176.326660	68.175064
760.039673	953.824036	2767.553467	2182.865234	67.763206
760.356201	956.647522	2777.733154	2184.871338	67.444595
760.672668	952.560852	2784.197266	2187.026123	67.396851
760.989136	949.217285	2774.463623	2188.140625	67.877045
761.305481	943.347351	2767.999268	2181.007813	67.829948
761.621826	942.827148	2775.281006	2177.069824	67.354637
761.938049	947.136719	2798.537842	2185.094482	66.865997
762.254333	950.926270	2807.973877	2203.892822	67.470894
762.570496	946.096497	2843.639404	2235.768799	67.965385
762.886597	946.765320	2899.812256	2275.669189	68.042595
763.202637	954.715637	2989.346924	2328.572998	67.523651
763.518677	964.226379	3111.797852	2398.937744	66.806221
763.834656	955.978821	3263.004150	2487.283691	66.375732
764.150574	946.022217	3419.411377	2579.047607	66.023796
764.466370	942.084167	3539.707275	2644.508057	65.537758
764.782288	949.143005	3613.489990	2690.427490	65.355019
765.097961	957.687744	3626.418701	2713.015381	65.773872
765.413696	955.458679	3588.969971	2702.389893	66.334679
765.729309	953.749756	3496.834717	2650.823975	66.732895
766.044861	948.622803	3376.538330	2572.360107	66.877831
766.360474	948.697205	3231.499268	2488.101074	67.434837
766.675903	947.434021	3083.562744	2387.718018	67.424965
766.991394	943.867493	2955.464844	2295.434082	67.188728
767.306763	946.542419	2847.057373	2224.177734	67.225746
767.622131	947.805481	2755.516357	2185.837402	68.486168
767.937378	946.913879	2669.548096	2134.048340	68.913902
768.252625	943.124451	2609.214111	2090.061279	68.840042
768.567810	941.489746	2562.403564	2043.250610	67.971588
768.882996	943.421631	2511.580322	2015.609985	68.372437
769.197998	943.793152	2476.435303	1992.278931	68.410355
769.513062	941.266846	2432.894287	1969.616577	68.941460
769.828064	938.369080	2413.575195	1954.904663	68.908043
770.142944	943.347351	2379.247559	1928.973022	68.641655
770.457825	943.570313	2346.851318	1912.923462	69.077621
770.772705	953.824036	2321.217041	1894.496582	68.793137
771.087402	950.406189	2294.245361	1878.521484	69.064468
771.402100	956.721863	2274.554932	1862.620728	68.741554
771.716736	955.904480	2241.861572	1842.558960	68.948997
772.031372	952.189392	2217.936279	1832.230835	69.527443
772.345947	951.817871	2207.459717	1818.336304	69.010002
772.660461	952.263672	2199.657715	1813.135132	69.013596
772.974854	958.579407	2186.654541	1797.457153	68.308334
773.289246	954.567139	2171.794189	1777.692505	67.622993
773.603638	951.074890	2165.032471	1765.209595	67.064514
773.917908	950.108826	2153.441406	1761.346069	67.415886
774.232178	942.009827	2136.277588	1758.745483	68.387985
774.546265	935.545471	2112.798096	1755.921875	69.685669
774.860474	934.208069	2104.104492	1737.643555	68.675774
775.174561	933.093567	2096.525391	1737.048950	69.102058
775.488586	936.660095	2092.736084	1717.135864	67.510773
775.802551	936.660095	2083.448242	1716.838501	68.031609
776.116516	946.468079	2074.531982	1705.916138	67.323135
776.430359	943.198730	2058.259766	1710.745972	68.834549
776.744202	941.935547	2044.662231	1704.504517	69.153038
777.057922	942.158508	2030.619141	1695.439453	69.206078
777.371704	940.821045	2029.356079	1683.848267	68.259377
777.685303	943.347351	2013.158081	1677.532593	68.627579
777.998962	938.889160	2008.105469	1675.600586	68.902000
778.312500	936.511536	1994.507813	1675.749390	69.871498
778.626038	931.013000	1991.387207	1675.897949	70.247360
778.939453	936.214294	1989.603882	1664.826782	69.168373
779.252869	944.684753	1997.628540	1659.922852	67.927467
779.566223	953.006653	2004.315796	1651.526733	66.442886
779.879578	953.155273	2002.829712	1656.281860	66.985207
780.192749	952.486572	1994.359253	1657.396484	67.657974
780.505920	948.994324	1985.740112	1658.808228	68.465569
780.819031	951.520691	1975.486328	1654.572876	68.659744
781.132141	952.858093	1973.777344	1649.446167	68.231453
781.445190	958.505127	1974.817749	1643.204712	67.370964
781.758118	959.248230	1971.622681	1634.585571	66.708260
782.071045	957.762024	1958.322632	1623.885864	66.575058
782.383911	953.898254	1939.375366	1613.334961	66.915474
782.696838	955.161438	1917.084473	1609.916992	68.067352
783.009583	958.579407	1906.161987	1608.653809	68.603455
783.322266	960.659851	1889.518188	1601.892456	69.034492
783.634888	957.613464	1884.614258	1587.774902	67.978523
783.947510	962.145935	1873.394531	1572.839966	67.017281
784.260132	960.808411	1875.252319	1570.536499	66.677475
784.572571	957.985046	1872.428589	1566.227051	66.514984
784.885010	947.211121	1865.592773	1556.121948	66.302589
785.197449	945.650696	1856.602051	1549.286133	66.264290
785.509766	943.793152	1842.261597	1549.508911	67.416473
785.822083	944.536133	1831.041992	1554.933105	68.854248
786.134277	942.381409	1815.141235	1555.304565	70.228157
786.446533	937.180359	1817.073120	1548.171509	69.439278
786.758606	938.369141	1823.983276	1546.982788	68.722214
787.070740	946.245178	1831.933594	1542.821655	67.357376
787.382690	949.440186	1829.630249	1550.549194	68.293091
787.694641	955.012878	1838.472168	1551.960938	67.569389
788.006653	953.824036	1867.747437	1563.923828	66.756119
788.318481	954.715637	1900.960571	1576.109375	65.669441
788.630310	948.251282	1926.817993	1587.180542	65.292358
788.942017	946.691101	1942.272949	1594.833618	65.101883
789.253784	952.709534	1965.678345	1609.768555	64.864685
789.565430	952.263672	1968.799194	1618.833496	65.572701
789.877014	943.644531	1954.830078	1625.372070	67.418640
790.188538	943.347351	1936.477417	1602.486816	66.369904
790.500061	949.068665	1918.719116	1586.660522	65.754814
790.811462	953.824036	1904.155762	1569.719360	64.808456
791.122925	949.960266	1879.784546	1570.313843	66.717293
791.434204	944.313293	1849.394531	1558.573853	67.868004
791.745483	945.204895	1831.116211	1537.174805	66.820450
792.056702	949.365906	1806.076172	1522.834351	66.938438
792.367920	950.703308	1786.088867	1516.072632	67.677650
792.678955	948.474304	1774.348999	1507.453491	67.683296
792.990112	942.678650	1752.727051	1491.106934	67.703148
793.301086	940.152344	1746.485718	1482.859375	67.305542
793.612122	933.613770	1725.309204	1488.803711	70.126709
793.922974	942.232910	1728.430054	1484.494141	68.972679
794.233826	948.399963	1725.383423	1476.692383	67.992752
794.544556	962.145996	1730.584595	1463.392090	65.229164
794.855286	959.768250	1725.457642	1463.020508	65.725380
795.166016	958.728027	1722.188477	1466.884399	66.559616
795.476624	947.656921	1724.046021	1478.921387	68.427605
795.787292	946.542297	1736.528931	1489.249390	68.698265
796.097778	946.245117	1752.280884	1506.636230	69.524345
796.408264	944.238953	1758.596680	1512.431763	69.771896
796.718689	932.424805	1772.862915	1517.187134	69.578270
797.029053	934.951172	1790.249634	1511.688843	67.431160
797.339355	947.211121	1803.995728	1510.945801	65.796547
797.649658	955.235779	1797.605835	1509.534180	65.802246
797.959839	947.582520	1787.351929	1505.447388	66.430717
798.270020	936.511414	1779.624390	1500.171875	66.854675
798.580078	937.700256	1763.797852	1500.394897	68.114792
798.890137	937.254395	1746.559570	1497.794312	69.261871
799.200195	946.839539	1737.346313	1490.289673	68.747055
799.510071	943.124451	1719.736450	1466.438477	67.384232
799.820007	944.610535	1711.860474	1449.794800	65.843506
800.129883	941.861328	1691.427246	1443.478882	66.921074
800.439575	953.452454	1694.770874	1444.370483	66.222290
800.749329	957.018982	1687.191895	1447.862793	67.222954
801.058960	958.876526	1686.745972	1430.550293	64.801971
801.368591	950.628906	1679.538696	1430.253052	65.800209
801.678162	951.966492	1678.424194	1422.228516	64.733574
801.987671	953.378174	1672.628540	1429.881470	66.249992
802.297119	958.950928	1666.833008	1417.844604	64.826286
802.606506	960.288391	1659.105591	1418.290405	65.539604
802.915894	955.012878	1648.554565	1411.974609	65.888145
803.225159	950.406067	1641.867188	1416.581421	67.418884
803.534424	951.223450	1626.635132	1408.333862	67.678787
803.843628	948.325684	1622.622925	1410.042603	68.473793
804.152771	944.238953	1622.697266	1406.625000	68.152466
804.461792	945.204895	1629.607422	1396.817017	65.986328
804.770874	945.799316	1627.155273	1395.702515	66.030563
805.079773	956.424622	1621.656860	1395.033569	65.933205
805.388733	951.297791	1620.765259	1402.240845	67.358475
805.697571	955.533020	1624.926270	1406.847656	67.421448
806.006470	953.601074	1641.941406	1407.962280	66.008224
806.315125	952.486572	1651.823730	1415.318237	66.181480
806.623901	956.573242	1661.408813	1413.460571	64.821831
806.932495	953.081055	1660.071289	1413.683472	65.149757
807.241150	956.127441	1655.093140	1414.723633	65.610687
807.549622	950.777588	1657.990845	1413.163452	65.381393
807.858154	945.799316	1651.080688	1411.751831	66.066185
808.166565	932.201965	1645.805298	1403.206909	66.003746
808.474915	933.093567	1622.177124	1400.160522	67.780891
808.783264	930.790222	1602.189575	1391.244141	68.581230
809.091492	946.170898	1591.415649	1378.687012	67.031326
809.399719	945.279236	1589.929688	1365.981079	65.260460
809.707825	954.418457	1595.502319	1353.944214	62.320358
810.015930	951.000488	1587.106079	1364.495117	65.004089
810.323975	964.449280	1580.121582	1366.872925	65.363289
810.632080	969.353333	1581.087524	1379.652832	67.071533
810.939880	966.752686	1581.236206	1369.027710	65.465553
811.247864	950.554688	1570.685059	1362.934937	66.498962
811.555664	946.022156	1549.360229	1347.331177	66.514786
811.863464	947.211121	1547.057007	1339.232300	65.353653
812.171143	954.195557	1543.490234	1336.185913	64.821617
812.478882	948.028503	1539.032227	1333.213745	65.174759
812.786438	942.158508	1534.054077	1335.442749	66.444870
813.094055	932.870667	1539.255249	1326.006348	64.832733
813.401489	936.437195	1543.564575	1329.721558	64.777901
813.708984	942.381531	1535.763062	1323.257202	64.187317
814.016357	956.350342	1527.961304	1324.668823	64.435165
814.323730	957.539124	1524.394531	1320.656494	64.058197
814.630981	961.625793	1518.896118	1322.439819	64.746681
814.938232	953.824036	1520.679565	1328.012573	66.011269
815.245361	947.359680	1521.422485	1326.377930	66.023827
815.552490	949.588867	1525.954956	1326.600708	65.411873
815.859619	943.941895	1517.335815	1322.217041	65.971252
816.166565	950.108948	1522.016968	1326.452271	65.804871
816.473572	948.697205	1522.091187	1322.588501	65.206703
816.780457	956.053162	1536.877441	1322.216919	63.042088
817.087341	946.839600	1535.168457	1322.588379	63.867134
817.394043	943.867432	1540.964233	1337.746216	65.965652
817.700806	938.146179	1542.301758	1346.291016	67.556244
818.007507	941.192566	1549.211792	1347.331177	66.797005
818.314209	936.065674	1554.561523	1345.176392	66.146072
818.620667	935.025452	1556.939087	1346.885376	66.224617
818.927246	940.672546	1574.994751	1355.950317	65.467957
819.233704	950.703308	1596.691040	1364.346558	64.032677
819.540161	957.687744	1624.331665	1374.228882	62.483303
819.846497	955.458679	1645.285156	1401.720825	64.691940
820.152832	946.542297	1691.129883	1427.503906	64.594360
820.458984	939.557922	1753.024048	1466.438477	64.769821
820.765259	944.907715	1828.367065	1504.109985	63.296886
821.071350	947.359680	1928.378540	1563.403442	62.796322
821.377502	956.647461	2091.175781	1666.907227	62.603970
821.683472	955.681641	2376.423828	1840.626953	62.287537
821.989441	957.539124	2823.131836	2097.045654	61.080135
822.295349	957.316223	3414.135742	2426.058105	59.782246
822.601196	952.040833	4105.373535	2790.661377	58.307217
822.907043	950.554688	4775.510254	3167.599365	57.962627
823.212769	943.718811	5322.898438	3465.107422	57.576736
823.518494	941.489746	5620.777832	3653.316162	57.953823
823.824097	940.523743	5627.911621	3680.213867	58.448124
824.129700	941.118164	5397.869629	3582.877197	59.275440
824.435242	948.028503	5059.866699	3412.055420	59.925186
824.740723	948.325623	4707.523438	3229.493408	60.682301
825.046082	940.449524	4352.133789	3034.300049	61.372929
825.351501	942.084229	3957.437256	2816.667236	62.167946
825.656799	940.077942	3553.676025	2576.744141	62.621189
825.962036	949.737305	3184.688721	2360.300049	63.113800
826.267212	943.050110	2906.499268	2179.224609	62.959335
826.572449	939.334961	2734.563232	2064.203857	62.658821
826.877502	940.375244	2691.170166	2034.779907	62.509014
827.182495	942.975891	2752.841797	2052.389648	61.298119
827.487488	943.198792	2868.753906	2107.745117	60.478474
827.792419	941.935608	2982.065430	2156.339355	59.525810
828.097290	946.765198	3054.138672	2201.738037	59.551517
828.402100	949.217224	3059.934326	2213.923828	59.918335
828.706848	950.777588	2977.607178	2183.311279	60.810917
829.011597	948.920105	2840.444336	2114.952393	61.645115
829.316223	954.938477	2669.102295	2013.083496	61.729515
829.620789	950.629089	2527.109619	1924.737793	61.790089
829.925354	956.573242	2380.138916	1846.051147	62.482395
830.229797	958.356506	2235.248779	1774.200317	63.892921
830.534302	961.700195	2073.566162	1682.659302	64.842270
830.838562	955.830261	1922.434448	1588.963745	65.500801
831.142944	948.399902	1815.289917	1505.298828	64.241013
831.447144	950.406006	1722.188477	1447.416992	64.397804
831.751404	951.669189	1667.130249	1412.643188	64.430344
832.055542	958.282043	1620.468140	1396.519531	66.180412
832.359619	951.966492	1601.372192	1388.123413	67.162476
832.663635	949.142883	1604.938843	1392.581543	67.618385
832.967651	944.238953	1632.728027	1402.538086	66.565926
833.271545	943.941711	1695.291016	1429.807251	64.665733
833.575439	941.712708	1782.893921	1471.416626	62.971439
833.879211	945.725098	1898.211548	1532.790649	61.635056
834.183044	944.982117	2017.244507	1596.914063	60.799664
834.486694	940.375244	2121.714111	1646.028198	59.733322
834.790344	943.198730	2183.905518	1691.873047	60.342567
835.093933	947.879822	2208.722656	1708.739624	60.345337
835.397522	952.709473	2173.131592	1712.603149	62.264824
835.700928	944.313293	2118.890625	1673.891602	62.114113
836.004395	947.954102	2055.584717	1648.703125	63.265587
836.307739	951.520691	1999.486206	1611.923218	63.017578
836.611023	949.811707	1923.251587	1579.007202	64.636299
836.914307	946.096497	1838.397949	1527.812500	65.192764
837.217529	951.743591	1749.680298	1473.348633	65.369225
837.520691	954.790039	1669.433472	1422.971558	65.512604
837.823730	952.337952	1598.994507	1369.696289	64.540955
838.126831	950.554688	1540.592651	1334.179565	65.016983
838.429749	952.560852	1495.936523	1306.316162	65.103264
838.732727	955.235779	1455.367310	1285.511353	66.037743
839.035522	951.743591	1432.184937	1263.814941	64.955139
839.338379	949.960266	1415.243774	1252.669556	65.059105
839.641113	951.297668	1419.330688	1253.784180	64.629311
839.943848	947.731140	1426.983765	1257.499268	64.635666
840.246460	946.022278	1453.955688	1262.849121	62.375664
840.549072	950.777588	1488.952148	1277.486694	60.706902
840.851563	952.932373	1516.666992	1286.700195	59.206551
841.154053	955.755859	1524.766113	1297.102661	59.989571
841.456482	953.972656	1511.466187	1288.632080	60.029293
841.758850	951.892273	1500.320679	1285.139893	60.764107
842.061157	950.703369	1479.738770	1268.941895	60.154488
842.363403	949.365906	1442.884644	1257.573486	62.451038
842.665588	955.458679	1404.915894	1244.050415	64.208946
842.967712	960.214050	1386.786133	1235.059814	64.431259
843.269775	959.768250	1378.018188	1219.307617	62.053654
843.571777	950.034485	1358.105103	1210.911499	63.929379
843.873840	949.885986	1331.207520	1194.936401	64.263458
844.175659	951.743591	1305.052979	1181.784790	65.110413
844.477600	956.796143	1287.591797	1168.484497	63.993694
844.779297	950.851868	1264.186401	1161.871704	67.346497
845.081116	947.434021	1246.279541	1149.908813	67.752327
845.382751	943.495911	1243.827637	1147.085327	67.788185
845.684387	940.821045	1247.765747	1137.797485	64.173264
845.985962	935.916992	1244.942261	1137.946167	65.376266
846.287537	937.551758	1231.864746	1130.292969	65.488518
846.588989	945.056335	1218.267456	1131.556152	68.262161
846.890381	953.972656	1213.957886	1132.893555	68.819641
847.191711	961.774414	1211.951660	1125.834839	65.577675
847.493042	962.294617	1211.431519	1121.450806	63.883026
847.794250	959.545349	1213.363403	1115.655273	61.504658
848.095459	948.251282	1213.734863	1115.135254	62.860374
848.396606	942.455750	1207.344849	1109.042358	62.889191
848.697693	942.529968	1199.914551	1109.859741	65.011574
848.998657	952.114990	1186.985840	1106.590454	65.770386
849.299622	953.675354	1190.775391	1107.407837	64.838661
849.600464	947.359680	1185.351196	1105.401611	66.406540
849.901367	940.375244	1189.809570	1105.252930	66.100639
850.202087	938.666321	1182.973633	1105.995972	68.491463
850.502808	941.564148	1192.781616	1103.098267	64.300514
850.803467	947.062500	1193.970459	1107.482056	64.971397
851.104065	950.257507	1204.595825	1107.630737	61.875549
851.404663	951.074890	1197.314087	1113.129028	65.811676
851.705139	950.406067	1196.942505	1106.367554	63.261028
852.005615	951.892151	1191.815552	1105.698853	64.106583
852.306030	949.291504	1192.410034	1094.924927	59.902229
852.606384	948.251282	1191.815552	1091.729858	58.907890
852.906616	945.799316	1196.199463	1092.770142	58.694386
853.206909	942.678650	1200.434692	1100.051880	61.055107
853.506958	939.112122	1193.896118	1099.234497	62.846325
853.807129	937.403137	1192.855957	1095.147827	61.751007
854.107178	945.725098	1187.506226	1089.352173	59.403759
854.407166	937.923279	1193.524536	1087.271851	58.430298
854.707092	934.059509	1184.013794	1087.494629	61.385273
855.007019	923.879944	1183.345215	1088.609253	63.487999
855.306763	934.282410	1178.441162	1095.519287	66.037720
855.606567	940.746765	1176.434937	1087.346069	62.200535
855.906250	948.920105	1170.342163	1086.751587	62.248306
856.205933	942.752930	1165.140991	1083.482300	63.280991
856.505493	940.375244	1163.654907	1082.367676	63.593983
856.805054	939.334961	1165.809692	1077.909668	61.187714
857.104492	949.885986	1165.661133	1081.476074	60.984821
857.403931	955.087219	1165.438232	1084.522583	61.533035
857.703308	956.424622	1168.930298	1080.881714	58.566479
858.002563	950.034485	1170.787964	1076.052002	57.085178
858.301819	946.096497	1168.187378	1077.166504	59.016384
858.601013	952.412292	1162.540405	1082.070435	61.704330
858.900208	949.068665	1177.103638	1082.516235	58.520660
859.199219	947.136902	1186.540161	1081.030273	55.927967
859.498291	940.672546	1185.425659	1083.185059	58.227047
859.797302	950.554749	1170.119263	1087.643188	62.436520
860.096191	953.229675	1164.546509	1089.203613	64.346001
860.395020	950.108887	1170.713745	1086.900146	62.007366
860.693787	943.644531	1173.834473	1084.893921	61.362103
860.992554	945.204895	1173.017090	1091.655640	64.285736
861.291260	949.365784	1167.815796	1087.568848	63.265305
861.589844	946.765198	1165.661011	1084.225342	62.797066
861.888428	944.610535	1167.518677	1077.017944	59.399986
862.186890	938.517761	1166.404175	1082.887817	63.351761
862.485413	934.951172	1166.181274	1083.110840	64.074562
862.783813	940.895325	1166.032593	1079.172729	61.419155
863.082153	939.780823	1169.896362	1080.955933	61.349663
863.380371	949.588684	1171.456665	1087.568970	62.190266
863.678589	949.960205	1163.506348	1092.398560	66.701439
863.976746	952.486511	1157.784912	1090.020874	66.992416
864.274902	946.319397	1162.688843	1082.442017	62.912128
864.572937	945.204895	1162.837524	1088.163330	65.687958
864.870911	950.851868	1170.565063	1096.039429	66.080490
865.168884	955.681580	1169.004761	1095.742188	65.656532
865.466736	949.885925	1176.955078	1095.296387	64.037964
865.764587	948.771423	1173.462891	1094.404785	64.814819
866.062317	950.034485	1177.029419	1097.897095	65.139168
866.360107	949.217285	1182.750610	1096.708130	63.156231
866.657715	950.480469	1189.883789	1097.674072	61.483528
866.955322	955.755920	1184.162476	1093.958984	60.507484
867.252808	963.557800	1184.311157	1090.318237	57.421749
867.550293	956.127441	1178.886963	1087.866089	59.139400
867.847717	948.399963	1178.441040	1090.541016	61.789421
868.145081	948.920105	1171.679565	1087.940308	62.408215
868.442383	951.595032	1175.543213	1084.894043	59.522255
868.739624	952.560852	1170.936523	1075.977661	56.515823
869.036804	952.635193	1168.261597	1077.017944	57.684380
869.333984	957.613464	1168.558838	1070.330688	53.434319
869.631042	953.823975	1168.856079	1070.850708	54.422913
869.928101	952.338074	1177.326660	1071.816650	53.104282
870.224976	951.000549	1179.109863	1077.315063	55.374554
870.521851	962.814636	1186.614380	1095.816528	59.428974
870.818726	955.012878	1177.698120	1097.748413	64.097435
871.115479	947.285400	1169.673462	1095.667969	66.722359
871.412231	949.068665	1164.175049	1083.928101	62.694298
871.708862	958.802307	1169.524902	1083.333618	59.097275
872.005493	972.474060	1170.342285	1080.733032	54.712662
872.302063	950.629089	1176.955078	1085.042603	59.389339
872.598572	948.920105	1182.453491	1083.333618	57.556446
872.895020	939.334961	1191.072632	1096.187988	62.308128
873.191406	950.406067	1197.016724	1092.547119	57.637840
873.487671	941.712708	1203.778320	1103.172485	61.610439
873.783997	948.622864	1206.601929	1099.828857	58.611729
874.080200	950.851868	1207.122070	1109.042358	61.728008
874.376343	955.384460	1202.069458	1102.057983	59.457821
874.672424	951.223450	1204.075562	1095.073608	56.891026
874.968445	950.851868	1200.657593	1093.215942	56.989918
875.264465	949.811707	1194.044556	1092.250000	58.320694
875.560364	952.858093	1188.397583	1096.708130	61.072578
875.856201	949.217224	1186.614502	1090.763916	59.624397
876.152039	961.328552	1189.363770	1092.844360	57.673462
876.447754	961.031311	1186.614380	1092.175781	58.135777
876.743469	968.238770	1190.701172	1094.776245	56.880386
877.039063	957.539246	1193.747559	1095.073486	58.225826
877.334595	953.081055	1197.611328	1092.101440	56.852013
877.630127	950.331787	1207.493530	1099.160034	57.873402
877.925537	951.817871	1214.626587	1096.708130	55.131451
878.221008	947.879700	1227.332397	1106.218872	56.660458
878.516296	942.009827	1223.468506	1098.714355	55.675858
878.811646	944.238953	1232.236206	1102.280884	54.876194
879.106812	942.901550	1235.802856	1106.516113	55.859962
879.401978	946.022278	1244.867798	1120.039185	58.229717
879.697083	942.084167	1258.167969	1139.060669	62.317810
879.992126	942.158508	1285.362671	1148.720093	60.186211
880.287109	942.455627	1328.458374	1174.651733	60.154003
880.582031	938.517639	1385.597046	1204.670044	59.531349
880.876892	946.616699	1485.311401	1280.384521	61.958622
881.171753	944.907715	1678.647095	1386.637329	60.202522
881.466492	942.901550	1968.576172	1545.868164	58.787323
881.761230	939.260742	2350.120850	1730.881836	56.109112
882.055786	940.672424	2725.349609	1929.938843	55.431110
882.350403	946.690918	3058.151367	2113.020752	55.238064
882.644958	948.251282	3265.901611	2238.666748	55.677746
882.939453	953.452454	3332.848389	2297.217041	56.475033
883.233826	959.693909	3277.270264	2280.499023	56.990791
883.528137	955.161438	3162.026611	2235.471680	58.014885
883.822449	948.399902	3043.885498	2174.246338	58.499397
884.116577	939.632141	2907.391357	2115.175537	59.740208
884.410828	954.864258	2761.460938	2037.380859	59.920216
884.704956	956.127380	2578.378662	1930.458984	60.060463
884.999023	966.306885	2366.987549	1797.828613	59.365547
885.292969	957.316223	2120.079590	1658.956665	60.342495
885.586914	956.870422	1906.013306	1532.716431	60.670109
885.880798	948.399902	1732.367798	1437.683228	62.411144
886.174622	950.851868	1619.353516	1371.108032	62.865391
886.468384	955.755859	1539.329468	1321.771118	62.719639
886.762085	954.864258	1495.490845	1286.180054	61.283669
887.055664	949.663025	1458.339478	1251.926514	59.421562
887.349304	948.919983	1412.123169	1228.075317	60.266281
887.642822	950.926208	1373.560059	1203.778442	59.827728
887.936340	946.170837	1341.164063	1188.769165	61.418350
888.229736	934.133789	1323.331421	1182.602173	63.841187
888.523071	935.099670	1305.721680	1180.447388	66.198906
888.816284	942.975830	1295.616577	1168.707397	64.011765
889.109619	958.430847	1282.613647	1143.667480	57.139561
889.402710	959.842590	1268.273071	1123.234253	52.975201
889.695862	955.310059	1252.595337	1118.850464	55.011269
889.988892	950.406067	1241.152710	1123.754395	59.621780
890.281921	953.601196	1231.567627	1125.463379	61.828396
>>>>>End Processed Spectral Data<<<<<
