Jaz Data File
++++++++++++++++++++++++++++++++++++
Date: Fri Jun 04 16:36:07 2021
User: jaz
Dark Spectrum Present: Yes
Reference Spectrum Present: Yes
Processed Spectrum Present: Yes
Spectrometers: JAZA3586
Integration Time (usec): 40000 (JAZA3586)
Spectra Averaged: 10 (JAZA3586)
Boxcar Smoothing: 1 (JAZA3586)
Correct for Electrical Dark: No (JAZA3586)
Strobe/Lamp Enabled: Yes (JAZA3586)
Correct for Detector Non-linearity: No (JAZA3586)
Correct for Stray Light: No (JAZA3586)
Number of Pixels in Processed Spectrum: 2048
>>>>>Begin Processed Spectral Data<<<<<
W	D	R	S	P
191.335022	0.000000	0.000000	0.000000	0.000000
191.713211	235.539627	237.917343	237.248581	71.873756
192.091385	476.280426	474.943024	479.772705	-261.124054
192.469528	722.668274	719.027527	723.857117	-32.653812
192.847641	729.504150	732.847717	727.200745	-68.890671
193.225739	737.825989	749.268555	732.401855	-47.403122
193.603790	744.141785	755.807312	735.596924	-73.248817
193.981842	754.246887	753.429626	744.661865	1172.822998
194.359863	759.968262	752.612305	755.435730	61.617161
194.737854	758.482239	759.225281	760.711243	299.983582
195.115829	763.088928	769.701965	763.980530	13.482482
195.493774	763.534851	771.782410	756.698975	-82.883636
195.871704	769.627625	772.451172	753.949707	-555.256042
196.249603	763.683411	763.757629	758.779480	-6607.401367
196.627457	755.881592	764.500671	762.122986	72.413696
197.005310	756.401672	763.386169	764.723572	119.148155
197.383133	756.104492	766.283936	761.305603	51.094257
197.760910	762.717468	769.256042	764.352051	24.999067
198.138687	758.259277	768.958801	770.667786	115.972527
198.516449	763.609070	776.314758	773.045471	74.269104
198.894180	757.962097	772.822571	767.918640	67.000175
199.271866	760.191101	764.797913	756.030212	-90.320358
199.649536	755.212891	757.367676	753.652527	-72.413887
200.027191	756.401672	762.345886	753.132324	-55.000515
200.404816	749.565857	763.014648	760.488342	81.215370
200.782410	748.302734	770.965027	765.838196	77.377258
201.159988	756.550293	771.633789	773.714294	113.793259
201.537537	759.448059	786.419983	775.348938	58.953445
201.915070	757.516296	790.209473	774.234375	51.136295
202.292557	752.389343	789.912292	775.720398	62.178093
202.670029	759.893982	793.181458	778.172424	54.910870
203.047485	755.361389	786.122803	771.782410	53.381878
203.424911	751.646301	790.432373	764.352112	32.758694
203.802292	742.507080	787.608887	760.562683	40.032993
204.179688	745.924988	791.101074	765.318054	42.927727
204.557037	746.890869	787.311707	767.472839	50.919209
204.934357	749.045715	786.122803	771.856689	61.523102
205.311661	749.120056	783.076355	768.290100	56.455044
205.688934	746.222229	785.008301	763.757629	45.210560
206.066177	740.203613	777.949524	759.893982	52.165569
206.443390	738.494690	772.971191	763.386169	72.198395
206.820587	739.534973	766.655457	764.426331	91.780655
207.197769	743.175781	775.125977	763.906250	64.883698
207.574921	747.485352	779.955627	760.562683	40.274776
207.952042	749.714539	777.355042	755.955872	22.580389
208.329147	745.702087	779.584167	758.705078	38.377190
208.706223	752.983826	793.553040	779.063965	64.285545
209.083267	749.342957	799.200012	783.967957	69.448547
209.460297	759.225159	798.754211	779.658508	51.691978
209.837280	752.760803	787.460205	760.637024	22.698433
210.214264	747.411133	791.175354	764.277832	38.539928
210.591217	738.271912	781.293152	757.441895	44.559345
210.968124	733.070618	783.596497	756.921814	47.205902
211.345016	739.832214	783.150696	748.822754	20.754513
211.721893	738.346130	781.887512	751.646301	30.546047
212.098724	740.129395	780.104309	750.977539	27.137381
212.475555	743.547302	774.605896	754.321228	34.689034
212.852356	740.055115	774.828796	753.875305	39.743248
213.229126	738.866272	775.794678	755.658691	45.472908
213.605865	737.454529	767.844238	753.875427	54.034405
213.982590	742.061340	767.844238	753.058105	42.651394
214.359283	746.890930	760.042480	750.308838	25.988630
214.735931	741.169678	767.770020	746.147949	18.715065
215.112579	745.479187	770.221985	748.674255	12.913125
215.489197	737.083008	771.782410	745.256348	23.554699
215.865799	736.637207	775.646057	748.748535	31.047642
216.242355	728.092285	773.491272	750.383118	49.099846
216.618896	734.110840	778.915344	754.841309	46.268715
216.995407	735.968445	770.816406	758.184998	63.752804
217.371902	738.271790	773.342773	759.745300	61.228710
217.748367	735.522644	765.392334	761.900085	88.308388
218.124802	740.426575	775.125977	758.630798	52.462643
218.501236	746.147949	772.005310	758.110657	46.264225
218.877609	748.079773	777.652344	753.875427	19.598074
219.253983	741.095276	769.553284	758.184998	60.052418
219.630295	736.934387	769.107422	757.887756	65.127113
220.006592	736.934387	763.460449	757.367676	77.030991
220.382889	739.237793	764.797852	752.092102	50.290607
220.759140	737.231628	767.992920	752.760925	50.483242
221.135391	739.609314	776.389160	755.064209	42.020008
221.511581	742.729980	777.949524	752.909485	28.903000
221.887772	746.147949	781.218811	748.674133	7.203085
222.263931	749.194275	777.280762	744.438965	-16.930954
222.640060	748.154053	779.286926	746.445129	-5.489128
223.016159	747.633972	780.921631	750.606140	8.928739
223.392212	738.866211	789.243469	755.361511	32.743546
223.768265	736.414246	790.135071	763.088928	49.654266
224.144302	738.049011	788.574707	758.110657	39.705826
224.520294	744.884766	777.652283	757.144714	37.414948
224.896286	750.606140	781.293030	751.720642	3.631850
225.272217	750.531738	777.875183	755.584412	18.478554
225.648148	752.017822	774.382996	755.881531	17.275558
226.024048	741.987000	776.314880	759.373779	50.649151
226.399902	738.420410	786.419983	755.584290	35.758400
226.775772	739.832214	798.828613	752.389343	21.284569
227.151581	749.194336	795.261963	751.126221	4.193584
227.527374	748.154114	792.438477	746.965332	-2.684428
227.903137	747.411072	788.574707	741.987000	-13.176854
228.278870	742.061279	788.054688	742.952942	1.938675
228.654572	749.417236	785.454102	752.983704	9.896719
229.030273	740.352356	787.980408	757.441895	35.881245
229.405930	741.987000	786.048523	750.457520	19.224300
229.781555	729.652649	782.184814	747.931213	34.794994
230.157181	729.652771	788.574768	749.342957	33.417377
230.532761	730.470032	785.602600	755.658691	45.687443
230.908325	736.934387	786.345642	752.092102	30.676643
231.283859	737.305908	782.779114	751.349121	30.882391
231.659332	739.683594	790.357971	752.389343	25.073322
232.034821	743.547363	794.964783	752.835144	18.063490
232.410263	747.931152	789.837891	749.268616	3.191524
232.785690	743.695984	781.961853	744.438965	1.941628
233.161087	739.460693	775.423157	745.330566	16.322222
233.536469	736.562805	766.655518	747.188171	35.308769
233.911804	730.915833	767.547180	747.113953	44.219284
234.287140	736.562805	766.135437	743.621643	23.869495
234.662430	739.832214	780.995911	751.869324	29.242052
235.037704	753.206726	784.933899	750.457520	-8.665148
235.412933	751.349121	791.546875	756.698914	13.308685
235.788162	750.308899	786.642883	752.017883	4.703542
236.163345	744.438965	786.865784	752.983704	20.139946
236.538513	742.209961	784.636780	745.553528	7.880786
236.913635	737.008728	790.580994	747.188171	19.001331
237.288742	735.522644	793.330139	749.937439	24.935858
237.663834	736.488586	791.621155	761.974426	46.226471
238.038879	739.237793	782.779114	758.630859	44.539455
238.413910	737.974609	784.190918	767.547180	63.987305
238.788910	742.878601	789.540710	769.181824	56.369553
239.163879	738.271790	791.175354	774.531555	68.539360
239.538834	739.312073	782.110413	766.432556	63.368073
239.913757	733.665039	779.955627	763.980530	65.489532
240.288651	734.556641	781.664612	759.522400	52.996891
240.663528	735.299744	789.615051	755.584290	37.345909
241.038361	735.002441	788.500488	752.835144	33.333370
241.413177	736.562805	784.933899	752.092102	32.104500
241.787979	730.915833	787.460266	756.773254	45.729385
242.162735	731.807556	795.187744	766.581238	54.865223
242.537476	737.677429	801.503479	769.627625	50.058235
242.912170	747.485352	795.336365	776.240540	60.093163
243.286865	745.999329	787.608887	770.816406	59.642735
243.661514	738.346191	784.785339	772.079590	72.639999
244.036148	737.677429	786.791504	762.271667	50.075745
244.410751	740.203796	798.308411	755.287292	25.959206
244.785339	742.135559	805.070007	749.937439	12.396835
245.159882	738.271790	801.577698	751.869324	21.479092
245.534378	739.980774	800.686218	760.488342	33.782089
245.908890	746.668152	793.776062	759.596680	27.444494
246.283356	744.736267	794.073242	754.915588	20.632236
246.657791	742.581360	791.026794	753.949707	23.466291
247.032196	737.008728	799.943115	753.206726	25.737913
247.406586	736.637207	811.905823	769.256042	43.336567
247.780960	730.395813	814.506348	759.596680	34.717251
248.155289	731.733215	806.258789	768.067200	48.753712
248.529602	733.813660	798.308411	755.584290	33.755661
248.903870	740.278015	786.568604	759.299500	41.091473
249.278122	738.791992	788.946289	753.949707	30.222166
249.652344	736.340027	792.958679	756.104492	34.908047
250.026550	736.860046	800.686096	761.082764	37.951145
250.400711	735.225403	797.491028	756.178894	33.651779
250.774857	737.603210	794.147461	755.138611	31.011818
251.148987	740.278076	789.466492	750.160339	20.090631
251.523071	739.460693	794.296082	755.584412	29.403856
251.897125	737.603027	798.531311	758.110657	33.658638
252.271164	731.733154	807.967773	763.014648	41.033188
252.645187	740.055115	813.837708	764.203430	32.729015
253.019165	733.070618	810.642761	770.667786	48.467358
253.393112	741.689758	814.506409	768.810242	37.244892
253.767044	735.894104	814.060608	766.135315	38.688198
254.140930	745.330627	812.500244	759.819580	21.570694
254.514801	735.745605	799.868835	762.791687	42.178291
254.888657	737.677429	787.088684	772.822571	71.127808
255.262466	742.284180	784.859680	769.181824	63.176342
255.636276	744.067566	790.358093	764.054871	43.177959
256.010010	745.702148	804.921387	759.299500	22.961037
256.383759	740.129395	811.608643	764.946533	34.719360
256.757446	741.318176	819.038879	768.141541	34.512508
257.131134	739.534973	811.608643	763.014648	32.577328
257.504791	738.791931	810.419739	759.373840	28.734524
257.878418	735.968445	807.001892	750.606140	20.606764
258.252014	736.860046	812.500244	754.990051	23.968744
258.625580	739.906433	824.908875	755.064270	17.832237
258.999115	740.946716	831.521729	763.311829	24.692364
259.372650	738.643311	845.564941	763.683350	23.419058
259.746124	738.271790	855.224304	765.243713	23.062286
260.119598	736.637207	866.815613	758.110657	16.495401
260.493042	740.426575	865.255188	757.218994	13.452380
260.866425	737.528809	863.100403	754.692688	13.668600
261.239838	736.860107	855.298645	760.785583	20.200752
261.613159	735.076843	852.549500	762.866028	23.655874
261.986511	737.825989	845.490723	763.980652	24.292692
262.359802	738.569031	840.883972	759.893860	20.842340
262.733063	743.250061	833.007874	759.745361	18.377565
263.106293	739.832214	827.137878	764.946533	28.765968
263.479523	743.027283	830.555847	767.027039	27.419342
263.852692	730.915833	832.339050	764.500732	33.113621
264.225861	734.779602	835.162598	758.630798	23.760197
264.598969	737.305847	835.459778	762.643127	25.813822
264.972076	739.386414	831.967529	770.593506	33.707836
265.345154	737.900330	834.791016	775.571777	38.880360
265.718201	734.928223	831.224548	770.965027	37.422825
266.091217	743.250061	844.004578	762.122986	18.731592
266.464203	745.479187	848.462708	755.584290	9.812349
266.837158	748.897156	856.710388	758.556458	8.959291
267.210114	748.302734	861.614258	760.191162	10.491808
267.583038	750.234558	873.502747	760.488342	8.318273
267.955902	750.160217	871.793762	756.327454	5.070342
268.328766	748.599915	872.611145	750.903320	1.857417
268.701569	746.965149	867.187012	748.005554	0.865404
269.074371	742.284180	875.806152	749.714539	5.564896
269.447144	740.203674	877.960938	755.361511	11.003294
269.819885	735.596924	887.323059	754.023987	12.144950
270.192596	739.757874	894.456116	748.302734	5.523567
270.565277	736.117004	908.425049	749.863037	7.977592
270.937927	743.101501	912.214539	763.980530	12.346197
271.310577	740.723816	925.143250	771.336487	16.599482
271.683136	741.838379	932.424866	769.553223	14.541872
272.055725	738.049011	938.963440	759.968262	10.909744
272.428284	739.683594	933.093567	751.869324	6.300466
272.800812	742.878662	935.174072	748.079834	2.704782
273.173279	745.702148	932.722107	753.875427	4.370271
273.545776	740.723816	938.369141	767.621399	13.609015
273.918152	734.036621	933.093567	768.587341	17.357204
274.290558	732.624817	937.774597	762.940369	14.777277
274.662964	738.197510	924.251526	757.813477	10.543157
275.035278	743.175781	919.793396	762.568848	10.980256
275.407593	738.940613	919.867737	761.900085	12.689900
275.779907	742.432800	933.910950	762.271667	10.360904
276.152161	741.689758	951.594971	763.609070	10.442481
276.524384	744.290344	957.316223	768.438782	11.335917
276.896606	744.513245	964.895081	762.420227	8.125435
277.268799	755.064270	969.724792	763.906250	4.119053
277.640930	753.652527	977.823792	762.122986	3.778566
278.013031	750.754700	979.532776	765.838135	6.593042
278.385162	744.141785	973.885742	753.652527	4.139714
278.757233	754.246887	974.851746	753.206726	-0.471504
279.129272	752.537903	983.990906	757.070374	1.958268
279.501282	757.516296	996.548096	759.745300	0.932514
279.873230	748.897156	998.702881	758.927917	4.015425
280.245178	742.730042	997.588379	755.510071	5.014562
280.617126	735.596985	1010.219788	759.670959	8.766196
280.988983	735.819824	1028.126831	762.271545	9.049294
281.360870	743.918884	1047.891235	763.683350	6.502060
281.732697	743.993164	1054.429810	763.609070	6.318811
282.104492	744.661865	1068.918823	757.293274	3.895494
282.476288	736.191406	1091.952759	753.652527	4.908099
282.848053	738.866211	1104.732788	749.863037	3.005693
283.219757	736.785828	1101.983643	750.606140	3.784336
283.591461	740.129395	1097.451172	760.488342	5.697651
283.963135	741.764160	1095.667969	766.952698	7.117340
284.334747	738.049011	1104.955811	771.336487	9.072461
284.706360	740.575195	1105.550293	766.061035	6.982898
285.077942	738.494812	1118.181641	765.540833	7.123244
285.449524	743.250183	1134.453979	773.342712	7.692290
285.821014	737.603088	1153.846924	771.187927	8.068549
286.192535	740.055176	1171.382446	768.958801	6.701089
286.563995	737.751709	1191.072632	758.407898	4.556637
286.935425	747.708252	1201.772217	760.636902	2.847319
287.306824	750.160217	1196.273804	758.259277	1.815470
287.678223	754.767029	1184.979858	761.974365	1.675296
288.049561	752.983704	1178.441162	756.847473	0.908145
288.420898	748.376953	1175.097534	764.203430	3.708862
288.792145	749.937317	1180.521606	765.986755	3.727363
289.163452	750.977600	1175.469116	766.804016	3.728323
289.534668	748.897156	1186.243042	765.169434	3.720688
289.905914	748.599915	1198.057129	759.893860	2.512797
290.277039	746.370850	1227.183716	763.460449	3.554314
290.648193	753.578186	1252.966797	764.203430	2.127650
291.019318	744.513367	1266.935669	762.197266	3.384982
291.390381	742.581482	1277.635254	768.067200	4.763207
291.761475	740.649597	1271.096558	765.615234	4.706529
292.132507	743.175781	1268.421753	769.107422	4.937047
292.503510	747.039551	1258.836670	759.225281	2.380969
292.874481	744.959045	1262.923340	766.358215	4.131399
293.245422	745.999329	1268.347412	769.776184	4.551918
293.616364	745.925049	1282.019043	772.153870	4.892579
293.987213	745.850769	1299.331665	764.575012	3.382997
294.358093	746.667969	1330.167236	768.587402	3.756549
294.728943	740.649475	1359.294067	768.364502	4.479959
295.099731	737.603027	1393.176147	767.770020	4.601621
295.470490	738.123230	1415.689819	762.940430	3.662695
295.841248	735.299744	1432.482056	773.714294	5.509972
296.211975	735.002502	1443.033203	776.240540	5.824329
296.582642	735.002502	1452.395142	773.491394	5.365108
296.953308	741.689758	1481.298950	762.197327	2.772757
297.323883	744.216064	1509.608398	758.779480	1.902739
297.694519	744.587585	1534.796997	762.940430	2.322529
298.065063	743.918762	1546.908325	772.079590	3.506998
298.435608	741.912659	1534.871216	773.937195	4.038614
298.806122	736.637207	1508.939575	771.113586	4.464104
299.176575	735.448242	1464.803711	766.804138	4.299124
299.547028	732.699036	1429.435669	768.141541	5.086930
299.917450	733.962219	1411.751587	771.336487	5.514142
300.287872	737.974609	1410.859985	767.175598	4.339668
300.658234	741.095398	1424.160156	768.290100	3.981277
301.028564	745.330566	1431.441772	767.472839	3.227213
301.398865	751.943542	1438.797852	759.596741	1.114239
301.769135	751.349121	1433.893921	750.011719	-0.195944
302.139374	753.503906	1430.104492	743.547363	-1.471554
302.509583	741.095276	1426.612183	746.370850	0.769576
302.879791	748.451355	1427.206665	755.138611	0.985223
303.249939	748.079773	1425.571899	752.092224	0.592251
303.620087	750.754639	1424.160278	754.841370	0.606875
303.990173	746.445129	1425.200562	750.457520	0.591139
304.360260	740.055115	1431.664917	757.813477	2.567685
304.730286	740.426575	1433.596680	763.088867	3.269370
305.100281	738.420410	1442.587280	761.454285	3.271082
305.470276	737.677429	1446.302368	759.373779	3.061754
305.840179	737.677429	1453.286987	758.705078	2.938425
306.210144	729.578430	1460.122681	765.169434	4.871848
306.579987	730.544373	1462.054688	772.451111	5.728796
306.949890	725.194580	1475.131836	766.135254	5.459213
307.319702	736.340027	1483.973999	764.203430	3.726878
307.689484	739.906555	1496.085327	759.968262	2.653038
308.059265	742.804382	1511.985962	769.033203	3.409965
308.429016	736.860107	1536.505981	767.992920	3.893325
308.798737	738.123230	1572.691406	770.890625	3.926269
309.168396	741.541199	1601.520874	772.896912	3.646099
309.538055	742.061279	1619.799316	772.822571	3.504610
309.907684	738.420471	1642.313110	767.472839	3.214139
310.277313	726.977844	1656.505005	756.921814	3.221420
310.646851	732.624817	1675.675171	762.048645	3.120070
311.016388	738.940613	1684.219849	771.633789	3.458573
311.385895	750.011719	1698.114380	780.327148	3.197484
311.755371	752.612305	1700.343384	775.571838	2.422579
312.124817	753.801086	1709.557007	769.256165	1.617053
312.494232	752.017822	1702.721069	771.485168	2.047678
312.863617	742.135559	1703.761353	780.030029	3.940667
313.232971	742.581360	1689.792603	776.240540	3.553503
313.602295	742.581360	1679.910278	768.736023	2.790340
313.971619	748.228455	1674.040161	759.968262	1.268056
314.340820	739.163513	1688.603516	765.986816	2.825171
314.710083	743.918884	1723.823120	769.924805	2.653925
315.079285	739.609375	1758.299683	774.085754	3.384383
315.448486	747.262512	1771.971313	774.382996	2.646653
315.817596	750.457520	1760.380249	771.633728	2.096815
316.186707	750.606140	1746.039673	766.878418	1.634693
316.555786	749.268738	1725.234985	758.333557	0.928805
316.924866	745.702148	1713.866577	755.732971	1.036066
317.293884	746.965332	1705.767578	750.308899	0.348723
317.662872	748.005554	1698.040039	755.584412	0.797746
318.031830	745.776367	1687.489136	763.683411	1.901540
318.400757	745.553528	1689.049438	774.605896	3.079226
318.769684	743.844543	1701.532227	778.320984	3.599967
319.138550	739.312073	1723.823120	767.101318	2.822644
319.507416	743.695984	1740.244141	764.500671	2.087675
319.876190	746.445129	1749.160278	760.191101	1.370875
320.244995	753.652527	1759.042603	758.556458	0.487764
320.613770	752.760925	1748.194336	752.538025	-0.022392
320.982483	744.290344	1732.070679	756.253113	1.211076
321.351166	733.293640	1711.043091	763.088867	3.047328
321.719818	729.801331	1700.046265	768.587219	3.997536
322.088440	735.819885	1712.529297	768.735901	3.370093
322.457062	740.203674	1727.761230	772.302490	3.250324
322.825623	738.791992	1749.234741	774.531555	3.537020
323.194183	737.157288	1777.841309	765.912415	2.763098
323.562653	736.117004	1808.528320	765.095154	2.702149
323.931183	740.723816	1846.794067	764.426453	2.142959
324.299591	740.500916	1883.648438	772.005188	2.755924
324.668060	739.683533	1928.824341	771.559509	2.680589
325.036407	741.912659	1974.074707	759.225281	1.405060
325.404755	748.525635	2001.269531	756.921875	0.670228
325.773102	753.652527	2000.898071	757.887756	0.339567
326.141388	746.519470	1995.176758	769.850525	1.868492
326.509674	741.615479	2000.823730	771.708069	2.389802
326.877899	739.163513	2028.315796	770.221985	2.409217
327.246124	735.671204	2037.603516	769.033203	2.562499
327.614288	737.454529	2037.380493	767.324219	2.297799
327.982422	740.352356	2020.811157	771.262207	2.413967
328.350525	748.376953	2018.730591	776.463440	2.210919
328.718628	747.336731	2014.049683	783.670837	2.868377
329.086700	747.188171	2011.969116	773.862854	2.109036
329.454712	744.736145	2005.802124	763.386230	1.478914
329.822693	738.866211	2008.253906	753.801086	1.176542
330.190674	734.853943	2022.594360	754.692688	1.540586
330.558563	728.686768	2036.488892	750.754700	1.687406
330.926483	729.058289	2043.547729	749.120056	1.526202
331.294312	731.658875	2063.312256	754.841309	1.740876
331.662231	734.482422	2096.525635	765.689636	2.291206
332.029999	730.618652	2139.472412	766.581238	2.552613
332.397766	726.754883	2161.020264	774.828796	3.351815
332.765503	730.395752	2184.277100	771.708069	2.841519
333.133240	741.318176	2213.626709	777.057861	2.427459
333.500916	745.107666	2258.876953	770.519226	1.678694
333.868561	740.203674	2292.239014	770.742126	1.967639
334.236176	728.389587	2314.455566	769.107483	2.567226
334.603790	727.646484	2318.616455	766.061035	2.414536
334.971344	732.773438	2322.034180	768.438721	2.244143
335.338867	737.454407	2317.724854	765.912415	1.800831
335.706360	737.974609	2309.774414	767.547119	1.881443
336.073853	737.974609	2313.043701	763.757629	1.636945
336.441284	744.067383	2312.523682	758.259277	0.904832
336.808655	740.203674	2315.124268	759.893982	1.250241
337.176086	734.259460	2282.951172	758.259277	1.549683
337.543396	727.869446	2229.601807	767.992859	2.671808
337.910706	731.436035	2186.729248	763.609070	2.210760
338.277954	742.432800	2197.874512	769.256104	1.842967
338.645264	746.073669	2278.492920	768.438782	1.459464
339.012421	750.234619	2391.358643	774.382996	1.471453
339.379669	744.736145	2489.661133	778.469666	1.933236
339.746796	745.256287	2554.453125	778.841125	1.856340
340.113953	739.312012	2587.369385	772.005310	1.769063
340.481018	740.129395	2600.743896	767.770020	1.485564
340.848114	744.736145	2606.242432	763.832031	1.025830
341.215118	744.810547	2606.167969	768.810303	1.289369
341.582153	751.274902	2614.787354	767.324158	0.861237
341.949066	742.952942	2619.765625	767.398438	1.302500
342.316010	746.593750	2626.378174	765.912415	1.027706
342.682922	739.237793	2644.582520	765.763855	1.392192
343.049835	745.033386	2664.792969	767.324219	1.161126
343.416656	747.336731	2708.482666	769.553284	1.132835
343.783478	749.565857	2756.853760	769.701843	1.003144
344.150269	742.507080	2833.534180	771.262207	1.375168
344.516998	732.550476	2908.283203	763.831848	1.437740
344.883728	733.219238	2973.520752	760.636902	1.223838
345.250427	735.894104	3027.613037	757.962097	0.962945
345.617065	740.872375	3052.875732	759.596680	0.809874
345.983704	740.426575	3062.460693	764.872253	1.052770
346.350281	739.089172	3056.591064	761.825867	0.981086
346.716827	737.231628	3029.767822	764.129211	1.173268
347.083405	737.900330	3015.427002	763.014648	1.102701
347.449860	745.181946	2980.727783	775.348938	1.349424
347.816376	756.253113	2959.848877	770.444885	0.644028
348.182770	748.748535	2927.081299	775.423157	1.224543
348.549194	741.169617	2915.564453	759.150879	0.826955
348.915558	731.807434	2917.793701	768.736023	1.689333
349.281921	734.631042	2930.425049	767.324219	1.488900
349.648193	741.763977	2967.725342	776.537781	1.562193
350.014526	749.863037	3003.613281	779.361267	1.308851
350.380737	750.828918	3037.495117	778.469727	1.208782
350.746948	750.085938	3083.711670	783.150696	1.416883
351.113159	744.290344	3120.565674	777.652344	1.403962
351.479309	743.695984	3159.946045	783.150696	1.632890
351.845428	736.562805	3178.447266	780.550110	1.801367
352.211517	736.191345	3204.453369	780.401550	1.791147
352.577576	737.677429	3224.292236	775.051697	1.503018
352.943604	738.866272	3268.799561	774.011414	1.389173
353.309601	733.813660	3326.012451	766.952637	1.278412
353.675537	736.562927	3398.531982	761.825745	0.949027
354.041473	737.231628	3463.101318	757.441895	0.741425
354.407379	737.454529	3531.237061	760.116760	0.811167
354.773254	730.321472	3603.979248	765.243652	1.215252
355.139038	735.151123	3657.848633	772.450989	1.276214
355.504913	743.770264	3718.479736	779.138367	1.188960
355.870636	753.801086	3785.946533	778.766846	0.823369
356.236389	754.098328	3870.131592	776.537781	0.720129
356.602081	752.463684	3974.378174	777.429382	0.774872
356.967804	753.578308	4058.934814	775.051697	0.649654
357.333405	749.342957	4160.060547	773.045593	0.694946
357.699036	741.987000	4258.734863	770.890808	0.821890
358.064606	733.070618	4383.563477	770.667786	1.029920
358.430176	736.042786	4463.290039	773.714172	1.010703
358.795654	740.723816	4522.880859	772.971191	0.852619
359.161163	745.256348	4527.116211	772.525391	0.721048
359.526581	740.352356	4512.032715	767.472839	0.719056
359.892029	742.432800	4532.837402	767.398499	0.658655
360.257416	734.482361	4586.186523	772.822571	0.995409
360.622772	743.844543	4737.764160	774.234375	0.760902
360.988098	753.578186	4891.199707	778.246765	0.596202
361.353394	760.488342	5119.605957	769.701965	0.211364
361.718658	751.794922	5312.124512	772.153870	0.446436
362.083893	739.163391	5485.621094	768.067200	0.608955
362.449097	739.386414	5590.685059	768.661682	0.603452
362.814209	742.952942	5620.480469	768.215820	0.517944
363.179382	742.284180	5510.587402	766.432617	0.506437
363.544434	747.039551	5286.118164	770.370605	0.514004
363.909546	741.987000	4997.972168	769.033203	0.635486
364.274536	738.791992	4783.386230	768.215820	0.727485
364.639587	731.658875	4624.527344	768.067200	0.935257
365.004517	733.887939	4546.212402	770.742126	0.966712
365.369507	737.305908	4485.581543	772.451111	0.937637
365.734344	736.265686	4461.358398	776.091980	1.069136
366.099274	741.318176	4434.460449	775.051697	0.913410
366.464081	740.575195	4419.600098	779.509827	1.058287
366.828918	742.358459	4397.755371	777.355042	0.957395
367.193665	733.665039	4407.711426	779.584167	1.249824
367.558411	736.637207	4422.943359	783.299316	1.265823
367.923126	737.900330	4444.565918	786.122803	1.300966
368.287781	748.599915	4440.851074	785.528381	1.000161
368.652435	755.658691	4412.615723	778.766846	0.631896
369.017059	760.488342	4391.365234	775.200256	0.405189
369.381653	758.630859	4382.894531	775.646179	0.469483
369.746185	746.147949	4386.535156	775.868958	0.816424
370.110687	739.163513	4383.414551	779.064026	1.094889
370.475220	731.807556	4413.209961	773.937195	1.144391
370.839661	733.516541	4458.534668	770.073425	0.981388
371.204041	727.869446	4518.497070	767.398499	1.042810
371.568451	734.631042	4561.741211	767.324219	0.854252
371.932770	738.197571	4607.065918	764.797913	0.687548
372.297150	742.284180	4659.077637	757.739075	0.394580
372.661377	743.398743	4691.102051	762.123047	0.474309
373.025696	743.250061	4709.900879	767.324219	0.606914
373.389862	744.959045	4690.136230	766.804016	0.553713
373.754059	739.163513	4678.767578	767.249939	0.712925
374.118225	739.980774	4703.139160	769.330383	0.740561
374.482361	740.575195	4757.157715	775.720398	0.875003
374.846436	745.033386	4821.801270	771.559387	0.650663
375.210510	743.473083	4884.512207	775.348938	0.769755
375.574524	745.107727	4970.480469	778.023743	0.779009
375.938538	750.531799	5075.915527	781.738953	0.721489
376.302460	749.714539	5184.472168	779.732727	0.676885
376.666412	751.200500	5314.947754	776.834961	0.561698
377.030304	743.695862	5425.732910	781.367432	0.804598
377.394196	748.599915	5540.011230	779.955627	0.654415
377.757996	745.107727	5642.771484	781.144531	0.735796
378.121796	740.649475	5706.671875	777.429382	0.740631
378.485565	731.510254	5727.922363	781.516052	1.000834
378.849304	734.556641	5657.706543	782.036133	0.964413
379.212982	743.175781	5563.787598	780.847229	0.781466
379.576630	745.553528	5426.253418	778.395264	0.701642
379.940277	744.067444	5342.811523	778.989685	0.759386
380.303864	741.764099	5279.654297	781.813232	0.882550
380.667450	746.668030	5273.710449	784.042297	0.825578
381.030945	746.816650	5266.131348	785.825623	0.863161
381.394501	747.411072	5289.090332	783.150696	0.786925
381.757935	747.113831	5320.224121	779.955627	0.718150
382.121399	744.216064	5333.449707	780.029968	0.780390
382.484741	742.729980	5372.161621	778.023743	0.762378
382.848145	742.729980	5398.167480	783.819397	0.882611
383.211487	744.959045	5457.014160	787.608887	0.905122
383.574768	746.519470	5529.311035	793.850281	0.989606
383.938019	739.163391	5603.242188	788.426086	1.012786
384.301270	742.878601	5682.597656	787.906067	0.911539
384.664459	738.791931	5748.207031	780.995911	0.842493
385.027649	745.404968	5810.918457	784.785339	0.777421
385.390778	745.033386	5882.025879	783.076416	0.740570
385.753876	750.085938	5914.720215	798.828552	0.943777
386.116943	743.027161	5948.750000	799.497253	1.084769
386.479980	734.779602	5948.973145	803.881165	1.325259
386.842987	735.225403	5978.619629	802.766602	1.288120
387.205994	734.259521	6024.241699	808.339294	1.400378
387.568909	737.157288	6076.328125	817.329895	1.501593
387.931793	732.030457	6115.560059	821.193665	1.656222
388.294678	738.123230	6134.135254	828.921143	1.682685
388.657471	739.312012	6167.200684	831.298828	1.694707
389.020294	738.197510	6164.599609	839.026367	1.858116
389.383057	737.008728	6170.246094	846.085022	2.007575
389.745819	735.968445	6169.800781	855.149963	2.193323
390.108521	744.364563	6207.397949	864.809326	2.204723
390.471191	751.869202	6265.205566	875.211731	2.237167
390.833801	746.816589	6350.950684	889.403503	2.544317
391.196442	739.683594	6489.970703	906.938965	2.908644
391.558960	732.773438	6626.167969	920.610657	3.187250
391.921509	737.157288	6785.101563	932.647705	3.232345
392.284027	734.333801	6929.843262	947.954102	3.447986
392.646484	734.185242	7031.192871	962.888916	3.631942
393.008911	738.866272	7057.421387	990.603821	3.984100
393.371307	743.101563	7022.796387	1008.882324	4.232383
393.733673	739.386414	6967.886719	1042.615723	4.868416
394.096008	733.739441	6933.261719	1062.603149	5.304662
394.458344	727.497864	6947.082031	1095.370728	5.914750
394.820587	728.686768	6966.994629	1123.977295	6.336503
395.182831	733.070618	7002.585938	1159.716919	6.805092
395.545013	735.968445	6979.997559	1191.072754	7.288632
395.907196	733.665039	6956.369629	1216.335571	7.756604
396.269287	734.705261	6865.571777	1246.725464	8.351514
396.631409	738.494812	6766.229004	1285.288452	9.071296
396.993469	745.181946	6663.170410	1328.755493	9.861012
397.355530	750.383240	6594.068848	1363.826416	10.497540
397.717499	754.246887	6566.354004	1397.039673	11.059548
398.079468	753.206726	6550.676270	1424.531738	11.579620
398.441376	744.216064	6563.457031	1472.382690	12.513085
398.803284	742.061279	6582.403809	1528.852661	13.471664
399.165131	743.695984	6620.892578	1599.068726	14.554094
399.526978	751.423523	6630.626465	1650.263306	15.288463
399.888763	744.810486	6648.013184	1694.622070	16.089767
400.250519	740.203796	6659.976074	1736.528809	16.830462
400.612244	741.095398	6690.439941	1787.277710	17.584833
400.973938	740.129395	6696.532715	1841.444336	18.489597
401.335602	741.243958	6710.427246	1896.874146	19.359938
401.697205	733.813660	6731.380371	1967.981812	20.577814
402.058807	736.562805	6789.411621	2032.996704	21.418573
402.420349	736.488586	6863.045410	2108.191162	22.389456
402.781860	734.779602	6960.456543	2177.738525	23.177544
403.143341	735.448303	7083.427246	2259.025635	24.000984
403.504822	739.312012	7209.519043	2338.603760	24.717783
403.866241	741.169617	7342.298340	2418.256348	25.406059
404.227631	742.507080	7445.652832	2508.831299	26.350677
404.588959	739.757874	7596.710449	2617.016357	27.377447
404.950287	743.472961	7703.111816	2712.643799	28.294155
405.311554	743.695862	7789.451660	2795.268311	29.117849
405.672821	748.748535	7819.173340	2849.583252	29.712992
406.034027	740.872375	7827.568848	2899.886475	30.465736
406.395203	737.603088	7790.193848	2922.549072	30.980757
406.756348	734.482422	7732.981934	2972.777344	31.982498
407.117493	740.426575	7686.914063	3009.854492	32.670151
407.478516	739.312073	7686.096191	3077.321533	33.655998
407.839600	737.305969	7681.414551	3114.101563	34.227512
408.200592	734.779602	7698.950684	3169.531250	34.961113
408.561554	736.488586	7680.300781	3191.078857	35.349319
408.922485	734.036621	7709.130371	3224.143555	35.699978
409.283417	739.460693	7716.932129	3269.319580	36.257530
409.644257	741.615479	7771.247559	3345.480225	37.041267
410.005096	742.804382	7851.345703	3423.795166	37.715061
410.365906	745.107605	7951.134277	3477.292969	37.915279
410.726715	745.924988	8075.813965	3554.791016	38.320717
411.087433	746.519470	8144.915527	3614.604492	38.766308
411.448120	745.850769	8207.107422	3681.402588	39.343933
411.808807	742.804382	8205.992188	3710.157959	39.759865
412.169434	738.940613	8191.429199	3730.293701	40.138981
412.530029	731.510315	8162.450684	3754.665039	40.683342
412.890564	737.528809	8168.320801	3786.540771	41.032127
413.251099	742.135559	8162.599609	3836.546631	41.701046
413.611572	741.243958	8187.045410	3878.453125	42.133938
413.972076	734.779602	8210.895508	3904.459229	42.397415
414.332489	726.383362	8253.694336	3940.050537	42.693428
414.692871	728.389465	8376.889648	3994.440186	42.701847
415.053223	729.727051	8476.973633	4054.847900	42.920033
415.413574	739.609314	8672.019531	4137.249512	42.832382
415.773834	736.711487	8780.500977	4212.666992	43.212910
416.134094	736.860046	8896.041992	4293.657227	43.592567
416.494263	733.516418	8988.623047	4361.272949	43.945606
416.854462	739.609314	9211.680664	4468.937012	44.019077
417.214630	738.197571	9463.194336	4585.518066	44.095379
417.574738	742.878601	9721.098633	4699.126953	44.064953
417.934784	733.144958	9935.610352	4813.330078	44.337955
418.294861	731.881836	10204.141602	4935.855469	44.381950
418.654846	724.377258	10542.738281	5080.597168	44.368092
419.014832	730.024231	10909.347656	5243.171875	44.336418
419.374756	740.203796	11321.801758	5431.825684	44.337559
419.734680	747.188171	11739.606445	5632.071777	44.438663
420.094543	749.714417	12160.531250	5817.382813	44.411095
420.454376	739.683594	12534.721680	6001.802246	44.612988
420.814148	741.838379	12902.816406	6188.673828	44.789452
421.173920	744.513367	13312.893555	6388.919434	44.909576
421.533691	752.389404	13732.554688	6573.710449	44.847820
421.893341	745.033386	14036.601563	6735.912598	45.072781
422.253021	744.959167	14235.583008	6852.494629	45.272446
422.612640	738.197571	14278.604492	6903.911621	45.535660
422.972260	749.863098	14267.012695	6899.751465	45.496933
423.331757	745.553528	14205.640625	6873.521484	45.526955
423.691315	751.794922	14206.457031	6862.079590	45.413883
424.050781	743.472961	14324.895508	6895.886719	45.300213
424.410248	748.079773	14437.612305	6932.443848	45.175861
424.769653	740.352295	14579.604492	7023.910645	45.403889
425.128998	743.250183	14627.604492	7086.919922	45.689339
425.488373	742.135559	14577.450195	7096.727051	45.930225
425.847656	745.479248	14418.961914	7032.380859	45.978786
426.206940	741.838379	14250.963867	6963.650391	46.056366
426.566193	742.061340	13982.210938	6879.985840	46.358421
426.925385	737.157288	13730.101563	6796.841309	46.638268
427.284576	738.643372	13347.071289	6630.552246	46.729923
427.643677	731.064453	13067.024414	6486.182129	46.653179
428.002777	733.293640	12783.708008	6335.049316	46.486004
428.361847	726.160461	12500.020508	6197.218750	46.467834
428.720856	726.234802	12225.323242	6080.488770	46.562420
429.079865	730.321472	12042.464844	6003.808594	46.617931
429.438812	738.197510	11917.635742	5957.740723	46.688774
429.797760	746.445129	11831.890625	5921.703613	46.685165
430.156616	746.593750	11670.282227	5853.196777	46.747974
430.515503	742.135559	11611.657227	5821.841309	46.733479
430.874268	732.179016	11582.902344	5821.172363	46.900036
431.233093	726.754944	11613.515625	5851.339844	47.071716
431.591827	732.253235	11633.057617	5877.345215	47.199192
431.950562	734.928162	11654.233398	5886.930176	47.182507
432.309204	740.203674	11713.526367	5896.812500	46.992229
432.667877	735.002502	11802.465820	5934.335938	46.978550
433.026459	739.386414	11929.078125	5995.486816	46.972702
433.385010	738.569092	12045.511719	6057.900879	47.044830
433.743561	742.730042	12187.875000	6135.101563	47.114929
434.102051	742.581360	12341.012695	6186.519043	46.936840
434.460510	746.445129	12475.426758	6259.187012	47.001026
434.818939	747.782532	12569.940430	6305.105469	47.007683
435.177338	747.633972	12607.760742	6341.291016	47.163551
435.535675	739.460693	12566.372070	6330.963379	47.277798
435.894012	737.825989	12502.026367	6316.102051	47.417381
436.252289	732.550598	12510.942383	6314.468262	47.391171
436.610535	736.711487	12547.500000	6306.146484	47.155491
436.968719	738.866272	12677.233398	6339.656738	46.914207
437.326935	744.290344	12776.278320	6377.848145	46.821503
437.685028	751.274841	12863.510742	6438.702637	46.956051
438.043152	750.606140	12939.819336	6482.392090	47.023430
438.401215	750.680359	13101.426758	6555.134277	46.996788
438.759277	739.386414	13290.082031	6657.598145	47.154453
439.117249	733.888000	13598.585938	6805.535156	47.196186
439.475250	734.185242	13826.324219	6937.348145	47.380825
439.833130	739.460693	14160.686523	7072.653809	47.187893
440.191071	743.398743	14380.770508	7166.720703	47.100876
440.548889	745.479187	14677.165039	7280.255371	46.905857
440.906708	742.432800	14980.989258	7417.863281	46.882778
441.264496	739.163391	15222.547852	7532.438965	46.903923
441.622223	733.516418	15361.641602	7618.555176	47.067131
441.979950	742.507080	15395.671875	7679.929688	47.344193
442.337616	743.473083	15401.245117	7696.350098	47.434746
442.695251	743.621643	15311.117188	7685.427734	47.652710
443.052887	735.596985	15150.770508	7586.158691	47.523266
443.410461	741.095398	14990.574219	7516.908691	47.551308
443.768005	751.051941	14860.840820	7424.922363	47.299576
444.125458	755.732971	14802.290039	7391.337402	47.240078
444.482941	754.469788	14827.627930	7386.285156	47.123859
444.840393	752.537903	14940.418945	7443.572266	47.160210
445.197754	752.240723	15152.925781	7551.014160	47.211456
445.555084	754.098328	15372.415039	7667.743652	47.294403
445.912415	748.228333	15694.739258	7804.088379	47.207405
446.269714	742.209778	15931.543945	7925.722168	47.293137
446.626953	738.940491	16232.172852	8091.492188	47.456539
446.984161	737.008728	16502.931641	8249.013672	47.647099
447.341309	741.689758	16707.041016	8372.801758	47.797958
447.698456	738.866211	16860.998047	8446.733398	47.809231
448.055542	743.547302	16929.802734	8502.237305	47.933815
448.412598	740.352295	16941.320313	8492.131836	47.847630
448.769653	737.231628	16859.212891	8462.335938	47.916595
449.126617	735.894226	16616.689453	8355.563477	47.980404
449.483582	740.798096	16429.296875	8270.561523	47.995438
449.840515	749.714539	16132.754883	8141.646484	48.052479
450.197388	744.959045	15956.805664	8034.204590	47.918217
450.554230	742.209900	15803.296875	7963.245605	47.944984
450.911041	743.027161	15656.698242	7902.242676	48.004379
451.267822	745.479187	15513.442383	7846.366699	48.083054
451.624573	742.432800	15307.995117	7757.277832	48.160484
451.981262	735.522644	15257.765625	7705.340332	47.994087
452.337921	735.745605	15135.092773	7639.656738	47.945999
452.694580	737.677429	15088.132813	7638.690918	48.089161
453.051147	738.420471	15072.528320	7638.542480	48.137787
453.407715	746.519470	15016.282227	7638.394043	48.297050
453.764221	750.383240	15044.963867	7633.936035	48.154980
454.120728	747.188171	14840.706055	7563.050781	48.361687
454.477142	737.677429	14827.034180	7537.564941	48.262585
454.833557	730.172852	14671.590820	7476.115723	48.387783
455.189911	733.144958	14559.097656	7415.485840	48.331863
455.546265	735.374023	14404.918945	7363.696777	48.489712
455.902557	744.587585	14306.468750	7309.010254	48.403484
456.258820	746.370850	14305.206055	7299.127441	48.328320
456.615051	743.547363	14329.875000	7305.889160	48.301071
456.971252	746.296570	14315.682617	7297.344238	48.278145
457.327393	754.321228	14451.433594	7360.650391	48.231548
457.683502	754.098328	14642.688477	7438.147949	48.126194
458.039612	747.782532	15001.273438	7609.861328	48.143143
458.395630	731.881775	15363.574219	7767.457520	48.084496
458.751648	733.219238	15740.363281	7948.607910	48.079689
459.107605	722.148132	16300.902344	8184.593262	47.901424
459.463562	733.665039	16863.076172	8443.760742	47.801472
459.819458	735.076843	17419.900391	8712.959961	47.815208
460.175323	748.079834	17910.373047	8972.053711	47.918850
460.531158	748.451355	18392.896484	9239.469727	48.122898
460.886932	750.308899	18704.298828	9407.839844	48.220654
461.242676	748.005554	18850.826172	9516.767578	48.438648
461.598419	740.798157	18737.363281	9491.950195	48.626793
461.954102	740.426575	18405.972656	9363.629883	48.813679
462.309723	732.773438	17883.251953	9115.977539	48.880291
462.665344	736.785828	17298.416016	8812.823242	48.763542
463.020905	735.819885	16856.462891	8581.147461	48.666348
463.376373	738.866211	16488.517578	8383.129883	48.536083
463.731873	742.655701	16198.364258	8253.471680	48.595737
464.087341	742.804260	15902.343750	8130.649902	48.733974
464.442749	740.723816	15723.645508	8074.105469	48.944939
464.798126	733.145020	15612.710938	8031.158203	49.047218
465.153503	723.039734	15672.079102	8053.226074	49.034500
465.508820	725.491699	15746.159180	8060.209473	48.830837
465.864105	729.652649	15899.666992	8128.494141	48.772804
466.219330	740.946777	16158.315430	8261.867188	48.782127
466.574524	746.668030	16318.289063	8344.269531	48.791332
466.929657	745.181946	16498.697266	8430.163086	48.782642
467.284790	747.708313	16673.457031	8515.760742	48.776684
467.639893	740.798096	16854.904297	8630.112305	48.959057
467.994934	745.925049	17052.177734	8729.083008	48.957649
468.349945	746.222229	17109.017578	8750.557617	48.917900
468.704926	755.435730	17123.953125	8739.114258	48.774597
469.059875	754.469788	16919.472656	8673.430664	48.988304
469.414764	754.618408	16711.572266	8581.815430	49.051952
469.769653	746.073669	16525.667969	8505.209961	49.171963
470.124451	742.878601	16436.654297	8442.572266	49.062088
470.479248	737.008728	16291.762695	8379.043945	49.129902
470.834015	737.454529	16200.073242	8331.563477	49.112694
471.188721	736.265686	16254.315430	8339.143555	48.993771
471.543365	739.832214	16366.511719	8378.895508	48.884750
471.898010	744.958984	16484.207031	8417.161133	48.745670
472.252625	743.695862	16599.525391	8480.169922	48.792618
472.607178	740.649475	16781.642578	8566.286133	48.785236
472.961700	740.129395	16967.546875	8683.239258	48.948700
473.316193	742.729980	17201.525391	8841.875977	49.208622
473.670654	741.243958	17364.025391	8944.858398	49.351635
474.025055	741.689758	17601.869141	9064.412109	49.363190
474.379456	734.110901	17758.720703	9116.720703	49.238190
474.733795	737.528809	17916.689453	9166.577148	49.065548
475.088104	734.408020	17997.009766	9194.960938	49.010880
475.442383	740.129395	17994.410156	9194.367188	48.997917
475.796570	739.386414	18069.457031	9236.199219	49.029301
476.150787	732.253357	18231.064453	9312.508789	49.033367
476.504944	736.860046	18463.111328	9412.891602	48.944534
476.859070	732.624817	18730.824219	9528.506836	48.870899
477.213135	735.522644	18979.439453	9649.397461	48.859440
477.567200	735.225403	19377.925781	9832.924805	48.800327
477.921173	737.231628	19731.236328	10018.979492	48.866726
478.275146	737.974670	20168.804688	10250.283203	48.954720
478.629089	734.110840	20408.357422	10398.888672	49.124004
478.983002	731.435974	20747.623047	10584.571289	49.225838
479.336823	733.367859	21052.636719	10756.953125	49.330441
479.690643	729.875671	21458.181641	10920.122070	49.161015
480.044403	740.426575	21909.939453	11118.213867	49.022324
480.398163	743.027161	22481.251953	11343.573242	48.764542
480.751862	749.565857	23274.806641	11727.346680	48.735470
481.105499	741.912659	24180.111328	12156.370117	48.700230
481.459137	744.959045	25395.851563	12707.473633	48.527714
481.812744	749.417236	26820.310547	13390.092773	48.485779
482.166290	747.411133	28685.900391	14231.125000	48.262146
482.519806	752.612244	30924.195313	15319.289063	48.279457
482.873291	747.411133	33616.035156	16571.958984	48.144844
483.226715	751.200500	36722.406250	18119.908203	48.285027
483.580139	750.754700	39923.441406	19751.744141	48.505711
483.933502	752.760925	43227.312500	21550.314453	48.964737
484.286804	753.875427	46222.824219	23318.349609	49.626118
484.640106	742.655762	48794.890625	24936.140625	50.348301
484.993347	744.290344	50480.894531	26148.390625	51.077271
485.346558	742.581482	51138.402344	26715.916016	51.538666
485.699738	749.640137	50650.531250	26553.638672	51.710495
486.052887	746.890930	49382.406250	25801.623047	51.515301
486.405975	743.770264	47642.531250	24698.968750	51.078533
486.759064	738.643311	45787.792969	23524.835938	50.580742
487.112061	739.014832	44143.250000	22509.265625	50.156971
487.464996	740.278015	43063.554688	21865.880859	49.914856
487.817963	741.392517	42825.488281	21678.783203	49.751312
488.170868	739.237793	42852.093750	21725.966797	49.834496
488.523743	740.278015	43090.972656	21917.296875	50.003948
488.876587	739.906494	43047.804688	21990.335938	50.228043
489.229401	751.200500	42877.351563	21939.216797	50.296585
489.582153	759.373840	42151.562500	21584.494141	50.311718
489.934845	769.033203	41183.917969	21078.865234	50.253349
490.287537	761.082764	40084.535156	20486.671875	50.162407
490.640198	753.801086	39258.359375	19977.548828	49.925903
490.992798	743.175781	38567.050781	19570.447266	49.776157
491.345337	740.054993	38347.636719	19386.470703	49.581535
491.697876	741.392517	38374.753906	19404.376953	49.591595
492.050354	752.538025	38806.082031	19650.765625	49.662205
492.402832	751.497742	39110.500000	19878.802734	49.863926
492.755219	754.172668	39170.910156	19974.207031	50.030369
493.107605	743.918884	38723.605469	19818.466797	50.223026
493.459930	743.101563	37759.972656	19420.353516	50.456051
493.812225	734.853943	36300.148438	18693.746094	50.495556
494.164490	732.624817	34562.800781	17810.361328	50.480778
494.516724	729.355530	32733.474609	16819.162109	50.274174
494.868896	730.841614	30991.369141	15932.211914	50.234982
495.221039	729.504150	29509.326172	15153.296875	50.117729
495.573120	732.104675	28338.093750	14553.526367	50.066753
495.925201	741.763977	27691.658203	14191.077148	49.904884
496.277222	750.680359	27313.162109	13972.924805	49.777893
496.629211	751.274719	27220.654297	13930.942383	49.792133
496.981140	741.020996	27203.193359	13888.887695	49.685516
497.333069	736.934387	27302.312500	13953.159180	49.749805
497.684967	736.117004	27419.859375	13998.929688	49.703720
498.036804	734.408142	27471.427734	14088.911133	49.947613
498.388580	732.030457	27467.193359	14087.424805	49.954418
498.740326	732.179016	27381.966797	14046.112305	49.958874
499.092072	735.299805	27170.126953	13936.070313	49.937038
499.443756	738.494690	26879.828125	13808.417969	49.997154
499.795410	735.002502	26584.326172	13678.758789	50.073864
500.147003	741.095398	26270.546875	13531.045898	50.098804
500.498566	743.250061	25920.357422	13363.492188	50.125862
500.850098	743.324463	25533.015625	13189.549805	50.207264
501.201599	738.866272	25271.025391	13054.245117	50.200958
501.553009	737.974670	25034.521484	12920.575195	50.141285
501.904449	748.451355	24858.349609	12799.460938	49.983662
502.255859	751.274841	24631.203125	12699.003906	50.032520
502.607178	756.104492	24495.750000	12690.385742	50.271526
502.958405	758.110657	24402.500000	12655.313477	50.317238
503.309692	761.082764	24365.498047	12642.459961	50.335400
503.660919	750.754700	24377.458984	12600.403320	50.153622
504.012115	755.658630	24415.501953	12621.877930	50.153416
504.363251	748.971497	24505.484375	12628.788086	50.006565
504.714294	756.550354	24580.156250	12666.237305	49.991116
505.065369	745.330566	24602.892578	12672.403320	49.992836
505.416443	751.794922	24611.289063	12706.433594	50.104324
505.767395	745.702087	24628.156250	12719.585938	50.136738
506.118317	748.971375	24640.937500	12746.334961	50.215050
506.469238	748.154114	24633.728516	12758.668945	50.283550
506.820160	753.206726	24595.687500	12743.734375	50.290604
507.170929	748.971436	24569.607422	12734.668945	50.316444
507.521729	746.668030	24633.359375	12736.601563	50.195038
507.872498	744.290344	24757.666016	12769.293945	50.076275
508.223236	747.633972	24976.562500	12886.098633	50.099060
508.573883	745.999329	25163.431641	12998.741211	50.180305
508.924500	746.816650	25350.380859	13111.161133	50.254284
509.275116	742.730042	25483.751953	13163.468750	50.203014
509.625702	743.473083	25691.501953	13252.113281	50.138794
509.976196	742.581360	25916.865234	13362.898438	50.131783
510.326660	750.457520	26171.648438	13491.070313	50.118080
510.677124	750.011658	26404.291016	13619.911133	50.166676
511.027557	751.349121	26593.611328	13723.565430	50.197685
511.377869	744.959167	26834.873047	13850.918945	50.233818
511.728180	742.952881	26944.916016	13909.915039	50.251816
512.078430	742.432800	27015.353516	13973.890625	50.361580
512.428650	741.021057	27075.466797	14007.698242	50.377659
512.778931	746.593750	27229.939453	14069.592773	50.307083
513.129028	751.646301	27367.773438	14104.663086	50.168896
513.479126	750.234558	27436.281250	14121.381836	50.105389
513.829285	752.017883	27365.693359	14132.006836	50.274864
514.179382	750.903320	27327.796875	14096.862305	50.216396
514.529297	755.435791	27212.927734	14072.118164	50.332371
514.879272	755.807312	27233.507813	14049.976563	50.208923
515.229187	752.760925	27111.205078	14002.867188	50.268925
515.579163	751.943542	27142.412109	13969.282227	50.083759
515.928955	745.999329	27128.890625	13933.915039	49.986622
516.278748	747.336731	27310.486328	14014.014648	49.943916
516.628540	753.652527	27538.521484	14147.460938	50.005131
516.978333	747.559753	27943.916016	14358.852539	50.048225
517.327942	737.528809	28426.734375	14607.171875	50.090431
517.677612	729.355530	28956.216797	14870.575195	50.098450
518.027222	736.934387	29498.703125	15139.625000	50.075813
518.376831	741.689758	30155.314453	15480.526367	50.108875
518.726379	740.946777	30792.087891	15816.745117	50.167145
519.075867	740.055115	31322.015625	16108.086914	50.251953
519.425293	739.460693	31706.828125	16334.859375	50.360752
519.774658	736.340027	31915.173828	16459.242188	50.428127
520.124084	732.847717	31988.140625	16542.015625	50.580769
520.473389	731.807556	31842.580078	16526.410156	50.768917
520.822693	732.699036	31606.966797	16408.193359	50.772038
521.171997	728.909668	31205.507813	16230.387695	50.863548
521.521240	729.206970	30837.634766	15982.812500	50.662247
521.870361	729.875671	30460.103516	15801.514648	50.694660
522.219482	736.117126	30195.365234	15613.973633	50.503178
522.568604	739.014893	29914.203125	15458.309570	50.451416
522.917664	741.169678	29728.814453	15353.617188	50.409225
523.266724	736.785828	29683.787109	15334.448242	50.428925
523.615662	735.522644	29904.990234	15445.678711	50.429981
523.964600	733.590759	30266.843750	15610.557617	50.373611
524.313538	738.123230	30751.521484	15840.746094	50.319603
524.662354	742.061279	31337.023438	16109.945313	50.230110
525.011169	750.903320	32096.099609	16485.990234	50.199360
525.359985	749.565857	33036.402344	16974.753906	50.253262
525.708740	748.525635	34138.757813	17530.017578	50.258690
526.057434	744.290344	35312.222656	18106.162109	50.225365
526.406067	745.776428	36668.542969	18766.191406	50.164330
526.754700	747.262451	38133.343750	19484.103516	50.117157
527.103333	749.863098	39856.425781	20353.000000	50.127487
527.451782	748.897156	41732.199219	21322.130859	50.199066
527.800293	746.445129	43754.199219	22388.820313	50.322029
528.148743	738.494812	45878.511719	23518.224609	50.464603
528.497131	737.008728	48008.769531	24729.505859	50.754398
528.845642	734.482422	49876.667969	25965.310547	51.342503
529.193909	733.442139	51426.328125	27114.552734	52.041050
529.542175	731.138733	52492.125000	28004.326172	52.690628
529.890503	735.002502	53056.824219	28617.099609	53.289616
530.238770	737.751709	53022.125000	28774.171875	53.622940
530.586914	742.878601	52352.582031	28422.720703	53.633018
530.934998	742.655701	51098.203125	27571.437500	53.278702
531.283142	745.850769	49424.753906	26473.539063	52.851822
531.631226	750.903320	47472.230469	25221.093750	52.374779
531.979248	752.315125	45533.222656	23961.289063	51.827835
532.327148	748.897156	43753.156250	22854.400391	51.403057
532.675110	746.147888	42465.566406	22060.923828	51.090778
533.023071	743.993164	41707.675781	21622.166016	50.967514
533.370850	749.194336	41515.976563	21492.583984	50.883072
533.718689	749.045715	41697.050781	21602.550781	50.926796
534.066467	748.599854	42005.558594	21819.664063	51.072754
534.414246	738.123230	42160.402344	21934.906250	51.172424
534.761963	734.631042	42095.386719	21973.396484	51.350044
535.109619	730.544250	41884.519531	21889.287109	51.413605
535.457153	736.711487	41444.199219	21680.419922	51.449280
535.804749	740.798096	40746.574219	21274.132813	51.325920
536.152344	745.999329	39872.621094	20795.029297	51.241402
536.499817	752.240723	38945.324219	20261.164063	51.079731
536.847229	749.045715	38052.949219	19773.513672	50.998604
537.194641	751.126221	37227.964844	19368.193359	51.038048
537.542114	743.175781	36635.699219	19095.947266	51.132576
537.889404	744.364563	36145.597656	18889.683594	51.256176
538.236694	745.107666	35775.718750	18689.365234	51.224510
538.583984	743.175781	35403.910156	18505.167969	51.245285
538.931213	738.420410	35171.488281	18359.458984	51.174759
539.278381	728.909668	35029.644531	18197.626953	50.928112
539.625488	736.117004	34997.847656	18106.904297	50.700260
539.972595	733.144958	35217.332031	18094.498047	50.345840
540.319641	736.117126	35712.191406	18290.804688	50.190559
540.666687	725.863281	36517.855469	18643.890625	50.061554
541.013611	723.708496	37643.468750	19277.394531	50.254078
541.360596	727.943787	38894.800781	20027.033203	50.565052
541.707458	737.231628	40264.792969	20848.525391	50.879162
542.054260	748.154114	41480.906250	21577.955078	51.137718
542.401062	750.308899	42504.949219	22242.962891	51.473690
542.747864	746.445129	43183.105469	22694.353516	51.719215
543.094666	741.912659	43355.714844	22837.087891	51.849812
543.441284	739.906494	43020.382813	22641.447266	51.800602
543.787903	741.466858	42166.347656	22246.603516	51.913578
544.134460	740.649597	41021.714844	21676.556641	51.974560
544.481079	733.887939	39622.746094	20956.783203	52.001770
544.827637	737.528809	38111.500000	20073.548828	51.736591
545.174072	743.993164	36509.683594	19222.634766	51.665829
545.520508	747.485352	35197.941406	18453.673828	51.396088
545.866943	742.581360	34112.156250	17875.451172	51.342785
546.213318	736.265686	33302.996094	17398.873047	51.164509
546.559631	742.432800	32594.373047	17046.976563	51.188545
546.905823	740.649597	32044.310547	16770.345703	51.207100
547.252136	739.534973	31647.533203	16570.027344	51.218109
547.598389	734.556702	31243.103516	16411.539063	51.385544
547.944458	734.928223	30881.029297	16255.949219	51.486000
548.290588	741.615479	30374.880859	16044.781250	51.641850
548.636658	742.135559	29871.921875	15758.121094	51.548557
548.982727	743.473083	29264.945313	15411.871094	51.429317
549.328735	743.027161	28624.529297	15067.402344	51.375908
549.674622	743.027161	27912.187500	14703.393555	51.383137
550.020569	742.209900	27229.271484	14371.929688	51.458027
550.366455	735.374023	26553.859375	13992.761719	51.348434
550.712280	735.448303	25952.529297	13661.148438	51.257721
551.058044	735.968445	25412.271484	13367.503906	51.188931
551.403748	741.541199	24990.828125	13129.067383	51.084084
551.749512	741.243958	24679.945313	12965.006836	51.062763
552.095154	739.312073	24484.677734	12843.893555	50.976604
552.440735	741.838379	24401.978516	12801.914063	50.972122
552.786316	743.621643	24386.226563	12808.898438	51.031925
553.131897	745.404968	24440.171875	12835.942383	51.026192
553.477417	740.352295	24520.865234	12881.491211	51.054989
553.822815	735.448303	24538.177734	12883.422852	51.036060
554.168213	736.340027	24492.330078	12890.555664	51.162743
554.513672	735.819824	24382.437500	12843.820313	51.203941
554.859009	736.339905	24221.943359	12798.867188	51.361370
555.204285	737.008728	24037.896484	12717.430664	51.416157
555.549500	733.070618	23823.976563	12625.518555	51.502735
555.894714	730.024231	23643.796875	12489.172852	51.319126
556.239990	728.166687	23375.041016	12347.328125	51.305801
556.585022	737.380127	23112.009766	12201.398438	51.236687
556.930115	743.027161	22851.578125	12091.059570	51.328701
557.275146	746.073669	22631.865234	11960.807617	51.242081
557.620178	748.005554	22488.240234	11878.850586	51.199287
557.965149	746.593750	22302.037109	11817.847656	51.361755
558.310059	750.977539	22168.365234	11733.811523	51.279991
558.654968	747.856873	22001.406250	11656.164063	51.324642
558.999756	750.383118	21886.833984	11537.726563	51.036682
559.344604	748.971375	21783.179688	11510.679688	51.162884
559.689331	749.714417	21713.853516	11494.184570	51.251663
560.033997	747.485413	21652.628906	11460.453125	51.245609
560.378723	743.770264	21649.880859	11473.307617	51.322491
560.723389	738.569092	21659.986328	11442.768555	51.163834
561.067932	736.934387	21702.488281	11495.820313	51.316963
561.412476	730.395752	21668.158203	11471.597656	51.300621
561.757019	730.172852	21655.007813	11488.984375	51.416470
562.101501	733.516418	21692.679688	11483.708008	51.291126
562.445862	740.649475	21724.332031	11503.843750	51.293163
562.790222	740.872375	21686.808594	11492.773438	51.331684
563.134644	730.098572	21623.875000	11497.528320	51.534145
563.478943	730.544434	21633.164063	11478.432617	51.418861
563.823181	726.011902	21657.236328	11459.782227	51.281139
564.167358	737.751770	21685.470703	11458.742188	51.179752
564.511536	736.562805	21707.986328	11474.940430	51.204811
564.855774	745.330566	21744.617188	11501.317383	51.220722
565.199768	742.284180	21838.906250	11535.200195	51.159454
565.543823	741.541199	21986.697266	11558.234375	50.913692
565.887817	739.312073	22171.859375	11658.542969	50.946957
566.231812	743.398743	22351.896484	11746.368164	50.919640
566.575745	738.123230	22522.789063	11871.717773	51.107483
566.919617	734.631042	22722.142578	11970.317383	51.100311
567.263428	734.036621	22852.990234	12080.285156	51.296497
567.607239	736.488525	22937.994141	12167.367188	51.486954
567.950989	746.965149	22972.916016	12176.656250	51.424984
568.294678	745.330566	23011.109375	12171.899414	51.318970
568.638367	750.754700	22934.056641	12125.609375	51.276649
568.981995	749.937317	22796.968750	12073.300781	51.360035
569.325623	748.897156	22643.382813	11976.781250	51.281788
569.669128	750.903320	22492.474609	11871.047852	51.146923
570.012573	739.460693	22350.478516	11814.875000	51.248924
570.356140	737.380188	22259.757813	11772.746094	51.273918
570.699524	737.528809	22229.291016	11754.245117	51.260185
571.042908	741.169678	22324.250000	11765.316406	51.077724
571.386230	752.760925	22430.875000	11818.218750	51.044376
571.729492	749.120056	22553.548828	11878.034180	51.039692
572.072815	750.308899	22675.257813	11951.815430	51.090229
572.416016	740.872375	22811.900391	12006.206055	51.041275
572.759094	738.048889	23022.546875	12106.959961	51.017128
573.102234	741.466858	23119.216797	12182.303711	51.125950
573.445374	745.776428	23157.853516	12238.252930	51.278053
573.788391	749.342957	23119.812500	12237.436523	51.353836
574.131409	741.021057	23115.130859	12217.671875	51.294334
574.474365	730.767273	23092.171875	12205.559570	51.315166
574.817261	730.470032	22990.599609	12162.166992	51.355038
575.160156	742.135498	22836.791016	12076.124023	51.297417
575.502930	749.268555	22608.830078	11922.835938	51.115238
575.845703	744.141785	22404.500000	11834.862305	51.202850
576.188477	741.838379	22172.453125	11708.325195	51.172054
576.531250	741.838318	21951.326172	11647.842773	51.420406
576.873901	743.547302	21735.255859	11516.178711	51.318508
577.216431	739.460693	21513.384766	11427.981445	51.451622
577.559082	735.299805	21267.443359	11284.280273	51.377880
577.901611	736.637207	20984.576172	11146.893555	51.413902
578.244080	736.042786	20692.265625	10980.827148	51.336288
578.586487	742.284180	20399.068359	10847.156250	51.406536
578.928955	788.426208	20107.505859	10742.910156	51.526699
579.271301	789.986572	19810.220703	10592.075195	51.535057
579.613647	782.481934	19466.941406	10396.065430	51.452301
579.955872	735.374023	19157.841797	10194.778320	51.347103
580.298157	733.590759	18899.865234	10063.337891	51.357513
580.640320	736.340027	18712.693359	9958.942383	51.304077
580.982483	740.872498	18529.390625	9836.268555	51.130718
581.324524	747.262451	18324.462891	9742.944336	51.178123
581.666626	756.698914	18185.664063	9687.440430	51.240803
582.008728	751.794922	18058.978516	9646.500000	51.393139
582.350647	749.194336	17954.583984	9584.976563	51.354733
582.692566	745.776367	17810.660156	9526.204102	51.453197
583.034424	750.457458	17689.992188	9467.132813	51.457584
583.376343	747.336731	17568.431641	9428.124023	51.606548
583.718201	742.432800	17478.080078	9392.012695	51.683575
584.059937	742.655579	17423.617188	9370.985352	51.725616
584.401611	746.816589	17347.531250	9345.053711	51.794380
584.743347	736.488586	17333.412109	9294.304688	51.562668
585.085022	735.745605	17242.689453	9242.886719	51.536739
585.426514	732.773438	17186.888672	9199.493164	51.456547
585.768127	746.965332	17094.677734	9179.283203	51.581028
586.109619	742.061279	17066.369141	9155.432617	51.538914
586.451172	739.386414	17054.628906	9133.737305	51.450970
586.792542	731.733215	17032.041016	9106.838867	51.380047
587.133850	733.888000	16998.232422	9082.690430	51.331936
587.475220	736.860107	16978.990234	9061.662109	51.254372
587.816589	739.832214	16936.562500	9058.170898	51.358135
588.157776	738.197510	16952.984375	9077.415039	51.429710
588.498962	741.466797	17013.689453	9125.563477	51.523979
588.840210	746.519348	17076.029297	9170.145508	51.585297
589.181335	756.253113	17170.914063	9202.391602	51.454849
589.522400	752.315002	17177.673828	9212.200195	51.505020
589.863403	747.633972	17257.847656	9223.271484	51.335728
590.204407	743.101563	17219.283203	9225.426758	51.482349
590.545410	740.649475	17276.943359	9238.057617	51.386414
590.886353	745.924988	17271.814453	9251.356445	51.467319
591.227112	741.243896	17279.173828	9268.298828	51.560593
591.567932	740.278015	17213.193359	9237.833984	51.585011
591.908752	734.556641	17128.783203	9174.083008	51.478649
592.249512	741.169617	17069.044922	9126.083008	51.353363
592.590149	741.838379	16995.931641	9088.930664	51.353783
592.930786	744.216003	16923.412109	9055.717773	51.371536
593.271423	741.838379	16848.291016	9030.232422	51.460087
593.612000	748.154114	16766.111328	8984.536133	51.419678
593.952576	748.822754	16751.921875	8988.771484	51.489708
594.292969	744.884766	16771.833984	8968.190430	51.309238
594.633484	741.466797	16835.806641	8995.681641	51.286446
594.973877	735.968445	16921.107422	9021.910156	51.194752
595.314209	736.785706	17011.162109	9076.969727	51.247334
595.654480	737.528809	17142.009766	9132.994141	51.177876
595.994812	739.832214	17301.091797	9193.699219	51.046040
596.335022	744.438965	17506.017578	9280.410156	50.925819
596.675171	747.856934	17731.601563	9389.487305	50.881779
597.015320	748.674133	17914.013672	9498.637695	50.974602
597.355408	743.027161	18009.791016	9557.261719	51.047401
597.695496	732.476257	18077.406250	9620.641602	51.243591
598.035461	725.714661	18090.259766	9622.796875	51.237057
598.375366	729.578430	18090.853516	9645.384766	51.354561
598.715271	731.510254	18001.988281	9632.381836	51.538067
599.055176	736.637207	17797.134766	9583.194336	51.854034
599.395081	735.819824	17555.279297	9490.760742	52.052456
599.734802	735.596863	17262.750000	9345.127930	52.093254
600.074524	742.284180	16989.242188	9196.447266	52.035358
600.414246	745.330566	16674.050781	8983.125000	51.716614
600.753906	750.606140	16334.859375	8800.489258	51.653957
601.093506	747.931213	16025.387695	8635.016602	51.625645
601.433044	740.203796	15773.797852	8524.899414	51.782001
601.772583	748.674255	15658.257813	8433.582031	51.543407
602.112122	744.067444	15662.715820	8391.155273	51.258583
602.451538	752.760803	15716.661133	8403.563477	51.128399
602.790894	741.615417	15811.543945	8440.790039	51.089657
603.130310	746.370850	15937.264648	8509.965820	51.106899
603.469604	745.627747	16140.706055	8595.561523	50.989891
603.808838	749.194336	16390.509766	8710.731445	50.900688
604.148010	752.760925	16675.166016	8830.803711	50.733810
604.487305	747.633972	16923.857422	8980.226563	50.893169
604.826416	745.404968	17140.300781	9107.730469	51.005661
605.165527	742.878601	17310.677734	9215.097656	51.136658
605.504456	741.987000	17456.310547	9280.038086	51.082237
605.843445	745.479187	17551.789063	9318.081055	51.008228
606.182434	738.271790	17567.244141	9328.112305	51.041981
606.521423	741.095398	17470.353516	9303.889648	51.184544
606.860229	740.278015	17286.009766	9247.418945	51.415920
607.199036	743.547363	17057.900391	9146.814453	51.508430
607.537903	739.163391	16839.373047	9044.648438	51.586193
607.876648	736.711426	16582.507813	8901.243164	51.524906
608.215271	731.361633	16297.410156	8760.958984	51.584042
608.553955	730.618652	16033.040039	8596.750977	51.404491
608.892578	731.361633	15797.055664	8478.163086	51.420139
609.231140	735.299744	15679.286133	8408.245117	51.344704
609.569641	732.476257	15600.823242	8383.353516	51.457485
609.908081	726.754883	15640.054688	8398.584961	51.442875
610.246521	730.321472	15665.762695	8414.262695	51.447701
610.584961	737.231628	15698.456055	8432.838867	51.437016
610.923340	743.993164	15667.249023	8443.092773	51.591286
611.261597	741.318176	15597.105469	8417.086914	51.668541
611.599854	744.884766	15491.372070	8382.758789	51.794533
611.938110	739.089111	15379.325195	8310.536133	51.716702
612.276245	735.299622	15184.726563	8234.524414	51.899807
612.614319	735.225403	14934.104492	8107.318359	51.920246
612.952393	742.729980	14617.278320	7983.307129	52.186035
613.290466	751.943542	14358.926758	7825.710938	51.986301
613.628479	751.274841	14092.476563	7669.750000	51.857960
613.966370	747.485352	13862.956055	7524.859375	51.674652
614.304260	743.472961	13630.165039	7423.882324	51.839596
614.642151	743.175781	13430.440430	7329.591797	51.913601
614.979980	744.587585	13280.719727	7245.257813	51.855473
615.317749	745.107666	13131.965820	7161.890625	51.803154
615.655396	744.810486	13051.495117	7099.773438	51.638302
615.993164	746.370850	12962.034180	7057.197754	51.661766
616.330811	747.485352	12934.320313	7029.408691	51.546799
616.668396	742.952881	12903.039063	7031.340332	51.713348
617.005859	744.141785	12898.506836	7009.272949	51.546349
617.343445	751.794922	12904.004883	6990.845215	51.340870
617.680908	752.760925	12886.247070	6990.846191	51.412144
618.018311	750.977539	12901.256836	6996.344238	51.401012
618.355652	740.872375	12891.745117	7023.539063	51.705475
618.692993	740.055115	12914.778320	7012.839844	51.523014
619.030273	734.185120	12891.596680	7027.923340	51.768738
619.367554	733.442200	12885.950195	7017.743652	51.711971
619.704712	732.104797	12872.500000	7022.127441	51.810688
620.041870	736.265686	12869.750977	6992.852051	51.564625
620.379028	736.562805	12823.906250	6969.818359	51.568447
620.716064	735.745544	12772.563477	6930.437500	51.464531
621.053040	738.569092	12715.350586	6921.447266	51.623871
621.389954	739.237793	12636.960938	6891.651855	51.710854
621.726929	741.912659	12565.184570	6864.159668	51.781330
622.063843	743.993164	12514.882813	6822.327637	51.638702
622.400635	743.250183	12489.323242	6804.270996	51.600403
622.737427	743.993164	12460.046875	6774.253418	51.470062
623.074219	735.522644	12390.499023	6755.454590	51.651173
623.410889	734.928223	12343.093750	6741.708984	51.746166
623.747559	741.020996	12345.768555	6763.256348	51.894581
624.084167	743.993164	12338.190430	6736.582031	51.686104
624.420715	739.980774	12330.684570	6725.585449	51.641422
624.757324	735.076843	12308.245117	6702.625488	51.563660
625.093750	736.339905	12340.343750	6736.062012	51.703896
625.430176	743.472961	12407.440430	6748.395996	51.482677
625.766602	750.903320	12441.620117	6792.755371	51.680767
626.102905	748.599915	12556.268555	6819.726563	51.416809
626.439209	746.816711	12666.608398	6860.443848	51.289711
626.775452	741.243958	12801.243164	6889.645996	50.981777
627.111694	749.194336	12840.401367	6925.236328	51.078789
627.447876	752.835144	12883.200195	6999.539063	51.496422
627.783997	746.445129	12964.190430	7007.786621	51.247929
628.120056	741.169617	13029.799805	7041.742676	51.271568
628.456055	740.055115	13034.332031	7008.826660	50.989346
628.792053	749.714417	12978.010742	7036.765137	51.413956
629.128052	744.959045	12918.940430	7024.133301	51.578644
629.463928	744.661865	12855.782227	7000.356934	51.652493
629.799744	735.002502	12766.916992	6934.078125	51.521942
630.135559	739.757813	12631.981445	6870.029785	51.548576
630.471375	736.191345	12485.605469	6798.402344	51.595856
630.807068	743.398682	12319.835938	6715.703125	51.590179
631.142700	741.095398	12180.221680	6646.898438	51.628098
631.478333	744.736145	12047.813477	6586.490723	51.682869
631.813965	741.764099	11927.071289	6546.218750	51.893562
632.149475	739.980896	11817.327148	6473.178223	51.756050
632.484924	733.293640	11721.253906	6401.030762	51.581345
632.820435	732.104675	11645.317383	6350.281738	51.480507
633.155884	736.042786	11574.358398	6292.771973	51.269306
633.491150	740.946777	11549.838867	6280.363281	51.248695
633.826477	743.398743	11496.860352	6257.998047	51.282082
634.161804	741.318298	11462.532227	6268.028809	51.549297
634.497009	740.203796	11376.414063	6238.753906	51.696518
634.832153	743.250061	11331.909180	6202.196777	51.554657
635.167297	743.770264	11240.664063	6177.974121	51.769642
635.502380	739.757874	11198.014648	6145.503906	51.688786
635.837463	737.083008	11129.582031	6110.062012	51.700550
636.172424	732.699158	11054.461914	6063.176270	51.643089
636.507324	736.117004	10947.093750	6029.591309	51.841019
636.842224	736.562927	10846.190430	5974.756348	51.813908
637.177124	747.633972	10736.446289	5901.939941	51.600788
637.511963	746.965271	10641.338867	5836.998535	51.443710
637.846741	746.593750	10508.262695	5777.333984	51.535656
638.181396	739.163513	10414.417969	5718.337402	51.462975
638.516113	742.581360	10315.297852	5668.777344	51.460793
638.850769	740.500977	10255.558594	5620.703125	51.289253
639.185303	748.525574	10191.211914	5592.022949	51.293640
639.519836	747.782532	10105.467773	5537.558594	51.185474
639.854370	748.748535	10000.774414	5507.911621	51.439148
640.188843	747.113831	9914.583008	5462.884766	51.440273
640.523254	749.342957	9846.745117	5443.565918	51.599598
640.857605	752.017822	9764.269531	5395.491699	51.524010
641.191895	748.971375	9671.984375	5351.504883	51.580490
641.526184	749.342957	9583.862305	5305.362793	51.570660
641.860413	744.290344	9529.249023	5275.196289	51.575718
642.194580	746.147949	9511.416992	5248.744629	51.368607
642.528748	741.838379	9452.940430	5229.128418	51.512314
642.862793	744.141785	9394.538086	5206.317383	51.583485
643.196838	742.878601	9304.632813	5183.060547	51.860661
643.530823	741.243958	9248.086914	5152.299316	51.853024
643.864746	745.033386	9204.992188	5128.448730	51.813675
644.198669	742.432800	9178.987305	5106.529297	51.728424
644.532532	744.364563	9147.258789	5090.330566	51.719868
644.866333	747.782532	9112.411133	5078.888184	51.778812
645.200073	741.615479	9095.396484	5063.358887	51.733974
645.533813	739.832214	9079.717773	5038.244141	51.540421
645.867554	731.213074	9089.823242	5011.644043	51.209843
646.201172	736.414246	9075.408203	5004.139648	51.177940
646.534729	737.528809	9095.098633	5016.176270	51.194874
646.868225	738.866272	9098.293945	5043.000000	51.488377
647.201782	742.209900	9100.300781	5052.287598	51.567730
647.535217	745.553528	9072.957031	5045.600586	51.637306
647.868591	745.999329	9062.406250	5046.195313	51.707375
648.201965	744.290344	9061.440430	5030.591309	51.535690
648.535278	741.392578	9076.597656	5036.833008	51.533710
648.868591	748.005554	9071.991211	5019.743652	51.318428
649.201782	750.085938	9047.321289	5028.362793	51.562679
649.534912	749.640137	8997.613281	5015.730957	51.722900
649.868103	747.485352	8956.821289	4992.251465	51.706570
650.201172	742.507080	8906.816406	4982.517578	51.933487
650.534180	748.079773	8906.221680	4947.298340	51.472733
650.867188	742.432800	8887.422852	4944.103516	51.585953
651.200134	745.033386	8889.206055	4911.187012	51.155025
651.533020	738.346008	8831.323242	4897.218262	51.388657
651.865845	735.745422	8775.670898	4871.509277	51.440323
652.198608	735.745544	8704.118164	4846.543457	51.588928
652.531433	739.609314	8675.363281	4841.268066	51.685810
652.864136	735.225403	8641.256836	4818.159668	51.643288
653.196777	854.258484	8764.749023	4923.149902	51.436649
653.529358	862.431702	8725.590820	4908.214844	51.452389
653.861938	865.849609	8659.759766	4886.592773	51.588268
654.194519	745.999329	8460.702148	4754.779297	51.962860
654.526978	740.129395	8426.745117	4723.498047	51.822140
654.859375	740.055115	8385.358398	4704.105469	51.849483
655.191833	741.763977	8369.161133	4692.068359	51.790989
655.524170	734.036621	8316.034180	4668.736816	51.895298
655.856445	738.940613	8290.177734	4642.954590	51.700321
656.188660	745.702087	8246.041992	4624.824219	51.719284
656.520874	750.234558	8203.466797	4604.539551	51.713200
656.853088	752.983704	8205.324219	4606.248535	51.705433
657.185181	740.129395	8185.261719	4574.818359	51.505989
657.517212	733.665039	8182.513184	4567.982910	51.475311
657.849243	732.327637	8190.462891	4563.152832	51.364384
658.181274	739.237793	8256.220703	4591.388184	51.245964
658.513123	738.048828	8340.480469	4631.437500	51.212414
658.844971	742.655579	8423.031250	4673.195313	51.176403
659.176819	740.500916	8499.042969	4708.191895	51.139645
659.508667	751.126160	8571.710938	4741.851074	51.028469
659.840393	746.296570	8636.206055	4800.550293	51.385300
660.172058	745.181946	8668.007813	4836.884277	51.644482
660.503662	747.039551	8690.223633	4855.683105	51.725399
660.835266	740.203674	8709.245117	4851.745117	51.593929
661.166931	743.324402	8703.968750	4846.469238	51.542873
661.498413	742.729980	8678.557617	4854.716797	51.815475
661.829773	742.284180	8590.805664	4803.745117	51.748104
662.161194	744.736145	8475.786133	4747.349609	51.773220
662.492615	746.445129	8357.049805	4659.820801	51.420036
662.823975	754.692688	8210.153320	4598.966797	51.563202
663.155212	753.355286	8078.488281	4534.843750	51.623482
663.486450	750.680359	7920.224121	4470.869141	51.888779
663.817627	746.370789	7804.237793	4399.092773	51.753906
664.148743	753.726868	7681.341309	4331.105469	51.639404
664.479858	747.931213	7597.230469	4271.886230	51.449863
664.810913	748.376953	7513.937500	4225.744629	51.398071
665.141907	739.089172	7440.451660	4201.967773	51.674248
665.472778	737.528809	7351.808594	4175.812988	51.982746
665.803711	738.940613	7296.006348	4166.153809	52.267479
666.134583	736.637146	7275.350098	4128.705078	51.876690
666.465454	738.866211	7261.976563	4111.764160	51.706898
666.796143	741.912659	7221.035156	4094.749023	51.748310
667.126831	749.194336	7175.859375	4080.780029	51.840038
667.457458	741.392578	7138.335938	4066.291016	51.976360
667.788147	739.757813	7131.871582	4044.965820	51.707592
668.118774	734.853821	7114.782715	4033.374268	51.701527
668.449219	750.828918	7113.816895	4034.489258	51.605637
668.779663	749.268616	7095.538574	4029.065430	51.680702
669.110107	743.472961	7096.281250	4024.830078	51.652073
669.440552	735.745544	7093.160156	4010.415283	51.509457
669.770874	735.374023	7087.587402	4000.235596	51.397228
670.101135	745.553528	7077.705566	4003.727783	51.454456
670.431396	746.965271	7040.256348	3995.406006	51.617519
670.761597	748.822754	6991.143066	3980.396729	51.768795
671.091797	740.649475	6935.787598	3937.969971	51.610157
671.421875	740.649475	6888.011230	3907.134521	51.509659
671.751892	737.900330	6863.639160	3896.137695	51.556839
672.081909	744.959045	6835.775879	3901.487305	51.824383
672.411865	750.457458	6803.899902	3887.072510	51.815395
672.741821	751.349121	6753.225098	3859.803467	51.791378
673.071716	744.216064	6712.878906	3835.431885	51.790756
673.401550	729.206848	6668.000000	3813.661377	51.937397
673.731262	734.259460	6646.378906	3814.998779	52.108879
674.060974	737.380188	6592.583496	3804.670654	52.385723
674.390625	746.296570	6574.824707	3797.760742	52.353939
674.720276	739.534973	6537.673828	3769.005859	52.249027
675.049927	741.318298	6504.088379	3736.758545	51.979172
675.379395	740.203674	6483.209473	3704.659424	51.618542
675.708923	740.129395	6439.222656	3665.056396	51.322674
676.038330	742.284180	6401.179199	3652.350342	51.424637
676.367737	746.222229	6350.132813	3627.310547	51.412106
676.697083	746.445129	6313.650879	3625.378174	51.712357
677.026428	741.912781	6295.892578	3610.369141	51.646862
677.355652	736.191406	6279.693848	3614.975830	51.930786
677.684875	744.067566	6283.187012	3625.155518	52.013462
678.013977	743.324402	6282.666504	3622.480713	51.976501
678.343079	746.222168	6285.192871	3630.579346	52.073883
678.672180	746.965149	6298.195801	3619.136719	51.739368
679.001221	754.544128	6355.705566	3619.582764	51.150791
679.330139	755.732910	6403.705566	3626.344482	50.825523
679.659058	748.451355	6433.501465	3634.517578	50.765884
679.987976	737.677429	6448.361816	3660.226318	51.176857
680.316772	740.203796	6467.011719	3686.455322	51.446659
680.645630	742.878662	6521.847656	3707.780273	51.305031
680.974304	743.621765	6554.466309	3724.201172	51.293392
681.302979	733.145020	6589.611328	3737.278076	51.296001
681.631653	732.922058	6600.385254	3753.475830	51.479721
681.960266	736.934326	6612.125000	3767.147705	51.576427
682.288757	746.073547	6609.673340	3770.120117	51.573212
682.617249	743.398743	6599.048340	3763.061523	51.568367
682.945679	742.878601	6572.818848	3742.256592	51.447830
683.274109	736.637207	6546.664063	3728.510498	51.494999
683.602478	737.900330	6494.132324	3701.092529	51.477985
683.930725	740.203674	6424.956543	3682.294189	51.754063
684.259033	747.485352	6338.542480	3624.040771	51.449223
684.587280	749.120056	6272.412598	3602.864502	51.667450
684.915344	743.695984	6201.527344	3571.434570	51.810661
685.243469	748.302673	6145.726563	3557.688477	52.050495
685.571533	743.993164	6090.742188	3513.701416	51.801727
685.899536	747.262451	6033.306641	3470.234375	51.512474
686.227539	736.637207	5977.876953	3432.563232	51.436802
686.555420	735.745605	5929.580078	3427.361572	51.823292
686.883301	734.259460	5928.688965	3430.333740	51.903179
687.211121	736.265625	5916.949219	3439.992920	52.188622
687.538940	742.432800	5924.973145	3443.410889	52.116871
687.866638	742.507141	5922.149902	3443.559570	52.147469
688.194336	745.330566	5945.183594	3437.763672	51.779022
688.521973	745.033386	5933.072266	3434.643311	51.842514
688.849609	749.788818	5900.007813	3425.355469	51.950542
689.177063	746.965332	5868.800781	3419.114014	52.171700
689.504578	742.952942	5819.091797	3391.621826	52.178814
689.832031	743.324402	5778.225098	3360.786133	51.986359
690.159485	739.312073	5702.808594	3313.678467	51.865986
690.486816	735.894104	5645.520996	3276.898438	51.755550
690.814087	736.711487	5588.976563	3246.211670	51.718121
691.141296	744.290344	5513.261719	3212.552002	51.756691
691.468506	750.903320	5430.859863	3160.094727	51.478928
691.795715	742.135559	5330.105469	3123.389404	51.902126
692.122803	740.352356	5268.805664	3095.154297	52.000141
692.449829	736.562988	5206.985840	3089.432861	52.631931
692.776855	741.095398	5153.116699	3054.287842	52.429310
693.103821	741.763977	5106.603027	3010.671875	51.981483
693.430664	742.952881	5047.012207	2960.368896	51.519176
693.757568	746.073547	4996.263184	2924.332031	51.250858
694.084351	748.822754	4936.747070	2911.923584	51.650906
694.411133	746.965271	4905.613770	2886.511963	51.448124
694.737854	741.912598	4866.679688	2871.800049	51.636551
695.064575	739.757874	4845.354492	2855.007813	51.521133
695.391174	743.695984	4821.800293	2852.927490	51.720882
695.717773	743.770325	4814.741699	2847.651611	51.680080
696.044250	741.838379	4798.395020	2829.001953	51.451607
696.370789	743.472961	4808.277832	2828.184570	51.286880
696.697205	739.089172	4835.844238	2835.837891	51.180725
697.023621	743.473083	4878.122070	2877.892822	51.622753
697.349915	745.702087	4922.480957	2903.007080	51.649967
697.676208	749.194336	4979.471191	2916.307861	51.228645
698.002380	741.838379	5069.674805	2942.610596	50.851559
698.328674	740.649475	5171.320801	2991.427734	50.799938
698.654724	742.284180	5268.285645	3054.584717	51.089256
698.980896	738.791931	5342.662598	3103.475830	51.362953
699.306946	736.191345	5405.374512	3140.776123	51.499046
699.632935	740.426575	5465.261719	3173.171875	51.488472
699.958862	748.525574	5493.943359	3202.595703	51.714520
700.284729	752.537903	5499.962402	3218.422119	51.941517
700.610596	749.565857	5462.513184	3208.688477	52.178020
700.936340	749.565918	5406.637207	3157.939697	51.714344
701.262146	741.987000	5303.728027	3108.974365	51.887802
701.587830	746.445129	5213.524902	3057.408203	51.733196
701.913513	747.782532	5092.187988	3008.071289	52.027576
702.239075	748.748535	4972.709473	2941.347656	51.908604
702.564697	744.661926	4829.454102	2862.660889	51.850838
702.890137	743.324402	4711.461426	2785.460693	51.463352
703.215698	750.234558	4614.570313	2720.519775	50.986385
703.541016	748.897156	4523.029785	2687.232178	51.358421
703.866455	754.172607	4428.516602	2665.164307	52.009060
704.191711	747.039551	4353.842285	2630.910889	52.231060
704.517029	747.336731	4282.883301	2596.434570	52.300198
704.842163	742.507019	4240.010254	2560.843506	51.989559
705.167419	743.398743	4205.311035	2543.159424	51.987473
705.492493	748.079773	4191.713379	2522.428955	51.525494
705.817566	744.661926	4147.949219	2497.760498	51.511921
706.142578	748.154053	4110.798340	2478.515869	51.458366
706.467590	743.695984	4084.197510	2470.194092	51.683800
706.792480	749.863037	4075.949951	2470.714111	51.738007
707.117371	743.993164	4073.349609	2479.927490	52.140236
707.442200	744.513367	4072.308838	2480.373291	52.162457
707.766907	737.825989	4065.473389	2479.555908	52.341183
708.091675	733.590820	4058.711670	2467.221924	52.137386
708.416321	731.436035	4045.560303	2460.237305	52.164650
708.741028	741.689758	4048.012451	2470.788330	52.296730
709.065552	753.503906	4076.544678	2477.104248	51.868168
709.390137	752.315002	4087.690186	2479.853271	51.794422
709.714600	744.959167	4131.677246	2487.135010	51.441418
710.039063	739.534973	4157.608887	2502.441162	51.576012
710.363403	740.872498	4209.695313	2512.397949	51.069931
710.687744	739.014893	4245.434570	2516.336182	50.687637
711.012085	740.352356	4277.013184	2533.202637	50.693306
711.336304	743.324402	4306.808594	2570.874023	51.285469
711.660461	741.764099	4336.900879	2604.979248	51.825989
711.984619	742.804199	4372.714844	2614.861328	51.573090
712.308716	746.816589	4377.916504	2618.130615	51.535732
712.632751	746.222229	4378.437012	2610.180420	51.317402
712.956726	746.890930	4341.582520	2597.845947	51.491344
713.280701	743.175842	4323.378418	2581.276611	51.340694
713.604553	741.243958	4278.647949	2565.524170	51.571159
713.928467	739.089172	4231.837402	2557.276611	52.056068
714.252258	737.008728	4181.757324	2522.502930	51.832352
714.575989	744.959045	4121.571777	2489.215576	51.656990
714.899719	746.742371	4058.785889	2446.937256	51.333710
715.223267	749.863037	4011.455078	2433.711182	51.626572
715.546936	743.324402	3995.182861	2412.163574	51.319550
715.870422	739.460693	3983.814453	2402.727295	51.266499
716.193970	735.671204	3953.499023	2384.300049	51.234215
716.517395	740.723816	3919.022705	2372.634521	51.345413
716.840820	745.999329	3893.462158	2361.637695	51.331451
717.164124	742.581360	3856.459961	2348.634766	51.577267
717.487488	742.581360	3828.150391	2334.591553	51.595352
717.810730	733.144958	3803.184814	2321.217041	51.728062
718.133972	731.881836	3772.348877	2298.406006	51.522484
718.457092	726.903503	3710.455078	2277.452637	51.969910
718.780212	728.240967	3652.053467	2255.756348	52.243958
719.103210	731.361633	3602.567627	2230.642334	52.217804
719.426208	733.219238	3571.434814	2207.682373	51.950356
719.749207	742.655701	3525.812744	2184.500000	51.806068
720.072083	744.290344	3482.940186	2162.209229	51.774376
720.394958	738.271790	3447.051758	2136.277588	51.610165
720.717773	734.853943	3407.745361	2100.760986	51.102226
721.040527	738.866272	3363.164063	2084.340088	51.269863
721.363281	740.872375	3328.984619	2072.822998	51.464176
721.685913	741.392578	3296.737549	2066.432861	51.853676
722.008545	743.250183	3280.316406	2053.355713	51.638599
722.331055	747.633972	3253.196045	2029.653198	51.166935
722.653503	741.763977	3233.431641	2009.665649	50.885662
722.976013	735.151123	3217.604736	1989.455444	50.526798
723.298401	738.717590	3189.889893	1980.613281	50.665379
723.620789	745.553528	3182.385742	1981.653687	50.725693
723.943115	745.404968	3167.822266	1980.241821	50.975403
724.265381	741.095398	3156.528076	1977.715454	51.196632
724.587585	738.346130	3139.141357	1975.189331	51.518066
724.909790	739.237793	3142.039307	1971.919922	51.301872
725.231873	738.123291	3146.646240	1974.594727	51.337334
725.553894	746.296570	3165.890625	1971.176758	50.623375
725.875916	796.748047	3217.605225	2020.513794	50.550926
726.197937	802.915222	3233.877686	2020.513794	50.087101
726.519775	798.011230	3231.276611	2027.795532	50.540493
726.841675	748.377014	3193.679688	1987.300659	50.665447
727.163513	747.633972	3203.264893	1999.114746	50.963715
727.485291	742.284119	3220.354492	2010.780273	51.188866
727.806946	737.974609	3239.672852	2027.721191	51.554844
728.128662	733.219238	3254.979248	2031.510742	51.483547
728.450256	729.875671	3264.638428	2033.814087	51.442230
728.771790	731.584656	3269.691406	2041.244507	51.599876
729.093323	734.705322	3281.951172	2043.176270	51.368065
729.414795	739.757874	3297.034424	2044.067871	51.003872
729.736145	744.661865	3300.155518	2042.581665	50.789398
730.057495	741.318298	3297.034424	2047.708496	51.116402
730.378845	737.305908	3299.412109	2048.302979	51.168724
730.700134	735.522644	3292.427734	2035.894531	50.857258
731.021301	739.089172	3290.793213	2028.166992	50.518314
731.342468	745.107727	3272.885986	2028.687134	50.778954
731.663574	743.250183	3273.703857	2035.671509	51.074692
731.984680	745.256348	3269.617188	2054.544678	51.866131
732.305664	739.683594	3279.127686	2065.244141	52.198849
732.626648	736.785828	3284.997314	2065.987061	52.162125
732.947571	733.739441	3295.919922	2052.389893	51.465946
733.268433	734.779602	3300.526611	2052.761230	51.368340
733.589233	743.101501	3303.795898	2055.807617	51.263676
733.909973	739.014832	3292.353516	2062.717773	51.842041
734.230713	741.987000	3255.945068	2042.507446	51.731991
734.551331	733.590759	3218.571045	2020.513794	51.788063
734.871948	740.203796	3175.846924	1987.077637	51.192795
735.192505	738.049011	3143.227783	1969.616577	51.204826
735.513062	741.987000	3106.225342	1939.226685	50.639557
735.833435	735.894226	3056.516602	1921.245483	51.079029
736.153931	737.677429	3016.467529	1898.583130	50.943954
736.474304	742.432800	2977.384521	1889.815430	51.338139
736.794617	743.398743	2961.186523	1882.236450	51.350163
737.114807	741.764099	2942.982422	1864.552368	51.007587
737.434998	733.813660	2932.059814	1858.459595	51.161060
737.755188	737.231628	2921.063232	1850.434937	50.974781
738.075256	738.940613	2920.022705	1849.989136	50.940247
738.395325	741.243958	2930.945313	1860.837280	51.129951
738.715271	740.055115	2939.341553	1870.942749	51.420666
739.035278	736.860046	2951.229736	1882.236694	51.724731
739.355164	742.804260	2954.276123	1882.236694	51.523708
739.675049	738.866211	2971.588623	1878.298462	51.033314
739.994873	742.581360	2978.201416	1886.694824	51.176563
740.314636	735.448303	2984.294189	1891.821655	51.420742
740.634277	742.432800	2969.731201	1882.087891	51.167595
740.953979	734.556641	2942.090576	1867.301758	51.312695
741.273499	733.367859	2910.066406	1840.106934	50.844849
741.593140	722.445313	2882.722656	1833.939819	51.451473
741.912598	731.807434	2863.701172	1802.138184	50.205635
742.232117	734.631042	2813.769775	1788.763672	50.700447
742.551453	738.717590	2775.949951	1766.993164	50.474144
742.870850	739.609314	2746.971436	1762.386353	50.951298
743.190063	746.890930	2724.532227	1755.401733	50.995636
743.509338	753.355286	2682.254150	1735.785767	50.932190
743.828552	754.989990	2633.139893	1727.984009	51.805984
744.147705	751.423523	2604.236084	1710.597168	51.768520
744.466797	750.160339	2585.808838	1702.201050	51.863998
744.785828	747.039551	2563.146729	1674.263184	51.055557
745.104858	743.250183	2546.948486	1663.266479	51.007217
745.423706	746.296570	2537.660889	1653.086914	50.620098
745.742615	738.940613	2530.082031	1653.681274	51.070267
746.061401	739.832214	2526.292725	1644.022095	50.613483
746.380249	731.807434	2508.459961	1640.307007	51.135464
746.698975	740.129395	2505.636475	1638.151978	50.864853
747.017639	746.519470	2502.813232	1639.266602	50.831310
747.336304	744.736145	2494.193604	1633.099609	50.779369
747.654907	743.770264	2494.119385	1626.560913	50.435120
747.973389	734.705322	2472.348877	1614.226563	50.615746
748.291931	735.374084	2477.029785	1622.919922	50.959888
748.610352	730.915955	2465.884521	1621.359741	51.323341
748.928711	734.185242	2478.441650	1636.889038	51.752934
749.247070	742.729980	2487.655029	1637.334595	51.268944
749.565308	743.027161	2498.948975	1650.709351	51.692631
749.883545	738.494690	2495.085205	1633.693970	50.962318
750.201782	738.866211	2497.165771	1628.567017	50.600071
750.519836	743.993164	2482.379639	1605.756226	49.572582
750.837952	746.370789	2465.810059	1597.731445	49.513855
751.155884	740.278015	2435.123047	1583.316772	49.741348
751.473877	741.392578	2416.918945	1584.282715	50.305992
751.791809	749.045715	2411.420654	1586.363281	50.368755
752.109619	748.451355	2391.656006	1584.282593	50.865925
752.427490	743.844543	2393.290771	1583.539551	50.907692
752.745300	738.494690	2395.668213	1579.898560	50.773430
753.062988	744.661926	2395.371094	1576.183594	50.373600
753.380615	742.804382	2385.860107	1577.744019	50.816273
753.698303	746.222229	2381.030518	1578.709961	50.922649
754.015808	745.776367	2383.854248	1574.400391	50.585140
754.333374	748.525635	2389.129639	1558.276733	49.356888
754.650757	747.188171	2371.742676	1552.555298	49.574646
754.968262	746.668030	2365.278320	1563.477905	50.463650
755.285583	745.702148	2345.588135	1572.988647	51.709091
755.602905	743.695984	2337.712158	1569.719238	51.820259
755.920105	740.575195	2338.083740	1554.264282	50.934883
756.237305	737.900330	2330.504639	1546.091187	50.746498
756.554443	740.798096	2327.458496	1545.348022	50.707127
756.871582	736.934387	2311.260498	1545.199585	51.340389
757.188599	737.900330	2323.594971	1543.044556	50.775494
757.505615	732.104736	2325.155273	1542.301636	50.858204
757.822510	731.510254	2351.978516	1546.908203	50.318661
758.139465	737.157288	2356.659424	1551.737915	50.298210
758.456238	741.987000	2377.018311	1559.093872	49.974998
758.773010	750.606140	2385.265869	1576.109375	50.500008
759.089783	752.983826	2386.380615	1585.025757	50.939365
759.406433	748.302673	2388.609619	1586.362915	51.091675
759.723145	744.736145	2389.129639	1571.725586	50.291454
760.039673	741.392578	2407.110840	1566.747192	49.549473
760.356201	737.008728	2414.095459	1568.976440	49.607914
760.672668	736.042725	2419.891113	1569.644897	49.505775
760.989136	735.002502	2423.160400	1575.068970	49.762314
761.305481	741.541199	2422.640381	1575.588989	49.613243
761.621826	741.689758	2421.600098	1581.458984	49.988930
761.938049	744.216003	2420.708252	1587.774902	50.316898
762.254333	745.107666	2436.163330	1590.003906	49.962650
762.570496	745.107666	2473.909180	1606.499023	49.825924
762.886597	741.392578	2542.119141	1638.449219	49.816372
763.202637	738.346130	2652.012695	1682.213501	49.322460
763.518677	737.751709	2790.141357	1745.593872	49.105789
763.834656	738.048889	2935.774658	1807.413696	48.657787
764.150574	738.420410	3054.659180	1880.824829	49.321529
764.466370	741.318176	3124.949951	1919.908081	49.445129
764.782288	743.250183	3158.385986	1941.678711	49.621578
765.097961	746.667969	3161.358154	1940.266968	49.430729
765.413696	742.729980	3117.965088	1928.824341	49.935871
765.729309	747.559631	3033.037109	1897.617188	50.320232
766.044861	749.565857	2916.753174	1845.753906	50.581139
766.360474	750.457520	2803.739014	1783.636841	50.318443
766.675903	741.318298	2690.873047	1719.364868	50.167690
766.991394	739.237793	2578.675781	1665.569824	50.359512
767.306763	743.993164	2472.645996	1618.536133	50.591011
767.622131	742.655701	2386.529053	1585.322876	51.261078
767.937378	733.367859	2319.285156	1550.177734	51.503941
768.252625	733.888000	2267.273193	1525.137695	51.601494
768.567810	735.596924	2220.090820	1486.648804	50.593128
768.882996	744.438965	2176.401123	1469.559204	50.638226
769.197998	739.089172	2141.850342	1444.667847	50.299271
769.513062	746.965271	2113.466797	1441.918579	50.856388
769.828064	745.627747	2083.968506	1413.163452	49.877857
770.142944	749.417236	2050.532227	1394.439087	49.574547
770.457825	743.398682	2027.721191	1373.931641	49.094597
770.772705	745.627747	2010.111450	1373.040039	49.618065
771.087402	737.751709	1994.582397	1376.978027	50.860176
771.402100	741.912598	1972.068726	1376.532227	51.588543
771.716736	746.668030	1954.013062	1365.758423	51.277008
772.031372	755.287109	1946.434082	1352.235229	50.115406
772.345947	749.120056	1922.137207	1331.653442	49.661118
772.660461	743.472961	1904.824585	1317.758789	49.449783
772.974854	740.352234	1884.168457	1307.505005	49.584259
773.289246	744.661865	1878.595703	1301.783569	49.131763
773.603638	750.680359	1867.450317	1295.096313	48.749157
773.917908	748.525635	1846.794312	1291.232788	49.414791
774.232178	745.553528	1845.976929	1295.022095	49.932472
774.546265	741.392517	1838.323608	1302.972534	51.195557
774.860474	741.838379	1830.893433	1298.960327	51.156452
775.174561	739.832214	1805.258789	1289.226440	51.565662
775.488586	738.271790	1783.859741	1277.932373	51.613125
775.802551	739.534973	1774.200195	1265.375366	50.822269
776.116516	741.392578	1767.290161	1251.034790	49.677689
776.430359	740.798157	1757.556641	1247.096802	49.795368
776.744202	738.569031	1753.395630	1255.121460	50.900562
777.057922	741.987000	1744.404907	1257.944946	51.471340
777.371704	736.711487	1737.717773	1251.555054	51.432602
777.685303	741.318176	1731.327759	1232.459106	49.609715
777.998962	733.293640	1720.256470	1220.868042	49.401497
778.312500	735.374023	1729.544434	1212.471802	47.989536
778.626038	728.835449	1714.683960	1215.518188	49.366890
778.939453	734.185242	1722.708618	1216.632690	48.804859
779.252869	738.420410	1718.621948	1214.032104	48.521828
779.566223	737.008606	1723.748657	1205.710205	47.500008
779.879578	737.900330	1704.578735	1204.967285	48.316685
780.192749	738.494690	1697.148438	1211.803223	49.372208
780.505920	743.027161	1706.882202	1218.564575	49.337025
780.819031	744.810486	1701.903809	1219.233398	49.569138
781.132141	750.977600	1703.910034	1224.286011	49.668621
781.445190	753.281006	1690.906860	1220.348022	49.813793
781.758118	748.376953	1699.303223	1214.700806	49.038906
782.071045	744.141663	1682.882446	1190.032349	47.498810
782.383911	742.284119	1663.712280	1183.716675	47.907429
782.696838	749.268616	1644.244751	1175.617676	47.638039
783.009583	741.020996	1622.028320	1179.109863	49.725906
783.322266	739.386414	1610.065796	1174.354492	49.957317
783.634888	734.036621	1595.502319	1174.280151	51.104012
783.947510	735.076843	1600.852173	1167.815918	49.982838
784.260132	737.008606	1601.595215	1158.825317	48.788254
784.572571	735.819824	1600.406372	1146.862549	47.542114
784.885010	739.386414	1584.802734	1145.227905	48.004929
785.197449	737.974670	1576.183594	1150.428955	49.206619
785.509766	733.219238	1566.821411	1160.162598	51.216679
785.822083	735.745544	1563.329102	1161.574341	51.454479
786.134277	735.374023	1552.852539	1158.156372	51.717854
786.446533	747.336731	1555.453125	1154.589966	50.395367
786.758606	743.844543	1555.676147	1154.589966	50.594906
787.070740	749.565857	1559.168335	1149.760376	49.430988
787.382690	748.599915	1566.004028	1147.977051	48.859203
787.694641	748.154114	1577.075195	1146.565308	48.063828
788.006653	745.404968	1606.127563	1165.884033	48.851868
788.318481	737.677429	1624.108887	1172.348267	49.036034
788.630310	735.819824	1647.365723	1189.214966	49.739147
788.942017	740.575195	1654.350098	1194.936401	49.723537
789.253784	742.878601	1668.467651	1205.413086	49.971905
789.565430	746.445129	1668.541992	1201.103394	49.306995
789.877014	743.175842	1665.495483	1183.865234	47.780548
790.188538	741.838379	1657.545044	1186.465942	48.555676
790.500061	740.278015	1653.458496	1184.013794	48.592342
790.811462	736.860046	1637.334839	1183.791016	49.632813
791.122925	737.825989	1614.078125	1168.707520	49.173237
791.434204	732.476257	1584.876953	1151.320679	49.137035
791.745483	735.671204	1563.923706	1145.004883	49.421364
792.056702	738.866211	1537.843384	1124.200195	48.228409
792.367920	745.924988	1529.075684	1113.872192	46.982937
792.678955	750.085938	1512.060547	1098.342896	45.704536
792.990112	747.633972	1509.831421	1101.686401	46.451538
793.301086	745.627869	1497.348511	1095.890747	46.594818
793.612122	735.076843	1487.911987	1105.252930	49.170937
793.922974	737.677429	1485.311401	1102.429321	48.787495
794.233826	742.135559	1478.624146	1110.454224	50.010098
794.544556	743.398743	1482.265015	1100.571899	48.340702
794.855286	748.377014	1478.549927	1105.773071	48.946770
795.166016	746.816711	1485.757446	1106.218872	48.637482
795.476624	750.011719	1497.422852	1109.636719	48.116089
795.787292	741.392578	1505.224609	1107.704956	47.957191
796.097778	738.717590	1506.339233	1106.144653	47.865646
796.408264	743.844543	1503.738647	1110.602783	48.264389
796.718689	749.714539	1508.196655	1115.060913	48.168095
797.029053	745.553467	1523.057251	1124.422974	48.728958
797.339355	740.129395	1528.332642	1115.803955	47.662144
797.649658	738.643311	1537.769165	1114.095093	46.982811
797.959839	743.398682	1522.611328	1109.636841	47.001053
798.270020	746.370789	1515.255249	1113.426270	47.738705
798.580078	747.262451	1494.673462	1105.104370	47.877529
798.890137	750.234558	1476.469360	1093.215942	47.227341
799.200195	743.993164	1459.974121	1089.055054	48.194283
799.510071	739.980774	1455.590210	1087.791870	48.603481
799.820007	735.076843	1456.853394	1092.324219	49.495564
800.129883	734.036621	1459.825562	1091.655640	49.273144
800.439575	735.225403	1448.828735	1087.345825	49.343998
800.749329	734.928223	1441.844360	1085.488403	49.590065
801.058960	741.615479	1426.166382	1079.172729	49.310760
801.368591	741.615479	1412.568970	1072.485474	49.313404
801.678162	740.946777	1399.417358	1061.042847	48.612053
801.987671	735.374023	1392.581665	1060.002563	49.395126
802.297119	728.686829	1382.996582	1060.894165	50.772182
802.606506	727.720886	1383.888306	1056.733276	50.141533
802.915894	735.671204	1378.018188	1045.959351	48.305378
803.225159	739.089172	1381.807617	1044.399048	47.502895
803.534424	742.878601	1375.046265	1043.433228	47.543499
803.843628	740.500977	1372.222656	1049.600342	48.929676
804.152771	743.398743	1373.857056	1047.519775	48.238087
804.461792	746.296570	1377.423828	1052.275146	48.481281
804.770874	744.438965	1381.064575	1048.559937	47.770771
805.079773	748.228333	1382.104980	1050.046021	47.614578
805.388733	745.330566	1389.683716	1050.863403	47.416985
805.697571	749.640137	1395.627930	1059.482544	47.964127
806.006470	749.045715	1402.166626	1063.197754	48.100136
806.315125	751.051941	1404.990234	1062.008789	47.551407
806.623901	753.429504	1406.921997	1058.070801	46.617413
806.932495	752.463623	1397.931274	1054.355591	46.771046
807.241150	752.835144	1392.804565	1057.922241	47.672138
807.549622	750.085938	1391.095581	1068.621704	49.692822
807.858154	748.748535	1397.262695	1071.965332	49.839588
808.166565	742.729980	1397.857056	1067.432861	49.563343
808.474915	741.912659	1388.643555	1053.761108	48.219196
808.783264	742.878662	1379.801758	1054.207031	48.880058
809.091492	750.234558	1367.095825	1050.789185	48.723213
809.399719	744.587585	1364.718018	1039.569458	47.567715
809.707825	734.928223	1353.869751	1030.653076	47.779125
810.015930	733.962341	1343.244507	1026.789307	48.060978
810.323975	742.729980	1343.690430	1032.362061	48.194866
810.632080	746.445129	1348.520142	1035.111206	47.945202
810.939880	742.655762	1348.074219	1030.950317	47.619057
811.247864	739.757874	1337.300415	1026.789185	48.035294
811.555664	739.534973	1324.668945	1016.312683	47.301598
811.863464	737.008606	1313.003418	1015.718201	48.387520
812.171143	733.590820	1297.399780	1013.266113	49.604622
812.478882	738.866211	1286.403076	1012.077332	49.898216
812.786438	740.872375	1289.300781	1010.294128	49.126148
813.094055	741.764099	1292.198730	1006.058899	48.015656
813.401489	742.952881	1296.210938	1007.099060	47.743755
813.708984	748.599915	1286.997437	1005.687317	47.750481
814.016357	754.767090	1277.115234	1005.613037	48.022751
814.323730	752.760925	1272.434082	999.297302	47.440659
814.630981	746.147949	1268.941895	997.365417	48.052864
814.938232	741.169617	1280.755981	995.879395	47.204636
815.245361	744.661865	1280.161621	1000.709045	47.814621
815.552490	747.485352	1284.545410	1003.606873	47.689548
815.859619	742.507080	1277.709595	1003.383972	48.743584
816.166565	738.791931	1277.635254	1003.755432	49.172642
816.473572	737.603027	1280.533081	1007.396301	49.692085
816.780457	747.411072	1286.848877	1013.191895	49.269966
817.087341	749.565857	1286.848755	1003.904053	47.337852
817.394043	752.537903	1291.381348	998.554199	45.656361
817.700806	746.965271	1296.285278	1000.337463	46.124699
818.007507	747.633972	1308.693726	1010.888489	46.920940
818.314209	743.695984	1315.009521	1014.603699	47.418396
818.620667	738.494690	1323.925781	1016.981384	47.569508
818.927246	736.042725	1337.894775	1025.154663	48.037045
819.233704	740.129395	1353.572632	1035.185425	48.098343
819.540161	744.959045	1384.036743	1052.720825	48.157177
819.846497	748.748535	1414.277954	1066.689819	47.772686
820.152832	737.900330	1462.129028	1085.488403	47.994244
820.458984	735.522644	1511.688965	1099.680176	46.917461
820.765259	733.888000	1582.573730	1129.772827	46.646812
821.071350	741.689758	1667.947632	1176.732056	46.967731
821.377502	743.250061	1819.970703	1253.264038	47.367340
821.683472	738.866211	2095.039307	1379.058594	47.205803
821.989441	740.575195	2579.196045	1580.790405	45.698124
822.295349	738.420471	3241.233398	1868.119019	45.137150
822.601196	741.541199	4001.201416	2189.775391	44.428993
822.907043	736.711426	4655.140137	2487.877930	44.690529
823.212769	740.649597	5048.498047	2687.083496	45.183430
823.518494	750.829041	5123.841309	2777.806885	46.351982
823.824097	759.670959	4939.273438	2739.244141	47.362717
824.129700	757.813477	4622.966797	2629.796143	48.432301
824.435242	744.141785	4282.214355	2467.221680	48.701088
824.740723	739.312073	3978.018799	2332.362305	49.187851
825.046082	743.621582	3692.102295	2193.862061	49.186024
825.351501	742.507141	3395.337158	2056.625000	49.536453
825.656799	743.027161	3073.160400	1900.515015	49.674747
825.962036	737.083008	2781.076416	1754.658813	49.783714
826.267212	735.225403	2548.731934	1643.056030	50.059406
826.572449	733.590820	2416.770264	1574.920532	49.984554
826.877502	738.123230	2395.296875	1554.635742	49.271393
827.182495	748.228333	2481.265137	1586.734741	48.383644
827.487488	747.485352	2621.400146	1637.929199	47.517841
827.792419	746.742371	2717.176270	1676.343750	47.177498
828.097290	736.117004	2739.169922	1683.996948	47.321762
828.402100	734.259460	2680.173340	1663.043579	47.729973
828.706848	734.928223	2582.167969	1627.081055	48.296535
829.011597	742.730042	2425.538086	1566.449829	48.949123
829.316223	747.559753	2261.997803	1495.565063	49.391609
829.620789	744.587585	2123.274658	1426.240723	49.442196
829.925354	748.228333	2015.461426	1370.142212	49.076515
830.229797	745.999329	1905.047485	1320.136597	49.535240
830.534302	741.689758	1773.977539	1264.929565	50.687393
830.838562	731.956055	1650.486450	1205.041626	51.504620
831.142944	729.355469	1544.084961	1148.645752	51.463741
831.447144	734.705322	1454.401367	1104.212769	51.342152
831.751404	745.033447	1396.296753	1075.308960	50.713055
832.055542	756.178772	1363.826538	1049.228638	48.226929
832.359619	759.299500	1362.043213	1037.488892	46.153843
832.663635	749.342957	1369.250610	1036.151489	46.266331
832.967651	748.599915	1400.160522	1052.795288	46.687195
833.271545	741.912598	1459.528320	1077.166504	46.717747
833.575439	746.816650	1558.648071	1119.742065	45.936314
833.879211	735.299744	1673.891602	1170.565063	46.374290
834.183044	746.742371	1781.407715	1223.914429	46.118496
834.486694	745.181946	1869.382202	1269.684937	46.655659
834.790344	753.355286	1918.942017	1291.529907	46.171997
835.093933	749.640137	1930.235962	1297.102539	46.371704
835.397522	751.720642	1880.304688	1277.040771	46.546837
835.700928	755.955872	1809.939941	1249.028687	46.781807
836.004395	756.773254	1742.918945	1219.381958	46.910786
836.307739	756.476074	1684.888306	1190.626831	46.762714
836.611023	752.315125	1624.406128	1167.295776	47.584557
836.914307	745.702148	1551.143555	1137.277466	48.616238
837.217529	742.284180	1477.732544	1100.943481	48.767433
837.520691	740.203674	1403.355469	1062.454590	48.593838
837.823730	738.271790	1344.359009	1031.767578	48.424679
838.126831	736.860046	1291.009644	1008.659485	49.048027
838.429749	733.219238	1254.155640	991.792725	49.636288
838.732727	734.185242	1218.044556	973.885803	49.539310
839.035522	731.881836	1210.242798	960.436951	47.778797
839.338379	747.856934	1198.279907	951.149109	45.133617
839.641113	750.383240	1192.781494	946.393799	44.306358
839.943848	749.045715	1195.456421	955.681641	46.288300
840.246460	732.253357	1215.295288	951.000488	45.285328
840.549072	726.606262	1244.421875	965.043762	46.046795
840.851563	736.637207	1253.115356	974.628723	46.079689
841.154053	738.643372	1260.842773	1001.080566	50.256126
841.456482	745.181946	1255.641724	998.554199	49.636086
841.758850	742.878601	1239.592285	987.706055	49.289452
842.061157	740.055115	1212.100342	966.827087	48.040306
842.363403	742.358459	1180.447388	959.025330	49.457279
842.665588	744.438965	1166.701416	955.458740	49.973606
842.967712	752.537903	1154.515747	953.824036	50.073936
843.269775	747.931152	1138.912109	946.765320	50.855206
843.571777	748.525574	1114.095093	930.715881	49.837391
843.873840	745.850769	1091.581299	922.022461	50.956360
844.175659	750.903320	1074.417358	909.168152	48.920544
844.477600	754.618408	1063.717773	895.124817	45.456711
844.779297	753.578186	1042.244263	881.304504	44.247082
845.081116	746.742371	1033.402222	872.759766	43.960602
845.382751	741.689758	1028.201050	870.456360	44.942940
845.684387	736.117126	1024.411499	869.193298	46.159824
845.985962	736.711487	1020.027649	874.914551	48.780510
846.287537	738.123230	1004.424133	873.131287	50.697559
846.588989	747.856873	1010.962830	869.564758	46.258125
846.890381	750.160339	1009.328125	862.134460	43.205261
847.191711	749.937317	1012.374573	864.660706	43.714596
847.493042	737.826111	997.662598	865.032227	48.956219
847.794250	735.819824	991.941223	870.307800	52.509464
848.095459	733.367859	982.653503	867.112732	53.651253
848.396606	735.299744	982.802063	859.682434	50.255161
848.697693	739.089172	980.201477	846.085144	44.375988
848.998657	736.934326	984.213867	840.586670	41.917072
849.299622	742.432800	986.294250	834.939636	37.934177
849.600464	738.346130	981.687500	841.701172	42.473270
849.901367	739.534973	968.610291	843.707458	45.475212
850.202087	735.596924	964.077820	851.732117	50.829281
850.502808	733.219238	965.415283	847.571106	49.247982
850.803467	734.259583	976.040527	843.633118	45.236622
851.104065	739.163574	979.458496	848.016907	45.299889
851.404663	747.485352	981.018799	851.360596	44.479813
851.705139	749.640137	970.542175	853.441101	46.989590
852.005615	750.829041	965.861023	853.292480	47.650326
852.306030	748.822815	966.232605	845.193542	44.326767
852.606384	740.946777	972.176758	845.490662	45.212082
852.906616	733.293518	968.461609	845.416321	47.677727
853.206909	726.606262	962.591736	855.967346	54.817394
853.506958	730.247070	964.152100	846.753906	49.809464
853.807129	738.494812	965.043701	832.487732	41.489021
854.107178	745.033386	965.935364	825.874695	36.596008
854.407166	747.262451	955.904480	840.140808	44.515652
854.707092	742.432800	957.167542	849.577332	49.896225
855.007019	742.507141	944.759033	854.332703	55.290241
855.306763	746.519470	950.257507	848.091248	49.854107
855.606567	749.640137	947.136719	848.982910	50.301010
855.906250	745.702148	954.046875	846.233643	48.252480
856.205933	733.887939	948.697083	851.880676	54.929104
856.505493	736.711426	947.954102	851.657715	54.414330
856.805054	742.507019	947.805481	852.920959	53.782158
857.104492	748.971436	948.994324	846.753845	48.885609
857.403931	741.095276	948.622864	848.760010	51.879723
857.703308	736.340027	948.994324	845.936523	51.537399
858.002563	737.380188	953.972656	851.806396	52.830189
858.301819	742.804260	957.687805	845.862244	47.959923
858.601013	744.290344	953.526855	846.159424	48.686092
858.900208	737.454529	957.390625	845.044922	48.918934
859.199219	742.135559	952.115051	845.267761	49.115368
859.498291	739.757874	958.133606	845.639160	48.485828
859.797302	750.531738	947.285339	839.695007	45.317223
860.096191	746.742371	947.136719	847.868347	50.463486
860.395020	750.829041	941.638367	844.970520	49.337986
860.693787	752.092102	938.740540	846.828125	50.756397
860.992554	748.599915	930.715820	837.837402	49.000381
861.291260	743.027161	931.161682	835.534119	49.170647
861.589844	731.658936	932.350586	838.283386	53.128494
861.888428	730.470032	934.505371	842.444336	54.879856
862.186890	741.169678	938.889221	844.078918	52.048088
862.485413	745.776428	938.294861	839.843750	48.861462
862.783813	748.154114	947.508301	837.243103	44.688797
863.082153	745.702148	944.833435	838.283264	46.492500
863.380371	746.519470	948.920105	834.939636	43.685715
863.678589	748.599915	951.966492	832.784851	41.395660
863.976746	752.909485	949.143005	833.527893	41.082893
864.274902	758.259277	950.108887	837.614563	41.363277
864.572937	758.779358	952.189453	838.060364	40.991142
864.870911	750.085999	955.755920	844.078918	45.700859
865.168884	747.113953	955.830261	841.998352	45.460941
865.466736	748.674255	953.824036	843.707336	46.323753
865.764587	747.485352	950.777588	833.602234	42.361126
866.062317	742.581482	946.988098	839.695007	47.509972
866.360107	735.968506	943.421631	836.128479	48.280773
866.657715	733.293640	945.502136	832.859192	46.918739
866.955322	740.798157	950.108887	824.908875	40.184620
867.252808	741.466858	950.851868	827.806641	41.234940
867.550293	743.770264	947.731201	835.831360	45.136631
867.847717	742.284180	946.096497	844.004578	49.908855
868.145081	743.027161	940.969666	843.707458	50.863403
868.442383	747.708252	945.204895	842.518555	48.006031
868.739624	740.723816	942.158508	843.112976	50.829952
869.036804	739.386292	934.802551	847.422546	55.285191
869.333984	734.779602	934.356689	843.707336	54.579277
869.631042	738.643372	936.511536	843.038635	52.760010
869.928101	743.175842	942.158508	839.174866	48.244919
870.224976	744.438965	942.901550	841.626953	48.970432
870.521851	754.321228	949.588684	841.998352	44.901043
870.818726	747.633972	955.161438	841.775574	45.363441
871.115479	748.599854	959.099548	846.085022	46.311310
871.412231	743.398682	951.817871	845.862122	49.162189
871.708862	741.243958	951.446350	846.233643	49.946949
872.005493	741.243958	946.542297	852.252136	54.071640
872.302063	738.866272	951.743591	852.846497	53.542683
872.598572	744.364685	958.950928	851.955017	50.138504
872.895020	741.912598	960.882751	852.029297	50.288452
873.191406	739.980774	961.848633	849.280090	49.263248
873.487671	744.513184	961.848633	843.038757	45.333412
873.783997	748.822815	964.597839	835.162598	40.013798
874.080200	752.240723	974.182922	842.444275	40.642811
874.376343	748.525574	976.040527	848.016907	43.729580
874.672424	753.280945	978.715393	853.886902	44.627586
874.968445	750.977600	979.681335	850.171814	43.372364
875.264465	753.132385	969.947754	849.725891	44.551041
875.560364	749.120056	971.508118	842.592834	42.031384
875.856201	747.931152	964.746521	846.530945	45.476387
876.152039	745.776367	965.861084	851.583496	48.075638
876.447754	740.278015	971.656677	850.766174	47.752094
876.743469	739.683594	977.972412	842.667175	43.217968
877.039063	735.745605	981.390320	836.945862	41.197815
877.334595	733.590759	972.028137	833.750793	42.006851
877.630127	734.333740	970.096375	835.831360	43.050766
877.925537	738.346191	980.201477	839.175049	41.689747
878.221008	742.804260	992.758606	848.165588	42.152229
878.516296	744.810486	992.981506	850.543274	42.604809
878.811646	738.346191	990.826721	860.425598	48.352009
879.106812	738.271912	998.257080	866.741272	49.414112
879.401978	745.776428	1012.300293	874.542969	48.313324
879.697083	756.921875	1037.265991	877.069336	42.857136
879.992126	756.996094	1055.321533	886.208496	43.312565
880.287109	750.457520	1088.609009	900.846191	44.473759
880.582031	745.850769	1140.398193	934.430969	47.796585
880.876892	743.695984	1252.149536	983.322083	47.128414
881.171753	735.596985	1447.342651	1077.017944	47.969517
881.466492	738.717590	1735.860229	1208.905273	47.153503
881.761230	738.643311	2090.432617	1374.823242	47.062061
882.055786	749.863037	2436.609131	1530.487671	46.279915
882.350403	747.039551	2701.201172	1644.616577	45.931564
882.644958	752.240723	2833.906006	1709.779907	45.998711
882.939453	741.689758	2834.648682	1717.061523	46.602528
883.233826	754.172668	2744.742432	1698.560181	47.443073
883.528137	753.503906	2624.594971	1655.167358	48.189182
883.822449	757.516296	2500.657959	1621.656860	49.573746
884.116577	745.999329	2392.547607	1575.366333	50.370037
884.410828	745.702148	2276.115234	1519.193359	50.541336
884.704956	744.513184	2133.379639	1442.141602	50.230057
884.999023	744.438904	1956.019165	1362.934937	51.048702
885.292969	740.129395	1762.980835	1274.514526	52.244648
885.586914	738.346191	1600.480835	1183.567993	51.641796
885.880798	734.408020	1469.633423	1104.881470	50.389099
886.174622	737.157227	1369.919312	1047.891235	49.107559
886.468384	737.974609	1289.300781	1008.139343	49.002705
886.762085	737.008606	1230.898804	984.808289	50.173031
887.055664	735.374023	1179.035522	967.941467	52.420021
887.349304	737.974609	1150.280396	959.768250	53.793484
887.642822	742.135559	1120.484985	939.632141	52.199520
887.936340	743.473083	1100.274780	926.406311	51.270279
888.229736	747.559631	1071.891113	913.626282	51.202755
888.523071	744.513245	1062.306030	901.143372	49.286873
888.816284	744.513245	1061.488647	890.666687	46.108765
889.109619	737.900330	1059.111084	881.378845	44.668030
889.402710	738.717712	1043.953247	876.920715	45.277496
889.695862	739.312073	1015.123718	871.496643	47.925667
889.988892	739.312073	987.854675	868.747498	52.077763
890.281921	736.488525	966.975464	869.564758	57.736996
>>>>>End Processed Spectral Data<<<<<
