Jaz Data File
++++++++++++++++++++++++++++++++++++
Date: Fri Jun 04 16:50:15 2021
User: jaz
Dark Spectrum Present: Yes
Reference Spectrum Present: Yes
Processed Spectrum Present: Yes
Spectrometers: JAZA3586
Integration Time (usec): 24900 (JAZA3586)
Spectra Averaged: 10 (JAZA3586)
Boxcar Smoothing: 1 (JAZA3586)
Correct for Electrical Dark: No (JAZA3586)
Strobe/Lamp Enabled: Yes (JAZA3586)
Correct for Detector Non-linearity: No (JAZA3586)
Correct for Stray Light: No (JAZA3586)
Number of Pixels in Processed Spectrum: 2048
>>>>>Begin Processed Spectral Data<<<<<
W	D	R	S	P
191.335022	0.000000	0.000000	0.000000	0.000000
191.713211	231.155762	234.127869	231.155746	-0.000513
192.091385	464.763519	467.438385	467.289795	94.444954
192.469528	701.492004	705.652893	696.959473	-108.931816
192.847641	713.603333	712.860291	703.349609	1379.965454
193.225739	723.857117	731.064453	706.395996	-242.268707
193.603790	734.482422	738.271790	723.336975	-294.124176
193.981842	733.739441	737.900330	732.327637	-33.930351
194.359863	736.117004	734.185120	745.181946	-469.227844
194.737854	737.974609	738.123230	745.181946	4849.486816
195.115829	740.500916	744.736145	750.903320	245.616089
195.493774	744.141785	746.147949	745.330566	59.256443
195.871704	743.472961	746.593750	746.668152	102.384071
196.249603	746.445068	755.361511	741.466858	-55.831799
196.627457	747.188171	758.556458	741.466797	-50.327503
197.005310	747.188171	764.203430	741.243896	-34.934967
197.383133	750.606140	760.339783	743.695984	-70.992500
197.760910	754.246887	757.293274	752.909485	-43.901268
198.138687	752.909485	756.327393	754.172668	36.957802
198.516449	751.943542	754.989990	747.633972	-141.462143
198.894180	745.330566	752.612305	734.110901	-154.079498
199.271866	748.154053	751.572083	734.631042	-395.637573
199.649536	744.736145	746.816650	740.798157	-189.280365
200.027191	745.553467	751.051941	742.284180	-59.458080
200.404816	740.500916	744.364685	744.959045	115.382912
200.782410	742.432800	759.448059	741.466858	-5.676919
201.159988	746.370850	763.311829	743.770203	-15.351220
201.537537	747.931152	776.314880	736.414307	-40.575523
201.915070	745.999268	771.559509	736.191406	-38.371552
202.292557	737.008606	778.320984	734.482422	-6.114836
202.670029	728.835388	777.726563	733.739441	10.030548
203.047485	720.885010	782.333313	728.389587	12.212831
203.424911	718.358704	770.667786	729.132629	20.596664
203.802292	723.188416	771.633789	726.160461	6.134840
204.179688	728.538147	771.930969	733.590820	11.644031
204.557037	728.835388	782.556335	740.798157	22.268351
204.934357	735.374023	782.704895	745.999329	22.448996
205.311661	737.603088	775.571777	741.169678	9.393501
205.688934	741.912659	776.091980	733.590759	-24.347761
206.066177	736.191406	769.999084	735.745544	-1.318818
206.443390	740.278015	775.051758	743.472961	9.187813
206.820587	744.216064	767.101318	745.553467	5.843948
207.197769	743.101501	768.810242	741.912659	-4.624275
207.574921	737.751709	772.302429	735.894226	-5.376105
207.952042	727.052185	774.159973	737.974609	23.186028
208.329147	726.309082	773.045471	741.095276	31.637434
208.706223	732.179016	770.073425	748.154114	42.156872
209.083267	734.036621	768.364441	738.643372	13.419875
209.460297	734.333801	767.992920	736.860046	7.505381
209.837280	723.485596	767.398499	730.395752	15.736050
210.214264	726.457703	769.479004	738.346130	27.633818
210.591217	725.640381	767.101318	736.042786	25.089651
210.968124	722.668274	765.912415	733.887939	25.944939
211.345016	723.188416	764.054871	733.962219	26.363441
211.721893	720.662109	770.370605	734.110901	27.055317
212.098724	717.095520	765.986755	734.333801	35.258427
212.475555	702.383606	762.048767	732.922058	51.183056
212.852356	708.773682	761.974426	733.070618	45.670292
213.229126	711.448547	765.838135	735.002502	43.306000
213.605865	725.417480	768.661621	737.380188	27.663187
213.982590	719.027527	761.602844	737.603088	43.629883
214.359283	722.445313	756.104492	740.426575	53.421570
214.735931	720.141907	760.785583	737.900330	43.692955
215.112579	718.284363	756.104492	730.395813	32.023819
215.489197	719.324646	761.825867	725.120300	13.636442
215.865799	714.049133	760.934143	718.878723	10.300925
216.242355	717.541321	764.203430	726.309082	18.789894
216.618896	722.816895	761.751465	728.463867	14.503750
216.995407	731.733215	762.866028	731.510254	-0.716162
217.371902	732.104675	764.277832	726.680664	-16.858810
217.748367	733.219238	768.736023	721.776672	-32.217346
218.124802	732.104675	763.683350	720.142029	-37.882042
218.501236	736.934387	768.067200	722.073914	-47.732513
218.877609	731.510315	760.265442	721.330872	-35.400448
219.253983	727.572266	757.516174	728.389587	2.729509
219.630295	726.309082	750.829041	730.915833	18.787758
220.006592	721.479431	749.342957	727.349304	21.066513
220.382889	720.142029	754.395508	717.392761	-8.026243
220.759140	717.095520	761.751465	717.021240	-0.166338
221.135391	717.764343	770.816406	724.525818	12.744980
221.511581	717.689941	775.497498	731.213074	23.393364
221.887772	714.420654	770.890808	729.058289	25.921011
222.263931	711.522888	761.454285	729.206848	35.416515
222.640060	704.984192	756.253113	724.897400	38.840702
223.016159	706.470276	760.785583	729.058289	41.586826
223.392212	709.145203	769.627625	731.436035	36.855061
223.768265	723.188416	774.457275	733.739441	20.579794
224.144302	723.485596	775.200378	731.436035	15.373631
224.520294	731.881836	767.918640	730.098572	-4.948452
224.896286	728.389648	763.757751	733.665039	14.915673
225.272217	728.315247	766.135315	735.745605	19.646603
225.648148	724.525818	769.701843	732.179016	16.940840
226.024048	722.593933	772.599609	726.457764	7.726784
226.399902	718.953125	775.943359	720.662109	2.998732
226.775772	723.857178	779.064026	717.912903	-10.767278
227.151581	729.206970	777.726563	716.798340	-25.574474
227.527374	734.036621	776.983582	726.977844	-16.436033
227.903137	730.395752	775.794739	737.157288	14.893582
228.278870	730.990234	779.807129	737.454407	13.241671
228.654572	736.042786	772.302490	722.742493	-36.680645
229.030273	733.590759	765.912415	717.987122	-48.276108
229.405930	723.782776	759.893982	722.148132	-4.526693
229.781555	724.674500	762.048767	726.011902	3.578404
230.157181	724.302917	765.838135	725.120300	1.967927
230.532761	731.658875	771.262207	719.398926	-30.956861
230.908325	720.885010	776.983582	725.417480	8.079476
231.283859	720.736389	776.091980	737.454529	30.201357
231.659332	713.603333	773.862793	744.364685	51.048172
232.034821	725.120300	770.816406	748.451355	51.056988
232.410263	722.668274	767.770020	739.683594	37.726521
232.785690	729.875671	768.438721	740.352356	27.167677
233.161087	724.228577	761.157043	731.584656	19.919806
233.536469	720.736328	767.472839	731.361633	22.734486
233.911804	716.501160	763.163269	727.200684	22.929790
234.287140	719.621826	766.878418	724.674500	10.691997
234.662430	724.377258	766.655457	719.176025	-12.302400
235.037704	723.485596	770.890625	720.959290	-5.329195
235.412933	719.324646	778.023743	732.476257	22.405134
235.788162	718.210144	773.268372	744.736145	48.178089
236.163345	720.142029	767.027039	748.228333	59.904655
236.538513	718.953125	764.054932	741.689758	50.411800
236.913635	721.256531	774.903076	731.584656	19.252172
237.288742	723.931458	778.172363	728.389648	8.219241
237.663834	724.748779	776.017578	733.070618	16.231779
238.038879	730.024231	771.410889	731.138733	2.692902
238.413910	727.646545	774.754456	731.213074	7.570975
238.788910	733.145020	777.800842	725.863281	-16.306358
239.163879	730.692932	778.692444	733.219238	5.263191
239.538834	735.002502	776.166199	738.643372	8.844854
239.913757	728.092346	775.200256	744.884766	35.646709
240.288651	729.578430	777.057861	739.014832	19.874714
240.663528	723.337097	777.726563	736.340027	23.907074
241.038361	729.578430	778.915466	734.185120	9.337183
241.413177	728.984070	784.190918	736.414246	13.458794
241.787979	732.327637	787.608887	735.522644	5.779550
242.162735	732.699219	789.243469	728.389648	-7.621589
242.537476	731.881775	785.156921	725.714661	-11.575969
242.912170	731.807556	787.237305	726.086182	-10.321848
243.286865	727.869446	788.054688	728.983948	1.851786
243.661514	726.532043	789.689270	732.996338	10.235241
244.036148	730.024231	789.317810	732.476257	4.135399
244.410751	730.767273	788.128906	737.305847	11.398864
244.785339	733.516418	786.419983	734.408020	1.685334
245.159882	724.823059	798.977234	734.333740	12.825550
245.534378	722.222412	799.348694	731.658875	12.235080
245.908890	715.758057	795.782166	731.956116	20.241474
246.283356	716.724060	782.407654	732.699219	24.321383
246.657791	721.553711	782.779114	732.104736	17.233084
247.032196	730.024231	790.357971	742.358459	20.443335
247.406586	734.928223	803.509583	744.884766	14.517856
247.780960	726.383362	808.710754	743.027283	20.216747
248.155289	717.987122	818.444519	733.739319	15.680475
248.529602	717.689941	815.620911	719.844727	2.200310
248.903870	725.268860	823.794250	721.330811	-3.996989
249.278122	727.869446	818.370178	725.045959	-3.119849
249.652344	716.501160	814.655029	738.197510	22.104427
250.026550	713.008972	800.983337	737.974609	28.378309
250.400711	707.659180	798.679932	730.990173	25.632608
250.774857	721.033630	795.187744	719.398926	-2.204469
251.148987	722.445374	795.633484	721.182190	-1.725941
251.523071	726.383362	799.274414	728.761047	3.261972
251.897125	723.262695	804.475586	734.333801	13.632203
252.271164	727.200745	806.704651	732.847717	7.102761
252.645187	728.909668	806.778992	731.510254	3.339680
253.019165	729.578430	810.122620	731.881836	2.859804
253.393112	724.600098	812.277344	734.408020	11.186394
253.767044	723.336975	809.899719	727.126465	4.377738
254.140930	725.045959	806.704590	727.423584	2.911664
254.514801	726.309082	810.122559	727.497864	1.418366
254.888657	735.374023	814.060608	738.271790	3.682669
255.262466	731.361633	814.952209	736.265686	5.866753
255.636276	734.408142	813.911926	737.528809	3.925180
256.010010	727.943787	813.837708	733.367859	6.314850
256.383759	733.144958	821.565186	737.603088	5.041980
256.757446	724.600159	823.645691	733.070618	8.552086
257.131134	723.114075	827.360840	721.925232	-1.140412
257.504791	724.005676	835.162598	719.175964	-4.344949
257.878418	723.857117	840.140808	725.640320	1.533494
258.252014	718.804504	848.388428	736.340027	13.532174
258.625580	711.448547	856.561768	733.888000	15.463410
258.999115	716.724060	875.731750	728.761047	7.570066
259.372650	717.318542	890.666748	733.144958	9.129841
259.746124	723.708496	902.480896	739.757874	8.977548
260.119598	733.516418	926.257751	738.643311	2.659986
260.493042	737.900208	938.666321	731.213074	-3.330808
260.866425	730.172852	952.783752	728.686768	-0.667570
261.239838	711.448547	941.266907	731.807434	8.858685
261.613159	713.528992	925.886230	728.761169	7.172903
261.986511	715.386536	899.285828	720.959290	3.030329
262.359802	725.491699	881.824707	708.699402	-10.741364
262.733063	731.584534	879.446960	717.095520	-9.798983
263.106293	734.408142	883.087830	722.222473	-8.195921
263.479523	732.104736	890.740967	736.265686	2.622951
263.852692	721.702332	889.997986	736.934387	9.050772
264.225861	724.005676	890.815247	737.380188	8.017833
264.598969	728.612488	893.044434	737.231628	5.241768
264.972076	734.482422	900.325989	734.408142	-0.044789
265.345154	734.333801	894.604736	738.420471	2.549851
265.718201	729.281189	896.016541	732.104797	1.693467
266.091217	732.699158	898.691406	735.596985	1.745761
266.464203	733.144958	918.976074	735.002502	0.999587
266.837158	735.671204	926.109131	747.931152	6.437767
267.210114	726.011780	929.155579	746.593750	10.131724
267.583038	720.959290	928.263977	747.931152	13.010735
267.955902	718.953125	932.350586	740.203796	9.958259
268.328766	715.015137	941.787048	744.884766	13.171661
268.701569	712.414551	941.341125	742.209961	13.015269
269.074371	713.751953	946.839600	740.278015	11.380295
269.447144	720.884949	951.594971	728.612488	3.349460
269.819885	722.445313	966.529785	734.333801	4.870645
270.192596	725.863281	979.384094	738.197510	4.865174
270.565277	721.627991	996.622375	739.609192	6.538752
270.937927	723.039795	1007.544861	732.401917	3.290669
271.310577	710.854065	1030.801636	727.126404	5.085939
271.683136	714.494934	1047.891235	729.281250	4.435057
272.055725	711.299988	1081.550415	726.309082	4.053768
272.428284	717.392761	1092.695801	726.160461	2.336165
272.800812	719.250305	1101.389160	729.281250	2.624948
273.173279	723.931396	1073.228516	735.745544	3.382263
273.545776	728.389587	1071.445190	739.683594	3.292180
273.918152	724.302917	1064.906616	734.556702	3.010473
274.290558	725.268860	1075.606079	734.333801	2.587490
274.662964	724.302917	1056.213135	732.847717	2.574431
275.035278	729.801270	1054.578491	735.002502	1.601477
275.407593	725.714661	1056.064575	737.008728	3.418819
275.779907	725.863281	1070.850708	739.460693	3.941422
276.152161	723.411316	1079.395630	737.454529	3.944896
276.524384	726.977844	1103.098145	728.686768	0.454356
276.896606	722.891113	1111.717285	729.801331	1.777200
277.268799	719.919128	1122.639771	730.915833	2.730603
277.640930	721.776672	1119.370483	733.293640	2.896667
278.013031	724.971680	1133.488037	731.064514	1.491454
278.385162	726.309082	1127.246582	729.429871	0.778373
278.757233	725.789001	1133.710938	729.875671	1.001827
279.129272	726.829163	1127.618042	734.408142	1.891015
279.501282	723.559875	1138.020386	732.699158	2.205103
279.873230	729.058289	1142.850098	727.052185	-0.484810
280.245178	722.668274	1156.670532	722.668274	0.000000
280.617126	728.166687	1174.205933	724.377258	-0.849573
280.988983	714.420593	1199.617432	732.773438	3.782557
281.360870	717.615662	1234.762695	730.098572	2.413803
281.732697	718.953125	1270.947876	730.544373	2.099884
282.104492	728.538269	1296.731079	723.931458	-0.810783
282.476288	728.389465	1313.449097	720.290588	-1.384282
282.848053	724.748718	1322.662598	718.730225	-1.006582
283.219757	717.318420	1323.480103	723.039795	0.943869
283.591461	719.324707	1321.250977	723.634216	0.715953
283.963135	723.262695	1319.318970	722.816895	-0.074792
284.334747	723.114075	1329.349976	724.600098	0.245123
284.706360	723.188293	1350.154663	731.807556	1.374757
285.077942	724.971619	1370.588013	730.990234	0.932228
285.449524	731.881836	1402.315063	729.652771	-0.332481
285.821014	732.030457	1420.519409	720.662109	-1.651203
286.192535	727.646545	1451.355103	720.513489	-0.985626
286.563995	726.383484	1465.472656	724.971680	-0.191019
286.935425	722.965515	1486.871704	728.389587	0.710044
287.306824	719.770508	1484.791382	739.089172	2.525247
287.678223	726.680664	1477.806763	737.974609	1.503602
288.049561	733.739441	1457.076294	745.033386	1.561367
288.420898	730.024231	1444.667847	743.547302	1.892282
288.792145	724.748718	1441.770020	745.404846	2.880825
289.163452	721.107910	1448.457153	743.695862	3.105517
289.534668	726.011902	1472.605591	733.516418	1.005167
289.905914	726.680603	1497.348267	727.423584	0.096407
290.277039	725.045898	1535.094238	719.993347	-0.623735
290.648193	731.584656	1572.914429	732.030334	0.052973
291.019318	732.699158	1598.028687	743.101501	1.202125
291.390381	730.544373	1617.570313	748.154053	1.985250
291.761475	727.126465	1609.471313	746.222168	2.164200
292.132507	714.123474	1606.127808	739.609314	2.857143
292.503510	712.265930	1582.573730	737.454529	2.894217
292.874481	714.346375	1570.239380	731.064453	1.953291
293.245422	715.386536	1574.326050	722.519714	0.830463
293.616364	723.485596	1596.022461	722.668274	-0.093672
293.987213	713.380432	1635.254395	724.748779	1.233178
294.358093	716.724060	1671.291138	730.024231	1.393320
294.728943	715.163635	1716.913086	725.640381	1.045845
295.099731	720.216309	1765.358398	724.154297	0.376790
295.470490	720.736328	1793.147827	720.142029	-0.055417
295.841248	720.885010	1824.354858	723.336975	0.222205
296.211975	731.287354	1840.106934	720.141907	-1.005163
296.582642	735.076843	1885.803101	724.674500	-0.903981
296.953308	736.860107	1931.127808	732.179016	-0.391963
297.323883	734.853943	1979.498657	740.872559	0.483561
297.694519	733.070618	2011.597656	741.466980	0.656721
298.065063	733.070618	2009.739868	734.110901	0.081484
298.435608	727.497986	1988.563843	734.482361	0.553847
298.806122	726.977844	1931.573608	738.197510	0.931405
299.176575	730.692871	1875.029175	736.785706	0.532434
299.547028	733.962219	1836.837524	733.442139	-0.047157
299.917450	734.928223	1825.692261	727.052063	-0.722077
300.287872	726.160461	1823.165894	730.470032	0.392849
300.658234	728.240967	1817.295898	731.510254	0.300195
301.028564	732.847717	1812.317749	736.265686	0.316634
301.398865	737.825989	1815.586914	731.807556	-0.558420
301.769135	729.504089	1809.791382	740.946716	1.059221
302.139374	722.148132	1811.500366	737.677429	1.425553
302.509583	712.488770	1810.088501	736.711426	2.206875
302.879791	711.076965	1809.940063	725.640320	1.325311
303.249939	707.733398	1799.983398	724.154297	1.503401
303.620087	717.838562	1789.209595	731.361633	1.262221
303.990173	721.330811	1775.760742	737.454529	1.529141
304.360260	720.290527	1785.123047	739.683594	1.821232
304.730286	722.668274	1782.819702	737.157288	1.366693
305.100281	722.519592	1798.125977	734.853943	1.146735
305.470276	735.968445	1800.875000	737.380188	0.132570
305.840179	731.361633	1820.119507	739.609314	0.757531
306.210144	726.829285	1836.540405	739.832214	1.171740
306.579987	720.290588	1852.663940	737.157288	1.489500
306.949890	712.934631	1870.868164	728.538147	1.347531
307.319702	725.491760	1886.323120	729.949890	0.384046
307.689484	729.652771	1911.660278	732.030457	0.201157
308.059265	737.825989	1935.288696	739.980774	0.179946
308.429016	727.349365	1967.907593	730.395752	0.245566
308.798737	723.411316	2000.526489	726.086182	0.209446
309.168396	723.634277	2049.046143	730.470032	0.515746
309.538055	726.011902	2088.575195	729.504089	0.256295
309.907684	725.863281	2122.308594	734.333801	0.606577
310.277313	723.039795	2149.428955	728.463867	0.380266
310.646851	727.275085	2172.017334	726.754883	-0.036007
311.016388	728.686829	2186.134766	726.531982	-0.147851
311.385895	724.525879	2176.549561	730.024231	0.378668
311.755371	727.646484	2178.778809	742.655701	1.034311
312.124817	731.584534	2176.772461	737.157227	0.385603
312.494232	733.144958	2178.852783	730.395691	-0.190168
312.863617	733.813660	2163.398193	726.829163	-0.488568
313.232971	732.104675	2149.800781	731.584534	-0.036689
313.602295	741.095398	2141.627441	732.030457	-0.647250
313.971619	738.271790	2153.441406	734.631042	-0.257266
314.340820	737.677429	2161.763428	731.733215	-0.417406
314.710083	722.742615	2190.369873	732.179016	0.642970
315.079285	716.649719	2216.450195	727.349304	0.713401
315.448486	716.278259	2255.013428	730.098572	0.898161
315.817596	725.268860	2255.756348	738.717590	0.878722
316.186707	730.544373	2227.892822	741.318298	0.719534
316.555786	729.652649	2188.066650	741.689758	0.825356
316.924866	726.309082	2146.605469	742.135559	1.114308
317.293884	714.717834	2128.772949	739.609314	1.760291
317.662872	712.488770	2122.754395	740.426575	1.981031
318.031830	715.609558	2140.735596	733.367859	1.246086
318.400757	726.309082	2149.280518	730.618652	0.302857
318.769684	727.720764	2160.277344	731.584656	0.269720
319.138550	721.999512	2182.791016	726.829285	0.330627
319.507416	717.764343	2212.511963	732.104675	0.959382
319.876190	715.163635	2229.675781	733.293518	1.197077
320.244995	722.891113	2222.022949	742.804260	1.328312
320.613770	725.640320	2197.800293	743.695862	1.226466
320.982483	736.042786	2178.630127	743.250061	0.499608
321.351166	735.745544	2161.391846	739.312012	0.250165
321.719818	732.847717	2159.682861	734.705322	0.130191
322.088440	725.491760	2157.082275	732.253357	0.472314
322.457062	721.479492	2179.893066	731.287415	0.672506
322.825623	721.256531	2214.740967	732.179016	0.731342
323.194183	714.569336	2254.790283	732.327637	1.152971
323.562653	712.340271	2298.183105	731.361755	1.199456
323.931183	710.705566	2351.978271	732.624817	1.335503
324.299591	715.981018	2422.343018	735.968445	1.171347
324.668060	720.662109	2479.556396	733.887939	0.751940
325.036407	725.268799	2521.908936	733.665039	0.467330
325.404755	725.640381	2539.889893	729.578430	0.217062
325.773102	725.863281	2553.264404	734.408142	0.467596
326.141388	720.885010	2552.967285	735.745605	0.811131
326.509674	722.816895	2558.837158	738.346130	0.845810
326.877899	728.240967	2567.902100	741.838379	0.739126
327.246124	731.807434	2588.632568	740.352295	0.460187
327.614288	728.463867	2586.849121	744.216003	0.847625
327.982422	717.764343	2577.858643	741.392517	1.270268
328.350525	716.278259	2549.846436	741.838379	1.394010
328.718628	712.637390	2538.106445	733.442139	1.139693
329.086700	712.191589	2529.264648	732.847717	1.136780
329.454712	713.528992	2548.211914	733.888000	1.109675
329.822693	719.101746	2563.741211	734.185242	0.817693
330.190674	724.080017	2591.381836	728.984070	0.262628
330.558563	724.674500	2599.332031	727.126465	0.130795
330.926483	722.593933	2622.291504	725.120300	0.132988
331.294312	718.432922	2634.700195	727.869446	0.492443
331.662231	716.278259	2673.634766	727.720886	0.584596
332.029999	717.169861	2723.417725	729.578430	0.618496
332.397766	720.736511	2773.126221	732.179016	0.557521
332.765503	718.061523	2805.001953	733.590759	0.744115
333.133240	723.559875	2839.701416	736.042725	0.589887
333.500916	721.999512	2883.391357	733.442139	0.529410
333.868561	733.219238	2942.610596	738.197510	0.225323
334.236176	722.148132	2982.288330	738.717590	0.733116
334.603790	723.336975	2993.433594	742.358459	0.837915
334.971344	723.708496	2979.241943	739.683594	0.708263
335.338867	734.110901	2963.712646	741.021057	0.309928
335.706360	736.117004	2971.365967	739.014832	0.129642
336.073853	731.213074	2979.613281	740.426575	0.409780
336.441284	728.092285	2987.266602	741.763977	0.605163
336.808655	728.018066	2971.365967	745.256287	0.768415
337.176086	723.188416	2945.805664	741.095398	0.805671
337.543396	729.355469	2874.995361	741.243896	0.554074
337.910706	728.983948	2816.072998	740.426575	0.548258
338.277954	732.476257	2820.234131	743.695984	0.537406
338.645264	724.377258	2892.158936	743.472961	0.880887
339.012421	723.634216	3011.489258	741.541199	0.782697
339.379669	721.776672	3126.732666	737.454529	0.651898
339.746796	720.439209	3225.481201	735.448425	0.599160
340.113953	716.352539	3306.842529	725.417480	0.349932
340.481018	719.770508	3336.117920	724.228577	0.170393
340.848114	721.776672	3343.102295	716.724121	-0.192748
341.215118	726.903564	3346.966064	732.922058	0.229708
341.582153	719.696106	3355.436523	732.699158	0.493336
341.949066	718.358704	3377.578857	740.203674	0.821480
342.316010	717.244141	3386.123779	736.042725	0.704362
342.682922	723.708496	3404.699219	735.151123	0.426806
343.049835	724.525879	3420.080078	735.151184	0.394179
343.416656	728.686768	3457.379883	733.887939	0.190610
343.783478	721.256531	3500.698486	737.603088	0.588124
344.150269	722.073914	3609.552002	738.569031	0.571264
344.516998	718.358704	3731.631592	734.482422	0.535090
344.883728	729.281250	3851.407227	738.791931	0.304622
345.250427	738.717712	3922.812256	739.460632	0.023332
345.617065	740.872375	3941.610596	741.615417	0.023215
345.983704	738.643311	3939.530273	734.556641	-0.127673
346.350281	727.646484	3937.449951	736.340027	0.270843
346.716827	728.909668	3887.444092	737.751709	0.279941
347.083405	727.423645	3852.298828	742.655701	0.487445
347.449860	733.962341	3795.531494	745.033386	0.361613
347.816376	729.578430	3767.965088	743.621582	0.462191
348.182770	722.668274	3733.711670	739.683594	0.565097
348.549194	717.912903	3712.164063	727.126465	0.307708
348.915558	722.742615	3739.210205	734.185242	0.379339
349.281921	730.618652	3753.550537	733.070618	0.081112
349.648193	732.550476	3783.717041	735.671204	0.102280
350.014526	732.179016	3803.259033	729.504150	-0.087099
350.380737	729.578430	3861.809570	738.643372	0.289408
350.746948	726.680664	3925.115479	741.838379	0.473910
351.113159	726.457703	3991.616455	747.039551	0.630348
351.479309	730.767273	4037.089844	746.593750	0.478673
351.845428	728.240967	4057.002686	749.565857	0.640625
352.211517	723.188293	4083.157471	748.674255	0.758518
352.577576	718.061523	4118.896973	746.296570	0.830239
352.943604	724.005676	4179.453613	748.748535	0.716054
353.309601	723.262695	4231.763184	740.575195	0.493444
353.675537	723.262695	4310.672363	739.683594	0.457737
354.041473	723.336975	4401.916504	736.934387	0.369638
354.407379	716.872742	4500.516113	738.940491	0.583241
354.773254	715.609558	4598.001465	744.067383	0.732997
355.139038	715.312317	4684.267090	742.432800	0.683316
355.504913	726.160461	4782.420410	747.708313	0.531225
355.870636	728.240967	4876.265137	736.265625	0.193457
356.236389	725.417480	4985.786621	736.414246	0.258118
356.602081	725.863281	5117.376953	735.448303	0.218262
356.967804	726.754883	5250.527344	733.219238	0.142897
357.333405	727.349365	5384.792480	732.178955	0.103696
357.699036	728.909729	5531.316895	727.720764	-0.024758
358.064606	726.234863	5683.787109	732.699158	0.130393
358.430176	723.634216	5804.603027	732.401855	0.172558
358.795654	717.764343	5856.614746	730.395752	0.245802
359.161163	715.535217	5840.193848	727.423645	0.231985
359.526581	720.884949	5804.008301	731.733215	0.213417
359.892029	727.720886	5803.414063	740.500916	0.251789
360.257416	733.219238	5889.605469	750.531799	0.335750
360.622772	731.807434	6079.820313	745.107727	0.248696
360.988098	722.668274	6338.839844	745.776367	0.411456
361.353394	720.290527	6620.446777	742.432800	0.375283
361.718658	711.597168	6894.475098	748.079834	0.590060
362.083893	714.643616	7115.971191	747.262451	0.509564
362.449097	715.460938	7268.068848	744.513367	0.443372
362.814209	725.268860	7276.465332	742.432800	0.261997
363.179382	725.566101	7095.909668	739.460693	0.218114
363.544434	734.259460	6775.665527	739.832214	0.092243
363.909546	728.761169	6403.333984	739.757874	0.193789
364.274536	724.674500	6121.800781	740.500916	0.293238
364.639587	713.826233	5915.239746	744.290344	0.585689
365.004517	717.615723	5774.436035	739.609314	0.434929
365.369507	720.736389	5684.529297	738.049011	0.348778
365.734344	721.256531	5624.715332	727.052185	0.118195
366.099274	728.092468	5604.505371	734.259521	0.126467
366.464081	726.309082	5567.057129	731.733215	0.112052
366.828918	724.674500	5567.948730	741.764099	0.352852
367.193665	716.426819	5580.505859	733.070618	0.342178
367.558411	723.411316	5617.136719	745.702148	0.455498
367.923126	730.618652	5612.158691	745.702148	0.308991
368.287781	738.866211	5594.103027	757.441895	0.382591
368.652435	734.556702	5552.791016	750.754700	0.336181
369.017059	728.686707	5532.357910	747.559631	0.392885
369.381653	723.857117	5509.101074	740.500916	0.347815
369.746185	719.919128	5503.899902	741.392578	0.448862
370.110687	725.120300	5533.323730	735.894226	0.224074
370.475220	730.544373	5573.595703	743.250183	0.262351
370.839661	740.649597	5630.957520	739.312073	-0.027351
371.204041	740.500977	5676.505371	747.485352	0.141499
371.568451	737.677429	5732.900879	745.479248	0.156186
371.932770	729.132629	5774.658691	747.188171	0.357853
372.297150	724.154297	5816.193848	746.147949	0.431922
372.661377	720.439209	5835.958496	739.312073	0.368933
373.025696	719.176086	5876.378906	735.968445	0.325610
373.389862	722.593994	5860.181641	741.987000	0.377473
373.754059	719.770508	5865.828125	745.033447	0.490918
374.118225	719.919128	5878.162598	742.507141	0.437901
374.482361	721.033630	5939.907715	734.631042	0.260543
374.846436	720.662109	6013.096191	732.699158	0.227439
375.210510	722.593933	6109.244141	731.138855	0.158631
375.574524	717.987122	6210.592285	738.717712	0.377427
375.938538	721.627991	6352.362793	737.603210	0.283715
376.302460	717.392761	6478.230957	745.850769	0.493991
376.666412	722.073914	6648.681641	742.878601	0.351039
377.030304	722.668274	6786.364746	746.296570	0.389668
377.394196	726.754944	6937.942871	747.633972	0.336152
377.757996	720.959290	7061.730469	743.324463	0.352720
378.121796	720.290588	7141.828125	742.581360	0.347125
378.485565	722.371094	7159.140625	730.618652	0.128132
378.849304	730.395752	7070.349609	733.739441	0.052740
379.212982	728.612488	6937.496094	733.367859	0.076590
379.576630	735.968445	6773.361816	740.203674	0.070150
379.940277	730.470032	6665.325684	738.197510	0.130205
380.303864	734.705383	6576.979980	741.689697	0.119548
380.667450	733.888000	6537.896484	745.107666	0.193309
381.030945	732.550598	6508.026855	743.993164	0.198123
381.394501	727.052185	6539.382813	747.411072	0.350271
381.757935	728.315247	6543.840332	749.045715	0.356468
382.121399	727.869446	6563.531250	750.606018	0.389614
382.484741	731.361633	6589.462402	748.822815	0.298069
382.848145	721.553711	6658.489746	742.952942	0.360442
383.211487	725.045959	6727.071777	740.352295	0.255019
383.574768	724.600098	6844.767090	738.123230	0.220960
383.938019	724.005676	6923.007324	745.033386	0.339211
384.301270	716.501160	7033.792969	751.869202	0.559861
384.664459	713.380432	7077.928223	749.937317	0.574383
385.027649	714.940735	7137.296387	751.126221	0.563430
385.390778	719.696106	7208.478516	753.132324	0.515293
385.753876	723.039795	7248.007813	751.720642	0.439555
386.116943	721.999512	7306.410156	744.067444	0.335154
386.479980	721.479431	7310.793457	738.420410	0.257098
386.842987	716.501160	7368.898438	749.194336	0.491450
387.205994	723.336975	7425.962402	756.104492	0.488876
387.568909	726.606262	7489.862793	758.259277	0.468014
387.931793	727.943665	7537.861816	757.813477	0.438622
388.294678	725.788879	7566.914551	762.420227	0.535458
388.657471	722.296692	7585.861816	765.095154	0.623560
389.020294	722.519714	7569.664063	764.649353	0.615288
389.383057	721.776611	7583.112793	768.958801	0.687653
389.745819	721.405090	7589.502441	773.639954	0.760543
390.108521	722.445313	7611.496094	781.813293	0.861773
390.471191	715.238037	7672.424316	786.197083	1.019939
390.833801	717.987122	7791.383301	800.537598	1.167056
391.196442	722.296692	7989.103027	814.952209	1.275051
391.558960	727.126404	8180.878906	831.224548	1.396587
391.921509	728.463867	8367.081055	839.546387	1.454223
392.284027	728.686768	8540.131836	848.091309	1.528584
392.646484	731.584656	8648.019531	862.431702	1.652853
393.008911	728.018066	8656.267578	887.397461	2.010272
393.371307	722.816895	8610.200195	908.573730	2.355114
393.733673	719.547546	8532.702148	929.824219	2.691316
394.096008	721.999573	8510.708008	953.303894	2.969739
394.458344	723.039795	8518.806641	977.080750	3.258704
394.820587	730.024231	8555.661133	996.250793	3.401980
395.182831	728.166687	8570.966797	1013.934875	3.643701
395.545013	727.052185	8521.629883	1026.640747	3.843551
395.907196	720.142029	8410.399414	1044.844971	4.222264
396.269287	723.782776	8284.753906	1063.420654	4.491988
396.631409	731.287354	8156.209473	1089.872437	4.829480
396.993469	737.305847	8051.145996	1118.999023	5.218779
397.355530	738.569092	7976.768066	1151.840820	5.709593
397.717499	730.915955	7951.654297	1183.791016	6.271866
398.079468	731.287415	7959.679199	1208.236572	6.598275
398.441376	725.863281	7957.152344	1240.558228	7.117610
398.803284	727.274963	7981.300781	1279.790161	7.616670
399.165131	717.169861	7995.121094	1321.771118	8.307301
399.526978	723.114014	8004.707031	1359.442505	8.738864
399.888763	727.423584	8000.992188	1398.674438	9.228632
400.250519	734.036621	8007.381348	1435.157104	9.639588
400.612244	726.309082	8056.198730	1466.141235	10.093360
400.973938	722.445313	8037.474121	1498.537109	10.609552
401.335602	719.027405	8049.584473	1538.586548	11.180039
401.697205	715.609558	8082.724121	1591.341431	11.887040
402.058807	708.550781	8181.621094	1629.978882	12.329980
402.420349	706.544617	8292.406250	1674.783325	12.763727
402.781860	713.306152	8402.969727	1711.265991	12.977939
403.143341	719.844727	8519.921875	1760.305664	13.339111
403.504822	727.943787	8640.218750	1809.196899	13.665516
403.866241	731.881775	8803.683594	1870.348022	14.104240
404.227631	728.092285	8986.839844	1936.105957	14.627080
404.588959	719.473206	9200.682617	1998.817383	15.084456
404.950287	716.724060	9346.910156	2045.851074	15.400907
405.311554	721.182129	9442.092773	2097.268555	15.779160
405.672821	724.525818	9454.352539	2138.580811	16.197971
406.034027	727.646545	9436.520508	2173.131592	16.597841
406.395203	728.983948	9363.925781	2188.437988	16.901726
406.756348	727.497986	9300.842773	2213.775146	17.336023
407.117493	726.680664	9232.113281	2230.121826	17.676245
407.478516	725.268860	9209.004883	2259.248779	18.081419
407.839600	721.405090	9192.731445	2278.492920	18.380686
408.200592	715.015137	9192.211914	2303.607178	18.739590
408.561554	715.981018	9167.617188	2327.384277	19.066172
408.922485	720.439209	9178.764648	2356.213623	19.339224
409.283417	727.943848	9198.973633	2387.346436	19.589149
409.644257	728.018066	9322.836914	2422.194580	19.711603
410.005096	731.510254	9466.910156	2478.664551	20.000849
410.365906	722.371094	9609.347656	2527.927246	20.316877
410.726715	722.148132	9694.202148	2571.914307	20.616976
411.087433	717.541321	9767.910156	2593.016113	20.722633
411.448120	719.770508	9826.163086	2627.269775	20.946815
411.808807	716.872742	9848.231445	2654.613281	21.220726
412.169434	717.838562	9769.991211	2657.956787	21.432673
412.530029	715.683777	9723.402344	2668.879150	21.683573
412.890564	712.860352	9693.086914	2687.677979	21.990732
413.251099	712.340149	9710.845703	2718.959229	22.299471
413.611572	717.912903	9743.242188	2736.272217	22.363277
413.972076	720.959290	9800.008789	2746.599854	22.311152
414.332489	730.544250	9864.799805	2778.178955	22.417095
414.692871	734.408020	10000.477539	2820.605469	22.514374
415.053223	733.145020	10131.250000	2876.852783	22.809999
415.413574	722.593994	10338.257813	2943.130859	23.092913
415.773834	719.770447	10481.215820	3003.390381	23.394279
416.134094	725.491699	10626.403320	3054.584961	23.524027
416.494263	733.219238	10754.278320	3093.965088	23.557850
416.854462	734.482422	11017.235352	3170.943115	23.694633
417.214630	731.881836	11325.518555	3247.994873	23.751173
417.574738	733.070618	11663.668945	3343.176514	23.878893
417.934784	730.024231	11917.487305	3416.513428	24.013391
418.294861	723.411316	12244.198242	3509.020264	24.178980
418.654846	715.015076	12632.726563	3605.167969	24.250904
419.014832	717.169861	13107.817383	3724.275391	24.269156
419.374756	729.727051	13603.343750	3841.302002	24.170168
419.734680	735.671204	14113.208008	3982.031250	24.267248
420.094543	724.302917	14608.213867	4112.803711	24.405952
420.454376	715.015076	15033.967773	4244.542480	24.649340
420.814148	708.773682	15492.860352	4364.765137	24.729235
421.173920	717.392761	15957.327148	4485.506836	24.725264
421.533691	719.547546	16436.951172	4610.632324	24.756536
421.893341	727.572266	16781.642578	4712.130371	24.819613
422.253021	723.114075	17021.416016	4803.373535	25.034876
422.612640	729.652771	17087.841797	4841.862793	25.138540
422.972260	718.655945	17047.792969	4834.061035	25.202835
423.331757	719.250305	16936.562500	4816.748535	25.266197
423.691315	715.237976	16925.789063	4825.664551	25.356491
424.050781	720.364929	17077.587891	4876.858887	25.410757
424.410248	725.268860	17235.111328	4910.815430	25.351826
424.769653	725.640381	17394.267578	4967.137207	25.445990
425.128998	723.782898	17379.037109	4989.130371	25.609623
425.488373	720.885071	17286.751953	4983.334961	25.730314
425.847656	717.392822	17063.396484	4942.468262	25.847755
426.206940	726.011902	16859.660156	4903.087891	25.890463
426.566193	726.754883	16520.837891	4851.670410	26.116840
426.925385	728.315247	16211.515625	4765.256348	26.073042
427.284576	729.578369	15750.317383	4652.316406	26.115479
427.643677	737.454529	15409.194336	4554.459961	26.016037
428.002777	738.271790	15044.293945	4477.779297	26.139395
428.361847	727.200745	14703.023438	4408.380371	26.339628
428.720856	724.377258	14409.081055	4346.040527	26.465046
429.079865	721.553711	14161.208008	4298.634766	26.615871
429.438812	726.754883	14009.703125	4263.415527	26.625570
429.797760	713.900574	13914.075195	4254.276367	26.820673
430.156616	716.798340	13761.606445	4227.676270	26.913986
430.515503	717.467041	13677.793945	4206.648438	26.922016
430.874268	726.977844	13600.890625	4199.069824	26.969982
431.233093	724.674377	13647.254883	4216.233398	27.019056
431.591827	720.736328	13680.245117	4240.456543	27.159365
431.950562	722.296692	13704.468750	4246.623047	27.147432
432.309204	726.680664	13747.859375	4270.846191	27.218470
432.667877	726.457703	13885.320313	4314.016113	27.263439
433.026459	725.343079	14029.171875	4352.876465	27.266838
433.385010	718.284424	14180.600586	4370.115234	27.126318
433.743561	715.089355	14333.515625	4419.228516	27.199467
434.102051	715.089417	14486.281250	4486.992676	27.389811
434.460510	722.891113	14657.104492	4562.409668	27.554613
434.818939	728.761047	14704.583008	4582.396973	27.573591
435.177338	724.897278	14737.796875	4574.520996	27.472000
435.535675	728.612549	14642.838867	4565.901855	27.578173
435.894012	733.813660	14586.441406	4565.530762	27.660578
436.252289	735.374023	14605.983398	4583.289063	27.741499
436.610535	726.160461	14626.120117	4596.069824	27.841156
436.968719	726.606262	14759.195313	4636.341309	27.861824
437.326935	727.423645	14846.351563	4678.024902	27.980888
437.685028	726.829285	14988.864258	4715.176758	27.964785
438.043152	726.606262	15096.231445	4742.222656	27.945171
438.401215	721.107910	15333.778320	4798.172363	27.900887
438.759277	727.720886	15545.987305	4872.549805	27.971079
439.117249	721.776611	15909.549805	4969.588867	27.968632
439.475250	724.971680	16198.586914	5063.804688	28.040203
439.833130	715.386536	16624.341797	5170.280762	28.002430
440.191071	718.210144	16917.242188	5269.474609	28.095905
440.548889	721.702332	17181.761719	5356.482910	28.157742
440.906708	731.361633	17513.521484	5452.408203	28.131340
441.264496	728.835388	17729.447266	5515.268066	28.154474
441.622223	727.646484	17908.962891	5559.106934	28.120432
441.979950	722.445313	17892.244141	5572.480469	28.247478
442.337616	722.668213	17867.203125	5590.908203	28.395288
442.695251	722.222412	17743.712891	5567.799316	28.467409
443.052887	724.377197	17573.113281	5527.974121	28.510130
443.410461	718.210144	17427.330078	5487.924316	28.545576
443.768005	713.008972	17256.804688	5467.268066	28.737417
444.125458	707.882019	17167.791016	5438.215820	28.738520
444.482941	713.380371	17198.478516	5445.720703	28.706778
444.840393	712.117249	17360.236328	5490.302734	28.701054
445.197754	711.820068	17633.447266	5577.830566	28.756165
445.555084	709.813904	17877.679688	5662.312988	28.847494
445.912415	719.473206	18255.806641	5771.984375	28.811672
446.269714	722.296692	18555.916016	5850.076172	28.753441
446.626953	724.971619	18898.970703	5942.211426	28.707163
446.984161	723.485535	19195.513672	6030.705566	28.731119
447.341309	719.770447	19413.666016	6130.568848	28.944197
447.698456	717.690002	19567.326172	6191.348145	29.038534
448.055542	710.705566	19634.123047	6230.505859	29.169151
448.412598	721.776611	19591.103516	6225.824707	29.169287
448.769653	724.674377	19456.466797	6211.410156	29.291035
449.126617	732.476257	19163.265625	6127.150879	29.269907
449.483582	727.200684	18906.476563	6075.436035	29.419409
449.840515	724.525879	18551.382813	5985.976074	29.514177
450.197388	723.634216	18293.849609	5931.511719	29.640375
450.554230	724.748718	18093.457031	5850.373535	29.510685
450.911041	733.219238	17917.285156	5812.330566	29.557098
451.267822	735.151184	17796.394531	5799.847656	29.685387
451.624573	736.191406	17627.207031	5777.705566	29.847313
451.981262	731.807434	17557.880859	5747.761719	29.810602
452.337921	728.166687	17414.253906	5697.012207	29.778374
452.694580	723.485596	17306.439453	5674.350098	29.855143
453.051147	719.621826	17285.117188	5694.188965	30.029692
453.407715	722.668274	17201.005859	5683.117676	30.102850
453.764221	735.002502	17218.095703	5707.266113	30.165840
454.120728	743.472961	16996.003906	5631.180176	30.073513
454.477142	737.974670	16925.119141	5626.722168	30.201420
454.833557	732.996399	16739.882813	5583.849609	30.304789
455.189911	733.293640	16607.623047	5550.933105	30.348619
455.546265	735.745544	16415.328125	5497.583984	30.369675
455.902557	730.098572	16301.868164	5446.760742	30.289827
456.258820	726.680664	16279.725586	5446.314941	30.345404
456.615051	723.188416	16375.500977	5476.556152	30.368469
456.971252	727.795166	16333.743164	5487.330566	30.498211
457.327393	719.547546	16536.515625	5553.905762	30.564383
457.683502	724.377258	16755.041016	5614.759277	30.506420
458.039612	715.906738	17206.802734	5747.092285	30.508865
458.395630	718.358704	17605.880859	5893.914551	30.647219
458.751648	715.758057	18088.476563	6044.972168	30.675762
459.107605	727.126404	18768.494141	6256.957520	30.650843
459.463562	735.151062	19462.111328	6451.185059	30.523022
459.819458	742.284180	20081.796875	6629.066406	30.439146
460.175323	731.881836	20584.306641	6801.597168	30.574175
460.531158	725.863281	21093.875000	6960.827637	30.611551
460.886932	721.702332	21369.460938	7077.259766	30.780861
461.242676	728.092346	21472.521484	7130.386230	30.862713
461.598419	729.355469	21226.726563	7081.346191	30.989294
461.954102	731.287415	20816.351563	6983.341309	31.127874
462.309723	723.559875	20163.751953	6786.364746	31.186960
462.665344	726.383362	19467.904297	6598.527344	31.332270
463.020905	725.789063	18905.138672	6429.935059	31.377064
463.376373	735.076904	18504.275391	6315.285645	31.403830
463.731873	736.711487	18188.859375	6229.242676	31.471949
464.087341	737.231628	17929.544922	6142.011719	31.437191
464.442749	731.287415	17784.431641	6098.395996	31.472837
464.798126	726.977844	17661.458984	6059.683594	31.490223
465.153503	725.343079	17741.931641	6086.581543	31.505953
465.508820	723.262695	17792.751953	6107.906250	31.545431
465.864105	720.141907	17995.376953	6172.326660	31.560698
466.219330	723.114075	18263.310547	6270.629395	31.627439
466.574524	726.903503	18498.255859	6328.660156	31.521276
466.929657	728.761047	18660.830078	6370.640625	31.462513
467.284790	726.903503	18791.306641	6417.600098	31.502270
467.639893	724.971680	18899.490234	6466.343262	31.590225
467.994934	726.309082	19064.740234	6533.066895	31.664419
468.349945	721.405090	19088.814453	6558.255859	31.778299
468.704926	728.166687	19063.552734	6587.308105	31.955376
469.059875	728.092346	18834.328125	6528.088379	32.033142
469.414764	727.052063	18603.248047	6436.919434	31.941177
469.769653	720.959290	18386.283203	6350.950684	31.870296
470.124451	727.646545	18328.474609	6321.304199	31.780651
470.479248	732.773438	18199.335938	6308.895996	31.924557
470.834015	738.643311	18134.841797	6281.181152	31.860626
471.188721	726.903503	18144.800781	6303.620605	32.017170
471.543365	724.377258	18238.273438	6316.400391	31.929062
471.898010	718.730225	18403.669922	6377.551270	31.997969
472.252625	725.417480	18593.882813	6432.238281	31.937946
472.607178	728.983948	18892.951172	6512.782715	31.842157
472.961700	730.841614	19100.478516	6571.853027	31.797096
473.316193	732.922058	19355.412109	6656.483887	31.808645
473.670654	727.423645	19476.228516	6717.560059	31.949430
474.025055	723.782776	19685.390625	6831.763672	32.212360
474.379456	716.649719	19837.265625	6879.540527	32.231655
474.733795	717.987122	20004.894531	6959.192871	32.359802
475.088104	723.411316	20110.404297	6967.737793	32.208847
475.442383	721.999512	20130.242188	6981.780762	32.253212
475.796570	722.073792	20215.541016	6995.823730	32.183861
476.150787	719.621826	20424.404297	7057.940918	32.166401
476.504944	723.559875	20676.441406	7129.865723	32.107170
476.859070	726.011902	20990.443359	7218.286621	32.037785
477.213135	733.962219	21237.500000	7305.071777	32.048664
477.567200	732.624817	21680.419922	7453.751953	32.085129
477.921173	727.720764	22041.455078	7600.722656	32.246822
478.275146	722.222412	22530.740234	7775.631348	32.342453
478.629089	725.566101	22828.693359	7876.013672	32.350391
478.983002	731.584656	23268.791016	8004.929199	32.272610
479.336823	732.922058	23616.156250	8115.045410	32.259964
479.690643	728.538086	24051.421875	8271.675781	32.342216
480.044403	725.194519	24514.474609	8421.098633	32.350304
480.398163	722.816895	25201.923828	8630.483398	32.303738
480.751862	725.417480	26082.632813	8914.691406	32.295635
481.105499	724.674500	27200.740234	9268.298828	32.269234
481.459137	724.525818	28618.583984	9700.740234	32.179665
481.812744	718.581726	30452.226563	10257.119141	32.079945
482.166290	719.176086	32665.482422	10950.734375	32.027359
482.519806	720.810730	35371.066406	11801.278320	31.978027
482.873291	723.708496	38503.222656	12829.254883	32.042622
483.226715	732.847717	42079.785156	14016.316406	32.126850
483.580139	731.287415	45594.375000	15295.289063	32.463219
483.933502	730.693054	48887.843750	16543.650391	32.836155
484.286804	726.754883	51570.917969	17739.923828	33.461399
484.640106	727.646545	53594.550781	18764.039063	34.116604
484.993347	735.151123	54710.730469	19482.544922	34.733105
485.346558	735.894104	54907.035156	19724.027344	35.052120
485.699738	723.411316	54248.488281	19438.927734	34.965881
486.052887	717.095520	52953.468750	18796.953125	34.611622
486.405975	705.429993	51405.519531	18031.041016	34.172745
486.759064	715.015137	49808.609375	17319.443359	33.821983
487.112061	722.668274	48518.566406	16750.359375	33.533611
487.464996	733.442139	47738.386719	16382.932617	33.293285
487.817963	737.528809	47610.285156	16230.018555	33.052227
488.170868	730.990173	47694.839844	16233.584961	33.009632
488.523743	730.098572	47794.480469	16300.234375	33.082630
488.876587	725.268860	47515.769531	16313.534180	33.315022
489.229401	728.315247	47021.363281	16197.844727	33.416531
489.582153	731.287354	46169.480469	15915.272461	33.416790
489.934845	728.835388	45181.253906	15560.030273	33.364204
490.287537	722.445313	44102.605469	15152.554688	33.264305
490.640198	716.649719	43260.828125	14841.299805	33.199959
490.992798	709.219482	42644.265625	14588.522461	33.097145
491.345337	710.482605	42541.355469	14513.921875	32.998211
491.697876	711.299988	42677.328125	14507.085938	32.873699
492.050354	721.999573	43103.007813	14649.226563	32.861954
492.402832	716.501160	43317.148438	14774.204102	32.998802
492.755219	715.460938	43127.082031	14813.214844	33.240311
493.107605	715.758118	42369.269531	14642.911133	33.435722
493.459930	726.754883	41144.910156	14270.059570	33.507973
493.812225	731.807434	39428.964844	13686.041992	33.475933
494.164490	734.556641	37456.523438	13027.792969	33.476517
494.516724	733.144958	35399.824219	12343.465820	33.491299
494.868896	726.829285	33572.417969	11720.510742	33.470798
495.221039	728.315247	32195.218750	11196.305664	33.266666
495.573120	722.296692	31157.287109	10788.977539	33.076012
495.925201	731.213074	30565.687500	10586.131836	33.031982
496.277222	732.476257	30169.953125	10466.355469	33.066280
496.629211	740.723816	30031.005859	10448.820313	33.144428
496.981140	736.191345	29952.390625	10412.634766	33.120132
497.333069	736.637207	30074.843750	10451.123047	33.112064
497.684967	738.940613	30129.009766	10485.376953	33.162346
498.036804	738.346130	30205.837891	10524.757813	33.210876
498.388580	732.179016	30068.302734	10502.911133	33.306149
498.740326	728.612488	29900.453125	10448.448242	33.319241
499.092072	727.646484	29606.587891	10350.963867	33.322956
499.443756	728.761047	29316.134766	10270.271484	33.376663
499.795410	724.451477	28996.337891	10167.956055	33.402458
500.147003	726.160461	28609.000000	10064.898438	33.492779
500.498566	718.804504	28222.255859	9929.370117	33.488762
500.850098	719.993347	27850.742188	9815.315430	33.524036
501.201599	717.987122	27556.576172	9705.199219	33.486156
501.553009	721.776672	27215.156250	9602.215820	33.519466
501.904449	716.352539	26933.771484	9516.841797	33.567337
502.255859	714.271973	26741.031250	9463.937500	33.617962
502.607178	714.717834	26646.070313	9434.588867	33.626751
502.958405	716.501160	26598.072266	9389.114258	33.508839
503.309692	717.244141	26527.556641	9353.747070	33.461441
503.660919	722.593994	26559.138672	9348.767578	33.387489
504.012115	732.401917	26577.117188	9389.412109	33.496246
504.363251	733.219238	26680.843750	9413.932617	33.454750
504.714294	729.578430	26748.537109	9439.121094	33.473835
505.065369	717.764343	26828.853516	9433.993164	33.381329
505.416443	720.810730	26849.140625	9461.262695	33.452011
505.767395	720.364807	26849.361328	9455.466797	33.430683
506.118317	735.596924	26804.556641	9468.543945	33.499409
506.469238	736.340027	26791.630859	9486.004883	33.581146
506.820160	734.110840	26781.375000	9500.716797	33.656532
507.170929	728.761169	26819.712891	9508.666992	33.651154
507.521729	722.296814	26880.718750	9520.555664	33.634518
507.872498	721.702332	26961.708984	9536.903320	33.594509
508.223236	716.724060	27156.380859	9614.549805	33.653336
508.573883	720.439209	27344.515625	9669.162109	33.611393
508.924500	722.742493	27516.673828	9752.604492	33.701145
509.275116	724.154297	27689.726563	9801.345703	33.662151
509.625702	721.405090	27900.078125	9894.967773	33.752796
509.976196	724.600098	28182.873047	9983.610352	33.720291
510.326660	723.188416	28427.404297	10050.112305	33.666080
510.677124	727.646545	28704.406250	10119.288086	33.569439
511.027557	726.754883	28919.064453	10199.237305	33.599525
511.377869	731.881836	29165.228516	10288.549805	33.610775
511.728180	730.618652	29296.818359	10348.065430	33.667229
512.078430	729.206848	29403.962891	10384.250977	33.670883
512.428650	725.714661	29437.697266	10443.544922	33.845905
512.778931	731.658875	29540.830078	10479.284180	33.835144
513.129028	735.002502	29604.134766	10492.139648	33.797817
513.479126	737.603027	29655.406250	10496.522461	33.747101
513.829285	726.977844	29606.662109	10469.625000	33.735298
514.179382	714.197754	29554.501953	10434.034180	33.702267
514.529297	711.225647	29508.734375	10387.446289	33.600895
514.879272	718.210144	29544.398438	10396.437500	33.574429
515.229187	728.240906	29500.115234	10408.918945	33.646320
515.579163	729.801270	29490.677734	10409.885742	33.657124
515.928955	726.383362	29474.328125	10426.379883	33.741528
516.278748	726.383362	29672.791016	10485.154297	33.713234
516.628540	724.228577	29966.431641	10618.527344	33.835682
516.978333	723.931396	30431.867188	10762.600586	33.791203
517.327942	726.011902	30947.083984	10932.233398	33.771870
517.677612	730.915833	31584.673828	11097.334961	33.598560
518.027222	737.380188	32163.789063	11323.660156	33.685936
518.376831	738.197510	32894.925781	11570.122070	33.684784
518.726379	733.070618	33538.019531	11812.200195	33.772739
519.075867	732.699158	34102.050781	11982.575195	33.713200
519.425293	735.745544	34466.656250	12132.519531	33.787331
519.774658	738.271790	34599.285156	12226.958008	33.928951
520.124084	735.225403	34616.152344	12251.477539	33.990368
520.473389	731.138855	34338.187500	12174.203125	34.049599
520.822693	732.476257	34022.996094	12040.606445	33.968018
521.171997	730.172852	33578.218750	11876.917969	33.934269
521.521240	730.172852	33130.394531	11724.448242	33.932716
521.870361	724.897278	32700.851563	11568.264648	33.911003
522.219482	730.247131	32342.861328	11460.004883	33.941383
522.568604	724.674500	32123.224609	11363.932617	33.884552
522.917664	730.395813	32003.224609	11328.340820	33.888668
523.266724	730.544373	32046.171875	11333.543945	33.858494
523.615662	732.179016	32312.025391	11414.235352	33.825550
523.964600	726.086182	32748.630859	11554.148438	33.813873
524.313538	716.203918	33350.332031	11752.833008	33.819286
524.662354	714.049133	34048.332031	11998.403320	33.852100
525.011169	713.306152	34883.566406	12266.487305	33.810631
525.359985	715.906738	35910.875000	12587.327148	33.730446
525.708740	715.906738	37138.875000	12978.605469	33.667488
526.057434	719.547607	38507.605469	13437.424805	33.655807
526.406067	720.216309	40075.914063	13979.610352	33.691166
526.754700	723.114075	41785.250000	14560.807617	33.699398
527.103333	725.417480	43710.437500	15251.227539	33.792728
527.451782	721.850891	45821.449219	16022.340820	33.926003
527.800293	724.674500	47939.000000	16840.341797	34.133003
528.148743	724.228577	50049.269531	17702.919922	34.422054
528.497131	723.188477	51871.917969	18519.507813	34.793278
528.845642	727.646667	53445.949219	19338.396484	35.302258
529.193909	725.640381	54641.847656	20024.136719	35.793499
529.542175	732.476257	55430.644531	20577.023438	36.280094
529.890503	727.349304	55683.125000	20839.460938	36.596901
530.238770	730.767273	55412.589844	20787.300781	36.678612
530.586914	722.445374	54653.511719	20413.185547	36.510941
530.934998	724.600159	53440.519531	19783.544922	36.154060
531.283142	721.256531	51910.699219	19033.681641	35.773834
531.631226	729.727051	50089.542969	18195.994141	35.385601
531.979248	727.720886	48230.488281	17373.388672	35.041470
532.327148	728.315247	46617.605469	16642.693359	34.679939
532.675110	727.349304	45429.652344	16135.653320	34.468700
533.023071	724.525818	44913.621094	15869.797852	34.273781
533.370850	730.395752	44747.324219	15792.375000	34.218605
533.718689	728.686768	45005.683594	15843.495117	34.136932
534.066467	732.401855	45214.468750	15938.081055	34.183842
534.414246	724.600098	45308.984375	15978.651367	34.213886
534.761963	725.714661	45100.714844	15939.344727	34.284237
535.109619	723.336975	44760.406250	15856.200195	34.363918
535.457153	722.593933	44113.375000	15671.335938	34.451424
535.804749	718.581543	43341.746094	15389.059570	34.419029
536.152344	722.668213	42452.117188	15053.359375	34.341915
536.499817	722.222473	41557.066406	14699.456055	34.228695
536.847229	726.160461	40605.769531	14372.003906	34.217598
537.194641	721.850891	39757.824219	14064.316406	34.179924
537.542114	723.188416	39137.996094	13856.194336	34.187351
537.889404	723.114075	38667.953125	13695.997070	34.188793
538.236694	722.891174	38248.511719	13522.128906	34.107994
538.583984	725.714661	37890.078125	13390.835938	34.078671
538.931213	719.101746	37629.574219	13251.889648	33.954559
539.278381	718.655945	37458.531250	13209.909180	33.999172
539.625488	714.049133	37448.421875	13177.588867	33.928825
539.972595	717.467102	37776.691406	13271.356445	33.875210
540.319641	715.163757	38449.355469	13458.674805	33.771786
540.666687	714.197754	39466.484375	13775.500977	33.704601
541.013611	713.900574	40733.941406	14227.930664	33.768158
541.360596	710.854187	42116.714844	14678.577148	33.733685
541.707458	710.185364	43577.652344	15198.918945	33.798901
542.054260	715.312317	44794.656250	15649.565430	33.880390
542.401062	718.284424	45790.316406	16078.811523	34.079952
542.747864	719.919128	46294.531250	16330.473633	34.252743
543.094666	718.358704	46236.875000	16390.732422	34.430767
543.441284	721.702332	45567.855469	16178.598633	34.466496
543.787903	724.823059	44523.894531	15811.692383	34.445637
544.134460	723.411316	43236.828125	15313.270508	34.318245
544.481079	725.937500	41834.214844	14824.135742	34.295280
544.827637	730.618652	40256.914063	14265.083008	34.241673
545.174072	728.389587	38614.605469	13697.781250	34.232483
545.520508	726.977783	37213.769531	13211.989258	34.217892
545.866943	724.154297	36077.386719	12797.825195	34.151531
546.213318	733.665100	35291.859375	12506.559570	34.066868
546.559631	730.024231	34611.988281	12233.422852	33.951393
546.905823	729.949951	33986.140625	12008.359375	33.913712
547.252136	718.135803	33530.144531	11846.973633	33.916965
547.598389	715.460876	33034.695313	11689.081055	33.953838
547.944458	712.711731	32626.474609	11568.487305	34.015968
548.290588	720.810730	32093.869141	11380.797852	33.978157
548.636658	728.018066	31547.005859	11191.401367	33.951092
548.982727	734.185242	30856.134766	10972.801758	33.990551
549.328735	730.172852	30136.439453	10735.554688	34.024658
549.674622	730.767273	29358.416016	10484.336914	34.070454
550.020569	724.154297	28655.365234	10212.612305	33.970806
550.366455	728.315247	27916.500000	9955.524414	33.938305
550.712280	727.275085	27246.658203	9733.433594	33.960663
551.058044	735.374023	26740.062500	9580.147461	34.012226
551.403748	736.711487	26361.193359	9435.776367	33.948254
551.749512	735.225403	26134.642578	9355.083984	33.937229
552.095154	728.241028	25939.228516	9262.280273	33.850475
552.440735	727.869446	25869.384766	9226.912109	33.804817
552.786316	727.274963	25883.578125	9187.382813	33.630169
553.131897	726.160461	25906.015625	9226.243164	33.757473
553.477417	725.937561	25949.630859	9240.583984	33.756542
553.822815	726.977844	25916.640625	9250.911133	33.839016
554.168213	726.829285	25882.978516	9208.113281	33.714558
554.513672	718.953125	25730.140625	9172.224609	33.797962
554.859009	718.507324	25531.232422	9117.538086	33.849693
555.204285	722.668274	25322.812500	9052.299805	33.860092
555.549500	723.039734	25089.056641	8981.415039	33.893002
555.894714	728.389587	24840.068359	8904.586914	33.909695
556.239990	730.470032	24527.031250	8821.516602	34.000908
556.585022	732.699219	24260.732422	8729.975586	33.990417
556.930115	732.104675	23995.099609	8627.734375	33.940731
557.275146	719.621826	23735.705078	8539.463867	33.975552
557.620178	723.931396	23518.818359	8470.213867	33.982544
557.965149	718.507324	23363.150391	8406.908203	33.952404
558.310059	720.662109	23167.884766	8343.825195	33.960384
558.654968	719.919006	23029.458984	8283.193359	33.901527
558.999756	721.256531	22900.099609	8228.655273	33.849369
559.344604	725.640381	22914.662109	8199.676758	33.683487
559.689331	721.256531	22872.976563	8186.153809	33.698952
560.033997	722.148132	22811.380859	8173.224609	33.731712
560.378723	722.742615	22757.958984	8170.178223	33.797878
560.723389	725.417480	22759.072266	8163.861816	33.759468
561.067932	728.018066	22819.927734	8168.767090	33.680878
561.412476	729.355530	22824.312500	8162.524902	33.641926
561.757019	727.943665	22821.562500	8140.308594	33.549797
562.101501	724.897278	22823.492188	8158.810059	33.639751
562.445862	725.714600	22784.781250	8150.339844	33.657928
562.790222	732.476257	22750.007813	8165.868652	33.761246
563.134644	729.429871	22750.156250	8135.775879	33.633522
563.478943	727.869446	22769.771484	8120.989746	33.541206
563.823181	722.816895	22799.716797	8137.484863	33.585640
564.167358	723.931396	22826.833984	8156.729980	33.628159
564.511536	722.148193	22886.873047	8183.404785	33.662754
564.855774	727.052063	22899.281250	8180.655762	33.616844
565.199768	717.764343	22967.193359	8220.407227	33.720608
565.543823	718.878845	23097.818359	8254.958008	33.674873
565.887817	717.838623	23335.958984	8306.747070	33.552338
566.231812	732.922058	23515.400391	8336.467773	33.374535
566.575745	734.185059	23690.976563	8400.516602	33.394611
566.919617	734.779602	23871.755859	8478.163086	33.467567
567.263428	734.036560	23994.798828	8525.716797	33.497097
567.607239	732.699158	24116.435547	8563.016602	33.486168
567.950989	727.349304	24109.599609	8549.047852	33.451439
568.294678	725.640320	24143.037109	8552.391602	33.422810
568.638367	729.132568	24070.591797	8525.791016	33.402618
568.981995	734.110840	23934.171875	8474.596680	33.364075
569.325623	727.795166	23731.916016	8408.616211	33.388893
569.669128	719.770508	23530.705078	8354.821289	33.471012
570.012573	715.832458	23415.240234	8317.520508	33.488487
570.356140	721.107910	23377.419922	8313.359375	33.510536
570.699524	733.367859	23365.234375	8294.338867	33.408516
571.042908	737.677429	23427.351563	8304.815430	33.350582
571.386230	740.649597	23567.931641	8332.306641	33.256950
571.729492	735.299744	23761.564453	8385.731445	33.224804
572.072815	731.138733	23945.240234	8447.476563	33.239872
572.416016	727.720886	24047.630859	8462.485352	33.168072
572.759094	726.234863	24193.412109	8503.425781	33.140717
573.102234	731.138733	24291.343750	8513.010742	33.029728
573.445374	731.213074	24358.662109	8557.295898	33.122845
573.788391	727.200745	24302.638672	8537.011719	33.126896
574.131409	718.433044	24271.056641	8532.999023	33.179176
574.474365	726.977844	24189.474609	8505.358398	33.152401
574.817261	734.036621	24067.693359	8475.414063	33.176872
575.160156	739.386292	23866.333984	8419.166992	33.207066
575.502930	734.408020	23672.328125	8348.952148	33.196316
575.845703	731.584656	23463.017578	8266.846680	33.149086
576.188477	732.104675	23221.830078	8173.968750	33.090065
576.531250	724.302917	22959.689453	8071.281250	33.041828
576.873901	723.039795	22722.218750	7988.210938	33.024734
577.216431	716.129578	22494.181641	7922.229980	33.088821
577.559082	720.290527	22228.697266	7839.754395	33.100842
577.901611	725.937500	21924.130859	7742.714844	33.100826
578.244080	733.293457	21578.103516	7622.492676	33.049950
578.586487	730.172852	21255.480469	7515.868652	33.060139
578.928955	730.470032	20886.419922	7430.717285	33.242031
579.271301	725.417480	20567.291016	7340.662598	33.339821
579.613647	725.268860	20181.660156	7227.648438	33.420277
579.955872	719.324646	19897.005859	7086.845215	33.202766
580.298157	719.844727	19590.134766	6975.984375	33.153385
580.640320	724.302917	19373.171875	6905.025879	33.142616
580.982483	725.937561	19147.587891	6841.349121	33.196873
581.324524	725.789001	18981.373047	6774.699219	33.134575
581.666626	719.250305	18819.021484	6720.829590	33.158314
582.008728	714.717957	18724.138672	6674.613281	33.093212
582.350647	716.055359	18583.705078	6638.205078	33.144535
582.692566	729.727051	18511.927734	6595.109375	32.984570
583.034424	733.145020	18392.894531	6573.413574	33.071072
583.376343	729.206848	18326.171875	6534.627441	32.991032
583.718201	720.587830	18208.402344	6503.345703	33.067356
584.059937	722.371094	18155.869141	6470.875000	32.973900
584.401611	725.937561	18055.115234	6453.339844	33.050629
584.743347	727.126404	18001.841797	6424.436035	32.980629
585.085022	721.182129	17908.664063	6398.876465	33.033894
585.426514	723.559875	17852.640625	6383.717285	33.044140
585.768127	725.194580	17770.388672	6353.105469	33.017586
586.109619	737.825989	17702.474609	6301.687500	32.796799
586.451172	736.042786	17631.812500	6240.834473	32.580887
586.792542	730.470032	17595.404297	6228.054688	32.597725
587.133850	728.612488	17556.396484	6228.351563	32.682495
587.475220	731.881775	17571.404297	6246.332520	32.747070
587.816589	733.739441	17579.355469	6240.462891	32.689358
588.157776	729.058289	17593.623047	6251.757324	32.747356
588.498962	730.693054	17647.490234	6258.443848	32.676109
588.840210	733.293640	17694.970703	6262.828125	32.600163
589.181335	735.671204	17787.476563	6289.948730	32.572960
589.522400	735.299744	17794.833984	6299.087402	32.613945
589.863403	731.658875	17860.294922	6313.354004	32.586922
590.204407	728.984070	17823.365234	6300.647949	32.593540
590.545410	721.776672	17896.849609	6315.062500	32.566299
590.886353	720.439209	17892.244141	6323.013184	32.626591
591.227112	722.816895	17916.986328	6306.294922	32.473087
591.567932	725.194580	17817.716797	6264.610840	32.408421
591.908752	723.262695	17680.333984	6245.441406	32.565643
592.249512	718.730286	17621.039063	6246.927246	32.706757
592.590149	719.696106	17530.908203	6226.865723	32.758907
592.930786	719.844788	17491.455078	6196.921387	32.656834
593.271423	713.231873	17390.181641	6155.386230	32.632793
593.612000	714.643616	17334.974609	6154.197266	32.728313
593.952576	723.782898	17339.580078	6134.357910	32.562840
594.292969	734.705322	17396.869141	6149.144531	32.495415
594.633484	732.922058	17472.210938	6144.834473	32.330601
594.973877	728.538147	17554.017578	6173.887207	32.363708
595.314209	728.612488	17673.867188	6193.875000	32.252468
595.654480	730.321472	17859.847656	6266.097168	32.317158
595.994812	732.401917	18048.207031	6342.628906	32.399460
596.335022	729.652771	18266.433594	6395.458496	32.308128
596.675171	724.897461	18480.126953	6430.528809	32.134933
597.015320	725.640442	18680.595703	6457.946777	31.926041
597.355408	729.727051	18764.781250	6490.193848	31.940390
597.695496	734.482361	18812.410156	6520.286621	32.004799
598.035461	733.739258	18756.681641	6514.788574	32.076057
598.375366	733.590637	18722.726563	6513.673828	32.130962
598.715271	739.014832	18600.794922	6490.045410	32.197414
599.055176	733.070618	18403.298828	6455.271973	32.383289
599.395081	723.262695	18152.080078	6394.789063	32.541088
599.734802	717.615723	17838.150391	6283.484375	32.509899
600.074524	722.816833	17512.333984	6156.426270	32.363106
600.414246	727.423645	17154.195313	6023.721191	32.241863
600.753906	725.343201	16839.820313	5898.298340	32.101288
601.093506	721.850891	16567.203125	5788.627441	31.976419
601.433044	721.850891	16377.805664	5731.637207	31.999237
601.772583	720.736389	16235.812500	5701.395996	32.102062
602.112122	720.885010	16212.409180	5707.191895	32.187321
602.451538	716.724060	16236.036133	5696.269531	32.086121
602.790894	715.535156	16373.050781	5715.885254	31.935781
603.130310	714.420715	16585.183594	5743.080078	31.685051
603.469604	718.061523	16796.576172	5799.401855	31.603294
603.808838	722.668274	17097.130859	5890.942871	31.563017
604.148010	724.005676	17350.501953	5981.294434	31.619944
604.487305	725.789001	17637.013672	6074.842285	31.630194
604.826416	728.092346	17829.533203	6126.779297	31.568607
605.165527	730.692932	18013.505859	6170.172363	31.473347
605.504456	734.928223	18116.193359	6197.515625	31.428019
605.843445	732.401917	18167.908203	6219.880859	31.473013
606.182434	733.590759	18141.826172	6242.691406	31.646517
606.521423	734.928223	18049.765625	6211.113281	31.627123
606.860229	740.798157	17829.458984	6158.134766	31.701353
607.199036	742.061279	17573.335938	6078.557129	31.705833
607.537903	738.569092	17310.158203	6018.297363	31.860121
607.876648	739.237793	17063.619141	5929.134277	31.792303
608.215271	730.544373	16787.585938	5834.397949	31.785765
608.553955	727.423584	16582.138672	5721.085938	31.496386
608.892578	725.343079	16391.105469	5660.826660	31.504904
609.231140	737.528809	16308.704102	5617.210938	31.337917
609.569641	736.860046	16245.027344	5599.081543	31.352652
609.908081	738.717590	16226.377930	5590.239746	31.325081
610.246521	729.726990	16228.606445	5580.282715	31.296169
610.584961	729.504089	16221.325195	5590.833984	31.379978
610.923340	721.405090	16199.034180	5582.214844	31.405390
611.261597	724.080017	16119.825195	5566.239746	31.451284
611.599854	731.658875	15975.233398	5542.982910	31.562967
611.938110	734.482422	15838.590820	5498.996094	31.544489
612.276245	737.231628	15604.092773	5432.271973	31.580576
612.614319	726.606384	15321.816406	5335.158203	31.575783
612.952393	724.377258	15012.715820	5242.057129	31.617949
613.290466	715.609558	14761.127930	5161.364258	31.652479
613.628479	717.689941	14519.569336	5057.042969	31.440306
613.966370	713.677673	14280.983398	4958.666504	31.288370
614.304260	714.272034	14041.875977	4880.128418	31.257357
614.642151	714.940735	13858.793945	4823.807129	31.260742
614.979980	713.826172	13678.312500	4766.073730	31.256523
615.317749	719.844727	13534.834961	4712.872559	31.159039
615.655396	720.885010	13434.601563	4673.641113	31.090485
615.993164	724.674377	13392.843750	4649.046387	30.978210
616.330811	728.018066	13366.911133	4639.090332	30.944738
616.668396	731.658875	13316.459961	4643.919922	31.087191
617.005859	732.327637	13290.750000	4648.972656	31.187399
617.343445	732.922058	13268.682617	4637.381348	31.146568
617.680908	737.157288	13259.468750	4625.195801	31.048889
618.018311	738.866211	13260.657227	4620.886230	31.002115
618.355652	735.448242	13260.211914	4616.130859	30.984079
618.692993	725.937561	13270.614258	4594.137207	30.835388
619.030273	720.141907	13264.522461	4584.552246	30.805908
619.367554	721.553711	13262.738281	4578.831055	30.756882
619.704712	724.154297	13239.555664	4576.973633	30.784624
620.041870	729.504150	13205.301758	4570.360840	30.786461
620.379028	721.405090	13150.540039	4553.567871	30.832096
620.716064	719.473145	13099.346680	4540.267578	30.862953
621.053040	721.330750	13032.473633	4515.004395	30.814959
621.389954	728.092285	12975.484375	4498.881348	30.788506
621.726929	726.903503	12925.032227	4469.085449	30.678328
622.063843	725.194580	12878.964844	4438.695801	30.554314
622.400635	721.776611	12857.863281	4412.244141	30.409040
622.737427	719.770508	12837.429688	4393.297363	30.315483
623.074219	721.033630	12793.887695	4384.752441	30.346748
623.410889	721.479492	12724.117188	4359.191895	30.307608
623.747559	720.810730	12689.790039	4365.358887	30.449949
624.084167	716.798401	12672.700195	4346.114746	30.355858
624.420715	719.398926	12682.062500	4354.287598	30.385277
624.757324	724.228699	12696.922852	4331.477051	30.128960
625.093750	724.451599	12750.272461	4350.944336	30.155884
625.430176	721.999573	12816.179688	4344.183105	29.949808
625.766602	726.457703	12880.153320	4345.297363	29.775633
626.102905	726.011902	12951.038086	4353.916504	29.676046
626.439209	717.838623	13025.192383	4394.634277	29.874786
626.775452	713.157532	13134.566406	4454.894043	30.123285
627.111694	716.946960	13228.114258	4464.775879	29.955870
627.447876	719.398926	13311.333008	4463.810547	29.736589
627.783997	723.782776	13360.668945	4451.179199	29.496164
628.120056	715.089355	13387.269531	4468.194824	29.616890
628.456055	717.912903	13362.971680	4457.048828	29.569939
628.792053	711.597168	13309.622070	4439.290527	29.589504
629.128052	713.826233	13251.890625	4403.030762	29.424036
629.463928	710.631165	13180.335938	4384.083496	29.459015
629.799744	716.203918	13071.854492	4364.541992	29.527689
630.135559	717.838562	12923.843750	4322.857910	29.534801
630.471375	721.776672	12784.079102	4268.319824	29.401875
630.807068	714.940857	12631.387695	4204.716797	29.285372
631.142700	724.451477	12506.113281	4158.723145	29.149298
631.478333	730.321472	12359.959961	4114.513184	29.099714
631.813965	730.024231	12251.179688	4075.058350	29.033844
632.149475	723.485596	12123.750977	4040.804932	29.098614
632.484924	725.343201	12025.375000	4016.359375	29.123953
632.820435	734.408020	11942.156250	3979.133789	28.950739
633.155884	733.219238	11866.961914	3953.573486	28.924274
633.491150	731.287354	11833.303711	3926.824219	28.783392
633.826477	725.789001	11749.934570	3910.923828	28.892351
634.161804	722.445313	11711.520508	3893.982422	28.860819
634.497009	718.804504	11634.171875	3869.313721	28.863062
634.832153	719.176086	11583.645508	3842.862549	28.751394
635.167297	728.463867	11513.058594	3822.577881	28.690128
635.502380	721.776672	11432.067383	3799.469727	28.735849
635.837463	716.575500	11361.257813	3779.333252	28.772655
636.172424	713.008972	11286.434570	3751.766846	28.739576
636.507324	715.237976	11198.534180	3725.760986	28.717333
636.842224	725.045898	11104.020508	3686.083740	28.529194
637.177124	721.925293	10982.833008	3640.759033	28.446154
637.511963	729.281250	10859.194336	3590.233154	28.242611
637.846741	727.349304	10721.882813	3557.540039	28.317387
638.181396	733.665039	10616.149414	3526.852783	28.264025
638.516113	737.380188	10530.627930	3503.373291	28.243879
638.850769	735.745544	10445.253906	3454.705078	28.003059
639.185303	729.281250	10352.671875	3417.925049	27.938633
639.519836	724.525818	10274.729492	3384.786133	27.855534
639.854370	719.473206	10183.632813	3372.451904	28.031849
640.188843	723.782776	10073.739258	3351.275635	28.101660
640.523254	724.748718	10016.674805	3325.269775	27.986889
640.857605	730.618652	9938.583008	3275.635498	27.639297
641.191895	721.107910	9876.168945	3241.381836	27.528751
641.526184	717.838623	9783.885742	3221.468750	27.615456
641.860413	716.426941	9749.780273	3215.673096	27.666868
642.194580	727.052185	9710.102539	3193.233643	27.453718
642.528748	727.869446	9662.697266	3172.874756	27.364883
642.862793	735.819824	9586.760742	3158.237305	27.369038
643.196838	735.002502	9535.788086	3142.559326	27.356161
643.530823	735.225403	9493.139648	3120.714111	27.238092
643.864746	734.705261	9440.829102	3101.469727	27.185053
644.198669	732.104675	9396.099609	3077.841553	27.074539
644.532532	728.240967	9358.427734	3057.333984	26.987749
644.866333	721.776611	9334.354492	3046.262939	26.989437
645.200073	725.417480	9308.125000	3034.003174	26.898108
645.533813	730.321472	9277.958008	3023.303467	26.825916
645.867554	725.045898	9263.915039	3001.978760	26.665508
646.201172	712.637390	9265.028320	2999.006592	26.733685
646.534729	711.671387	9262.725586	2994.251221	26.693548
646.868225	715.980957	9269.933594	2999.303711	26.693188
647.201782	725.863281	9253.883789	2985.928955	26.501644
647.535217	728.612488	9249.277344	2971.588867	26.323957
647.868591	727.720886	9248.682617	2957.842529	26.172180
648.201965	731.064514	9250.317383	2959.923096	26.162607
648.535278	721.405090	9235.977539	2964.158447	26.340178
648.868591	721.479431	9213.983398	2947.737549	26.214390
649.201782	726.754883	9183.742188	2920.765625	25.943172
649.534912	730.321472	9155.432617	2890.524658	25.640055
649.868103	729.355469	9130.615234	2879.230469	25.589912
650.201172	727.274963	9086.182617	2870.685547	25.642235
650.534180	734.779602	9049.179688	2873.805908	25.726767
650.867188	746.445129	9014.703125	2869.571045	25.678034
651.200134	741.912598	9017.229492	2861.843750	25.617523
651.533020	738.643311	8993.081055	2826.772705	25.297052
651.865845	728.240967	8933.788086	2809.534424	25.364470
652.198608	722.668274	8878.877930	2793.633545	25.391272
652.531433	725.417480	8860.748047	2797.274414	25.467398
652.864136	729.801453	8864.389648	2790.884766	25.337278
653.196777	857.899231	8997.911133	2915.044189	25.272015
653.529358	857.453369	8948.946289	2905.905029	25.316114
653.861938	855.001404	8893.516602	2872.914795	25.103060
654.194519	730.024231	8685.245117	2703.133057	24.802692
654.526978	727.720886	8635.165039	2674.303711	24.617090
654.859375	730.767273	8580.551758	2650.303955	24.453367
655.191833	726.754883	8525.123047	2651.789795	24.685099
655.524170	726.680603	8469.247070	2629.350342	24.574148
655.856445	718.804504	8409.062500	2621.994385	24.748064
656.188660	722.593933	8394.871094	2604.458740	24.528112
656.520874	715.758057	8361.062500	2587.072021	24.476643
656.853088	721.256531	8370.202148	2571.914307	24.194939
657.185181	716.649719	8356.232422	2561.289307	24.145817
657.517212	719.027405	8383.948242	2555.270508	23.956453
657.849243	714.346375	8417.086914	2556.831055	23.919857
658.181274	725.417480	8455.500977	2555.567627	23.675684
658.513123	723.931458	8504.465820	2559.580078	23.592836
658.844971	732.327637	8595.116211	2565.449951	23.313896
659.176819	722.073792	8692.080078	2571.320068	23.202570
659.508667	726.829285	8806.061523	2583.802979	22.984529
659.840393	723.485596	8876.203125	2610.403320	23.144648
660.172058	720.885010	8927.917969	2617.833496	23.113693
660.503662	723.559875	8941.515625	2619.988281	23.076645
660.835266	720.885010	8955.410156	2614.713135	22.998631
661.166931	720.513489	8917.664063	2604.756592	22.986563
661.498413	715.089355	8868.624023	2602.601318	23.149616
661.829773	712.860352	8761.034180	2569.239502	23.065844
662.161194	723.782898	8642.446289	2524.212158	22.736528
662.492615	723.782776	8509.073242	2476.063965	22.507589
662.823975	722.965515	8341.297852	2443.222168	22.580486
663.155212	721.999512	8213.571289	2427.098389	22.760229
663.486450	727.275085	8067.121094	2382.442627	22.550438
663.817627	732.773438	7960.347656	2338.529541	22.217083
664.148743	739.089172	7827.568848	2294.244873	21.939201
664.479858	739.980774	7729.935059	2262.740479	21.784975
664.810913	742.284180	7637.279297	2237.700439	21.688431
665.141907	733.962219	7585.416016	2225.143555	21.764452
665.472778	731.956116	7508.066895	2223.657471	22.014124
665.803711	723.485657	7470.395996	2209.391357	22.023500
666.134583	721.033630	7415.411621	2182.493652	21.831154
666.465454	719.844788	7396.390625	2167.261719	21.679129
666.796143	719.027527	7337.617188	2149.800537	21.617489
667.126831	722.593933	7331.821777	2144.599609	21.515457
667.457458	724.154297	7300.464844	2132.785400	21.419777
667.788147	722.371094	7296.081543	2115.547119	21.193146
668.118774	717.244141	7248.453125	2112.574951	21.364052
668.449219	716.798340	7240.279785	2099.795166	21.200287
668.779663	719.398926	7239.834473	2089.615479	21.014187
669.110107	721.182190	7235.302246	2071.114014	20.723166
669.440552	718.432922	7229.877441	2060.562988	20.611866
669.770874	722.519714	7202.014160	2059.448486	20.633224
670.101135	722.073792	7183.289551	2050.755127	20.563953
670.431396	725.194580	7157.135254	2037.306274	20.399935
670.761597	725.863281	7111.959473	2023.783203	20.324152
671.091797	724.080017	7069.606934	2009.517090	20.257372
671.421875	723.559875	7003.551270	1996.142578	20.264086
671.751892	722.668274	6973.533203	1978.012817	20.082733
672.081909	727.646545	6932.889160	1962.186401	19.895109
672.411865	728.018066	6904.877441	1951.338257	19.804890
672.741821	728.018066	6862.673340	1936.031616	19.691629
673.071716	734.631042	6814.599121	1922.062866	19.530231
673.401550	731.807556	6768.828613	1898.211548	19.320854
673.731262	733.739319	6746.538574	1889.963989	19.229389
674.060974	732.030457	6720.755371	1888.552246	19.311651
674.390625	729.058350	6699.356934	1880.973267	19.294092
674.720276	730.692932	6650.911621	1870.570923	19.253983
675.049927	721.999573	6617.846191	1845.679565	19.058840
675.379395	732.104736	6587.679688	1834.459961	18.825737
675.708923	720.662109	6539.828613	1826.509399	19.003534
676.038330	718.730225	6487.445313	1819.153687	19.075712
676.367737	712.711731	6442.491699	1812.020508	19.185883
676.697083	719.324646	6426.888184	1794.559204	18.838768
677.026428	723.559875	6402.442871	1778.584351	18.578028
677.355652	717.689941	6383.792969	1770.336548	18.577965
677.684875	721.033508	6388.101563	1761.420288	18.358465
678.013977	719.176025	6390.330566	1759.265625	18.339998
678.343079	725.863281	6408.609863	1746.559692	17.961323
678.672180	723.262695	6409.501465	1748.937500	18.037842
679.001221	723.188416	6473.550781	1756.144897	17.963329
679.330139	719.473206	6499.630859	1768.627563	18.150963
679.659058	725.417480	6541.685547	1773.828735	18.025497
679.987976	729.058289	6555.729004	1760.900024	17.708942
680.316772	730.247131	6605.066406	1749.160522	17.343740
680.645630	723.708496	6635.084473	1747.376953	17.316923
680.974304	721.702332	6674.390625	1762.980591	17.492573
681.302979	722.148193	6706.267090	1761.420288	17.367168
681.631653	725.045959	6755.157715	1741.581543	16.857656
681.960266	721.999512	6774.699219	1731.327759	16.675671
682.288757	723.262695	6773.138672	1728.578491	16.617130
682.617249	721.851013	6737.845215	1736.231812	16.861399
682.945679	724.823059	6715.851563	1720.776733	16.624086
683.274109	722.519592	6682.489746	1714.758179	16.648382
683.602478	725.045959	6630.105469	1701.532227	16.536434
683.930725	722.445313	6549.710449	1692.690308	16.650091
684.259033	726.011902	6450.367676	1676.715210	16.608040
684.587280	726.011902	6365.439941	1650.783569	16.398323
684.915344	734.779602	6301.836426	1634.436890	16.160376
685.243469	738.346191	6244.549316	1624.034546	16.085283
685.571533	737.157410	6189.713379	1617.273071	16.141340
685.899536	729.727051	6131.980469	1599.514648	16.100458
686.227539	729.206970	6087.101563	1580.121704	15.881514
686.555420	728.463867	6055.448730	1566.301392	15.728175
686.883301	730.321472	6039.250488	1558.276733	15.595523
687.211121	725.194519	6040.588379	1546.239624	15.446552
687.538940	719.398926	6055.597656	1544.382202	15.460131
687.866638	713.974854	6056.191895	1547.948608	15.611006
688.194336	720.736389	6044.377441	1542.524414	15.436578
688.521973	721.330811	6028.476563	1537.843384	15.385156
688.849609	727.869446	6025.355957	1518.821899	14.930713
689.177063	726.531982	5999.572754	1510.648804	14.870296
689.504578	728.166687	5932.403809	1487.614746	14.592879
689.832031	728.018066	5852.751465	1474.983398	14.575691
690.159485	722.148193	5780.380371	1461.460083	14.616013
690.486816	733.144958	5720.121094	1458.562378	14.546238
690.814087	734.482422	5644.777832	1450.017578	14.572141
691.141296	737.603088	5562.599121	1433.893921	14.430910
691.468506	731.510254	5482.946777	1416.507202	14.416629
691.795715	728.240967	5401.956543	1401.795288	14.411538
692.122803	729.875671	5345.857910	1391.244141	14.327794
692.449829	724.451477	5302.316406	1377.721069	14.270181
692.776855	724.897278	5254.613770	1363.975098	14.108562
693.103821	719.993347	5185.512207	1352.235229	14.158307
693.430664	722.891113	5121.612793	1339.529419	14.018579
693.757568	723.188293	5070.417969	1325.263428	13.849628
694.084351	725.045898	5030.962891	1311.963135	13.630482
694.411133	718.730225	4988.758789	1300.223267	13.618013
694.737854	726.383362	4961.415527	1293.758911	13.397196
695.064575	724.971680	4940.090820	1288.929199	13.379396
695.391174	734.036621	4920.549316	1284.025269	13.137155
695.717773	727.572205	4905.242676	1279.047119	13.200537
696.044250	723.262695	4912.970215	1278.824219	13.260151
696.370789	720.810730	4919.509277	1280.384521	13.327314
696.697205	716.872620	4939.273438	1278.898438	13.310575
697.023621	724.748718	4967.136719	1276.372192	13.002664
697.349915	720.959290	5023.458008	1283.059448	13.064506
697.676208	723.485596	5101.699219	1286.625854	12.862329
698.002380	715.535217	5191.382324	1292.867310	12.898834
698.328674	718.358704	5299.567383	1293.758911	12.560009
698.654724	712.934570	5407.604004	1307.133423	12.656884
698.980896	716.946960	5507.392090	1311.963013	12.420893
699.306946	709.367981	5573.373047	1319.244751	12.538572
699.632935	712.488770	5629.248535	1319.987671	12.355676
699.958862	716.129578	5641.730957	1321.919678	12.298804
700.284729	718.804504	5646.561035	1326.377808	12.329614
700.610596	721.776672	5595.068848	1315.381104	12.180769
700.936340	721.033630	5517.423340	1308.991089	12.258334
701.262146	736.785828	5412.656250	1279.418579	11.604957
701.587830	734.556641	5290.650879	1267.901733	11.706191
701.913513	734.630920	5156.683105	1247.096924	11.588873
702.239075	729.801270	5021.229492	1243.530396	11.971052
702.564697	731.064453	4890.976563	1225.548950	11.886898
702.890137	732.922058	4776.030273	1200.360474	11.561363
703.215698	728.538269	4666.730957	1177.475220	11.399569
703.541016	723.782898	4564.490234	1161.202881	11.389048
703.866455	722.668274	4484.392090	1152.286621	11.420784
704.191711	720.142029	4405.334473	1136.683105	11.303102
704.517029	730.247131	4360.900879	1129.921509	11.008330
704.842163	733.367859	4303.093262	1129.698608	11.102556
705.167419	735.671204	4267.428223	1127.692383	11.099891
705.492493	730.767273	4229.533691	1125.537598	11.283129
705.817566	724.897278	4203.081543	1116.769897	11.266585
706.142578	726.309082	4180.270996	1105.401611	10.975585
706.467590	731.956116	4158.945801	1092.993042	10.535104
706.792480	728.538147	4144.011230	1091.209839	10.618490
707.117371	728.463867	4132.865723	1089.352173	10.600637
707.442200	723.188416	4142.376465	1088.832031	10.693872
707.766907	725.863281	4149.881348	1086.157104	10.522545
708.091675	717.764343	4159.689453	1094.107544	10.934091
708.416321	713.454773	4148.395020	1088.757813	10.926043
708.741028	717.541321	4147.131836	1087.717529	10.793597
709.065552	720.736328	4169.794434	1077.761108	10.351371
709.390137	720.959290	4177.150879	1079.247070	10.366549
709.714600	715.832458	4204.643066	1074.788940	10.288793
710.039063	710.854187	4228.047852	1078.206787	10.444481
710.363403	716.649719	4266.982422	1076.200684	10.127247
710.687744	717.987244	4309.260254	1071.222290	9.835929
711.012085	725.120300	4353.693359	1067.210083	9.427667
711.336304	722.668274	4392.851074	1068.770386	9.430105
711.660461	730.693054	4418.262207	1079.544189	9.460193
711.984619	732.327637	4435.426270	1084.968262	9.522853
712.308716	736.265625	4452.144531	1084.522583	9.372128
712.632751	731.138855	4451.847656	1081.030273	9.403892
712.956726	735.894104	4416.405273	1071.148071	9.108897
713.280701	731.213074	4382.820313	1077.166626	9.474008
713.604553	734.482422	4335.860840	1076.200562	9.488538
713.928467	728.538147	4287.712402	1073.748657	9.699174
714.252258	727.572266	4221.731934	1054.207031	9.348021
714.575989	719.027405	4162.513184	1045.439331	9.479114
714.899719	720.885010	4115.182129	1036.522949	9.299067
715.223267	721.330811	4087.690186	1027.234985	9.087092
715.546936	724.897278	4077.436279	1020.696533	8.823141
715.870422	725.640381	4053.956299	1018.467468	8.798056
716.193970	729.727051	4034.117920	1017.575867	8.711101
716.517395	730.172852	4006.699951	1009.773987	8.533461
716.840820	734.779602	3978.167725	996.399475	8.066253
717.164124	733.442139	3936.557861	992.610046	8.091119
717.487488	727.795166	3893.165283	984.139465	8.098399
717.810730	727.052063	3860.249268	987.854675	8.323849
718.133972	730.990173	3808.534424	982.356262	8.167749
718.457092	739.534973	3754.739502	978.343933	7.920158
718.780212	738.197571	3693.365234	970.690735	7.867342
719.103210	728.538147	3653.018799	969.204651	8.229376
719.426208	717.467102	3607.025391	959.025208	8.359690
719.749207	707.510559	3586.740967	963.111816	8.877416
720.072083	717.764343	3550.927002	961.700134	8.610018
720.394958	725.491882	3506.196533	958.356506	8.374303
720.717773	728.835449	3441.033203	949.811707	8.147498
721.040527	722.816895	3397.863281	941.192566	8.163435
721.363281	723.857117	3369.925537	946.690979	8.421319
721.685913	727.423645	3346.000000	943.050110	8.234492
722.008545	728.018066	3314.124023	936.660156	8.067809
722.331055	726.903503	3286.929443	920.462097	7.560806
722.653503	724.971680	3257.951172	911.397156	7.359928
722.976013	725.566101	3249.852539	911.768738	7.376447
723.298401	728.241028	3238.929688	913.031799	7.360163
723.620789	726.086182	3230.162109	911.174255	7.391472
723.943115	719.844727	3206.236328	908.053467	7.569553
724.265381	724.154297	3182.831299	911.619934	7.624655
724.587585	721.479431	3189.889893	915.781006	7.871526
724.909790	733.665039	3196.874756	911.471497	7.218486
725.231873	733.367859	3202.670654	904.932800	6.947910
725.553894	737.008728	3195.834717	895.942200	6.463795
725.875916	768.661682	3217.902344	941.118225	7.041224
726.197937	761.974426	3239.227295	944.313232	7.360524
726.519775	765.020813	3243.387939	949.514465	7.444161
726.841675	722.222412	3225.852539	906.938965	7.377949
727.163513	720.290527	3227.710205	907.681946	7.473476
727.485291	716.724060	3247.697998	904.858582	7.433286
727.806946	718.061462	3280.390869	906.716125	7.362624
728.128662	721.033630	3307.065674	911.768738	7.375590
728.450256	724.748718	3330.470703	911.768738	7.177282
728.771790	729.727051	3334.186279	906.567566	6.789913
729.093323	723.559875	3326.830078	903.223877	6.901473
729.414795	721.107910	3316.130615	901.366394	6.946316
729.736145	715.683777	3311.078125	904.115540	7.260236
730.057495	720.439209	3317.468018	895.124817	6.726364
730.378845	719.250427	3323.114990	893.490234	6.691585
730.700134	714.272156	3319.102539	890.295227	6.757564
731.021301	719.176086	3317.393555	890.443848	6.591741
731.342468	724.674500	3314.644531	894.827637	6.569695
731.663574	737.603088	3332.402588	897.651184	6.168033
731.984680	731.881775	3347.188721	902.703796	6.531624
732.305664	730.544250	3357.888672	901.514954	6.507358
732.626648	729.949890	3357.443115	903.521057	6.605961
732.947571	736.042786	3363.758545	907.756348	6.534708
733.268433	735.745605	3353.207764	900.028992	6.276438
733.589233	735.819824	3335.151611	901.960754	6.391678
733.909973	734.779602	3319.994141	892.821533	6.113300
734.230713	736.860107	3308.923096	891.558350	6.014559
734.551331	726.754944	3278.607422	875.731934	5.837994
734.871948	717.467102	3233.877686	872.685486	6.168245
735.192505	713.751953	3176.813232	871.422363	6.401400
735.513062	720.885010	3146.051514	866.146790	5.989765
735.833435	731.213135	3088.987061	857.081970	5.338461
736.153931	738.420471	3058.002930	845.565002	4.619130
736.474304	736.637207	3001.681641	847.868347	4.910771
736.794617	728.389587	2982.436768	851.360535	5.455563
737.114807	722.073792	2954.127686	854.481262	5.932091
737.434998	728.092346	2942.684814	848.908630	5.455463
737.755188	729.578430	2935.552002	853.366699	5.611503
738.075256	725.714661	2941.347656	857.676270	5.955933
738.395325	720.810730	2971.811768	856.784668	6.040599
738.715271	721.553711	2992.022217	851.955078	5.743368
739.035278	724.897400	3010.597656	848.537109	5.409271
739.355164	719.844727	3020.702881	851.880676	5.738553
739.675049	723.188416	3026.052734	852.177917	5.601264
739.994873	721.627991	3021.297119	846.976746	5.450730
740.314636	719.621887	3006.510742	848.760010	5.646891
740.634277	719.993408	2990.535889	841.329773	5.343937
740.953979	721.330872	2961.334961	845.416443	5.539524
741.273499	731.064453	2925.000977	845.119141	5.198632
741.593140	720.736389	2894.759766	853.664001	6.114360
741.912598	717.318420	2862.809570	849.502930	6.161037
742.232117	719.547546	2828.035889	844.153137	5.909712
742.551453	727.275085	2777.584229	832.487732	5.131550
742.870850	733.293640	2745.708252	834.048096	5.006645
743.190063	729.950012	2716.284424	832.116211	5.143454
743.509338	730.470032	2693.250732	825.949036	4.864476
743.828552	726.829163	2677.646973	822.605469	4.909546
744.147705	724.897278	2661.226074	821.565186	4.992329
744.466797	722.296692	2632.099609	827.435120	5.505198
744.785828	724.080017	2606.836670	821.119385	5.154111
745.104858	723.262634	2580.533447	817.478516	5.072814
745.423706	725.863281	2572.583252	811.757263	4.651165
745.742615	728.538147	2561.363525	809.676758	4.426969
746.061401	732.476257	2561.735107	806.556091	4.049719
746.380249	730.915833	2546.205811	807.447754	4.215961
746.698975	723.708496	2533.574219	813.614807	4.967568
747.017639	719.324646	2514.032471	816.289734	5.402834
747.336304	711.745789	2510.986084	820.896423	6.066485
747.654907	709.739563	2503.184326	817.849915	6.028083
747.973389	716.426819	2502.812744	813.540466	5.436319
748.291931	729.578430	2508.088135	806.704651	4.336565
748.610352	737.157410	2516.484375	804.772766	3.800052
748.928711	735.968445	2526.738281	803.881104	3.792372
749.247070	725.937561	2524.360596	806.555969	4.482728
749.565308	714.717834	2517.673584	802.172180	4.850609
749.883545	712.191589	2506.379639	804.178406	5.126933
750.201782	715.312317	2501.772705	805.144287	5.028489
750.519836	722.891174	2502.590088	811.088562	4.955748
750.837952	724.748779	2494.119629	807.076172	4.652919
751.155884	727.200684	2471.457275	796.227966	3.957404
751.473877	730.247131	2457.116943	791.249573	3.532544
751.791809	724.600098	2443.147705	792.884277	3.973366
752.109619	727.497986	2432.299561	800.388916	4.275626
752.427490	722.296692	2413.129639	804.995605	4.891016
752.745300	728.835388	2405.550537	809.230957	4.794826
753.062988	729.801270	2411.791992	802.692322	4.333618
753.380615	733.293518	2413.426514	794.221863	3.626400
753.698303	727.572205	2415.581299	785.008301	3.402594
754.015808	725.491699	2410.157471	784.562439	3.506377
754.333374	724.748718	2403.693115	793.255859	4.080370
754.650757	722.519714	2401.835449	798.308411	4.513070
754.968262	722.371094	2401.760986	806.333191	4.999559
755.285583	721.033691	2393.588135	802.989502	4.900038
755.602905	726.160461	2377.835938	807.299133	4.912507
755.920105	722.222473	2359.928711	799.051514	4.691259
756.237305	722.593994	2361.935059	791.249695	4.188006
756.554443	724.377197	2355.247803	790.135071	4.032072
756.871582	725.417480	2360.968994	796.525146	4.347626
757.188599	725.937561	2356.510742	804.921387	4.843930
757.505615	722.593994	2360.894531	800.760437	4.771191
757.822510	721.628113	2371.222656	794.221741	4.400695
758.139465	719.101746	2379.544678	790.580872	4.304823
758.456238	724.451477	2395.445313	790.580872	3.957489
758.773010	732.327637	2400.943604	790.580994	3.491118
759.089783	731.658936	2425.166504	786.717224	3.251139
759.406433	724.748718	2453.550293	778.172363	3.090213
759.723145	723.039795	2465.512939	774.531555	2.955096
760.039673	732.550537	2470.788574	778.766846	2.658802
760.356201	730.544373	2453.476074	781.664612	2.967050
760.672668	732.476257	2455.333496	784.265320	3.005999
760.989136	726.457703	2451.097900	784.636719	3.373400
761.305481	723.262695	2456.076416	789.763672	3.837745
761.621826	719.844727	2453.550049	788.351868	3.951487
761.938049	725.491699	2462.540771	788.351868	3.618791
762.254333	734.185242	2485.723389	790.060852	3.190088
762.570496	732.030457	2531.419678	794.073181	3.447988
762.886597	735.522644	2611.146240	795.484863	3.196922
763.202637	741.095276	2735.008789	788.723328	2.388672
763.518677	742.284180	2876.630127	792.958679	2.374240
763.834656	739.906494	3025.755615	801.057617	2.675204
764.150574	736.785828	3140.181641	808.710754	2.992638
764.466370	741.689758	3206.533936	813.466125	2.912004
764.782288	735.894226	3229.196045	815.992493	3.212538
765.097961	732.624817	3205.642334	823.274231	3.665539
765.413696	730.990234	3156.602539	816.512695	3.525809
765.729309	731.956116	3058.597412	811.831543	3.433079
766.044861	725.937561	2940.901611	795.262024	3.129823
766.360474	721.850891	2814.364258	793.627380	3.430157
766.675903	724.897278	2689.906982	777.280762	2.665813
766.991394	735.374023	2575.183838	777.949524	2.314125
767.306763	737.751648	2483.048096	774.680176	2.115889
767.622131	730.544373	2411.346191	773.045471	2.528620
767.937378	726.383362	2353.761719	768.587402	2.593376
768.252625	728.909668	2307.694092	771.187988	2.677903
768.567810	732.476257	2260.065674	783.076355	3.312415
768.882996	734.853943	2213.849609	783.002136	3.255466
769.197998	733.367859	2180.636475	773.194153	2.751825
769.513062	735.002502	2154.853271	765.020813	2.114188
769.828064	729.875671	2131.076172	766.581238	2.619580
770.142944	731.213135	2107.522217	771.187988	2.904497
770.457825	726.977844	2073.491699	767.695801	3.023954
770.772705	722.296692	2054.990234	766.655457	3.328504
771.087402	719.176025	2016.278687	758.779358	3.053215
771.402100	725.714661	1992.798950	756.847473	2.457044
771.716736	732.030457	1962.037598	756.253113	1.969310
772.031372	731.807434	1963.969360	765.020813	2.695537
772.345947	727.126465	1956.687866	771.336609	3.595603
772.660461	727.275085	1953.492798	765.466614	3.114580
772.974854	729.206848	1926.892578	759.299561	2.512572
773.289246	733.070618	1915.226929	757.887756	2.099311
773.603638	730.990173	1890.186890	757.293396	2.269090
773.917908	724.600098	1884.317017	758.407898	2.915177
774.232178	721.182129	1864.552612	754.692810	2.930868
774.546265	727.646545	1863.512329	757.739197	2.649314
774.860474	725.120300	1844.936523	760.116882	3.125208
775.174561	728.389587	1838.174927	760.785461	2.919111
775.488586	729.132568	1832.602173	760.488342	2.841562
775.802551	729.578369	1808.973999	761.602844	2.966889
776.116516	725.714661	1789.209473	763.386169	3.542237
776.430359	715.386536	1762.906372	766.878418	4.915600
776.744202	717.615662	1764.095215	761.677246	4.210458
777.057922	714.940735	1762.980591	755.435730	3.863879
777.371704	718.433044	1755.550415	756.476013	3.668145
777.685303	717.690002	1749.903320	762.791687	4.369415
777.998962	721.330811	1741.655884	767.844299	4.558693
778.312500	720.587830	1745.073730	761.528625	3.996229
778.626038	728.463867	1741.655884	754.023987	2.522732
778.939453	732.327637	1741.730103	752.017822	1.950677
779.252869	732.773438	1738.535034	750.234558	1.736109
779.566223	726.903503	1740.244141	748.525574	2.133742
779.879578	719.027405	1734.968750	742.432800	2.303814
780.192749	723.262695	1721.519897	738.197571	1.496095
780.505920	719.101746	1713.272095	738.346191	1.935729
780.819031	719.473206	1701.234985	741.763977	2.270487
781.132141	724.302979	1712.528931	757.887695	3.398486
781.445190	732.253357	1708.368164	761.305664	2.976321
781.758118	735.151184	1701.755249	761.379944	2.713496
782.071045	729.727051	1679.538696	751.126160	2.252985
782.383911	728.686768	1666.535645	741.243958	1.338935
782.696838	726.754944	1669.359253	747.336731	2.183502
783.009583	725.045959	1666.089844	752.760925	2.945130
783.322266	719.621826	1659.848633	763.237549	4.638851
783.634888	717.318420	1638.375000	757.962097	4.412723
783.947510	714.717834	1625.223511	749.937317	3.868123
784.260132	715.237976	1621.508423	743.398743	3.107325
784.572571	712.265869	1609.619751	747.113770	3.883407
784.885010	715.312256	1605.533203	752.835144	4.215008
785.197449	721.776611	1585.991577	755.510071	3.903364
785.509766	733.962219	1583.093750	747.931152	1.645085
785.822083	728.909668	1575.515015	739.609314	1.263829
786.134277	726.977783	1572.839966	736.785828	1.159532
786.446533	720.884949	1571.056641	737.751709	1.983924
786.758606	724.971680	1561.397461	739.386414	1.723373
787.070740	726.606262	1571.056763	746.668030	2.375719
787.382690	726.011902	1574.846313	753.503906	3.238795
787.694641	722.371033	1590.746948	755.955872	3.867546
788.006653	717.467102	1608.059570	749.863037	3.637571
788.318481	721.107910	1639.712524	741.838379	2.256735
788.630310	720.216309	1681.396362	741.987000	2.264996
788.942017	715.906738	1709.259766	740.055115	2.430996
789.253784	715.089355	1716.095703	742.952942	2.783557
789.565430	724.971680	1701.978149	743.844543	1.931703
789.877014	735.374023	1678.944336	747.782532	1.315059
790.188538	738.271790	1664.306641	748.377014	1.091236
790.500061	737.974609	1644.541992	749.194336	1.237605
790.811462	738.940613	1629.384277	748.822754	1.109800
791.122925	743.324402	1600.926392	746.965271	0.424541
791.434204	740.129395	1587.031860	750.308899	1.201969
791.745483	735.671204	1567.341675	749.342957	1.643891
792.056702	728.463867	1560.877319	744.959045	1.981609
792.367920	725.863281	1532.419312	737.677429	1.464765
792.678955	721.330811	1520.010742	736.191345	1.860637
792.990112	722.296692	1512.654785	743.175781	2.641725
793.301086	724.228577	1512.506226	741.466858	2.186829
793.612122	730.544250	1498.834473	743.621582	1.702134
793.922974	722.222412	1485.311401	743.101501	2.736128
794.233826	720.216309	1477.583984	741.763977	2.845074
794.544556	719.770508	1471.639648	738.866211	2.539764
794.855286	722.371094	1468.890503	731.287415	1.194386
795.166016	717.467041	1471.713989	732.253357	1.960408
795.476624	717.689941	1483.528198	729.652771	1.562057
795.787292	726.829163	1494.970703	729.132629	0.299875
796.097778	728.686768	1515.255371	730.395752	0.217271
796.408264	721.033630	1543.044556	738.717712	2.151320
796.718689	719.770508	1557.087769	747.113831	3.265587
797.029053	727.126465	1567.490234	752.092102	2.970813
797.339355	735.596985	1553.744141	753.355286	2.170551
797.649658	734.928223	1546.388306	752.315125	2.142669
797.959839	731.807556	1526.995239	744.290344	1.569791
798.270020	731.584656	1510.351563	736.562927	0.639251
798.580078	727.869446	1499.726196	737.305908	1.222566
798.890137	730.098572	1487.912109	747.113831	2.245309
799.200195	724.674500	1478.921387	756.401672	4.206470
799.510071	724.228577	1459.676880	759.819641	4.839370
799.820007	717.987122	1450.611938	752.909485	4.766746
800.129883	719.324646	1439.169312	742.061279	3.158547
800.439575	719.696106	1444.296265	734.779602	2.081630
800.749329	722.965515	1443.701782	742.061279	2.649480
801.058960	727.349365	1444.593628	748.302734	2.921371
801.368591	727.274963	1441.621460	750.457458	3.245273
801.678162	728.315247	1434.488281	747.336731	2.693601
801.987671	726.977783	1432.779297	745.107666	2.568694
802.297119	721.107910	1423.045532	741.912659	2.963903
802.606506	717.838562	1413.609253	739.757874	3.150364
802.915894	713.528992	1397.559937	737.528809	3.508586
803.225159	728.166687	1391.467163	734.110840	0.896148
803.534424	736.562927	1390.426758	730.618652	-0.909100
803.843628	745.479248	1389.906738	733.293518	-1.890939
804.152771	735.448303	1380.618774	739.163513	0.575849
804.461792	721.850891	1370.216431	741.541199	3.036915
804.770874	717.541321	1375.714844	738.346130	3.160992
805.079773	719.398926	1393.399048	738.197510	2.789107
805.388733	727.943665	1412.271973	734.036560	0.890347
805.697571	727.795105	1425.423462	728.835449	0.149126
806.006470	728.761047	1423.565918	723.931458	-0.695100
806.315125	728.983948	1425.349121	726.309143	-0.384109
806.623901	726.606262	1414.352173	734.631042	1.166823
806.932495	724.822998	1407.516479	740.203796	2.252958
807.241150	727.052185	1401.275024	753.578186	3.934308
807.549622	728.612488	1404.024292	749.491516	3.091303
807.858154	728.983948	1397.188354	745.924988	2.535308
808.166565	727.943787	1393.770386	735.076843	1.071308
808.474915	728.538269	1378.984009	734.705261	0.948118
808.783264	736.414246	1376.829468	735.076843	-0.208834
809.091492	732.550537	1361.003052	731.436035	-0.177341
809.399719	733.739319	1353.052612	733.219238	-0.083977
809.707825	730.692932	1347.702759	739.534973	1.433047
810.015930	725.491699	1346.365234	742.581360	2.752519
810.323975	721.999512	1341.015503	745.404846	3.781055
810.632080	713.751953	1334.625488	743.918884	4.858788
810.939880	721.182190	1329.201416	746.890930	4.228278
811.247864	732.624817	1326.600708	748.822815	2.727046
811.555664	733.070740	1324.817505	745.404968	2.084376
811.863464	727.646545	1315.826782	741.987000	2.438105
812.171143	718.210144	1307.653687	737.454590	3.264850
812.478882	721.999512	1293.090210	736.562927	2.550106
812.786438	722.965515	1290.266846	740.500977	3.091031
813.094055	721.702332	1294.279175	740.723816	3.322084
813.401489	712.711731	1294.502075	735.596985	3.933591
813.708984	714.123474	1297.176880	725.194519	1.898805
814.016357	718.061523	1283.653809	732.030334	2.469767
814.323730	725.789001	1287.220337	740.500977	2.620441
814.630981	725.194580	1274.737427	749.120117	4.353716
814.938232	722.742615	1281.276245	740.203796	3.126254
815.245361	722.445374	1267.753052	732.847839	1.907632
815.552490	718.433044	1281.201782	723.114075	0.831786
815.859619	718.655945	1281.424683	724.080078	0.963830
816.166565	727.497986	1293.164551	729.578430	0.367786
816.473572	731.584534	1281.870605	737.083008	0.999203
816.780457	726.829285	1286.774414	736.860046	1.791383
817.087341	718.953125	1286.625854	737.900330	3.337698
817.394043	724.080078	1297.474121	739.089172	2.617588
817.700806	723.485657	1305.052979	740.426575	2.912976
818.007507	726.532043	1316.495605	736.488586	1.687654
818.314209	723.782898	1326.006226	733.813660	1.665622
818.620667	726.903503	1326.526367	735.894104	1.499376
818.927246	727.126465	1334.328247	739.014832	1.957894
819.233704	726.754944	1346.216675	746.519348	3.190577
819.540161	731.138855	1382.401978	747.188171	2.464337
819.846497	729.429871	1421.633911	750.011658	2.973370
820.152832	728.835449	1480.110352	743.993164	2.017599
820.458984	728.240967	1535.391602	741.912659	1.693822
820.765259	722.593933	1597.211304	732.624817	1.146888
821.071350	720.364807	1687.191895	735.894226	1.606225
821.377502	713.454773	1844.639282	735.894226	1.983713
821.683472	716.946960	2144.673584	750.308899	2.336718
821.989441	714.197754	2659.443115	746.668030	1.669212
822.295349	717.467102	3376.315674	757.070374	1.489490
822.601196	724.748718	4171.652344	762.568848	1.097220
822.907043	733.813660	4845.949219	768.215820	0.836601
823.212769	733.145020	5235.815430	767.324219	0.759087
823.518494	724.674500	5296.446777	757.590576	0.719985
823.824097	720.216309	5065.736816	767.547119	1.089186
824.129700	719.993347	4701.355957	772.674011	1.323182
824.435242	727.720886	4320.183105	783.150696	1.542948
824.740723	734.333801	3988.792969	775.348877	1.260273
825.046082	738.494690	3683.854736	766.729736	0.958628
825.351501	726.457764	3363.461670	756.698914	1.146800
825.656799	723.634277	3038.906982	749.194336	1.103976
825.962036	716.649841	2743.776611	739.089172	1.106953
826.267212	727.423645	2531.567871	732.030457	0.255346
826.572449	730.098572	2424.497559	740.798096	0.631464
826.877502	725.194580	2434.751465	756.921875	1.855878
827.182495	717.095520	2540.707275	771.485168	2.982523
827.487488	707.287598	2679.876221	772.971191	3.329817
827.792419	720.439209	2798.612061	755.584412	1.691159
828.097290	717.021301	2824.766602	746.296570	1.388938
828.402100	720.662109	2752.247070	738.717712	0.888745
828.706848	724.377197	2608.917236	745.404846	1.115797
829.011597	730.470032	2442.850586	741.466858	0.642195
829.316223	734.556641	2290.009766	741.243958	0.429927
829.620789	724.451477	2150.172119	739.906494	1.084014
829.925354	725.789001	2013.380859	739.312012	1.050256
830.229797	720.736328	1890.112671	735.522644	1.264462
830.534302	721.850891	1746.931274	732.922058	1.080029
830.838562	722.371094	1629.087280	735.671204	1.466844
831.142944	720.216309	1526.103516	737.900330	2.194354
831.447144	722.073792	1458.265137	736.934387	2.018578
831.751404	721.925232	1405.658813	731.361633	1.380128
832.055542	726.309082	1370.959473	727.795166	0.230526
832.359619	720.439148	1357.659302	727.497986	1.107755
832.663635	714.792175	1369.919312	727.275085	1.905418
832.967651	720.587830	1399.268921	729.355469	1.291864
833.271545	730.395752	1466.512695	735.522644	0.696478
833.575439	735.819824	1558.871094	743.250183	0.902782
833.879211	725.045959	1690.684082	745.404846	2.108335
834.183044	718.210144	1810.014282	745.404968	2.490815
834.486694	707.956360	1907.870972	742.284180	2.860855
834.790344	715.237976	1942.347290	742.878601	2.252499
835.093933	714.346375	1931.796265	732.773438	1.513579
835.397522	717.021301	1888.849487	736.339905	1.648587
835.700928	721.256531	1820.416626	733.070618	1.074829
836.004395	727.423645	1760.900269	738.569031	1.078436
836.307739	736.340027	1673.668945	736.414246	0.007918
836.611023	727.200684	1602.635376	727.646484	0.050923
836.914307	725.343201	1516.295776	728.761047	0.432118
837.217529	720.736389	1456.407593	730.247253	1.292814
837.520691	724.377258	1389.089478	734.482422	1.520231
837.823730	723.262695	1330.761841	733.145020	1.626722
838.126831	726.086243	1281.424805	725.120300	-0.173938
838.429749	727.720886	1242.936035	735.522644	1.514272
838.732727	725.937561	1211.505859	735.522644	1.973993
839.035522	730.470032	1186.242920	738.643372	1.793292
839.338379	734.779602	1169.896240	734.482422	-0.068299
839.641113	738.420410	1177.623779	737.008606	-0.321447
839.943848	741.318298	1200.583374	742.135559	0.177950
840.246460	731.658936	1226.886597	741.392517	1.965476
840.549072	723.782898	1253.709839	739.460693	2.958483
840.851563	713.751953	1267.455811	732.179016	3.327964
841.154053	720.885071	1279.195679	731.361633	1.876476
841.456482	724.377258	1262.923340	733.219238	1.641824
841.758850	728.984070	1241.747070	737.677429	1.695395
842.061157	724.005676	1219.084839	732.773438	1.770982
842.363403	725.640381	1197.834106	729.727051	0.865465
842.665588	719.027527	1173.685913	729.875671	2.385999
842.967712	721.107910	1154.144165	731.584656	2.419369
843.269775	723.559875	1130.738647	731.658875	1.989052
843.571777	726.829285	1108.670776	732.773438	1.556707
843.873840	728.240967	1080.435913	736.488586	2.341777
844.175659	725.789001	1064.163574	732.550537	1.998240
844.477600	727.720886	1046.999756	724.823059	-0.907616
844.779297	730.692932	1034.442505	722.593933	-2.666341
845.081116	728.612488	1020.919434	726.977844	-0.559222
845.382751	726.234802	1013.191895	733.665100	2.589341
845.684387	718.878845	1015.198059	732.030457	4.438325
845.985962	719.027405	1005.984558	731.510254	4.350074
846.287537	724.748718	1000.560364	732.847717	2.936424
846.588989	725.714661	990.381042	742.878601	6.485123
846.890381	733.442139	995.284973	744.216003	4.114630
847.191711	725.045898	998.257141	737.528809	4.568959
847.493042	729.801270	985.922852	728.389587	-0.551177
847.794250	724.525879	976.263489	725.120300	0.236127
848.095459	727.572266	967.198486	725.268860	-0.961249
848.396606	725.937561	965.341003	725.417480	-0.217240
848.697693	725.640442	962.888977	732.624817	2.943907
848.998657	729.504089	959.099426	733.219299	1.618156
849.299622	731.064453	958.133606	727.720886	-1.472488
849.600464	736.117126	958.282227	723.559875	-5.652216
849.901367	732.104736	957.985046	729.578369	-1.118454
850.202087	725.566101	955.978760	730.470032	2.128325
850.502808	716.129578	953.675476	725.268860	3.847375
850.803467	715.386658	951.743591	714.272034	-0.471585
851.104065	718.804504	956.721863	714.049133	-1.998749
851.404663	727.720886	953.303894	713.826355	-6.159388
851.705139	728.761047	958.430847	715.981140	-5.564470
852.005615	732.773438	952.709473	718.804504	-6.351362
852.306030	733.665039	957.241943	719.993408	-6.114957
852.606384	734.556641	957.019043	723.931396	-4.776198
852.906616	730.024231	959.025208	732.253357	0.973413
853.206909	729.504089	956.498962	737.603088	3.567922
853.506958	730.767273	944.833435	735.225403	2.082594
853.807129	726.234863	944.981995	728.092346	0.849146
854.107178	721.182190	943.718933	724.971680	1.702860
854.407166	722.668274	943.347351	730.544373	3.569028
854.707092	733.665039	942.232910	731.138733	-1.211263
855.007019	725.491699	931.607605	728.983948	1.694313
855.306763	728.240967	941.564148	726.606262	-0.766304
855.606567	722.445313	937.848938	731.138733	4.035875
855.906250	726.977844	943.124512	736.562805	4.434471
856.205933	726.829285	934.282410	732.253235	2.614542
856.505493	729.578430	936.585754	728.463867	-0.538417
856.805054	727.869446	939.632263	723.931396	-1.859651
857.104492	728.983948	945.799316	724.377197	-2.124734
857.403931	727.943787	944.981995	723.336914	-2.122609
857.703308	742.804260	939.037781	720.959229	-11.132161
858.002563	737.008728	933.836609	724.228699	-6.492998
858.301819	735.745605	935.991394	724.080078	-5.825604
858.601013	728.686768	939.929443	734.259460	2.638053
858.900208	727.497986	943.124329	732.699036	2.412066
859.199219	728.389465	943.644531	732.104675	1.725957
859.498291	727.126465	949.291565	726.011902	-0.501682
859.797302	729.281250	955.087219	727.795166	-0.658124
860.096191	726.680664	945.130615	733.293518	3.027171
860.395020	723.114075	938.369080	728.909668	2.692431
860.693787	723.708496	927.297913	721.553711	-1.058397
860.992554	724.228699	930.864502	718.730225	-2.660949
861.291260	728.018066	925.143127	723.857117	-2.110817
861.589844	715.237976	923.731384	727.795166	6.022823
861.888428	712.711731	921.502380	727.497986	7.081857
862.186890	718.655945	923.062683	726.086243	3.635055
862.485413	729.652649	919.719055	732.401917	1.446477
862.783813	735.671204	919.496155	728.463867	-3.920761
863.082153	726.829163	926.480652	722.296692	-2.270191
863.380371	728.538147	932.499207	717.764221	-5.282344
863.678589	718.358704	933.242188	720.290527	0.899010
863.976746	714.569275	927.372314	729.652771	7.088008
864.274902	712.414551	933.093506	732.847717	9.259228
864.572937	718.953125	929.378418	730.692932	5.579085
864.870911	716.203918	934.356689	722.371094	2.826998
865.168884	718.061523	935.099792	715.386536	-1.232496
865.466736	714.717834	946.839600	715.981018	0.544190
865.764587	724.674500	941.935608	715.460938	-4.240778
866.062317	724.080017	935.396973	714.494934	-4.535880
866.360107	728.835449	934.876770	715.609558	-6.419048
866.657715	729.281250	936.883057	723.634216	-2.720127
866.955322	726.309082	939.780823	727.200684	0.417667
867.252808	724.600098	937.105957	729.355469	2.237760
867.550293	720.364929	938.369080	729.429688	4.158067
867.847717	729.281250	935.471252	735.002441	2.774718
868.145081	731.213074	930.270020	734.036560	1.418431
868.442383	732.996338	935.174011	728.538269	-2.205025
868.739624	723.485596	937.848938	729.355530	2.738311
869.036804	722.668213	941.935547	733.442139	4.913603
869.333984	723.708496	936.511475	735.448303	5.516749
869.631042	725.120300	940.226563	736.117004	5.112219
869.928101	718.507324	945.799316	730.544434	5.295879
870.224976	722.668274	949.663086	734.185242	5.073670
870.521851	725.045898	942.307068	734.110840	4.172371
870.818726	732.253357	936.362854	731.287415	-0.473247
871.115479	727.052063	936.288574	729.652771	1.242951
871.412231	732.699158	943.941833	728.241028	-2.110430
871.708862	730.470032	941.712708	738.494812	3.798844
872.005493	731.138855	943.050110	742.878601	5.539935
872.302063	724.748779	942.455627	736.488586	5.392484
872.598572	726.531982	943.198730	726.086243	-0.205726
872.895020	730.692932	944.090332	717.244141	-6.302228
873.191406	734.259460	940.672546	715.683838	-8.999247
873.487671	732.179016	944.833313	718.358704	-6.498958
873.783997	735.151184	942.678650	726.532043	-4.153253
874.080200	736.414307	945.725037	733.219238	-1.526471
874.376343	734.408142	954.344177	731.510315	-1.317577
874.672424	730.024231	953.155273	728.835449	-0.532773
874.968445	720.141907	958.728027	723.262695	1.308034
875.264465	721.999512	960.065430	726.383362	1.841444
875.560364	722.742615	967.049988	721.925293	-0.334547
875.856201	732.401917	964.375061	726.011902	-2.754636
876.152039	735.671204	949.143066	726.754883	-4.176813
876.447754	733.888000	950.777649	729.429871	-2.055483
876.743469	731.956116	952.932434	733.070618	0.504354
877.039063	734.482422	962.888977	732.624817	-0.813289
877.334595	731.956238	954.344055	734.853821	1.302941
877.630127	727.052063	945.427795	731.361633	1.973466
877.925537	721.702332	946.393738	729.727051	3.571440
878.221008	721.999512	959.916809	730.544373	3.591526
878.516296	721.256531	974.108643	733.888000	4.995596
878.811646	718.655945	981.984802	734.631042	6.066596
879.106812	719.919006	981.613281	732.624817	4.855212
879.401978	722.371033	991.718445	727.497864	1.903427
879.697083	727.795105	1010.665527	728.092346	0.105080
879.992126	727.572266	1044.176147	729.727051	0.680593
880.287109	729.132568	1081.699097	730.990234	0.526898
880.582031	727.497864	1141.141235	727.423645	-0.017943
880.876892	726.829285	1255.641602	722.742615	-0.772802
881.171753	726.457703	1465.695679	721.330750	-0.693546
881.466492	733.293640	1784.157227	723.485535	-0.933338
881.761230	736.711487	2160.574707	733.888000	-0.198298
882.055786	731.807556	2526.812744	736.562927	0.264922
882.350403	717.318420	2775.057861	744.364685	1.314368
882.644958	717.689941	2875.738281	743.770264	1.208514
882.939453	729.504089	2826.475342	743.695984	0.676781
883.233826	735.299744	2706.847900	742.581360	0.369335
883.528137	733.145020	2567.381836	737.528809	0.238998
883.822449	730.024231	2455.630615	741.838379	0.684637
884.116577	725.714661	2333.699707	740.500977	0.919556
884.410828	727.497986	2222.468506	746.370789	1.262420
884.704956	718.804504	2075.720703	740.426575	1.593471
884.999023	721.107910	1916.044312	736.414307	1.280938
885.292969	721.553711	1722.411499	729.281250	0.772092
885.586914	722.965515	1553.001099	732.179016	1.110013
885.880798	722.593994	1423.491333	732.624817	1.431140
886.174622	718.655945	1331.133179	735.076843	2.681063
886.468384	715.386536	1251.034912	730.395752	2.802065
886.762085	718.135803	1192.187134	727.795166	2.037620
887.055664	712.711670	1156.521851	722.965515	2.310412
887.349304	712.563171	1128.138184	724.525818	2.878577
887.642822	714.717834	1108.447998	729.429871	3.736578
887.936340	717.318420	1080.881714	729.355469	3.310853
888.229736	720.364929	1057.550659	729.429871	2.688412
888.523071	716.203918	1037.711792	721.999512	1.802629
888.816284	714.494934	1023.742920	722.891174	2.715051
889.109619	719.844788	1019.359070	721.553711	0.570565
889.402710	726.309082	1012.448914	721.330811	-1.739804
889.695862	732.550598	998.479980	718.433044	-5.308760
889.988892	735.968445	989.860840	720.364929	-6.145720
890.281921	743.175720	986.145691	729.355469	-5.688049
>>>>>End Processed Spectral Data<<<<<
