Jaz Data File
++++++++++++++++++++++++++++++++++++
Date: Fri Jun 04 16:44:50 2021
User: jaz
Dark Spectrum Present: Yes
Reference Spectrum Present: Yes
Processed Spectrum Present: Yes
Spectrometers: JAZA3586
Integration Time (usec): 60600 (JAZA3586)
Spectra Averaged: 10 (JAZA3586)
Boxcar Smoothing: 1 (JAZA3586)
Correct for Electrical Dark: No (JAZA3586)
Strobe/Lamp Enabled: Yes (JAZA3586)
Correct for Detector Non-linearity: No (JAZA3586)
Correct for Stray Light: No (JAZA3586)
Number of Pixels in Processed Spectrum: 2048
>>>>>Begin Processed Spectral Data<<<<<
W	D	R	S	P
191.335022	0.000000	0.000000	0.000000	0.000000
191.713211	232.493210	234.870911	234.127884	68.750198
192.091385	473.456940	475.314545	470.782074	-143.995407
192.469528	711.374268	717.838623	708.847961	-39.080559
192.847641	721.033630	726.829285	715.015137	-103.844940
193.225739	724.451599	734.110840	722.593933	-19.232008
193.603790	736.042725	744.959045	736.637207	6.667351
193.981842	747.039551	755.361511	738.048889	-108.035378
194.359863	754.246887	760.488464	747.336731	-110.711700
194.737854	757.367676	759.893982	748.228333	-361.767059
195.115829	756.401672	756.401672	756.401672	0.000000
195.493774	757.367676	752.983826	746.668152	244.066833
195.871704	756.773254	751.646301	740.278015	321.735718
196.249603	758.556458	750.754700	741.095276	223.810867
196.627457	758.259277	756.847473	750.085938	578.928711
197.005310	753.949707	758.556458	750.457520	-75.805878
197.383133	750.085999	758.927979	749.045715	-11.765274
197.760910	746.222351	754.321228	751.126221	60.549995
198.138687	744.290344	752.092224	759.076599	189.521698
198.516449	742.952942	748.822754	754.172668	191.142853
198.894180	746.742371	747.782532	749.268616	242.870560
199.271866	757.590515	744.067444	740.055115	129.670258
199.649536	756.030212	737.231689	746.593750	50.197891
200.027191	751.794922	740.723877	745.404968	57.717709
200.404816	744.736145	748.005554	751.423340	204.538330
200.782410	741.838379	768.958801	757.962097	59.452312
201.159988	745.404846	780.104309	764.054871	53.747299
201.537537	744.290344	791.249695	777.355164	70.411575
201.915070	754.989929	783.968018	775.423157	70.512680
202.292557	752.240723	779.212646	772.822571	76.308418
202.670029	753.355286	767.472839	760.339783	49.473846
203.047485	744.290283	769.850525	756.847473	49.127823
203.424911	742.729980	773.788574	759.225159	53.109867
203.802292	742.729980	777.800964	758.556458	45.126984
204.179688	738.940613	783.447937	758.705078	44.407219
204.557037	741.318298	781.070251	758.036377	42.055992
204.934357	736.488525	786.642883	762.717468	52.296440
205.311661	740.723816	781.887512	763.831970	56.137218
205.688934	734.853821	779.064148	759.076599	54.789864
206.066177	730.098572	777.503723	756.178772	55.015541
206.443390	726.309082	770.890808	756.030212	66.666618
206.820587	731.807556	764.352112	764.872253	101.598244
207.197769	741.021057	764.797913	768.215820	114.374939
207.574921	734.853943	775.200256	770.445007	88.213921
207.952042	723.931396	775.571777	767.844421	85.036217
208.329147	715.832458	773.862793	764.352051	83.610741
208.706223	748.822815	793.255859	782.779114	76.421272
209.083267	752.389343	799.794495	782.333313	63.166065
209.460297	758.407898	802.766602	783.745117	57.118935
209.837280	725.789001	784.711121	753.652527	47.288734
210.214264	728.909729	778.023743	751.349121	45.688370
210.591217	730.990234	770.296326	751.423401	51.984734
210.968124	737.974609	769.701843	756.921814	59.719055
211.345016	739.906494	774.234314	749.120056	26.839928
211.721893	734.333801	774.308655	747.633972	33.271343
212.098724	731.658875	761.825867	752.537903	69.211502
212.475555	731.213074	764.352112	758.779297	83.183533
212.852356	736.191406	768.215820	753.355225	53.596043
213.229126	740.872375	778.915466	754.469788	35.742134
213.605865	742.358459	775.125977	758.259277	48.526161
213.982590	733.888000	766.581238	761.454346	84.318192
214.359283	740.055176	761.231384	758.333679	86.316223
214.735931	732.476257	761.825745	753.652527	72.152092
215.112579	736.117004	777.355042	747.931152	28.648666
215.489197	729.132629	779.361267	740.649475	22.928843
215.865799	731.436035	777.726563	740.500916	19.582582
216.242355	737.454529	769.553284	749.268616	36.805435
216.618896	737.900330	765.020813	757.144714	70.958855
216.995407	740.055115	762.420227	757.887695	79.733917
217.371902	736.488586	764.426453	754.023987	62.765713
217.748367	732.104736	764.129150	747.113831	46.867661
218.124802	728.909668	767.695618	746.519470	45.402531
218.501236	728.612488	756.698914	742.581360	49.735313
218.877609	733.070618	759.150879	750.903320	68.376244
219.253983	733.442139	757.739197	752.166504	77.064331
219.630295	727.943665	767.770020	756.773254	72.388222
220.006592	731.138733	776.612000	755.064270	52.614513
220.382889	728.835266	775.348938	757.293396	61.182289
220.759140	729.578369	773.045593	756.401672	61.709263
221.135391	728.389587	763.386230	751.051941	64.755791
221.511581	737.454529	770.147705	752.092102	44.772564
221.887772	744.959167	774.011475	746.816650	6.393581
222.263931	743.547363	778.915466	754.767090	31.722727
222.640060	736.414307	778.023865	749.863037	32.321251
223.016159	731.733215	769.627502	755.064270	61.568790
223.392212	731.807434	767.770020	742.878662	30.785406
223.768265	734.556641	767.324219	747.188171	38.548870
224.144302	737.305908	770.221985	751.051941	41.760849
224.520294	737.528809	770.073425	761.380066	73.287872
224.896286	743.027161	768.810303	764.797913	84.437935
225.272217	737.603088	772.599792	766.729797	83.227005
225.648148	733.962219	774.160156	766.209656	80.221619
226.024048	726.011902	778.915466	756.401672	57.443710
226.399902	726.309082	781.887512	750.160339	42.914593
226.775772	725.045959	781.738953	746.742371	38.270004
227.151581	731.956055	776.834961	758.184998	58.443810
227.527374	728.538147	766.655518	765.095154	95.906425
227.903137	737.900391	761.825867	767.398499	123.291626
228.278870	741.912781	762.568848	760.414063	89.568268
228.654572	748.005554	771.187988	759.299500	48.717686
229.030273	743.844543	774.903076	759.745300	51.196098
229.405930	731.064453	774.085754	759.745300	66.666618
229.781555	726.829163	767.844299	758.705078	77.717445
230.157181	719.696106	767.027039	762.717468	90.894814
230.532761	719.250305	764.352051	761.528564	93.739738
230.908325	715.980957	772.079590	759.448059	77.483353
231.283859	726.234802	769.107422	760.414063	79.722816
231.659332	731.436035	769.776184	762.717468	81.589233
232.034821	740.055115	758.110657	754.692688	81.069695
232.410263	727.423645	765.763855	745.850769	48.062138
232.785690	735.151123	767.695740	743.250061	24.885645
233.161087	734.482422	775.571777	753.206726	45.569721
233.536469	742.730042	771.856689	753.875305	38.264835
233.911804	741.021057	777.577942	759.225159	49.796642
234.287140	733.442200	772.896912	758.927979	64.595016
234.662430	735.076843	772.228210	767.472839	87.200012
235.037704	734.036560	764.500732	769.256042	115.609520
235.412933	738.791992	771.485168	765.763855	82.499977
235.788162	732.179016	772.822693	759.448059	67.092957
236.163345	733.293640	773.342773	754.841309	53.803082
236.538513	734.854004	771.410889	759.225281	66.666725
236.913635	732.773438	770.221985	762.123047	78.373161
237.288742	726.160461	775.200378	764.946533	79.090820
237.663834	724.228699	776.537781	762.791809	73.721634
238.038879	732.847717	775.348877	764.797913	75.174881
238.413910	735.671204	776.760559	757.516296	53.164848
238.788910	740.426575	775.125977	756.847473	47.323288
239.163879	737.603027	783.224915	751.497742	30.456245
239.538834	730.247131	780.550049	757.367676	53.914455
239.913757	728.315247	779.435547	755.212891	52.616367
240.288651	731.138733	774.903015	764.723572	76.740295
240.663528	736.562805	773.639954	763.906250	73.747429
241.038361	731.138733	774.085754	763.683350	75.778519
241.413177	721.850891	773.416992	749.491516	53.602318
241.787979	715.906738	774.234375	749.640137	57.834332
242.162735	718.210144	772.302429	752.760925	63.873768
242.537476	720.810730	775.200195	756.476074	65.573990
242.912170	718.210144	773.491272	758.184998	72.311935
243.286865	722.965515	769.999023	757.219055	72.827950
243.661514	728.761047	764.797852	757.516296	79.794113
244.036148	734.631042	769.627625	755.510071	59.660194
244.410751	734.928223	773.565674	759.448059	63.461319
244.785339	725.120300	773.342773	761.379944	75.192421
245.159882	729.949951	773.491394	764.500671	79.351341
245.534378	730.990173	783.522217	765.615234	65.912270
245.908890	736.191406	790.952454	773.788574	68.656776
246.283356	727.200684	784.265198	770.890686	76.562469
246.657791	727.423645	782.184753	765.986755	70.420616
247.032196	734.333801	780.327209	756.550293	48.303642
247.406586	737.305969	782.704834	761.974365	54.337032
247.780960	731.361633	779.138367	766.804016	74.183350
248.155289	726.754883	781.887512	760.562683	61.320854
248.529602	721.330811	786.271423	754.989929	51.830616
248.903870	726.309082	782.779114	751.051941	43.815910
249.278122	724.971619	783.968018	759.150879	57.934486
249.652344	734.482361	783.893738	756.996155	45.563988
250.026550	730.618652	788.351807	757.293274	46.203297
250.400711	739.757874	787.014404	761.305664	45.597488
250.774857	740.426575	783.819336	756.996094	38.184986
251.148987	740.055115	782.556213	757.516296	41.084072
251.523071	732.030334	775.274597	750.383118	42.439812
251.897125	732.327637	788.500488	762.197266	53.174492
252.271164	729.801331	791.918396	766.061035	58.373177
252.645187	728.240967	800.314636	764.575012	50.412373
253.019165	721.405090	795.187744	763.609070	57.200409
253.393112	727.572266	799.348633	761.231445	46.894516
253.767044	731.361633	795.930725	767.027039	55.236034
254.140930	729.578430	793.627380	763.237610	52.552273
254.514801	727.126465	785.899902	763.311829	61.567547
254.888657	720.736389	788.426208	758.853760	56.311821
255.262466	724.674500	781.738953	749.565857	43.619724
255.636276	726.160461	787.608887	752.092102	42.200661
256.010010	731.956055	795.113464	758.705078	42.352947
256.383759	737.157227	798.605652	761.825867	40.145275
256.757446	739.609192	800.166016	750.606140	18.159718
257.131134	737.305908	796.153625	747.708313	17.676819
257.504791	735.596924	797.193848	750.606140	24.366827
257.878418	731.658875	797.268250	752.537903	31.823238
258.252014	727.795166	799.794495	752.686523	34.571651
258.625580	721.107910	799.794495	759.596680	48.914017
258.999115	723.782776	799.868835	758.556458	45.703091
259.372650	730.618652	795.039124	755.732910	38.984901
259.746124	735.522644	808.933777	748.525574	17.712477
260.119598	729.801331	816.215393	752.760925	26.569281
260.493042	733.590759	827.658020	758.630798	26.619293
260.866425	734.705322	827.137878	756.996094	24.115715
261.239838	731.510315	824.314270	756.996094	27.461954
261.613159	721.256531	819.707520	752.686584	31.924568
261.986511	723.114075	814.877930	758.482239	38.542587
262.359802	738.123230	817.181335	763.163269	31.672956
262.733063	738.271912	815.472351	768.587341	39.268467
263.106293	736.042786	811.682861	768.736023	43.222111
263.479523	731.510254	813.243347	767.472839	44.000031
263.852692	740.575195	809.528137	768.141602	39.978580
264.225861	737.454529	814.655090	762.866028	32.916210
264.598969	740.500977	809.008057	762.791748	32.537910
264.972076	731.584656	815.175232	764.946472	39.910976
265.345154	732.550476	817.404297	769.553223	43.607639
265.718201	727.274963	818.815918	766.358215	42.694828
266.091217	737.528809	825.949036	758.482178	23.697483
266.464203	741.095276	830.110046	760.562683	21.869862
266.837158	733.590759	832.339050	765.169434	31.978958
267.210114	723.559875	829.292664	768.513123	42.515900
267.583038	722.519714	821.342285	767.175598	45.187939
267.955902	730.470032	824.834473	760.562683	31.889822
268.328766	731.138855	823.274109	762.123047	33.629028
268.701569	734.928223	830.630127	761.008484	27.251560
269.074371	737.008728	832.041931	764.946533	29.397942
269.447144	741.318176	837.837463	761.751465	21.170160
269.819885	739.832214	847.794006	764.872131	23.193314
270.192596	734.631042	849.577332	767.324219	28.442133
270.565277	739.832214	855.595764	768.587341	24.839535
270.937927	737.900208	853.961182	763.683350	22.215170
271.310577	737.974609	863.992004	758.779297	16.509378
271.683136	735.968445	863.620422	756.104492	15.774176
272.055725	724.525818	877.589355	756.698914	21.019438
272.428284	729.652771	889.626465	759.150940	18.439386
272.800812	739.312073	895.199219	760.711243	13.727347
273.173279	753.652527	893.341614	763.088928	6.755289
273.545776	751.572021	885.316895	761.974426	7.777797
273.918152	736.785828	887.991882	761.380066	16.265379
274.290558	731.956116	880.190002	759.076660	18.295778
274.662964	730.395752	876.549133	755.510071	17.183537
275.035278	731.510315	877.812317	753.206726	14.829880
275.407593	729.950012	879.521301	752.389343	15.002432
275.779907	737.231628	885.688477	758.333557	14.214184
276.152161	738.049011	883.830872	768.661621	20.998915
276.524384	742.507141	889.552185	771.113586	19.454206
276.896606	730.618652	889.329285	765.912415	22.237806
277.268799	725.194519	889.849365	754.544006	17.824854
277.640930	718.061462	901.514954	751.572021	18.266514
278.013031	720.216309	912.883301	754.469788	17.778593
278.385162	723.931396	920.759338	760.042480	18.346523
278.757233	727.795166	916.375488	765.095154	19.779364
279.129272	725.268860	912.511719	766.061035	21.785704
279.501282	725.640442	916.895508	766.209656	21.212099
279.873230	722.296692	920.907898	764.277771	21.137316
280.245178	722.371094	927.149353	766.358215	21.480368
280.617126	726.903503	938.443359	764.946533	17.983860
280.988983	737.603088	945.279236	764.797852	13.094793
281.360870	748.154053	958.430847	768.810242	9.823333
281.732697	747.039551	971.359436	771.187988	10.765179
282.104492	746.816650	984.288147	776.686340	12.578221
282.476288	742.432800	986.145691	770.296326	11.432931
282.848053	738.271912	991.792786	768.067200	11.752598
283.219757	736.637207	999.371582	762.122986	9.700207
283.591461	735.448425	1004.424133	766.729797	11.629813
283.963135	734.036621	1000.634705	768.661621	12.987716
284.334747	730.618652	1007.024719	770.073425	14.274206
284.706360	733.962341	1021.811035	766.878357	11.435180
285.077942	738.197510	1034.368164	765.169434	9.106886
285.449524	736.785828	1040.015259	758.556458	7.179590
285.821014	736.785828	1047.073853	763.237549	8.524893
286.192535	740.278015	1058.888062	765.020813	7.765856
286.563995	743.770264	1065.055176	767.175598	7.284915
286.935425	736.265686	1069.439087	759.893982	7.091891
287.306824	735.076843	1064.312134	760.711243	7.786042
287.678223	730.172852	1065.575317	763.386230	9.902545
288.049561	726.977844	1063.717773	769.701904	12.687554
288.420898	721.776672	1065.278198	769.107483	13.778923
288.792145	728.686829	1067.804321	767.547119	11.459241
289.163452	738.569031	1068.621704	762.717468	7.316541
289.534668	729.504150	1076.275024	758.853699	8.463672
289.905914	723.857117	1090.243774	762.643066	10.586070
290.277039	716.426941	1115.952515	765.243713	12.218685
290.648193	727.349365	1135.196899	770.890686	10.675881
291.019318	735.225403	1150.874756	771.113708	8.634274
291.390381	731.584534	1153.401001	774.308655	10.128604
291.761475	727.497864	1157.487671	767.695740	9.348565
292.132507	721.405090	1147.754028	769.256042	11.223425
292.503510	730.098572	1143.890503	770.221985	9.696519
292.874481	738.569031	1145.450806	781.516052	10.555160
293.245422	736.488586	1145.079224	783.745117	11.565740
293.616364	735.448303	1150.429077	777.652283	10.170105
293.987213	725.045898	1164.175049	768.067200	9.796959
294.358093	726.234802	1189.289429	760.339783	7.365218
294.728943	727.423645	1212.992065	760.637024	6.840103
295.099731	728.538147	1231.121826	761.751526	6.608527
295.470490	731.435974	1243.307495	768.141602	7.170867
295.841248	724.748779	1259.356812	772.971191	9.020144
296.211975	725.863281	1269.907837	767.249817	7.607196
296.582642	719.398926	1292.941650	763.906250	7.760071
296.953308	719.993347	1321.845337	754.246887	5.691356
297.323883	725.714661	1338.489380	763.089050	6.099205
297.694519	725.714661	1352.904053	766.283997	6.468435
298.065063	733.665039	1352.458130	774.605774	6.616224
298.435608	726.977844	1351.863647	769.479004	6.801428
298.806122	733.590759	1329.572876	763.757629	5.061707
299.176575	731.658875	1305.721802	758.705078	4.711366
299.547028	732.773376	1285.734253	763.311829	5.522715
299.917450	734.036621	1284.173950	759.225281	4.578613
300.287872	734.333801	1278.675537	762.123047	5.105110
300.658234	739.386414	1277.783813	766.506836	5.037250
301.028564	727.349304	1273.845825	768.513000	7.532289
301.398865	722.296814	1280.235840	767.547119	8.110260
301.769135	720.290588	1286.477295	763.088928	7.559051
302.139374	731.064453	1286.180054	770.519226	7.107488
302.509583	732.030457	1279.344238	776.166260	8.064076
302.879791	735.002502	1280.533081	770.593445	6.524096
303.249939	728.686829	1287.369019	767.695618	6.982286
303.620087	734.556702	1289.078003	766.878418	5.828760
303.990173	728.612488	1289.375122	773.491394	8.003191
304.360260	732.922058	1287.814819	771.113586	6.882686
304.730286	725.343079	1291.009766	765.540955	7.106283
305.100281	724.822998	1305.201538	754.915588	5.184994
305.470276	723.931335	1309.511108	759.448059	6.065224
305.840179	730.024231	1325.932007	757.813416	4.663336
306.210144	730.990234	1327.417969	765.689453	5.817841
306.579987	729.875671	1335.294067	769.999084	6.627386
306.949890	730.470032	1344.804810	770.296387	6.482842
307.319702	739.534973	1354.315796	773.119873	5.462906
307.689484	733.888000	1367.615845	771.410828	5.920969
308.059265	740.723816	1384.631226	769.553223	4.477260
308.429016	738.866211	1411.157227	766.655457	4.133514
308.798737	744.141785	1441.101196	761.602844	2.505319
309.168396	736.339905	1464.878296	766.283997	4.110160
309.538055	732.030457	1477.732544	765.392334	4.473888
309.907684	731.510315	1496.605469	767.918640	4.758667
310.277313	733.144958	1502.326660	764.649231	4.095817
310.646851	737.603088	1507.007813	765.020813	3.563498
311.016388	739.609314	1514.586548	773.119873	4.324070
311.385895	738.197510	1523.057129	784.488220	5.897961
311.755371	734.408142	1534.574097	789.169189	6.843711
312.124817	736.339905	1533.608032	783.002014	5.852750
312.494232	733.887939	1535.540039	771.782288	4.727032
312.863617	730.172852	1531.750610	772.674011	5.302188
313.232971	720.662109	1521.199585	769.107483	6.051606
313.602295	720.067688	1518.524780	771.930969	6.495438
313.971619	720.067688	1534.722656	772.748291	6.466615
314.340820	721.702332	1544.902222	770.890686	5.975263
314.710083	719.770508	1562.660522	774.382996	6.479195
315.079285	718.804504	1563.849487	766.209717	5.609786
315.448486	724.748779	1585.694336	767.844421	5.005618
315.817596	727.052063	1582.053589	770.742126	5.109940
316.186707	731.287415	1573.731812	770.147705	4.612802
316.555786	731.807556	1546.908203	766.209656	4.220595
316.924866	732.847717	1531.230469	756.327393	2.940905
317.293884	735.819824	1529.521484	758.259277	2.827190
317.662872	734.259460	1542.078735	756.921814	2.805374
318.031830	736.934387	1548.468750	767.844238	3.808816
318.400757	735.522644	1553.892700	769.256104	4.122030
318.769684	734.482422	1564.443726	777.206360	5.147702
319.138550	724.525818	1577.075195	773.788574	5.778288
319.507416	716.278259	1599.366089	779.361267	7.143458
319.876190	720.662109	1605.013062	783.670837	7.124856
320.244995	734.408142	1605.235962	777.875183	4.991462
320.613770	737.380188	1582.870972	773.937195	4.323762
320.982483	738.197510	1565.484009	777.652344	4.769186
321.351166	732.921936	1557.087891	778.023865	5.472433
321.719818	738.420410	1548.320190	778.618164	4.963300
322.088440	736.339905	1559.465454	765.986755	3.601741
322.457062	735.225403	1573.731567	762.271667	3.225530
322.825623	736.339905	1601.817993	758.779358	2.592723
323.194183	733.367859	1620.913940	755.807312	2.528258
323.562653	734.259521	1658.065308	756.773193	2.437057
323.931183	726.532043	1690.758423	759.968262	3.467673
324.299591	725.120300	1739.055176	766.655457	4.096432
324.668060	721.776611	1760.974609	776.834961	5.298158
325.036407	717.541321	1786.980469	774.903015	5.363717
325.404755	717.764343	1797.160034	776.091858	5.403719
325.773102	713.677673	1811.797485	770.444824	5.169486
326.141388	720.513489	1822.422729	772.525391	4.720162
326.509674	714.643555	1831.784790	769.627625	4.921855
326.877899	721.479431	1843.896362	773.862793	4.667014
327.246124	717.838562	1849.171753	774.085754	4.971762
327.614288	723.336975	1853.852905	780.698730	5.073945
327.982422	722.148132	1849.989258	775.646179	4.743403
328.350525	728.389587	1845.753906	775.497559	4.215991
328.718628	732.030457	1841.592896	773.565613	3.743382
329.086700	734.556641	1834.162720	773.862793	3.574567
329.454712	733.070618	1837.060547	771.856628	3.513258
329.822693	734.333801	1849.766113	772.451111	3.417268
330.190674	726.977844	1868.639160	770.519226	3.813861
330.558563	725.194519	1886.174438	771.410828	3.980802
330.926483	724.897400	1901.183594	765.986755	3.493143
331.294312	729.429871	1923.251587	768.364441	3.261338
331.662231	733.367859	1945.245239	768.067200	2.863271
332.029999	736.562805	1968.873535	769.479004	2.671096
332.397766	743.250183	1986.334595	770.519226	2.193660
332.765503	744.438965	2020.662476	772.971191	2.235676
333.133240	746.519348	2052.909912	778.098083	2.417251
333.500916	742.358459	2091.993164	782.704895	2.989434
333.868561	741.318176	2101.355225	777.726624	2.677019
334.236176	737.751709	2102.841553	774.605957	2.699767
334.603790	732.550537	2107.745117	770.667786	2.771771
334.971344	727.572266	2111.163330	778.989746	3.716234
335.338867	722.371094	2117.181641	777.577942	3.958018
335.706360	721.702332	2117.181641	776.240540	3.908206
336.073853	721.553711	2118.221924	773.788574	3.739962
336.441284	723.634216	2126.766846	771.485107	3.410290
336.808655	728.018066	2115.398438	777.057861	3.534704
337.176086	727.572266	2095.856689	779.361267	3.784959
337.543396	729.058289	2051.572266	787.163086	4.393511
337.910706	730.247131	2024.377563	784.190918	4.168343
338.277954	732.401917	2044.290649	783.299316	3.879704
338.645264	727.646545	2117.999023	785.974121	4.195165
339.012421	726.011902	2220.313965	785.305420	3.967974
339.379669	734.631042	2302.641357	784.785339	3.198595
339.746796	737.380188	2360.597412	783.002014	2.810580
340.113953	739.906494	2380.584717	784.933899	2.744438
340.481018	733.367859	2393.810791	775.348938	2.528306
340.848114	734.556641	2386.380615	765.986816	1.902756
341.215118	728.686707	2387.420898	766.878418	2.302461
341.582153	735.596924	2398.269043	770.742126	2.113778
341.949066	736.265625	2423.829102	777.132141	2.421628
342.316010	744.216003	2450.652344	774.754456	1.789604
342.682922	736.488586	2455.036377	780.773010	2.576851
343.049835	737.528809	2457.562500	776.463379	2.263593
343.416656	734.705322	2478.292725	774.977356	2.309723
343.783478	735.671204	2527.629883	778.172363	2.371771
344.150269	736.860046	2592.644531	780.698730	2.362273
344.516998	734.705322	2651.864014	787.237366	2.740099
344.883728	737.380188	2707.368408	786.791565	2.508207
345.250427	729.504150	2748.457764	783.002136	2.649788
345.617065	730.990173	2776.766846	779.064026	2.349907
345.983704	726.754944	2789.101563	769.924805	2.093240
346.350281	731.287415	2780.184814	765.318054	1.660924
346.716827	733.590820	2770.897217	766.432617	1.612020
347.083405	724.971619	2756.185547	768.067200	2.121666
347.449860	737.825989	2747.566406	781.887512	2.192399
347.816376	737.677429	2722.823486	783.967957	2.331845
348.182770	749.194336	2706.179443	789.169189	2.042675
348.549194	732.550537	2703.355713	787.906067	2.808777
348.915558	732.327637	2721.783203	784.413818	2.618112
349.281921	729.727051	2748.160400	774.308655	2.208723
349.648193	728.240967	2759.454834	769.033203	2.008269
350.014526	720.364807	2790.884766	770.296204	2.411539
350.380737	715.163757	2813.769531	776.166199	2.906808
350.746948	716.055359	2855.304932	775.868958	2.796009
351.113159	722.742493	2868.382080	772.228210	2.306339
351.479309	728.092346	2905.310547	774.159973	2.115894
351.845428	729.206848	2930.721924	770.593506	1.879917
352.211517	726.606262	2972.406006	768.512939	1.866002
352.577576	725.343201	2998.857666	769.404602	1.938030
352.943604	730.767334	3033.334229	772.599670	1.816770
353.309601	733.293640	3063.426758	776.983582	1.874998
353.675537	730.692932	3110.906250	770.444885	1.670100
354.041473	728.761047	3169.679688	775.869080	1.929930
354.407379	724.451477	3246.508545	779.658386	2.188963
354.773254	727.497864	3320.440186	782.333313	2.114796
355.139038	721.999512	3392.513672	782.036133	2.248130
355.504913	725.268860	3464.067139	783.150696	2.113403
355.870636	727.795166	3530.270752	786.791504	2.105151
356.236389	739.312073	3608.808594	783.745117	1.548461
356.602081	740.872498	3683.037354	780.104309	1.333434
356.967804	739.980774	3761.055420	785.305481	1.500284
357.333405	731.584656	3832.757080	781.664612	1.614872
357.699036	733.144958	3928.756592	778.469543	1.418338
358.064606	733.219238	4038.501221	769.850525	1.108265
358.430176	734.705261	4137.026855	769.181824	1.013325
358.795654	732.773438	4203.750488	772.896912	1.155971
359.161163	728.686829	4199.069824	776.686340	1.383119
359.526581	726.011963	4174.252930	776.314880	1.458799
359.892029	727.423645	4179.230957	779.361328	1.504652
360.257416	725.714661	4270.400391	779.435608	1.515535
360.622772	726.903564	4427.104980	785.231201	1.576337
360.988098	722.816895	4578.459473	779.807068	1.478098
361.353394	728.092285	4752.402344	773.788574	1.135506
361.718658	733.887939	4895.211914	775.794739	1.007054
362.083893	731.287415	5043.445801	775.720398	1.030412
362.449097	734.185242	5158.986328	782.481934	1.091500
362.814209	729.578430	5184.397949	781.367432	1.162539
363.179382	732.847839	5088.027344	787.311707	1.250554
363.544434	738.717773	4874.258301	788.872009	1.212761
363.909546	732.476257	4660.786621	790.506653	1.477236
364.274536	731.138855	4469.308594	784.562439	1.429137
364.639587	728.612488	4334.895020	781.738953	1.473164
365.004517	730.321472	4243.576660	780.029968	1.414884
365.369507	739.534973	4205.607910	778.766846	1.131882
365.734344	737.825989	4162.884277	780.104248	1.234381
366.099274	740.129395	4139.924805	782.407654	1.243553
366.464081	729.875671	4120.308594	781.738953	1.529695
366.828918	725.863281	4125.583984	780.550049	1.608567
367.193665	727.052063	4141.707520	777.206482	1.468799
367.558411	727.795105	4153.818848	781.664612	1.572362
367.923126	731.361633	4167.640137	780.698730	1.435771
368.287781	738.420410	4172.469238	785.751282	1.378282
368.652435	745.627747	4163.255859	784.934021	1.150104
369.017059	745.107666	4160.209473	791.621155	1.361994
369.381653	739.906555	4139.701660	789.094910	1.446803
369.746185	740.723877	4129.671387	792.438477	1.525978
370.110687	733.367859	4132.940430	783.225037	1.466572
370.475220	725.863281	4151.367188	778.989746	1.550910
370.839661	716.798340	4210.065918	782.853516	1.890928
371.204041	717.838562	4259.625977	791.769775	2.087399
371.568451	732.996338	4324.566895	796.005066	1.754350
371.932770	738.197510	4363.353027	788.203186	1.379408
372.297150	739.460693	4388.244629	789.094910	1.360295
372.661377	725.937561	4401.321777	790.283691	1.750732
373.025696	728.315247	4417.965332	792.512756	1.739935
373.389862	721.702332	4438.175781	789.169128	1.815345
373.754059	728.909668	4438.027344	786.568604	1.554519
374.118225	727.423645	4428.813477	783.967957	1.527651
374.482361	734.036560	4435.203613	780.550049	1.256725
374.846436	735.448303	4495.388672	784.339539	1.300319
375.210510	736.934326	4583.362793	784.042297	1.224720
375.574524	739.089172	4689.987793	789.243469	1.269440
375.938538	733.888000	4794.605957	784.711121	1.251580
376.302460	734.482361	4895.583496	788.277527	1.292811
376.666412	735.299744	5010.381348	787.311584	1.216628
377.030304	736.488525	5120.423340	785.899902	1.127101
377.394196	732.104675	5242.651855	783.225037	1.133352
377.757996	737.231628	5324.384766	780.995911	0.954062
378.121796	744.810486	5376.396484	795.707825	1.098918
378.485565	744.438965	5383.083496	801.206299	1.223791
378.849304	736.860107	5362.873047	803.509583	1.440754
379.212982	730.172852	5298.304199	793.107239	1.377683
379.576630	731.138855	5198.069824	792.512878	1.373964
379.940277	733.144958	5100.361328	794.221741	1.398529
380.303864	735.076843	5015.953613	795.113464	1.402437
380.667450	734.110840	5002.504883	797.045227	1.474428
381.030945	730.990234	4996.115234	793.404480	1.463363
381.394501	729.281250	5027.916992	795.484924	1.540109
381.757935	728.612488	5030.889160	788.649109	1.395462
382.121399	733.145020	5052.437012	786.494324	1.235140
382.484741	736.191406	5087.061523	783.745117	1.092970
382.848145	732.996338	5127.927734	789.243469	1.279818
383.211487	730.767273	5193.389160	789.689392	1.320348
383.574768	726.606262	5257.289063	788.500488	1.366113
383.938019	733.070618	5326.464844	793.032959	1.305404
384.301270	733.739441	5397.869629	795.782166	1.330210
384.664459	737.454590	5468.978027	802.097839	1.366225
385.027649	739.534973	5524.853027	794.296082	1.144357
385.390778	734.556702	5561.335938	786.271423	1.071413
385.753876	725.268860	5587.787598	783.745117	1.202592
386.116943	719.547546	5622.412598	786.048401	1.356367
386.479980	730.024231	5642.251465	808.413574	1.595801
386.842987	741.764099	5688.170410	802.246399	1.222752
387.205994	742.284180	5729.037109	808.859375	1.335041
387.568909	738.271790	5799.847656	802.617981	1.271268
387.931793	732.327637	5834.843750	811.757141	1.556673
388.294678	734.631042	5888.416016	813.837708	1.536864
388.657471	736.488586	5893.171875	811.237061	1.449546
389.020294	739.757874	5897.035645	820.004883	1.555995
389.383057	738.494812	5875.414063	817.552734	1.539014
389.745819	732.401917	5886.261719	821.936707	1.737238
390.108521	736.562805	5913.604980	817.404236	1.561537
390.471191	738.197571	5987.238770	828.698242	1.724137
390.833801	741.912659	6064.587891	834.122314	1.732393
391.196442	736.414307	6193.279785	847.719727	2.039732
391.558960	735.076843	6315.136719	847.645447	2.017337
391.921509	734.556641	6464.187988	846.828125	1.959489
392.284027	728.835449	6590.874512	848.239807	2.036908
392.646484	721.702393	6713.027832	860.648376	2.319119
393.008911	722.668274	6747.281250	869.267517	2.433339
393.371307	730.767273	6732.867188	875.063171	2.404090
393.733673	730.247070	6663.021973	878.035217	2.491046
394.096008	735.374023	6633.449219	899.954590	2.790411
394.458344	735.151123	6643.257813	913.923523	3.025883
394.820587	739.089172	6673.053223	924.697327	3.127895
395.182831	740.500977	6717.857422	931.756104	3.199661
395.545013	739.683594	6707.678223	943.793152	3.420069
395.907196	744.587585	6671.642090	960.734192	3.646779
396.269287	728.018066	6585.079590	975.000305	4.216828
396.631409	722.073914	6503.420410	981.167480	4.481544
396.993469	716.872620	6401.996582	991.792786	4.835781
397.355530	724.377258	6338.542480	1010.665588	5.099393
397.717499	727.646545	6305.700684	1038.157593	5.566655
398.079468	733.293640	6304.808594	1054.727173	5.769230
398.441376	729.206970	6325.390625	1068.175903	6.057145
398.803284	728.909668	6335.421875	1084.076660	6.334901
399.165131	722.148132	6375.322266	1106.441772	6.797838
399.526978	724.674500	6388.845215	1132.373413	7.197857
399.888763	719.696106	6401.773438	1152.509521	7.617169
400.250519	719.027405	6404.597168	1182.676392	8.154838
400.612244	724.971680	6422.950684	1207.121948	8.461777
400.973938	732.253418	6442.937500	1232.013428	8.751316
401.335602	733.962341	6463.593750	1254.304321	9.081596
401.697205	733.813660	6488.039063	1288.334839	9.636765
402.058807	727.349304	6538.342285	1335.145630	10.459422
402.420349	731.361633	6624.904785	1385.077148	11.092063
402.781860	729.578430	6701.957031	1437.683472	11.856333
403.143341	731.807434	6814.005371	1496.605469	12.574369
403.504822	728.761047	6916.171875	1560.877319	13.448538
403.866241	724.674500	7044.864746	1629.607300	14.318126
404.227631	721.182190	7164.045410	1707.699341	15.311782
404.588959	723.857117	7287.388184	1794.708008	16.315163
404.950287	723.559875	7416.229004	1876.812378	17.231577
405.311554	734.482422	7498.481934	1953.269897	18.018740
405.672821	732.996338	7574.048340	2037.752075	19.072443
406.034027	735.374023	7571.298828	2128.624268	20.381298
406.395203	733.367859	7527.311035	2222.097168	21.912594
406.756348	732.476257	7456.871582	2319.879639	23.606632
407.117493	734.853821	7432.575684	2407.259521	24.969770
407.478516	730.990173	7420.761230	2496.645752	26.393362
407.839600	739.089172	7428.785645	2589.078369	27.654308
408.200592	737.380188	7439.188965	2699.492188	29.277351
408.561554	734.853943	7440.600098	2828.853271	31.226940
408.922485	726.532043	7436.959473	2944.393799	33.050980
409.283417	724.005676	7442.978027	3060.751953	34.778332
409.644257	724.228577	7506.357910	3189.295654	36.346508
410.005096	726.383362	7611.422363	3358.854492	38.234657
410.365906	728.463867	7686.988281	3533.540283	40.311367
410.726715	734.928223	7795.915527	3697.526611	41.957283
411.087433	735.894104	7866.428223	3836.843750	43.488323
411.448120	739.832214	7952.545410	3994.068359	45.118057
411.808807	727.869446	7969.115723	4129.596191	46.977093
412.169434	727.349304	7936.273926	4237.038574	48.685337
412.530029	729.132568	7913.017090	4306.808594	49.801411
412.890564	740.946777	7894.515625	4394.857422	51.078152
413.251099	746.147949	7913.685547	4503.933594	52.427849
413.611572	746.742371	7935.382324	4623.412598	53.927727
413.972076	739.089172	7956.558594	4747.423828	55.536568
414.332489	741.466797	8003.071777	4849.441406	56.571167
414.692871	737.603027	8108.359375	4994.406250	57.752598
415.053223	743.695862	8230.140625	5128.894043	58.575176
415.413574	731.436035	8394.350586	5321.263672	59.896629
415.773834	729.578430	8527.574219	5479.677246	60.914352
416.134094	726.309082	8657.307617	5650.424316	62.086952
416.494263	730.544373	8783.547852	5780.454590	62.708408
416.854462	725.343201	8967.595703	5972.601563	63.662914
417.214630	727.572266	9191.395508	6161.330078	64.199806
417.574738	729.281250	9421.584961	6377.922363	64.984398
417.934784	734.779602	9645.682617	6570.738281	65.492332
418.294861	737.454529	9932.341797	6797.510254	65.906792
418.654846	733.145020	10260.760742	7069.978027	66.510170
419.014832	730.915833	10619.047852	7349.578613	66.935417
419.374756	729.578430	10983.577148	7658.678223	67.574608
419.734680	736.042786	11393.057617	7953.882813	67.728531
420.094543	730.098572	11828.695313	8264.542969	67.886459
420.454376	721.850891	12215.961914	8538.572266	68.006310
420.814148	721.182190	12568.973633	8830.953125	68.449646
421.173920	728.092346	12917.825195	9143.469727	69.036598
421.533691	733.813660	13299.221680	9443.726563	69.316597
421.893341	725.640381	13622.512695	9687.959961	69.492195
422.253021	725.194580	13851.215820	9865.247070	69.633080
422.612640	722.668274	13919.574219	9937.096680	69.822639
422.972260	725.937500	13909.617188	9960.948242	70.048813
423.331757	725.045898	13827.809570	9942.669922	70.348701
423.691315	729.281189	13823.203125	9993.195313	70.749725
424.050781	736.265686	13913.481445	10092.166992	71.000595
424.410248	740.426575	14050.570313	10147.819336	70.678368
424.769653	739.980774	14181.195313	10231.335938	70.613823
425.128998	739.460693	14215.002930	10277.404297	70.779663
425.488373	739.386414	14168.562500	10299.842773	71.191681
425.847656	739.386414	14044.776367	10244.413086	71.437416
426.206940	733.442139	13902.484375	10150.197266	71.506760
426.566193	732.253357	13650.079102	9993.493164	71.693489
426.925385	730.395691	13400.348633	9814.572266	71.698586
427.284576	737.231628	13045.032227	9558.227539	71.669960
427.643677	734.259460	12777.987305	9373.065430	71.728668
428.002777	741.541199	12500.764648	9199.567383	71.926743
428.361847	736.711426	12205.411133	9036.325195	72.367523
428.720856	743.844482	11948.174805	8886.381836	72.673126
429.079865	743.844543	11741.539063	8744.538086	72.748825
429.438812	738.717590	11657.725586	8640.588867	72.368034
429.797760	733.144958	11581.565430	8569.704102	72.236862
430.156616	730.247131	11476.796875	8478.535156	72.100243
430.515503	728.538147	11371.957031	8459.141602	72.632706
430.874268	731.436035	11335.622070	8443.241211	72.724159
431.233093	729.801331	11340.081055	8462.040039	72.874977
431.591827	732.476257	11404.354492	8485.518555	72.649277
431.950562	737.751709	11442.471680	8503.946289	72.549255
432.309204	732.773438	11497.231445	8580.477539	72.903847
432.667877	744.364685	11605.268555	8662.508789	72.905014
433.026459	741.243958	11706.617188	8765.121094	73.174683
433.385010	737.974609	11859.754883	8831.918945	72.775620
433.743561	726.531982	11977.747070	8940.177734	73.002296
434.102051	718.433044	12134.155273	9023.544922	72.751526
434.460510	725.343201	12280.531250	9133.290039	72.763397
434.818939	730.024231	12342.871094	9177.575195	72.743149
435.177338	739.386414	12373.409180	9232.261719	73.000328
435.535675	735.299805	12342.722656	9233.376953	73.212440
435.894012	732.847717	12310.920898	9220.001953	73.303688
436.252289	723.708496	12328.531250	9249.276367	73.465736
436.610535	726.160461	12297.843750	9244.819336	73.616417
436.968719	731.956055	12400.901367	9325.139648	73.641479
437.326935	733.813660	12475.946289	9365.858398	73.513435
437.685028	735.374023	12613.480469	9462.079102	73.468826
438.043152	735.745544	12696.774414	9523.528320	73.470123
438.401215	740.129395	12857.045898	9653.483398	73.561241
438.759277	738.123230	13038.270508	9778.757813	73.500214
439.117249	733.367859	13365.276367	10008.352539	73.425049
439.475250	732.476257	13613.297852	10204.438477	73.535385
439.833130	734.185242	13922.398438	10475.866211	73.866570
440.191071	732.922058	14134.829102	10639.183594	73.916809
440.548889	721.033630	14418.293945	10825.609375	73.770782
440.906708	725.640381	14724.272461	11000.293945	73.397552
441.264496	730.767273	14952.976563	11143.773438	73.216515
441.622223	742.432800	15113.842773	11264.515625	73.215385
441.979950	735.448425	15173.656250	11303.821289	73.197266
442.337616	728.761047	15207.834961	11352.340820	73.371956
442.695251	733.145020	15132.342773	11314.596680	73.486397
443.052887	732.179016	14966.574219	11255.524414	73.928993
443.410461	733.665039	14809.573242	11166.436523	74.117928
443.768005	728.241028	14685.932617	11045.471680	73.917885
444.125458	725.491760	14623.815430	10955.936523	73.609200
444.482941	725.045959	14659.480469	10976.963867	73.572540
444.840393	724.525879	14737.497070	11067.613281	73.810814
445.197754	732.253235	14952.678711	11235.538086	73.860550
445.555084	735.522644	15113.768555	11359.846680	73.891655
445.912415	731.733215	15435.350586	11608.760742	73.975182
446.269714	729.281250	15657.217773	11786.343750	74.069595
446.626953	727.943665	15979.765625	12007.319336	73.954285
446.984161	725.714661	16236.481445	12176.581055	73.825279
447.341309	723.411316	16475.587891	12338.859375	73.738686
447.698456	724.897400	16646.558594	12489.915039	73.893150
448.055542	733.813721	16759.869141	12576.479492	73.896324
448.412598	739.014893	16761.505859	12603.672852	74.050018
448.769653	739.237793	16652.949219	12529.890625	74.091156
449.126617	726.457703	16395.265625	12372.442383	74.325912
449.483582	724.971680	16182.315430	12222.128906	74.379906
449.840515	724.302917	15936.745117	12048.632813	74.441238
450.197388	736.637207	15763.842773	11915.555664	74.391197
450.554230	745.181946	15605.949219	11830.256836	74.592888
450.911041	743.918762	15497.245117	11714.640625	74.361008
451.267822	743.101563	15395.449219	11619.682617	74.230980
451.624573	734.779602	15259.699219	11474.866211	73.942490
451.981262	732.327637	15128.554688	11409.331055	74.165298
452.337921	733.516541	14997.484375	11330.497070	74.291954
452.694580	733.442200	14929.051758	11297.135742	74.415215
453.051147	729.801331	14923.331055	11295.500000	74.440247
453.407715	727.200684	14879.937500	11249.504883	74.348198
453.764221	727.646484	14941.608398	11283.313477	74.262665
454.120728	735.076721	14783.046875	11183.153320	74.374275
454.477142	736.637207	14772.124023	11187.166992	74.457909
454.833557	738.717712	14607.320313	11088.417969	74.626846
455.189911	732.401917	14507.457031	10985.879883	74.435112
455.546265	725.491699	14342.133789	10877.843750	74.558403
455.902557	722.668274	14188.773438	10769.288086	74.606728
456.258820	726.606262	14185.653320	10782.216797	74.712646
456.615051	731.881775	14232.538086	10805.696289	74.617218
456.971252	735.373962	14261.367188	10807.034180	74.461517
457.327393	735.299622	14389.019531	10897.237305	74.426147
457.683502	735.968445	14555.382813	11023.403320	74.441902
458.039612	733.888000	14904.307617	11305.679688	74.604652
458.395630	733.516541	15246.620117	11569.304688	74.662102
458.751648	735.225403	15576.301758	11855.295898	74.927658
459.107605	737.380188	16111.132813	12237.657227	74.804619
459.463562	738.866272	16667.140625	12654.347656	74.807106
459.819458	740.575256	17215.791016	13027.421875	74.577766
460.175323	742.655762	17660.123047	13378.502930	74.691132
460.531158	743.621643	18130.904297	13727.352539	74.673714
460.886932	735.819824	18530.058594	13994.098633	74.508835
461.242676	732.104736	18757.498047	14173.614258	74.569862
461.598419	732.104736	18672.199219	14128.067383	74.670532
461.954102	733.293518	18365.552734	13935.327148	74.874313
462.309723	739.906494	17864.603516	13555.343750	74.835991
462.665344	739.757874	17335.046875	13137.910156	74.708870
463.020905	743.175781	16877.863281	12822.567383	74.865974
463.376373	736.785828	16502.783203	12542.745117	74.882416
463.731873	739.237793	16202.301758	12317.903320	74.879501
464.087341	733.219238	15911.035156	12112.458008	74.972832
464.442749	731.807434	15761.092773	12015.195313	75.076012
464.798126	730.098450	15654.839844	11943.122070	75.130440
465.153503	736.042725	15715.471680	11984.286133	75.091270
465.508820	733.070618	15743.557617	11971.506836	74.870567
465.864105	728.984070	15824.472656	12057.401367	75.045052
466.219330	728.240967	16062.539063	12211.578125	74.886620
466.574524	727.572266	16225.930664	12390.276367	75.251221
466.929657	724.228577	16432.417969	12518.745117	75.085144
467.284790	727.274963	16591.425781	12642.534180	75.108078
467.639893	731.733215	16792.265625	12754.954102	74.861908
467.994934	739.460693	16982.554688	12933.800781	75.073997
468.349945	734.036560	17060.796875	13020.289063	75.252235
468.704926	727.200684	17089.552734	13055.879883	75.347847
469.059875	726.011902	16946.369141	12922.358398	75.191605
469.414764	722.519714	16758.310547	12766.694336	75.108078
469.769653	727.795166	16572.404297	12631.612305	75.128502
470.124451	728.984070	16469.718750	12573.877930	75.249939
470.479248	736.637207	16350.090820	12479.067383	75.207130
470.834015	736.860046	16250.524414	12426.238281	75.348915
471.188721	734.779602	16298.524414	12453.582031	75.295517
471.543365	733.888000	16350.090820	12500.317383	75.347572
471.898010	730.841614	16459.093750	12553.666992	75.169350
472.252625	729.949951	16569.951172	12642.905273	75.208046
472.607178	727.423645	16796.796875	12805.627930	75.162880
472.961700	729.875671	16999.869141	12957.057617	75.151733
473.316193	731.213074	17254.802734	13146.676758	75.137810
473.670654	734.408020	17428.667969	13275.370117	75.121399
474.025055	732.773438	17646.375000	13454.438477	75.215591
474.379456	734.333801	17798.029297	13589.817383	75.338211
474.733795	728.315247	17956.291016	13720.739258	75.414680
475.088104	729.504211	18069.232422	13803.438477	75.398727
475.442383	730.395813	18108.984375	13801.135742	75.211754
475.796570	735.894226	18190.345703	13864.070313	75.213913
476.150787	740.946777	18343.410156	14012.825195	75.397850
476.504944	735.968445	18557.996094	14181.566406	75.443703
476.859070	740.426575	18754.677734	14356.176758	75.583214
477.213135	739.014893	18972.605469	14489.625000	75.413620
477.567200	735.819824	19349.025391	14785.276367	75.481125
477.921173	723.857117	19735.769531	15056.480469	75.387596
478.275146	721.850891	20180.992188	15395.746094	75.408752
478.629089	728.018066	20446.771484	15568.500000	75.260750
478.983002	730.024231	20806.619141	15855.828125	75.340477
479.336823	726.234863	21153.166016	16096.570313	75.245445
479.690643	725.789001	21535.156250	16406.041016	75.351891
480.044403	730.692932	21958.162109	16703.697266	75.246864
480.398163	734.482422	22479.248047	17119.792969	75.352898
480.751862	737.974670	23208.828125	17706.634766	75.514091
481.105499	733.590820	24134.490234	18405.080078	75.516281
481.459137	737.305969	25326.750000	19333.195313	75.625496
481.812744	731.733215	26823.578125	20476.714844	75.674919
482.166290	733.739319	28599.117188	21902.287109	75.967201
482.519806	726.606262	30795.359375	23605.974609	76.090179
482.873291	732.401917	33357.984375	25581.833984	76.165482
483.226715	737.974609	36385.003906	27846.281250	76.046463
483.580139	741.020996	39471.390625	30209.109375	76.085220
483.933502	733.590759	42743.679688	32691.634766	76.072311
484.286804	737.157288	45771.738281	35122.816406	76.353905
484.640106	735.819885	48453.996094	37299.964844	76.625191
484.993347	735.225403	50259.996094	38942.425781	77.147659
485.346558	735.002502	51084.683594	39735.312500	77.458900
485.699738	732.104736	50835.324219	39623.187500	77.621925
486.052887	733.442200	49701.832031	38681.921875	77.495872
486.405975	717.541443	48061.750000	37271.062500	77.208008
486.759064	718.433044	46186.347656	35679.425781	76.891571
487.112061	721.182190	44464.605469	34240.773438	76.627724
487.464996	729.355469	43265.503906	33234.714844	76.418198
487.817963	732.327637	42831.800781	32847.226563	76.283371
488.170868	728.761047	42879.355469	32841.878906	76.186630
488.523743	725.863281	43141.425781	33052.527344	76.214157
488.876587	715.906738	43246.636719	33136.339844	76.228256
489.229401	722.965515	43096.917969	33018.199219	76.214828
489.582153	723.634216	42479.605469	32585.607422	76.305183
489.934845	730.024231	41547.105469	31853.281250	76.250572
490.287537	726.532043	40461.171875	31072.134766	76.370651
490.640198	724.377197	39570.136719	30324.281250	76.198547
490.992798	724.302917	38779.035156	29741.447266	76.251083
491.345337	719.101624	38500.769531	29440.968750	76.020645
491.697876	723.114075	38423.644531	29431.677734	76.148964
492.050354	728.909668	38833.500000	29719.083984	76.080528
492.402832	738.123230	39176.855469	29975.427734	76.062096
492.755219	736.785828	39319.218750	30036.650391	75.940948
493.107605	734.110840	38994.363281	29807.281250	75.987915
493.459930	729.652649	38206.832031	29195.322266	75.954674
493.812225	739.237732	36878.593750	28215.267578	76.028000
494.164490	742.432800	35216.812500	26920.244141	75.934105
494.516724	744.884766	33341.707031	25543.791016	76.077682
494.868896	736.711426	31560.970703	24181.154297	76.058418
495.221039	730.990173	30085.986328	23091.353516	76.172256
495.573120	733.442139	28892.908203	22195.115234	76.214775
495.925201	735.448303	28211.775391	21649.583984	76.116928
496.277222	737.900330	27742.406250	21288.919922	76.102188
496.629211	737.603210	27568.615234	21168.771484	76.147591
496.981140	738.346191	27503.968750	21131.099609	76.190094
497.333069	740.723816	27593.357422	21195.148438	76.172882
497.684967	736.414246	27740.697266	21260.162109	76.001823
498.036804	736.042786	27868.275391	21356.236328	75.998878
498.388580	733.888000	27873.849609	21384.322266	76.088661
498.740326	737.231628	27763.509766	21318.712891	76.153587
499.092072	732.699158	27540.080078	21169.884766	76.237160
499.443756	729.504150	27258.623047	20915.919922	76.091545
499.795410	723.857178	26959.255859	20719.312500	76.215561
500.147003	724.451599	26673.337891	20451.228516	76.021667
500.498566	738.866211	26364.908203	20228.171875	76.052727
500.850098	736.785828	26077.802734	19925.240234	75.720932
501.201599	740.575195	25765.804688	19702.630859	75.771751
501.553009	727.869446	25509.162109	19491.982422	75.718864
501.904449	732.773438	25280.087891	19331.117188	75.765289
502.255859	736.711487	25023.593750	19178.720703	75.934036
502.607178	732.699158	24917.267578	19120.691406	76.031921
502.958405	732.847717	24788.427734	19074.994141	76.249031
503.309692	722.296814	24759.968750	19018.822266	76.116043
503.660919	725.194580	24733.294922	18981.224609	76.041122
504.012115	721.479492	24780.773438	19014.365234	76.032516
504.363251	730.841614	24891.263672	19111.775391	76.078697
504.714294	736.414307	24945.208984	19166.460938	76.129555
505.065369	739.534973	25017.875000	19188.007813	75.987373
505.416443	741.987000	25022.259766	19219.958984	76.102821
505.767395	738.791931	25036.822266	19256.515625	76.210800
506.118317	743.918884	25007.250000	19270.857422	76.357773
506.469238	736.488586	25048.710938	19289.878906	76.313019
506.820160	731.436035	25062.234375	19273.085938	76.206497
507.170929	726.532043	25101.462891	19282.595703	76.127655
507.521729	730.321472	25167.744141	19325.544922	76.093224
507.872498	735.522644	25247.843750	19387.884766	76.093819
508.223236	734.853943	25381.140625	19538.869141	76.295532
508.573883	725.491760	25516.818359	19621.267578	76.219299
508.924500	728.612488	25699.750000	19776.189453	76.278374
509.275116	725.714661	25864.482422	19879.990234	76.194168
509.625702	732.327637	26051.351563	20087.294922	76.444366
509.976196	727.943787	26294.470703	20273.646484	76.450363
510.326660	732.773438	26534.095703	20465.867188	76.480942
510.677124	730.321472	26772.234375	20635.945313	76.436874
511.027557	730.915833	26994.328125	20809.814453	76.451981
511.377869	730.395752	27267.539063	20985.986328	76.329208
511.728180	729.578430	27411.539063	21105.464844	76.365776
512.078430	729.355469	27527.375000	21213.574219	76.439301
512.428650	722.148132	27614.310547	21296.423828	76.506584
512.778931	725.789001	27784.314453	21373.326172	76.306953
513.129028	725.937561	27881.203125	21425.265625	76.225838
513.479126	724.971619	27908.177734	21476.236328	76.338547
513.829285	724.377197	27864.708984	21479.654297	76.473923
514.179382	725.120300	27810.244141	21440.720703	76.483315
514.529297	725.937561	27789.812500	21379.123047	76.312744
514.879272	722.816895	27827.705078	21401.412109	76.291016
515.229187	725.863281	27740.845703	21347.841797	76.335342
515.579163	730.618652	27706.148438	21337.957031	76.392708
515.928955	730.247070	27660.302734	21325.697266	76.477562
516.278748	718.878845	27825.328125	21451.863281	76.487274
516.628540	728.612488	28056.632813	21650.697266	76.559090
516.978333	734.853943	28445.533203	21947.015625	76.548691
517.327942	740.798157	28919.662109	22326.257813	76.601593
517.677612	740.129395	29482.205078	22714.562500	76.453880
518.027222	734.556702	30041.257813	23081.025391	76.250374
518.376831	735.374023	30692.150391	23567.412109	76.216606
518.726379	729.727051	31317.630859	24087.310547	76.362160
519.075867	737.528809	31868.662109	24532.158203	76.433548
519.425293	745.999329	32288.025391	24887.845703	76.538666
519.774658	737.231628	32550.164063	25082.517578	76.526382
520.124084	733.590820	32664.666016	25186.837891	76.581345
520.473389	736.117004	32584.416016	25089.650391	76.467300
520.822693	740.426575	32304.521484	24908.130859	76.567078
521.171997	733.293518	31940.437500	24652.601563	76.646896
521.521240	723.931396	31562.681641	24360.220703	76.644768
521.870361	721.479431	31208.630859	24044.804688	76.502144
522.219482	727.795166	30827.603516	23767.062500	76.542908
522.568604	727.200745	30478.306641	23530.482422	76.646835
522.917664	730.618652	30279.025391	23388.044922	76.679008
523.266724	728.018066	30288.240234	23375.265625	76.613930
523.615662	731.138733	30502.603516	23535.833984	76.599174
523.964600	739.163391	30844.322266	23813.796875	76.646774
524.313538	734.333801	31343.189453	24178.400391	76.592430
524.662354	728.463867	31895.109375	24599.103516	76.590347
525.011169	724.080017	32609.009766	25177.255859	76.691956
525.359985	729.875671	33483.554688	25879.935547	76.785454
525.708740	728.463867	34550.539063	26690.724609	76.761292
526.057434	726.086182	35766.949219	27587.781250	76.658203
526.406067	729.949890	37105.218750	28647.490234	76.748688
526.754700	734.928223	38622.253906	29825.556641	76.781960
527.103333	732.327637	40365.027344	31232.478516	76.957039
527.451782	724.674500	42284.789063	32801.980469	77.182915
527.800293	722.519714	44306.562500	34437.082031	77.355286
528.148743	726.606262	46385.703125	36140.769531	77.562119
528.497131	732.104736	48377.761719	37760.347656	77.715881
528.845642	732.699158	50168.894531	39372.195313	78.160332
529.193909	724.005676	51668.550781	40815.671875	78.696678
529.542175	719.844727	52793.050781	42003.328125	79.279701
529.890503	729.355530	53513.781250	42776.074219	79.657433
530.238770	738.420410	53608.296875	42953.140625	79.846451
530.586914	742.358459	53213.078125	42559.113281	79.695412
530.934998	737.454407	52172.625000	41534.480469	79.317375
531.283142	735.522644	50752.406250	40157.425781	78.817192
531.631226	735.522644	48864.144531	38475.433594	78.414696
531.979248	734.185242	46854.558594	36713.714844	78.012230
532.327148	741.541199	44944.531250	35055.875000	77.628990
532.675110	739.237793	43469.023438	33792.656250	77.354515
533.023071	739.386414	42631.484375	33147.035156	77.359810
533.370850	735.076843	42328.250000	32899.761719	77.331650
533.718689	739.014893	42441.191406	32950.730469	77.242287
534.066467	737.900330	42708.683594	33095.992188	77.096703
534.414246	730.395752	42891.839844	33243.109375	77.114799
534.761963	730.990173	42937.613281	33322.093750	77.217979
535.109619	729.949951	42820.214844	33277.664063	77.328369
535.457153	733.367859	42378.406250	32944.121094	77.345955
535.804749	727.646484	41703.886719	32397.322266	77.287895
536.152344	727.869446	40831.351563	31685.578125	77.194572
536.499817	725.937561	39928.722656	30965.806641	77.137039
536.847229	723.039856	38978.613281	30186.744141	77.018074
537.194641	719.993469	38085.273438	29470.984375	76.945732
537.542114	729.206970	37455.777344	28974.494141	76.906952
537.889404	731.881836	36969.246094	28672.380859	77.104118
538.236694	737.083008	36643.574219	28413.580078	77.079369
538.583984	736.265625	36306.316406	28187.927734	77.176338
538.931213	738.271790	36154.218750	28015.396484	77.019333
539.278381	742.878601	35940.597656	27893.763672	77.138191
539.625488	743.770264	35887.988281	27816.931641	77.034470
539.972595	748.451355	35977.082031	27909.437500	77.099190
540.319641	745.999329	36400.531250	28194.615234	76.984924
540.666687	736.711487	37052.613281	28752.103516	77.143593
541.013611	732.624817	38078.511719	29522.255859	77.089165
541.360596	731.658936	39244.617188	30490.865234	77.270638
541.707458	733.887939	40666.175781	31566.771484	77.212914
542.054260	728.538147	41932.148438	32544.445313	77.216309
542.401062	726.903503	43179.988281	33468.027344	77.123070
542.747864	730.395752	43931.332031	34107.847656	77.260948
543.094666	735.894226	44241.699219	34413.527344	77.409515
543.441284	738.717773	43901.542969	34240.328125	77.616814
543.787903	740.203796	43228.058594	33680.609375	77.528992
544.134460	738.866272	42162.410156	32866.101563	77.557907
544.481079	728.315247	40880.984375	31830.990234	77.461044
544.827637	722.668274	39324.273438	30596.001953	77.388840
545.174072	730.024170	37727.878906	29279.359375	77.164841
545.520508	730.692932	36259.878906	28161.994141	77.207794
545.866943	731.361633	35089.832031	27225.484375	77.110893
546.213318	723.114075	34202.582031	26608.623047	77.317566
546.559631	729.206970	33466.683594	26015.091797	77.238342
546.905823	727.126465	32866.839844	25586.812500	77.348808
547.252136	726.532043	32367.751953	25126.060547	77.113113
547.598389	722.593994	31992.150391	24813.320313	77.042114
547.944458	726.977783	31666.408203	24532.232422	76.941475
548.290588	732.624817	31230.548828	24215.033203	76.996742
548.636658	729.058289	30727.296875	23817.218750	76.965050
548.982727	730.915833	30104.861328	23392.802734	77.149620
549.328735	729.281189	29516.978516	22956.421875	77.210556
549.674622	739.757874	28773.951172	22439.349609	77.404015
550.020569	737.974609	28087.468750	21915.365234	77.432480
550.366455	740.872375	27320.962891	21321.537109	77.428871
550.712280	741.689758	26753.212891	20819.250000	77.187180
551.058044	743.621643	26222.171875	20374.029297	77.046799
551.403748	741.318176	25829.039063	20068.867188	77.039879
551.749512	738.866211	25526.552734	19849.005859	77.095291
552.095154	739.163513	25256.978516	19652.697266	77.142006
552.440735	745.404846	25167.072266	19558.853516	77.035889
552.786316	747.708313	25117.662109	19532.251953	77.080750
553.131897	743.918884	25201.697266	19560.933594	76.936729
553.477417	734.482422	25276.150391	19600.462891	76.873260
553.822815	723.336975	25288.562500	19611.460938	76.889679
554.168213	722.816895	25250.146484	19590.654297	76.925774
554.513672	723.262695	25159.943359	19536.117188	76.986137
554.859009	729.429871	25043.062500	19446.435547	76.981529
555.204285	736.414246	24923.062500	19352.070313	76.966660
555.549500	738.197510	24706.025391	19195.958984	77.010574
555.894714	741.615417	24454.585938	18992.964844	76.967789
556.239990	732.996338	24162.130859	18772.435547	76.995758
556.585022	736.785828	23896.646484	18572.783203	77.012543
556.930115	729.355469	23668.462891	18376.326172	76.929634
557.275146	732.550537	23423.634766	18180.761719	76.894569
557.620178	726.011902	23210.460938	18022.050781	76.924454
557.965149	734.185242	23025.150391	17881.841797	76.926491
558.310059	735.894226	22845.115234	17770.386719	77.047005
558.654968	741.169617	22753.650391	17679.216797	76.947472
558.999756	730.990051	22655.273438	17618.214844	77.025208
559.344604	724.822998	22598.056641	17559.070313	76.962776
559.689331	721.033691	22506.591797	17486.328125	76.956001
560.033997	729.058350	22414.306641	17420.570313	76.971733
560.378723	737.083008	22384.658203	17413.437500	77.035675
560.723389	743.398682	22356.572266	17397.166016	77.053780
561.067932	737.528809	22394.914063	17395.382813	76.915352
561.412476	734.556702	22386.666016	17345.748047	76.718582
561.757019	728.612488	22399.744141	17380.744141	76.840157
562.101501	734.036621	22420.697266	17427.332031	76.974945
562.445862	736.562927	22448.486328	17486.179688	77.144783
562.790222	739.683594	22434.740234	17468.642578	77.109543
563.134644	741.838379	22415.494141	17455.568359	77.115417
563.478943	737.677429	22390.156250	17451.330078	77.190483
563.823181	739.980774	22400.115234	17462.328125	77.203339
564.167358	746.816650	22416.906250	17474.291016	77.191536
564.511536	748.228333	22418.541016	17484.990234	77.233597
564.855774	742.655701	22439.421875	17485.583984	77.167854
565.199768	735.968445	22512.609375	17541.013672	77.170052
565.543823	735.522644	22649.031250	17611.376953	77.011192
565.887817	732.996399	22832.779297	17766.896484	77.077225
566.231812	729.429871	23003.304688	17929.322266	77.220032
566.575745	724.971680	23205.333984	18063.585938	77.127815
566.919617	726.754944	23406.767578	18202.085938	77.051682
567.263428	725.417480	23585.244141	18291.843750	76.844093
567.607239	722.891174	23729.984375	18399.359375	76.830513
567.950989	723.782776	23769.812500	18465.490234	76.983788
568.294678	728.092346	23791.134766	18473.216797	76.941818
568.638367	732.624817	23680.724609	18448.845703	77.201256
568.981995	731.287354	23566.148438	18341.552734	77.120087
569.325623	734.185242	23420.958984	18242.433594	77.173813
569.669128	736.711487	23318.349609	18135.810547	77.049767
570.012573	739.906494	23166.177734	18052.664063	77.198555
570.356140	736.265625	23073.671875	18002.138672	77.295784
570.699524	730.470032	22994.984375	17980.664063	77.478416
571.042908	734.036621	23052.939453	17997.380859	77.348534
571.386230	735.151123	23157.484375	18033.568359	77.148163
571.729492	742.729980	23284.021484	18125.628906	77.115807
572.072815	738.643311	23464.056641	18266.208984	77.127602
572.416016	731.138733	23554.333984	18347.720703	77.187187
572.759094	735.076843	23770.630859	18461.402344	76.952026
573.102234	730.247131	23845.005859	18489.636719	76.831383
573.445374	737.677429	23925.103516	18570.033203	76.905281
573.788391	733.962219	23931.421875	18541.351563	76.764397
574.131409	736.488525	23940.412109	18555.248047	76.792007
574.474365	734.779541	23915.369141	18512.671875	76.693008
574.817261	730.990173	23753.615234	18455.458984	76.987175
575.160156	729.875671	23602.109375	18366.220703	77.108101
575.502930	726.754883	23383.958984	18239.388672	77.293884
575.845703	729.801270	23229.408203	18088.701172	77.152016
576.188477	732.253357	22996.171875	17908.962891	77.150429
576.531250	730.172852	22784.111328	17772.689453	77.276520
576.873901	731.584656	22512.312500	17595.626953	77.426445
577.216431	727.795105	22235.982422	17401.695313	77.523506
577.559082	725.714661	22011.810547	17192.683594	77.360214
577.901611	718.730225	21758.810547	17002.320313	77.393196
578.244080	720.067688	21529.064453	16761.726563	77.090019
578.586487	721.925293	21209.042969	16535.029297	77.185593
578.928955	744.290344	20903.287109	16267.465820	77.003716
579.271301	747.856934	20549.306641	16056.074219	77.308571
579.613647	753.281006	20205.359375	15768.448242	77.190552
579.955872	739.832214	19894.107422	15522.953125	77.179222
580.298157	737.603210	19630.408203	15296.403320	77.060020
580.640320	734.928223	19378.074219	15119.338867	77.156555
580.982483	728.463867	19154.052734	14961.891602	77.248154
581.324524	727.200684	18983.230469	14812.618164	77.154884
581.666626	733.962219	18851.269531	14672.854492	76.936890
582.008728	739.386414	18739.443359	14594.243164	76.971184
582.350647	737.083008	18625.908203	14509.538086	76.989159
582.692566	735.374023	18522.330078	14470.604492	77.220802
583.034424	736.340027	18424.251953	14406.034180	77.282692
583.376343	739.534973	18320.302734	14326.010742	77.280334
583.718201	739.832214	18259.595703	14282.989258	77.302170
584.059937	735.002502	18183.212891	14204.377930	77.196312
584.401611	740.723816	18101.626953	14134.903320	77.151405
584.743347	737.528809	17992.923828	14073.679688	77.286850
585.085022	734.259521	17924.861328	14047.078125	77.442421
585.426514	730.990173	17864.082031	14022.484375	77.577911
585.768127	731.064453	17822.771484	13957.468750	77.384926
586.109619	729.652649	17729.818359	13894.385742	77.438850
586.451172	734.110840	17648.162109	13839.625000	77.483002
586.792542	731.733215	17613.759766	13806.559570	77.448196
587.133850	738.866272	17574.154297	13767.253906	77.387383
587.475220	734.333801	17584.630859	13790.956055	77.486008
587.816589	738.866272	17548.445313	13787.241211	77.624641
588.157776	736.934387	17600.531250	13828.331055	77.631104
588.498962	735.894226	17649.496094	13823.426758	77.378746
588.840210	729.578430	17705.966797	13821.049805	77.115761
589.181335	731.956055	17745.498047	13860.207031	77.163536
589.522400	737.900330	17772.988281	13910.807617	77.328087
589.863403	738.346130	17851.302734	13973.370117	77.339203
590.204407	739.832214	17858.287109	13977.457031	77.329552
590.545410	731.361633	17939.576172	13996.625000	77.086807
590.886353	734.631042	17900.865234	14026.643555	77.431152
591.227112	735.299744	17899.822266	14019.660156	77.394287
591.567932	732.030334	17830.945313	13982.434570	77.492668
591.908752	736.934387	17788.740234	13948.999023	77.481903
592.249512	731.584656	17771.947266	13910.659180	77.340340
592.590149	735.225403	17634.189453	13853.519531	77.627792
592.930786	728.983948	17551.341797	13749.570313	77.400482
593.271423	725.565979	17446.277344	13716.356445	77.692810
593.612000	726.532043	17410.314453	13637.819336	77.388245
593.952576	732.253357	17373.759766	13645.620117	77.597351
594.292969	734.779602	17390.179688	13615.750000	77.338104
594.633484	734.705261	17444.048828	13666.350586	77.391701
594.973877	729.058350	17536.333984	13713.311523	77.253761
595.314209	734.779602	17655.367188	13800.914063	77.220337
595.654480	737.083008	17833.767578	13937.928711	77.212906
595.994812	740.352356	18015.585938	14062.606445	77.117645
596.335022	736.562927	18210.111328	14216.191406	77.143051
596.675171	737.974609	18322.607422	14337.750000	77.338982
597.015320	732.030457	18506.357422	14465.328125	77.264801
597.355408	735.448303	18642.255859	14557.760742	77.190269
597.695496	728.389587	18793.906250	14632.657227	76.965782
598.035461	729.727051	18765.447266	14636.151367	77.104897
598.375366	721.479431	18709.871094	14623.742188	77.284630
598.715271	725.417480	18658.007813	14579.679688	77.257454
599.055176	728.835449	18552.349609	14486.281250	77.187057
599.395081	732.699158	18359.236328	14353.577148	77.274841
599.734802	737.603210	18065.814453	14150.656250	77.405869
600.074524	739.534973	17735.761719	13925.666992	77.582703
600.414246	737.157227	17355.925781	13658.473633	77.751343
600.753906	733.813660	16984.783203	13355.394531	77.666634
601.093506	729.652649	16683.189453	13104.695313	77.569275
601.433044	721.479431	16467.117188	12892.265625	77.296242
601.772583	715.015137	16339.613281	12793.367188	77.303444
602.112122	718.581604	16307.664063	12752.204102	77.192627
602.451538	729.578430	16353.956055	12751.535156	76.943588
602.790894	735.299744	16447.873047	12822.124023	76.924538
603.130310	731.584534	16562.597656	12921.911133	77.002823
603.469604	734.036621	16716.849609	13058.183594	77.108749
603.808838	730.767273	16909.072266	13252.708008	77.399582
604.148010	734.408020	17175.373047	13433.635742	77.241379
604.487305	734.259460	17460.025391	13645.620117	77.194435
604.826416	737.751709	17725.582031	13805.371094	76.923416
605.165527	737.454407	17931.625000	13968.020508	76.947983
605.504456	739.014832	18074.357422	14094.112305	77.039711
605.843445	738.940613	18183.583984	14162.768555	76.951004
606.182434	743.547363	18226.529297	14224.959961	77.111626
606.521423	735.076843	18188.859375	14185.726563	77.064377
606.860229	734.185242	18043.523438	14103.993164	77.240433
607.199036	728.761047	17812.369141	13913.184570	77.175880
607.537903	738.494812	17545.994141	13751.426758	77.423363
607.876648	741.987000	17260.523438	13543.528320	77.498032
608.215271	742.952942	16972.080078	13310.070313	77.435570
608.553955	739.832275	16715.662109	13103.432617	77.389412
608.892578	736.860107	16497.060547	12912.252930	77.254051
609.231140	734.259521	16367.774414	12815.510742	77.277893
609.569641	728.389587	16284.780273	12735.188477	77.182419
609.908081	723.559875	16276.977539	12748.340820	77.312790
610.246521	730.024231	16296.742188	12755.325195	77.250076
610.584961	729.578369	16346.450195	12756.661133	77.013390
610.923340	736.117004	16345.632813	12748.339844	76.954491
611.261597	728.166687	16306.772461	12744.402344	77.132935
611.599854	733.739319	16209.881836	12710.446289	77.388191
611.938110	730.618652	16106.823242	12626.261719	77.363968
612.276245	727.126404	15946.702148	12471.862305	77.168617
612.614319	722.593933	15718.815430	12248.953125	76.861755
612.952393	722.148193	15421.379883	12019.653320	76.857796
613.290466	726.086182	15099.799805	11802.020508	77.056877
613.628479	732.773438	14790.848633	11592.116211	77.246300
613.966370	731.807434	14517.562500	11405.616211	77.426361
614.304260	735.002502	14272.958008	11217.629883	77.431389
614.642151	725.343201	14073.901367	11055.500977	77.387817
614.979980	721.999512	13890.372070	10904.741211	77.327263
615.317749	717.615723	13730.993164	10765.795898	77.214233
615.655396	722.668274	13619.539063	10703.233398	77.387497
615.993164	728.538269	13566.265625	10641.784180	77.219635
616.330811	733.219238	13534.835938	10637.327148	77.366066
616.668396	731.287415	13507.417969	10604.708008	77.280212
617.005859	731.361633	13465.510742	10590.217773	77.420609
617.343445	732.179016	13441.584961	10575.877930	77.452080
617.680908	737.157227	13431.406250	10566.292969	77.429832
618.018311	741.763977	13497.237305	10564.286133	77.006332
618.355652	745.627747	13544.122070	10582.120117	76.856636
618.692993	740.575195	13542.933594	10581.226563	76.865929
619.030273	734.482422	13492.629883	10607.530273	77.386215
619.367554	723.559875	13473.386719	10602.329102	77.481598
619.704712	727.869385	13477.843750	10626.774414	77.638626
620.041870	734.928223	13506.749023	10607.902344	77.302795
620.379028	739.237793	13474.129883	10586.502930	77.325081
620.716064	739.906555	13430.217773	10557.004883	77.359001
621.053040	731.807556	13309.028320	10518.664063	77.814140
621.389954	731.733215	13212.211914	10456.696289	77.921394
621.726929	724.748718	13144.002930	10379.049805	77.736557
622.063843	727.200684	13111.308594	10322.430664	77.480194
622.400635	728.389587	13083.890625	10277.180664	77.283722
622.737427	732.550537	13034.034180	10256.969727	77.424965
623.074219	733.962219	12977.118164	10216.030273	77.447906
623.410889	733.367859	12920.425781	10211.200195	77.769653
623.747559	731.213074	12908.239258	10190.321289	77.679955
624.084167	731.213074	12870.643555	10147.670898	77.569191
624.420715	734.853943	12891.374023	10104.576172	77.075691
624.757324	735.299622	12900.140625	10101.827148	76.996712
625.093750	735.448303	12951.039063	10124.637695	76.862343
625.430176	733.590820	12964.933594	10173.008789	77.174011
625.766602	738.271912	12992.351563	10210.531250	77.298820
626.102905	744.884766	13065.911133	10269.007813	77.299751
626.439209	741.318298	13180.559570	10358.319336	77.311798
626.775452	740.426575	13276.335938	10436.708008	77.348053
627.111694	732.847717	13331.468750	10503.506836	77.553398
627.447876	739.534973	13427.245117	10507.964844	76.991272
627.783997	740.278015	13467.218750	10542.292969	77.017838
628.120056	739.757874	13571.987305	10603.518555	76.867088
628.456055	729.727051	13564.778320	10651.368164	77.301140
628.792053	726.086182	13567.454102	10642.749023	77.224350
629.128052	725.789063	13479.109375	10595.418945	77.388710
629.463928	731.807434	13392.620117	10511.160156	77.241112
629.799744	734.928223	13295.135742	10430.987305	77.196648
630.135559	737.083008	13162.058594	10315.521484	77.090202
630.471375	741.318298	13013.750000	10221.156250	77.244987
630.807068	745.925049	12869.007813	10091.125977	77.086014
631.142700	747.113831	12754.581055	10005.530273	77.105492
631.478333	748.302734	12611.102539	9891.921875	77.078087
631.813965	739.386414	12485.382813	9792.875977	77.077240
632.149475	737.380188	12328.901367	9682.833008	77.172379
632.484924	731.213135	12246.277344	9595.973633	76.984032
632.820435	734.110840	12173.014648	9552.655273	77.092567
633.155884	732.922058	12131.257813	9512.159180	77.022095
633.491150	735.374023	12065.499023	9485.411133	77.228073
633.826477	738.940613	12005.461914	9440.903320	77.237350
634.161804	742.730042	11929.971680	9385.399414	77.254692
634.497009	741.912781	11865.401367	9329.301758	77.200500
634.832153	740.278015	11784.709961	9274.465820	77.271408
635.167297	739.163391	11728.536133	9206.924805	77.054092
635.502380	731.361633	11644.277344	9157.067383	77.208565
635.837463	728.018066	11572.946289	9085.141602	77.060204
636.172424	720.736328	11495.820313	9032.238281	77.136307
636.507324	725.863281	11415.648438	8969.750000	77.119293
636.842224	725.640381	11296.020508	8906.444336	77.393661
637.177124	733.293518	11160.492188	8816.241211	77.517929
637.511963	727.869446	11025.706055	8710.507813	77.517624
637.846741	728.389587	10909.200195	8611.760742	77.433632
638.181396	726.011902	10790.463867	8526.385742	77.504211
638.516113	729.652649	10726.787109	8475.636719	77.482040
638.850769	732.550476	10643.939453	8411.439453	77.475410
639.185303	735.002502	10575.952148	8361.359375	77.496155
639.519836	738.123230	10517.921875	8277.471680	77.091042
639.854370	730.470032	10443.097656	8225.682617	77.169769
640.188843	732.922058	10356.461914	8163.714355	77.214752
640.523254	728.018066	10232.599609	8104.123535	77.605782
640.857605	734.556641	10141.355469	8008.570313	77.327194
641.191895	729.727051	10061.554688	7956.484375	77.442032
641.526184	730.024231	10011.028320	7903.432129	77.291290
641.860413	724.154297	9965.333008	7868.435547	77.309196
642.194580	723.708496	9913.097656	7812.560059	77.141708
642.528748	726.532043	9826.980469	7755.939941	77.242432
642.862793	724.748718	9760.777344	7726.293457	77.484764
643.196838	723.559875	9721.545898	7684.089844	77.356529
643.530823	717.392761	9674.363281	7650.505371	77.404663
643.864746	722.222412	9630.152344	7603.025879	77.243576
644.198669	717.838562	9561.050781	7569.515625	77.479507
644.532532	730.247131	9523.750977	7525.230957	77.272766
644.866333	730.841553	9486.153320	7486.296387	77.158363
645.200073	740.129395	9466.018555	7438.222656	76.761162
645.533813	736.042725	9446.476563	7448.773438	77.065399
645.867554	738.271790	9426.786133	7449.813965	77.246140
646.201172	740.723816	9421.064453	7461.182129	77.421600
646.534729	736.785828	9451.973633	7438.074219	76.892075
646.868225	735.819824	9471.813477	7444.835938	76.797394
647.201782	729.504089	9469.807617	7455.832520	76.957611
647.535217	731.956055	9455.169922	7459.770996	77.125412
647.868591	730.915833	9452.197266	7468.612793	77.255814
648.201965	726.532043	9470.549805	7450.556641	76.898567
648.535278	725.714661	9470.996094	7445.058594	76.833939
648.868591	732.402039	9476.198242	7427.374512	76.568260
649.201782	727.497986	9447.887695	7411.547363	76.648514
649.534912	724.228699	9401.968750	7405.975098	76.998695
649.868103	721.628113	9325.585938	7370.829590	77.280731
650.201172	734.705322	9271.122070	7346.458496	77.453491
650.534180	738.643311	9229.363281	7312.576172	77.424919
650.867188	735.374023	9196.075195	7287.981934	77.447578
651.200134	722.222473	9172.819336	7283.226563	77.639534
651.533020	718.953125	9137.301758	7255.214844	77.643036
651.865845	719.770447	9087.446289	7227.202637	77.768692
652.198608	729.058289	9041.898438	7195.400879	77.787407
652.531433	733.219238	9007.718750	7166.200684	77.744652
652.864136	734.779602	8990.704102	7159.958984	77.825066
653.196777	1032.807739	9301.288086	7449.962402	77.609840
653.529358	1049.228760	9252.917969	7436.365234	77.856880
653.861938	1054.058472	9207.147461	7367.932129	77.441490
654.194519	761.974365	8818.915039	6976.579590	77.133568
654.526978	746.147949	8797.218750	6924.493652	76.739426
654.859375	737.974670	8733.020508	6902.425781	77.103386
655.191833	738.197571	8686.656250	6875.527832	77.214096
655.524170	737.974609	8614.508789	6828.346191	77.322990
655.856445	737.157227	8589.617188	6794.389160	77.138016
656.188660	750.383118	8579.883789	6783.912598	77.061485
656.520874	751.943542	8543.624023	6753.894531	77.030251
656.853088	748.302673	8541.990234	6736.656250	76.835945
657.185181	722.668274	8496.218750	6717.411621	77.117188
657.517212	719.176025	8535.376953	6737.102051	76.992973
657.849243	722.519714	8550.163086	6767.195313	77.222168
658.181274	727.126404	8616.664063	6823.516113	77.271828
658.513123	721.776550	8655.524414	6863.862793	77.417213
658.844971	720.216248	8719.499023	6910.450684	77.384865
659.176819	722.816833	8791.794922	6964.542969	77.354607
659.508667	729.727051	8872.858398	7023.835938	77.293472
659.840393	735.002441	8953.477539	7081.866699	77.226791
660.172058	734.482422	8992.634766	7135.587402	77.512558
660.503662	731.510254	9014.331055	7146.658691	77.451256
660.835266	729.281189	9049.700195	7154.237793	77.219147
661.166931	728.092468	9034.170898	7123.625000	76.998222
661.498413	736.711609	9018.715820	7133.357910	77.235489
661.829773	733.962341	8922.940430	7052.070801	77.153809
662.161194	729.949951	8820.625000	6964.988281	77.064499
662.492615	726.011902	8686.210938	6848.185059	76.909798
662.823975	730.692932	8530.175781	6743.566406	77.093231
663.155212	738.791992	8390.188477	6631.145996	77.010178
663.486450	733.590759	8227.912109	6533.066406	77.384933
663.817627	734.408142	8093.943848	6439.445313	77.518982
664.148743	732.401917	7973.275879	6353.402344	77.628754
664.479858	733.219238	7872.596191	6265.354004	77.487640
664.810913	728.166687	7809.735840	6213.342285	77.457062
665.141907	726.309082	7743.235840	6148.252441	77.269485
665.472778	727.646545	7669.675781	6069.343750	76.947205
665.803711	739.237793	7590.320313	6021.417969	77.099937
666.134583	739.980774	7524.859375	6009.009277	77.658401
666.465454	740.946777	7516.017578	6000.539063	77.631546
666.796143	734.631042	7478.271484	5970.966797	77.648499
667.126831	733.070618	7469.207031	5946.224121	77.390854
667.457458	725.194641	7437.703125	5956.997559	77.941101
667.788147	721.776672	7430.644043	5956.997559	78.034348
668.118774	721.256592	7399.882324	5928.613770	77.970490
668.449219	729.429871	7381.158203	5904.317871	77.797646
668.779663	728.389648	7373.728027	5873.778809	77.428551
669.110107	729.801331	7351.585938	5859.438965	77.466087
669.440552	729.652771	7332.415527	5826.670410	77.195229
669.770874	734.408020	7282.781250	5804.751465	77.429054
670.101135	732.327637	7272.973145	5785.656250	77.260399
670.431396	732.550476	7234.187500	5762.474121	77.363960
670.761597	726.903503	7202.979980	5727.550781	77.217239
671.091797	724.971680	7160.404785	5708.009277	77.431267
671.421875	725.640381	7135.587402	5680.145996	77.294022
671.751892	739.312073	7107.724121	5669.224121	77.411949
672.081909	743.918762	7072.355957	5648.790527	77.505257
672.411865	742.581360	7011.947754	5622.636230	77.839684
672.741821	727.943787	6970.635254	5587.787598	77.848534
673.071716	730.470032	6930.884277	5562.004395	77.922768
673.401550	721.479309	6921.298828	5534.660645	77.634216
673.731262	725.863281	6887.564941	5510.734863	77.655037
674.060974	722.742493	6849.076172	5472.691895	77.533310
674.390625	735.522644	6822.847168	5436.953125	77.233116
674.720276	734.779602	6801.670410	5398.167480	76.866188
675.049927	732.773499	6770.166504	5369.560547	76.801147
675.379395	728.835449	6700.173828	5343.777344	77.284882
675.708923	730.098572	6642.738281	5305.362793	77.381073
676.038330	726.829163	6602.019531	5260.632813	77.168625
676.367737	727.126465	6584.855469	5230.020020	76.870979
676.697083	724.600159	6556.620605	5218.131348	77.049301
677.026428	731.064453	6526.007813	5201.858887	77.149925
677.355652	729.504089	6500.447754	5186.181152	77.226143
677.684875	734.110840	6497.550293	5197.624023	77.445305
678.013977	734.036621	6505.203125	5190.416504	77.218010
678.343079	736.191406	6500.002441	5186.478516	77.210846
678.672180	729.058289	6512.335938	5178.527832	76.936813
679.001221	726.457703	6513.524902	5211.815918	77.506584
679.330139	723.931396	6543.617676	5250.230469	77.775650
679.659058	724.228577	6568.286621	5276.458984	77.895027
679.987976	730.024231	6618.291504	5293.994629	77.509567
680.316772	734.110901	6648.979004	5312.867676	77.410973
680.645630	737.305908	6702.997559	5328.842285	76.965698
680.974304	737.900391	6745.498535	5355.814453	76.867889
681.302979	737.751770	6789.485840	5390.216797	76.878212
681.631653	734.556702	6791.714355	5413.324707	77.243622
681.960266	730.024231	6805.832031	5422.240723	77.227859
682.288757	735.894226	6832.877441	5431.974609	77.023018
682.617249	740.798157	6862.524902	5446.166504	76.863419
682.945679	743.993164	6859.924316	5432.643066	76.662895
683.274109	737.751770	6825.894531	5414.736328	76.821205
683.602478	739.460693	6754.117676	5355.814453	76.751732
683.930725	734.482422	6685.833496	5312.941895	76.931427
684.259033	731.213074	6613.759277	5258.552246	76.962234
684.587280	730.395813	6547.259277	5216.497070	77.122337
684.915344	733.367920	6477.934082	5157.426270	77.012924
685.243469	735.819885	6400.064941	5095.012207	76.959808
685.571533	738.420410	6328.882813	5033.340820	76.825851
685.899536	742.061218	6260.895996	4981.849121	76.823967
686.227539	740.649597	6209.478516	4949.229980	76.955788
686.555420	738.569031	6175.596191	4934.443848	77.172226
686.883301	736.785828	6159.992188	4934.741211	77.407257
687.211121	737.231628	6153.974121	4930.951660	77.421440
687.538940	736.860046	6170.692871	4937.416016	77.303741
687.866638	727.497986	6162.147949	4933.700684	77.396019
688.194336	722.593994	6172.104004	4929.762695	77.202705
688.521973	717.169922	6159.844238	4920.549316	77.230034
688.849609	721.182190	6150.853027	4908.586426	77.120773
689.177063	722.965515	6122.172363	4893.577148	77.244896
689.504578	725.714661	6070.160645	4861.404297	77.382942
689.832031	729.281250	6011.089844	4828.637207	77.612732
690.159485	727.423645	5931.957520	4769.566406	77.665802
690.486816	723.411316	5848.070313	4710.718262	77.806282
690.814087	728.909668	5758.833496	4652.167480	77.998352
691.141296	734.259460	5673.161621	4605.059570	78.373688
691.468506	737.008728	5588.828125	4537.444336	78.330116
691.795715	728.983948	5530.425781	4466.856934	77.848969
692.122803	729.949951	5468.531250	4394.485840	77.334038
692.449829	730.767334	5419.194824	4339.799316	76.977448
692.776855	733.145020	5357.300293	4298.783691	77.108971
693.103821	731.064514	5303.430664	4242.908691	76.805840
693.430664	725.120300	5250.304199	4198.104004	76.747894
693.757568	728.166687	5193.388184	4152.853027	76.696892
694.084351	731.584656	5128.299316	4124.395020	77.166939
694.411133	738.346130	5082.306152	4103.441895	77.466087
694.737854	737.380188	5041.067871	4065.473389	77.331200
695.064575	738.197510	5031.482910	4045.114258	77.025322
695.391174	743.027161	4998.195313	4019.479736	76.999374
695.717773	740.055176	4981.774902	4004.916748	76.970230
696.044250	736.562805	4946.258301	3991.839600	77.328087
696.370789	735.894104	4954.653809	4001.127197	77.397942
696.697205	740.500977	4971.074707	4026.389893	77.670052
697.023621	744.587585	5024.201172	4050.910156	77.257500
697.349915	748.079773	5088.695801	4091.701904	77.031044
697.676208	744.364685	5144.720215	4137.101074	77.101418
698.002380	740.723877	5218.354492	4208.654297	77.450119
698.328674	734.853943	5296.817871	4275.898438	77.621056
698.654724	730.172852	5396.309082	4336.975098	77.297409
698.980896	731.807434	5491.045410	4391.587891	76.898460
699.306946	728.389587	5572.927246	4439.513184	76.604286
699.632935	724.154297	5642.548828	4496.651855	76.701805
699.958862	717.838623	5674.498535	4529.047852	76.890671
700.284729	711.522888	5668.331543	4545.766113	77.353058
700.610596	719.844788	5622.041504	4510.323730	77.322052
700.936340	726.829285	5573.818848	4468.045410	77.186386
701.262146	733.144958	5480.197266	4380.962891	76.843857
701.587830	732.253235	5376.767578	4311.563965	77.065346
701.913513	731.584656	5227.196289	4209.025879	77.351898
702.239075	731.658936	5084.312500	4114.438477	77.717644
702.564697	731.658875	4955.768555	4010.935303	77.632362
702.890137	729.727051	4831.608398	3903.419189	77.371620
703.215698	730.618652	4741.033691	3818.788086	77.003738
703.541016	734.036621	4649.789551	3727.990479	76.459213
703.866455	729.875671	4593.765625	3692.622314	76.677818
704.191711	735.299744	4517.085449	3641.725342	76.853256
704.517029	724.080017	4444.045898	3610.591797	77.595116
704.842163	729.652771	4353.099121	3543.125244	77.646309
705.167419	729.875671	4307.700195	3500.103760	77.427727
705.492493	736.711487	4273.000977	3473.503662	77.391632
705.817566	737.454590	4239.564941	3438.804443	77.134918
706.142578	730.395752	4204.716797	3417.331055	77.336990
706.467590	730.692932	4180.345703	3402.173096	77.442001
706.792480	727.795166	4172.989746	3409.008789	77.824738
707.117371	732.253357	4170.908691	3409.751953	77.864700
707.442200	736.785828	4170.760254	3399.052002	77.527260
707.766907	733.442200	4175.441406	3387.089844	77.096115
708.091675	728.612488	4179.750488	3388.204102	77.064194
708.416321	725.045959	4186.141113	3387.238281	76.917625
708.741028	729.058350	4195.800293	3400.612549	77.062393
709.065552	729.652771	4203.676270	3405.145264	77.014229
709.390137	732.179016	4200.704102	3416.513428	77.391235
709.714600	735.374023	4214.598633	3441.627686	77.783241
710.039063	734.110840	4234.660645	3465.627197	78.031067
710.363403	729.652771	4284.443359	3503.819092	78.040215
710.687744	730.544373	4330.362793	3535.843506	77.928909
711.012085	729.949951	4390.398926	3565.936279	77.476463
711.336304	734.036560	4430.076660	3591.496338	77.311386
711.660461	725.789001	4471.240723	3599.075439	76.714012
711.984619	725.937500	4495.686035	3630.208252	77.041496
712.308716	727.200684	4521.469238	3637.341064	76.698326
712.632751	733.070557	4514.559082	3651.755859	77.183502
712.956726	737.528809	4488.478027	3631.173828	77.144341
713.280701	741.689758	4440.330078	3610.889404	77.574448
713.604553	741.095276	4406.151367	3580.350830	77.468269
713.928467	738.791992	4346.412109	3538.592773	77.607971
714.252258	739.757874	4300.642090	3492.005127	77.291122
714.575989	741.466797	4242.091309	3446.234375	77.265289
714.899719	740.500916	4186.066895	3405.442383	77.344086
715.223267	738.643311	4144.902832	3374.160889	77.372780
715.546936	742.061218	4107.974609	3345.628662	77.350990
715.870422	747.856934	4090.439209	3327.349854	77.170662
716.193970	734.556702	4054.699951	3302.161377	77.334152
716.517395	732.922058	4033.968994	3283.288818	77.259331
716.840820	722.445313	3996.297607	3255.871094	77.383629
717.164124	724.080078	3976.755859	3229.121826	77.014801
717.487488	713.826233	3931.505859	3189.592773	76.942604
717.810730	729.652771	3906.762939	3149.395264	76.161743
718.133972	736.637207	3850.515625	3107.785889	76.147758
718.457092	743.175842	3798.355469	3071.377686	76.205070
718.780212	731.881775	3750.653076	3027.761719	76.053459
719.103210	730.395752	3699.383789	2996.406006	76.322647
719.426208	729.801331	3665.279053	2965.347412	76.156128
719.749207	741.838379	3619.360107	2940.678955	76.414383
720.072083	743.250183	3579.236328	2914.152588	76.548416
720.394958	737.900391	3531.088623	2889.930420	77.045647
720.717773	725.640442	3484.723389	2857.385498	77.262810
721.040527	721.702332	3443.782471	2825.583984	77.289482
721.363281	726.309082	3411.238037	2802.624268	77.332222
721.685913	732.030457	3384.340576	2797.348877	77.868660
722.008545	736.711426	3350.755615	2777.064453	78.053505
722.331055	730.470032	3300.526611	2735.083252	77.998795
722.653503	726.829285	3272.589111	2692.061768	77.196304
722.976013	726.457703	3265.604492	2685.671875	77.160332
723.298401	734.259460	3287.672119	2684.483154	76.377144
723.620789	730.990173	3272.588867	2691.541748	77.138519
723.943115	729.801331	3264.415771	2668.730713	76.498001
724.265381	725.789063	3232.985596	2652.681396	76.854462
724.587585	733.962341	3231.128174	2640.644287	76.353836
724.909790	737.900391	3222.583252	2639.975830	76.552040
725.231873	743.844543	3233.877197	2653.647217	76.697899
725.553894	742.581360	3238.261475	2653.870117	76.583885
725.875916	835.757019	3340.798828	2768.965576	77.172707
726.197937	838.357666	3336.637939	2769.782471	77.310173
726.519775	838.431946	3339.833252	2783.751709	77.769203
726.841675	738.569031	3239.895752	2682.105225	77.700211
727.163513	732.922058	3254.384766	2691.021484	77.657280
727.485291	733.813660	3248.217773	2694.216797	77.966904
727.806946	741.318176	3283.288818	2715.392822	77.659225
728.128662	740.129395	3305.876953	2736.272217	77.799660
728.450256	736.562805	3345.703125	2753.138672	77.288902
728.771790	727.423645	3356.402344	2750.389404	76.948730
729.093323	728.389587	3355.139404	2736.717773	76.456772
729.414795	729.801331	3347.931885	2742.587891	76.878769
729.736145	731.287415	3340.873047	2746.302734	77.215912
730.057495	726.903564	3340.650391	2759.454346	77.763870
730.378845	728.463867	3350.904297	2758.042725	77.392754
730.700134	730.024231	3346.000000	2754.847656	77.402222
731.021301	730.024231	3345.257080	2747.120117	77.128731
731.342468	727.200745	3336.489502	2746.600342	77.392723
731.663574	727.646484	3350.235352	2745.188477	76.929405
731.984680	734.631042	3358.928955	2750.241211	76.805695
732.305664	735.671204	3389.838623	2763.169678	76.389244
732.626648	735.671204	3396.749023	2770.599854	76.470093
732.947571	730.321472	3410.792236	2766.513428	75.963966
733.268433	725.863281	3406.482422	2750.612549	75.532898
733.589233	727.423584	3387.981201	2737.609375	75.555054
733.909973	734.556702	3360.637451	2732.780029	76.091469
734.230713	735.522705	3327.498779	2725.052490	76.757256
734.551331	739.460693	3301.195313	2698.600586	76.477081
734.871948	736.339905	3263.746826	2658.328369	76.045868
735.192505	740.203613	3207.500000	2615.678711	76.013367
735.513062	734.185242	3172.057373	2590.638672	76.150566
735.833435	724.971680	3124.503906	2561.289063	76.528137
736.153931	725.863281	3078.956055	2520.794189	76.279648
736.474304	728.835449	3029.693359	2499.766602	76.968300
736.794617	734.779602	2991.353271	2482.453857	77.448135
737.114807	730.395752	2980.356445	2472.571533	77.431389
737.434998	729.206848	2971.217529	2446.342773	76.589104
737.755188	735.968445	2978.350342	2443.519287	76.148972
738.075256	736.265625	2983.551514	2443.147705	75.953049
738.395325	735.374023	2984.591797	2457.934082	76.584846
738.715271	723.114075	2992.913818	2467.370361	76.846268
739.035278	725.640381	3000.938477	2481.190674	77.156937
739.355164	721.033630	3009.185791	2495.159424	77.535309
739.675049	726.680603	3026.944336	2497.983154	77.004326
739.994873	725.863281	3031.699463	2494.490967	76.702225
740.314636	736.860107	3038.089600	2486.837646	76.045326
740.634277	741.764099	3019.885498	2481.785156	76.379646
740.953979	739.014832	2996.405518	2468.856689	76.630150
741.273499	735.076843	2963.266602	2450.949463	77.007469
741.593140	738.494812	2921.062744	2425.240967	77.282639
741.912598	739.609314	2885.546143	2398.120361	77.286110
742.232117	736.340027	2846.166016	2364.015381	77.147377
742.551453	735.448425	2809.608643	2332.362305	76.990860
742.870850	739.460693	2774.909424	2313.637939	77.338097
743.190063	738.866272	2732.854248	2284.734375	77.526451
743.509338	730.098572	2705.882080	2268.239014	77.849648
743.828552	726.234802	2678.910400	2241.415771	77.595116
744.147705	728.389587	2667.467529	2222.394287	77.047173
744.466797	733.144958	2644.359619	2204.115967	76.965240
744.785828	737.008606	2626.155518	2192.376221	77.038353
745.104858	740.649475	2588.186768	2181.750732	78.001198
745.423706	739.609314	2575.406494	2170.679688	77.953621
745.742615	737.083008	2559.356934	2153.069824	77.704391
746.061401	731.956055	2565.078369	2147.199951	77.204010
746.380249	729.652649	2552.447021	2137.912354	77.258286
746.698975	730.618652	2544.571045	2137.020752	77.532471
747.017639	736.191406	2539.146729	2130.407471	77.329483
747.336304	742.729980	2535.357422	2111.832275	76.374054
747.654907	745.330566	2532.236816	2094.965332	75.529129
747.973389	742.952881	2532.236572	2089.838379	75.275124
748.291931	745.776367	2538.403809	2091.101563	75.047676
748.610352	744.216064	2535.282959	2095.262451	75.432495
748.928711	736.562805	2543.233643	2095.114014	75.196388
749.247070	733.219238	2532.013916	2102.692627	76.132835
749.565308	735.448425	2534.540283	2108.488281	76.318497
749.883545	738.717712	2523.840576	2103.287109	76.441200
750.201782	733.590820	2525.252441	2098.383057	76.174667
750.519836	735.374023	2504.596191	2091.770264	76.666245
750.837952	742.432800	2487.878174	2086.865967	77.025223
751.155884	746.073547	2464.472656	2069.256592	77.000916
751.473877	739.609192	2465.364502	2050.754883	75.975182
751.791809	732.179016	2447.828857	2041.764526	76.331741
752.109619	729.281189	2445.005371	2034.854126	76.094574
752.427490	724.377197	2429.550537	2036.414673	76.944519
752.745300	724.897278	2433.860107	2035.300171	76.678253
753.062988	724.525818	2424.126221	2036.043335	77.166237
753.380615	730.470032	2417.439209	2016.873047	76.255280
753.698303	733.070618	2410.974609	2001.789551	75.613319
754.015808	737.454529	2416.398682	1990.867188	74.654816
754.333374	737.974609	2413.872314	1993.393433	74.910233
754.650757	739.386414	2408.894287	1983.065308	74.493752
754.968262	737.677429	2392.696289	1982.396484	75.208755
755.285583	733.962219	2399.309326	1980.761841	74.867249
755.602905	731.956116	2386.009033	1989.901001	76.052269
755.920105	722.296692	2372.560303	1978.086914	76.096344
756.237305	722.148132	2352.647217	1974.297485	76.795471
756.554443	724.377258	2356.362305	1964.712524	76.001625
756.871582	731.287354	2356.065186	1964.118164	75.876884
757.188599	732.699036	2357.253906	1963.078003	75.736366
757.505615	730.395691	2352.944336	1965.901367	76.145988
757.822510	728.389587	2369.885010	1983.734009	76.475662
758.139465	731.881836	2377.910156	1988.860840	76.364357
758.456238	735.596924	2398.937744	2002.903931	76.190460
758.773010	735.299744	2415.656006	2006.544922	75.653313
759.089783	736.488586	2430.962158	2029.058716	76.281509
759.406433	735.968445	2435.643311	2025.937988	75.895073
759.723145	736.934387	2438.020752	2031.139160	76.081078
760.039673	731.658936	2450.949463	2030.693359	75.556419
760.356201	724.005676	2451.915527	2034.928711	75.867561
760.672668	725.714661	2440.770264	2030.470703	76.076607
760.989136	718.135742	2431.110840	2026.532349	76.381531
761.305481	718.433044	2431.556641	2028.315552	76.461655
761.621826	716.575439	2446.565674	2033.293945	76.111328
761.938049	724.525879	2447.977539	2028.464355	75.658546
762.254333	736.117004	2461.351807	2042.359009	75.713860
762.570496	734.928223	2505.933594	2078.395752	75.859032
762.886597	731.807434	2576.521240	2127.881104	75.679688
763.202637	716.352539	2681.362549	2199.360596	75.470764
763.518677	719.547546	2796.680420	2289.861328	75.600060
763.834656	724.080078	2932.951416	2397.080078	75.740036
764.150574	735.596985	3069.594482	2506.007813	75.853157
764.466370	738.420410	3161.878174	2581.573975	76.054703
764.782288	736.562805	3207.722656	2609.808838	75.804329
765.097961	727.572205	3192.119141	2606.019287	76.218758
765.413696	727.572205	3154.447998	2571.914307	75.996559
765.729309	723.411316	3083.488525	2518.787842	76.072784
766.044861	733.442139	2973.074951	2440.621582	76.225861
766.360474	732.179016	2830.785156	2334.963135	76.373749
766.675903	739.014893	2695.405273	2233.688477	76.399559
766.991394	727.795166	2585.437500	2139.695557	76.004967
767.306763	724.674500	2504.373291	2068.885010	75.530228
767.622131	728.241028	2426.057861	2012.117798	75.619270
767.937378	737.528809	2356.510986	1953.715820	75.120468
768.252625	745.999329	2300.783691	1914.855469	75.178024
768.567810	740.426575	2245.948242	1881.790649	75.811859
768.882996	734.631042	2199.509033	1848.503052	76.038559
769.197998	725.343079	2150.246338	1818.707642	76.732536
769.513062	731.138855	2128.327148	1797.234009	76.302902
769.828064	732.996338	2101.281006	1781.779297	76.649467
770.142944	735.225403	2085.529053	1768.999146	76.558601
770.457825	732.327637	2054.544678	1751.389282	77.072189
770.772705	733.962219	2037.380737	1724.194702	75.971954
771.087402	734.036621	2007.288086	1704.652954	76.231316
771.402100	735.522644	1976.600952	1687.711914	76.722733
771.716736	737.900330	1953.567017	1684.071289	77.831444
772.031372	740.946777	1944.799316	1661.780273	76.490555
772.345947	740.203674	1936.477539	1648.554321	75.931664
772.660461	731.064453	1924.291870	1637.334595	75.951164
772.974854	726.754883	1898.508789	1630.944702	77.165504
773.289246	729.652771	1887.363403	1610.585815	76.092674
773.603638	727.795227	1863.437988	1594.313477	76.302002
773.917908	725.268860	1855.264648	1579.527222	75.598366
774.232178	720.736389	1844.564941	1583.836792	76.800003
774.546265	727.349304	1840.478394	1586.288696	77.164398
774.860474	730.321472	1826.583618	1579.824341	77.490845
775.174561	722.891113	1810.757324	1572.765625	78.123070
775.488586	730.024231	1804.961792	1558.499634	77.071960
775.802551	739.386414	1805.630493	1547.131226	75.756088
776.116516	747.411072	1795.748047	1533.756836	75.008881
776.430359	743.770203	1779.773071	1523.428711	75.256401
776.744202	736.488586	1768.256226	1517.855957	75.730949
777.057922	736.488586	1758.968262	1506.041870	75.263428
777.371704	739.906494	1752.355347	1498.165649	74.893578
777.685303	744.290344	1732.070679	1498.463013	76.350243
777.998962	740.055176	1720.702515	1493.336060	76.814659
778.312500	729.504089	1710.448608	1483.453735	76.859558
778.626038	729.429871	1712.752075	1465.918335	74.897980
778.939453	735.894104	1723.823120	1467.107056	74.014725
779.252869	740.426575	1724.937622	1478.103882	74.928291
779.566223	732.476257	1716.318726	1485.980103	76.587852
779.879578	729.875671	1707.253540	1479.144165	76.661087
780.192749	725.566101	1698.263062	1473.125610	76.854309
780.505920	730.692871	1700.120605	1474.314453	76.707275
780.819031	728.835388	1683.328125	1475.057617	78.179977
781.132141	740.946716	1678.944336	1472.531250	77.994286
781.445190	735.671204	1665.569824	1455.293091	77.387131
781.758118	735.745605	1669.433472	1442.958862	75.744080
782.071045	724.600159	1657.990845	1428.544067	75.417931
782.383911	727.869446	1651.526489	1425.646362	75.545021
782.696838	729.132629	1634.213989	1420.816528	76.422287
783.009583	735.374023	1635.254395	1416.655640	75.708023
783.322266	731.807434	1626.635254	1411.603027	75.969429
783.634888	732.104736	1621.136841	1396.965454	74.784782
783.947510	726.606262	1612.071899	1390.278320	74.951759
784.260132	729.132568	1600.629272	1377.646851	74.413857
784.572571	725.194519	1590.078247	1375.789063	75.223351
784.885010	725.937561	1578.858398	1366.352905	75.084969
785.197449	729.281250	1577.818359	1375.046265	76.103333
785.509766	729.355530	1572.394165	1376.903687	76.811211
785.822083	731.733215	1563.180664	1371.033813	76.890076
786.134277	730.915833	1559.242676	1355.801636	75.439522
786.446533	743.398743	1549.063110	1342.575806	74.370552
786.758606	738.791992	1544.530762	1342.501465	74.926201
787.070740	736.191406	1543.936157	1347.702759	75.706017
787.382690	721.033691	1550.474976	1355.504517	76.493759
787.694641	722.668274	1569.422241	1375.863647	77.141106
788.006653	720.736511	1588.294922	1382.847778	76.318924
788.318481	724.451477	1619.650757	1404.024048	75.912994
788.630310	723.782776	1634.065430	1407.665039	75.128563
788.942017	723.857117	1664.603882	1423.268555	74.346413
789.253784	728.538147	1677.161011	1433.002319	74.261772
789.565430	732.327637	1685.334106	1438.649292	74.115097
789.877014	736.042725	1665.941040	1439.095093	75.605293
790.188538	730.321472	1652.046509	1433.670898	76.307945
790.500061	732.847839	1632.950806	1422.971313	76.671616
790.811462	733.665039	1605.904663	1407.516235	77.255287
791.122925	735.522644	1584.876953	1379.652954	75.837646
791.434204	727.349365	1555.899048	1359.145386	76.253242
791.745483	731.436035	1543.267578	1349.783325	76.166946
792.056702	724.748718	1520.976685	1342.575806	77.594246
792.367920	729.652649	1513.620728	1332.544922	76.902657
792.678955	724.451477	1496.679688	1323.257202	77.542587
792.990112	734.036621	1488.432251	1310.105591	76.361656
793.301086	737.751709	1475.057617	1301.114990	76.408348
793.612122	741.466797	1466.290039	1286.923096	75.253700
793.922974	743.250061	1462.723267	1276.297852	74.088623
794.233826	736.042786	1461.237305	1280.830200	75.122932
794.544556	732.624817	1454.921753	1283.802490	76.309013
794.855286	726.754883	1450.240601	1289.969604	77.847389
795.166016	736.860046	1459.008179	1287.220337	76.211548
795.476624	738.346130	1469.113403	1280.681641	74.214531
795.787292	741.169678	1475.949219	1288.186157	74.446342
796.097778	730.247131	1481.967773	1288.334961	74.241386
796.408264	732.699036	1497.274048	1307.133545	75.131218
796.718689	735.968445	1513.843628	1320.136353	75.097900
797.029053	739.089172	1519.119141	1334.031128	76.271683
797.339355	737.231628	1515.106812	1326.154907	75.709229
797.649658	726.457703	1509.385376	1322.662598	76.150696
797.959839	729.949890	1498.834473	1312.854736	75.811752
798.270020	729.504089	1488.134888	1307.207764	76.150833
798.580078	738.717590	1477.658203	1301.412231	76.148834
798.890137	730.470032	1466.215698	1296.433838	76.923836
799.200195	721.925293	1465.621216	1286.105713	75.861710
799.510071	719.027527	1454.475708	1276.000610	75.732468
799.820007	721.405090	1450.834961	1272.954224	75.613731
800.129883	727.126465	1439.912476	1273.102783	76.597511
800.439575	726.606262	1432.853516	1267.381470	76.570236
800.749329	731.956116	1423.045532	1259.802612	76.378899
801.058960	735.522644	1415.986938	1250.812012	75.726143
801.368591	735.745544	1400.383423	1245.536499	76.702065
801.678162	732.624817	1393.919067	1236.248779	76.157318
801.987671	724.228699	1388.866577	1228.818481	75.919502
802.297119	723.336975	1391.095581	1221.462402	74.596634
802.606506	725.566101	1389.758179	1221.239380	74.628006
802.915894	729.355530	1383.293823	1225.103149	75.809540
803.225159	726.754883	1376.755249	1224.137329	76.520332
803.534424	728.835449	1364.569580	1224.731812	78.003731
803.843628	729.801331	1355.058716	1217.450073	77.991684
804.152771	737.083008	1360.557129	1213.214844	76.367538
804.461792	741.987000	1366.278442	1197.462646	72.958817
804.770874	741.912659	1369.101929	1193.821899	72.053085
805.079773	744.810486	1367.690308	1192.781616	71.919350
805.388733	737.751648	1371.405273	1203.183960	73.452164
805.697571	742.581360	1385.968750	1215.295288	73.472672
806.006470	738.420410	1389.981079	1225.474731	74.751953
806.315125	744.141785	1395.256470	1226.366333	74.061386
806.623901	740.129395	1394.810669	1225.548950	74.145935
806.932495	737.008728	1393.844727	1235.282715	75.859726
807.241150	733.442200	1392.061523	1244.570557	77.606033
807.549622	732.624817	1385.671509	1246.948242	78.757530
807.858154	727.795166	1388.643555	1232.087769	76.309875
808.166565	719.176025	1379.950195	1219.827637	75.767433
808.474915	721.999512	1373.114258	1208.608032	74.734680
808.783264	726.086243	1358.625366	1208.087891	76.201080
809.091492	726.086182	1359.219727	1197.908569	74.521782
809.399719	723.485596	1358.625244	1190.923950	73.596153
809.707825	727.795166	1358.179565	1182.082031	72.065056
810.015930	737.231628	1349.114380	1177.846680	72.009720
810.323975	738.569031	1338.117676	1176.509277	73.044991
810.632080	742.358459	1329.647095	1171.159424	73.013664
810.939880	736.860046	1310.402710	1174.131470	76.240433
811.247864	732.773438	1299.480225	1170.862305	77.304329
811.555664	722.371094	1296.285278	1173.091431	78.534447
811.863464	718.284424	1292.198608	1169.227661	78.573288
812.171143	718.581604	1294.204834	1168.781860	78.210922
812.478882	720.439209	1287.740479	1154.738525	76.555321
812.786438	729.132629	1293.981812	1148.497070	74.243614
813.094055	725.714661	1288.334839	1137.797485	73.243523
813.401489	734.110901	1280.235962	1140.992554	74.503387
813.708984	733.219238	1275.926392	1132.967896	73.658264
814.016357	746.073547	1280.161499	1128.807007	71.661133
814.323730	734.928223	1279.195679	1131.258911	72.819107
814.630981	727.795166	1272.062622	1129.549927	73.815689
814.938232	720.662109	1261.363037	1135.865723	76.789886
815.245361	728.984070	1269.164917	1132.076294	74.621719
815.552490	736.860046	1269.313477	1135.791382	74.923233
815.859619	737.528809	1267.604492	1141.735718	76.254562
816.166565	730.767273	1262.254761	1144.484863	77.841454
816.473572	728.909668	1259.579712	1149.091675	79.179520
816.780457	731.658875	1264.186523	1144.187500	77.466141
817.087341	741.169617	1262.477539	1143.890503	77.252014
817.394043	736.562927	1276.892212	1146.713989	75.907616
817.700806	735.076843	1284.768433	1151.023438	75.669083
818.007507	735.299744	1296.656860	1147.977051	73.514221
818.314209	739.312073	1305.573120	1155.258667	73.454918
818.620667	735.522644	1308.842407	1157.933594	73.678070
818.927246	725.268860	1319.541992	1163.803589	73.793465
819.233704	726.903503	1334.030884	1170.862305	73.124489
819.540161	734.853943	1358.699585	1187.803345	72.606003
819.846497	742.358582	1394.662109	1220.719360	73.334076
820.152832	743.175781	1444.816406	1258.985352	73.514778
820.458984	738.717590	1505.967407	1305.052856	73.813675
820.765259	737.380188	1568.307617	1352.755371	74.058838
821.071350	739.014832	1650.932129	1423.268555	75.034622
821.377502	728.018066	1792.850464	1531.750610	75.479721
821.683472	730.395752	2050.680908	1734.076782	76.020020
821.989441	727.646484	2488.546875	2047.857056	74.973610
822.295349	735.374023	3109.420654	2504.818848	74.532860
822.601196	736.934387	3827.333252	3009.111328	73.523743
822.907043	738.717590	4476.516113	3473.726563	73.171654
823.212769	738.420410	4881.540527	3784.980469	73.532990
823.518494	732.550537	5014.765137	3899.109619	73.946762
823.824097	726.457703	4883.917969	3823.692383	74.498238
824.129700	730.693054	4620.960449	3625.601318	74.414124
824.435242	729.281250	4293.359863	3395.485596	74.807678
824.740723	736.414246	4002.390381	3194.496826	75.263336
825.046082	736.191406	3729.030518	2984.071533	75.108620
825.351501	741.318298	3429.665039	2769.336670	75.437378
825.656799	733.665100	3091.141846	2517.524658	75.668175
825.962036	731.510254	2774.612061	2291.198730	76.339241
826.267212	729.875671	2542.787598	2100.835205	75.621956
826.572449	739.757874	2401.018066	1985.517212	74.988808
826.877502	740.129395	2360.745850	1954.681641	74.943840
827.182495	734.705322	2435.643311	1995.994141	74.152542
827.487488	727.572266	2562.923828	2070.965576	73.195419
827.792419	728.463867	2680.024902	2152.252686	72.956406
828.097290	739.312073	2706.773682	2186.506104	73.556404
828.402100	738.940613	2667.095947	2167.336182	74.080940
828.706848	734.556641	2561.363281	2084.191406	73.879456
829.011597	728.240967	2438.169678	1986.854858	73.606216
829.316223	728.389587	2297.068604	1893.827759	74.294250
829.620789	736.934387	2162.060547	1807.339478	75.109489
829.925354	739.460693	2024.972046	1717.878906	76.111206
830.229797	737.157288	1901.703735	1620.988281	75.894875
830.534302	739.832214	1773.234375	1527.143921	76.186386
830.838562	733.813660	1646.250977	1434.785522	76.824112
831.142944	733.516418	1537.917603	1353.721313	77.101440
831.447144	726.531982	1456.779175	1282.093506	76.078560
831.751404	722.296692	1396.445313	1239.740967	76.755226
832.055542	721.627930	1365.163696	1212.620483	76.296082
832.359619	721.107910	1345.250732	1205.710327	77.642876
832.663635	724.525818	1348.222900	1207.047729	77.364784
832.967651	727.497864	1365.163940	1230.824585	78.932648
833.271545	726.234863	1429.807251	1265.598267	76.660683
833.575439	726.457703	1521.348267	1332.024902	76.182465
833.879211	727.275085	1644.913696	1412.346191	74.655869
834.183044	729.949890	1764.689819	1495.788086	74.012619
834.486694	731.064453	1861.729004	1570.388062	74.232773
834.790344	735.671204	1913.072144	1605.979004	73.917709
835.093933	732.773438	1907.350708	1612.814819	74.924095
835.397522	738.643372	1861.580078	1571.428223	74.161331
835.700928	742.432800	1784.305542	1528.184082	75.417198
836.004395	748.451355	1722.634277	1477.807007	74.868446
836.307739	750.234619	1667.576050	1432.928101	74.420868
836.611023	748.228333	1613.855103	1387.826294	73.888420
836.914307	741.020996	1549.731812	1345.399414	74.733566
837.217529	745.404968	1473.422852	1292.570190	75.158211
837.520691	740.352295	1400.457642	1238.031860	75.393959
837.823730	739.757874	1337.820435	1185.054199	74.456482
838.126831	732.996338	1284.991211	1146.565308	74.922607
838.429749	734.036621	1241.078369	1110.900024	74.325912
838.732727	736.117004	1200.360474	1088.757813	75.960320
839.035522	735.299805	1182.379272	1069.884888	74.837944
839.338379	727.052185	1169.524902	1068.473022	77.162010
839.641113	729.578430	1167.964478	1073.302734	78.406761
839.943848	731.807434	1181.710571	1081.327393	77.687820
840.246460	733.516541	1202.143677	1094.330444	76.993813
840.549072	730.321472	1224.285889	1107.259155	76.308670
840.851563	720.810730	1239.815063	1119.296265	76.778847
841.154053	723.931396	1245.833618	1117.810181	75.469841
841.456482	730.172852	1244.421997	1104.435669	72.778503
841.758850	736.191345	1229.709961	1094.033203	72.508278
842.061157	735.299622	1202.589478	1075.086060	72.714279
842.363403	731.807434	1175.914795	1063.271851	74.636101
842.665588	730.470032	1147.159668	1052.275146	77.228973
842.967712	729.801270	1144.633423	1048.485718	76.822502
843.269775	725.417419	1131.778931	1041.203979	77.710747
843.571777	729.949890	1116.621216	1028.572632	77.229088
843.873840	731.064453	1084.596802	1009.105286	78.646507
844.175659	736.488586	1059.408203	982.281921	76.115952
844.477600	735.596924	1042.838745	975.520447	78.089478
844.779297	731.658875	1032.807739	972.325378	79.916122
845.081116	733.219238	1026.269165	976.263428	82.936104
845.382751	737.380188	1013.786316	954.789978	78.655922
845.684387	745.999329	1009.699646	938.294739	72.921951
845.985962	739.237732	1000.337585	922.096741	70.034126
846.287537	736.934387	992.684387	918.678894	71.063347
846.588989	734.556702	981.093079	920.907898	75.587708
846.890381	737.825989	982.430481	926.406250	77.095993
847.191711	735.819824	974.554443	926.777832	79.987564
847.493042	732.624817	981.390320	925.291809	77.449242
847.794250	735.819824	969.353271	920.536377	79.096405
848.095459	736.637207	976.114807	915.706726	74.775063
848.396606	739.683594	966.975586	907.013184	73.618782
848.697693	733.590820	967.124207	906.790344	74.164780
848.998657	732.476257	965.786804	906.047363	74.394882
849.299622	738.271790	970.467834	911.248596	74.496017
849.600464	736.860107	974.034424	900.920593	69.172958
849.901367	727.869446	967.272766	903.669678	73.432663
850.202087	718.730286	956.053040	900.400391	76.549805
850.502808	719.398987	947.582581	910.802734	83.881470
850.803467	729.058350	948.622803	907.979248	81.489006
851.104065	732.401917	949.217285	906.716125	80.397537
851.404663	730.395813	957.167664	899.657410	74.639595
851.705139	723.039734	962.443115	899.657288	73.774040
852.005615	722.371094	964.746521	900.103210	73.329262
852.306030	727.349304	960.585510	898.542786	73.399185
852.606384	729.504150	955.830139	897.205383	74.097206
852.906616	727.200684	955.458679	891.929871	72.167984
853.206909	728.984070	951.372070	896.536621	75.342445
853.506958	735.745605	942.752930	892.078430	75.520432
853.807129	742.952942	940.226746	893.192932	76.158104
854.107178	748.525574	937.774658	890.146667	74.833176
854.407166	749.714417	944.016052	892.821472	73.652008
854.707092	750.680420	950.628967	892.004089	70.680016
855.007019	748.079773	950.108887	886.580017	68.554596
855.306763	745.776428	946.393738	884.499512	69.148109
855.606567	741.912659	936.511414	889.775085	75.983231
855.906250	737.083008	942.827209	891.632629	75.117363
856.205933	735.745605	945.576416	897.948425	77.301720
856.505493	743.101563	946.319519	887.471741	71.042038
856.805054	747.188171	946.542297	892.152832	72.717163
857.104492	742.061340	946.616699	888.363342	71.521957
857.403931	735.522644	947.062500	893.341614	74.604843
857.703308	731.213074	944.461914	896.611023	77.561005
858.002563	735.299805	943.124512	892.227051	75.509430
858.301819	728.761169	938.814941	896.536621	79.872620
858.601013	727.869446	936.139954	893.787415	79.664650
858.900208	724.971680	935.322693	894.753418	80.713531
859.199219	726.383484	935.471252	894.010437	80.170616
859.498291	732.253235	939.855164	890.072266	76.020020
859.797302	725.937683	938.071960	885.837097	75.376511
860.096191	735.745605	941.192627	885.242615	72.766693
860.395020	725.863281	932.945007	892.301331	80.373123
860.693787	736.860107	935.842773	898.319885	81.142632
860.992554	722.445313	926.406311	888.883484	81.602943
861.291260	723.931458	927.149353	871.199463	72.468033
861.589844	720.513489	924.177246	860.276855	68.624565
861.888428	728.686768	935.917175	862.803223	64.718521
862.186890	728.983948	938.369141	870.084900	67.388222
862.485413	724.154297	943.644592	880.710144	71.327003
862.783813	720.290588	944.016113	878.406799	70.674194
863.082153	716.278259	944.610535	879.521423	71.493690
863.380371	728.315247	937.551758	874.394470	69.815361
863.678589	729.949951	930.715881	887.694641	78.571442
863.976746	734.928162	928.263977	891.112549	80.783989
864.274902	729.206848	936.139954	898.988586	82.046677
864.572937	729.578430	943.644531	889.923645	74.904533
864.870911	731.213074	946.690979	893.936035	75.517235
865.168884	733.145020	938.146179	890.963928	76.984398
865.466736	729.429871	934.579651	892.747253	79.608849
865.764587	732.922058	929.304138	889.923645	79.947006
866.062317	733.590759	939.483582	896.908142	79.321556
866.360107	734.408142	942.455750	900.251770	79.714272
866.657715	726.829163	946.022278	895.570801	76.983093
866.955322	726.011902	934.282410	888.437683	77.987892
867.252808	727.869446	928.486816	888.437683	80.037056
867.550293	735.968445	930.121399	883.979492	76.234253
867.847717	733.739319	935.322693	886.134277	75.598969
868.145081	734.259460	936.139954	884.351013	74.346733
868.442383	727.943787	933.167908	899.211609	83.454041
868.739624	726.680603	932.424988	891.632629	80.173279
869.036804	723.634216	937.180237	893.787415	79.679871
869.333984	727.497986	938.889221	887.991882	75.922684
869.631042	724.451477	942.901550	892.152832	76.768730
869.928101	723.262695	933.539368	885.985657	77.385170
870.224976	717.318542	942.752869	882.939209	73.467369
870.521851	715.832520	951.372009	894.307617	75.772896
870.818726	720.810730	959.025146	896.462402	73.736794
871.115479	725.491882	957.241943	895.422119	73.324783
871.412231	719.621887	950.926208	882.344788	70.350136
871.708862	717.912903	944.833435	883.459412	72.953514
872.005493	720.587830	939.483643	882.864990	74.134430
872.302063	731.361633	939.335022	887.694641	75.169716
872.598572	730.544373	949.068665	881.676086	69.160141
872.895020	724.971680	951.149109	881.155945	69.053871
873.191406	726.383362	951.892151	879.892822	68.072495
873.487671	724.228699	952.412292	893.861816	74.340630
873.783997	724.154297	965.266663	898.691406	72.388283
874.080200	725.491760	967.644287	894.084656	69.622604
874.376343	736.785828	970.096252	890.295227	65.796204
874.672424	745.553467	958.356445	896.388000	70.879898
874.968445	744.141785	954.418457	902.257996	75.194366
875.264465	735.894226	952.189453	905.675964	78.495369
875.560364	735.596985	960.288391	896.536621	71.626968
875.856201	732.847717	967.792969	895.867920	69.386467
876.152039	730.098633	975.074646	888.140442	64.513176
876.447754	725.640442	966.529785	890.963928	68.630470
876.743469	730.172852	964.226379	894.604736	70.253967
877.039063	739.609314	962.294617	895.719238	70.103378
877.334595	737.974670	958.430847	907.310486	76.811554
877.630127	735.374084	961.254333	908.053528	76.447342
877.925537	727.943787	961.402832	912.288757	78.962448
878.221008	725.417480	967.941467	905.081543	74.080948
878.516296	723.336914	966.232605	907.013367	75.619476
878.811646	720.587708	965.266602	906.790466	76.100868
879.106812	727.572205	977.675232	911.471497	73.529411
879.401978	719.844727	994.690613	914.889465	70.965126
879.697083	725.714661	1013.934875	929.452820	70.688362
879.992126	724.823059	1037.191650	956.796204	74.262634
880.287109	734.705322	1076.646362	983.396545	72.729271
880.582031	734.779602	1136.608643	1030.653076	73.631683
880.876892	728.538147	1242.861572	1102.503784	72.710213
881.171753	734.556641	1417.473022	1254.527222	76.139717
881.466492	736.265625	1695.810913	1469.707886	76.436440
881.761230	739.163513	2037.083374	1718.547729	75.457985
882.055786	737.157227	2387.940674	1973.777710	74.911125
882.350403	732.401917	2656.693604	2163.249268	74.357094
882.644958	734.259521	2799.132080	2272.102783	74.476425
882.939453	729.875671	2814.289795	2275.223389	74.138229
883.233826	734.779602	2752.544189	2219.422119	73.578583
883.528137	726.829285	2647.182861	2139.100830	73.542267
883.822449	725.045959	2534.614258	2066.061279	74.106918
884.116577	724.228699	2434.008545	2002.978516	74.790321
884.410828	729.281250	2326.789795	1933.133789	75.358131
884.704956	736.042725	2203.298584	1842.112915	75.383591
884.999023	737.974609	2006.396362	1693.730469	75.350006
885.292969	737.677429	1802.360962	1543.267578	75.664749
885.586914	734.185242	1602.561157	1378.018188	74.142197
885.880798	730.692932	1461.088867	1273.325806	74.292976
886.174622	730.692932	1352.086670	1191.890015	74.219780
886.468384	730.024231	1271.542480	1145.599365	76.742592
886.762085	728.538147	1221.685181	1105.252930	76.389954
887.055664	729.504089	1182.230591	1072.188232	75.693413
887.349304	725.343079	1148.868652	1042.912964	74.982460
887.642822	721.033508	1101.686523	1018.467346	78.137787
887.936340	720.885010	1076.200562	996.770996	77.645348
888.229736	716.352539	1059.185181	981.538879	77.351547
888.523071	720.662109	1054.801392	970.096375	74.649788
888.816284	725.343201	1037.860352	958.430847	74.583954
889.109619	734.185120	1018.021545	954.195557	77.513107
889.402710	736.191406	1008.659363	945.502136	76.820313
889.695862	735.299744	999.594482	933.687988	75.063263
889.988892	724.823059	986.220032	914.517883	72.569633
890.281921	704.166870	958.950989	902.332214	77.777748
>>>>>End Processed Spectral Data<<<<<
