Jaz Data File
++++++++++++++++++++++++++++++++++++
Date: Fri Jun 04 16:45:24 2021
User: jaz
Dark Spectrum Present: Yes
Reference Spectrum Present: Yes
Processed Spectrum Present: Yes
Spectrometers: JAZA3586
Integration Time (usec): 60600 (JAZA3586)
Spectra Averaged: 10 (JAZA3586)
Boxcar Smoothing: 1 (JAZA3586)
Correct for Electrical Dark: No (JAZA3586)
Strobe/Lamp Enabled: Yes (JAZA3586)
Correct for Detector Non-linearity: No (JAZA3586)
Correct for Stray Light: No (JAZA3586)
Number of Pixels in Processed Spectrum: 2048
>>>>>Begin Processed Spectral Data<<<<<
W	D	R	S	P
191.335022	0.000000	0.000000	0.000000	0.000000
191.713211	232.493210	234.870911	230.561340	-81.249481
192.091385	473.456940	475.314545	468.107147	-287.994080
192.469528	711.374268	717.838623	706.024414	-82.759270
192.847641	721.033630	726.829285	714.272156	-116.664558
193.225739	724.451599	734.110840	716.278259	-84.616791
193.603790	736.042725	744.959045	722.891174	-147.499741
193.981842	747.039551	755.361511	736.785828	-123.212830
194.359863	754.246887	760.488464	742.581360	-186.900314
194.737854	757.367676	759.893982	743.695984	-541.173218
195.115829	756.401672	756.401672	741.243958	0.000000
195.493774	757.367676	752.983826	742.209961	345.762604
195.871704	756.773254	751.646301	743.250183	263.764282
196.249603	758.556458	750.754700	745.850769	162.856735
196.627457	758.259277	756.847473	748.228333	710.505371
197.005310	753.949707	758.556458	754.618408	14.515680
197.383133	750.085999	758.927979	752.983704	32.772129
197.760910	746.222351	754.321228	752.909485	82.568657
198.138687	744.290344	752.092224	750.531738	79.998589
198.516449	742.952942	748.822754	752.240723	158.229614
198.894180	746.742371	747.782532	756.847473	971.493958
199.271866	757.590515	744.067444	754.172607	25.274641
199.649536	756.030212	737.231689	746.816650	49.012157
200.027191	751.794922	740.723877	748.897156	26.174278
200.404816	744.736145	748.005554	749.045715	131.814957
200.782410	741.838379	768.958801	750.308899	31.232994
201.159988	745.404846	780.104309	753.132324	22.269733
201.537537	744.290344	791.249695	764.129211	42.246895
201.915070	754.989929	783.968018	771.930969	58.461552
202.292557	752.240723	779.212646	767.101379	55.096764
202.670029	753.355286	767.472839	764.649353	80.000175
203.047485	744.290283	769.850525	758.705078	56.395378
203.424911	742.729980	773.788574	753.875427	35.885227
203.802292	742.729980	777.800964	750.308899	21.610226
204.179688	738.940613	783.447937	756.624573	39.732697
204.557037	741.318298	781.070251	761.305664	50.280212
204.934357	736.488525	786.642883	763.906250	54.666683
205.311661	740.723816	781.887512	766.506836	62.635338
205.688934	734.853821	779.064148	768.587402	76.302490
206.066177	730.098572	777.503723	764.054871	71.629974
206.443390	726.309082	770.890808	758.705078	72.666534
206.820587	731.807556	764.352112	753.949707	68.036423
207.197769	741.021057	764.797913	751.794922	45.312405
207.574921	734.853943	775.200256	757.441895	55.985168
207.952042	723.931396	775.571777	759.225159	68.345276
208.329147	715.832458	773.862793	764.797852	84.378960
208.706223	748.822815	793.255859	780.327148	70.902939
209.083267	752.389343	799.794495	779.064026	56.269585
209.460297	758.407898	802.766602	775.348938	38.191017
209.837280	725.789001	784.711121	746.965271	35.939423
210.214264	728.909729	778.023743	749.194336	41.301056
210.591217	730.990234	770.296326	750.308899	49.149288
210.968124	737.974609	769.701843	751.943542	44.028210
211.345016	739.906494	774.234314	753.726807	40.259804
211.721893	734.333801	774.308655	751.274719	42.378937
212.098724	731.658875	761.825867	754.767029	76.600792
212.475555	731.213074	764.352112	753.949707	68.609818
212.852356	736.191406	768.215820	758.779358	70.533539
213.229126	740.872375	778.915466	760.488342	51.562496
213.605865	742.358459	775.125977	753.801086	34.920639
213.982590	733.888000	766.581238	753.578186	60.227089
214.359283	740.055176	761.231384	754.172607	66.666473
214.735931	732.476257	761.825745	757.218994	84.303810
215.112579	736.117004	777.355042	751.794922	38.018097
215.489197	729.132629	779.361267	750.234558	42.011749
215.865799	731.436035	777.726563	756.847473	54.895546
216.242355	737.454529	769.553284	754.544128	53.240692
216.618896	737.900330	765.020813	753.281006	56.712399
216.995407	740.055115	762.420227	747.262451	32.225800
217.371902	736.488586	764.426453	751.200500	52.659405
217.748367	732.104736	764.129150	752.315125	63.109314
218.124802	728.909668	767.695618	749.342957	52.682194
218.501236	728.612488	756.698914	747.039551	65.608429
218.877609	733.070618	759.150879	743.993164	41.880508
219.253983	733.442139	757.739197	747.262512	56.880852
219.630295	727.943665	767.770020	746.296570	46.082314
220.006592	731.138733	776.612000	751.051819	43.790752
220.382889	728.835266	775.348938	754.172607	54.472889
220.759140	729.578369	773.045593	753.949707	56.068310
221.135391	728.389587	763.386230	754.172668	73.673012
221.511581	737.454529	770.147705	747.411072	30.454498
221.887772	744.959167	774.011475	749.045715	14.066174
222.263931	743.547363	778.915466	750.011719	18.277359
222.640060	736.414307	778.023865	752.760925	39.285728
223.016159	731.733215	769.627502	760.265442	75.294266
223.392212	731.807434	767.770020	759.522400	77.066109
223.768265	734.556641	767.324219	762.494446	85.260513
224.144302	737.305908	770.221985	755.584412	55.530624
224.520294	737.528809	770.073425	757.664795	61.871941
224.896286	743.027161	768.810303	751.349121	32.276749
225.272217	737.603088	772.599792	759.225159	61.783161
225.648148	733.962219	774.160156	763.237549	72.827942
226.024048	726.011902	778.915466	771.039307	85.112236
226.399902	726.309082	781.887512	762.345886	64.839554
226.775772	725.045959	781.738953	753.875427	50.851906
227.151581	731.956055	776.834961	747.559753	34.768448
227.527374	728.538147	766.655518	753.726807	66.081841
227.903137	737.900391	761.825867	753.281006	64.285515
228.278870	741.912781	762.568848	756.996094	73.021225
228.654572	748.005554	771.187988	744.141785	-16.666798
229.030273	743.844543	774.903076	745.702148	5.980981
229.405930	731.064453	774.085754	751.794922	48.186523
229.781555	726.829163	767.844299	758.482239	77.174133
230.157181	719.696106	767.027039	756.030212	76.766090
230.532761	719.250305	764.352051	750.828918	70.016388
230.908325	715.980957	772.079590	757.887695	74.701889
231.283859	726.234802	769.107422	766.432617	93.761040
231.659332	731.436035	769.776184	768.736023	97.287018
232.034821	740.055115	758.110657	767.918640	154.321182
232.410263	727.423645	765.763855	763.609070	94.379829
232.785690	735.151123	767.695740	756.401672	65.296661
233.161087	734.482422	775.571777	751.497742	41.410530
233.536469	742.730042	771.856689	748.154053	18.622160
233.911804	741.021057	777.577942	749.788757	23.983719
234.287140	733.442200	772.896912	746.073547	32.014801
234.662430	735.076843	772.228210	745.181946	27.199814
235.037704	734.036560	764.500732	744.587585	34.634209
235.412933	738.791992	771.485168	752.835205	42.954567
235.788162	732.179016	772.822693	751.646301	47.897449
236.163345	733.293640	773.342773	755.955872	56.586071
236.538513	734.854004	771.410889	754.247009	53.048847
236.913635	732.773438	770.221985	759.671082	71.825600
237.288742	726.160461	775.200378	762.197327	73.484756
237.663834	724.228699	776.537781	757.887878	64.346725
238.038879	732.847717	775.348877	767.918701	82.517708
238.413910	735.671204	776.760559	767.249939	76.853813
238.788910	740.426575	775.125977	766.209656	74.304108
239.163879	737.603027	783.224915	756.698975	41.856987
239.538834	730.247131	780.550049	749.120117	37.518669
239.913757	728.315247	779.435547	761.008484	63.953533
240.288651	731.138733	774.903015	763.386169	73.684372
240.663528	736.562805	773.639954	775.794739	105.811623
241.038361	731.138733	774.085754	767.472839	84.602158
241.413177	721.850891	773.416992	764.277832	82.276810
241.787979	715.906738	774.234375	754.544128	66.241997
242.162735	718.210144	772.302429	755.881592	69.642921
242.537476	720.810730	775.200195	753.875427	60.792465
242.912170	718.210144	773.491272	758.630798	73.118362
243.286865	722.965515	769.999023	757.070496	72.512093
243.661514	728.761047	764.797852	759.968262	86.598175
244.036148	734.631042	769.627625	756.327393	61.995625
244.410751	734.928223	773.565674	757.293274	57.884384
244.785339	725.120300	773.342773	758.184875	68.566734
245.159882	729.949951	773.491394	759.671082	68.259407
245.534378	730.990173	783.522217	759.745361	54.738377
245.908890	736.191406	790.952454	754.618469	33.649948
246.283356	727.200684	784.265198	758.482178	54.817772
246.657791	727.423645	782.184753	758.036377	55.902325
247.032196	734.333801	780.327209	767.695801	72.536484
247.406586	737.305969	782.704834	765.689636	62.520653
247.780960	731.361633	779.138367	766.506897	73.561462
248.155289	726.754883	781.887512	755.658691	52.425957
248.529602	721.330811	786.271423	752.166443	47.482819
248.903870	726.309082	782.779114	746.965149	36.578812
249.278122	724.971619	783.968018	754.246887	49.622128
249.652344	734.482361	783.893738	754.246887	39.999950
250.026550	730.618652	788.351807	760.636902	51.994820
250.400711	739.757874	787.014404	761.157043	45.282990
250.774857	740.426575	783.819336	762.866028	51.712433
251.148987	740.055115	782.556213	763.460449	55.069950
251.523071	732.030334	775.274597	757.367615	58.591080
251.897125	732.327637	788.500488	759.968201	49.206268
252.271164	729.801331	791.918396	757.070496	43.899635
252.645187	728.240967	800.314636	759.893860	43.917416
253.019165	721.405090	795.187744	757.144714	48.439060
253.393112	727.572266	799.348633	762.643127	48.861294
253.767044	731.361633	795.930725	764.426453	51.208431
254.140930	729.578430	793.627380	761.677246	50.116070
254.514801	727.126465	785.899902	761.157043	57.901291
254.888657	720.736389	788.426208	761.602844	60.373119
255.262466	724.674500	781.738953	759.299500	60.677002
255.636276	726.160461	787.608887	757.664856	51.269653
256.010010	731.956055	795.113464	757.739075	40.823429
256.383759	737.157227	798.605652	764.277771	44.135460
256.757446	739.609192	800.166016	765.689636	43.067722
257.131134	737.305908	796.153625	762.791809	43.308224
257.504791	735.596924	797.193848	762.717468	44.029057
257.878418	731.658875	797.268250	762.494568	46.998913
258.252014	727.795166	799.794495	762.866028	48.709984
258.625580	721.107910	799.794495	757.739197	46.553410
258.999115	723.782776	799.868835	755.658691	41.894554
259.372650	730.618652	795.039124	751.646301	32.641254
259.746124	735.522644	808.933777	750.680359	20.647705
260.119598	729.801331	816.215393	741.689758	13.757515
260.493042	733.590759	827.658020	744.067444	11.137440
260.866425	734.705322	827.137878	746.742371	13.022520
261.239838	731.510315	824.314270	754.767029	25.060045
261.613159	721.256531	819.707520	753.280945	32.528282
261.986511	723.114075	814.877930	753.949707	33.603245
262.359802	738.123230	817.181335	749.120056	13.909802
262.733063	738.271912	815.472351	747.485352	11.934440
263.106293	736.042786	811.682861	751.720642	20.726917
263.479523	731.510254	813.243347	762.048645	37.363556
263.852692	740.575195	809.528137	769.701904	42.241432
264.225861	737.454529	814.655090	764.500671	35.033607
264.598969	740.500977	809.008057	760.636963	29.392563
264.972076	731.584656	815.175232	764.797852	39.733181
265.345154	732.550476	817.404297	767.695740	41.418598
265.718201	727.274963	818.815918	771.708069	48.539047
266.091217	737.528809	825.949036	769.181824	35.798386
266.464203	741.095276	830.110046	768.141602	30.384087
266.837158	733.590759	832.339050	764.723633	31.527506
267.210114	723.559875	829.292664	763.831970	38.088558
267.583038	722.519714	821.342285	769.404602	47.443501
267.955902	730.470032	824.834473	772.005188	44.015686
268.328766	731.138855	823.274109	774.680176	47.258045
268.701569	734.928223	830.630127	775.646057	42.546524
269.074371	737.008728	832.041931	770.593506	35.340046
269.447144	741.318176	837.837463	766.506836	26.097023
269.819885	739.832214	847.794006	760.191162	18.857550
270.192596	734.631042	849.577332	769.479004	30.316734
270.565277	739.832214	855.595764	766.804016	23.299046
270.937927	737.900208	853.961182	760.191101	19.206192
271.310577	737.974609	863.992004	751.572021	10.790108
271.683136	735.968445	863.620422	754.841370	14.784671
272.055725	724.525818	877.589355	762.123047	24.563152
272.428284	729.652771	889.626465	762.197327	20.343693
272.800812	739.312073	895.199219	758.482178	12.297425
273.173279	753.652527	893.341614	761.677185	5.744657
273.545776	751.572021	885.316895	763.980652	9.277836
273.918152	736.785828	887.991882	771.410828	22.899216
274.290558	731.956116	880.190002	769.479004	25.313299
274.662964	730.395752	876.549133	773.862793	29.740702
275.035278	731.510315	877.812317	765.169434	23.006601
275.407593	729.950012	879.521301	766.061096	24.143059
275.779907	737.231628	885.688477	757.739075	13.813743
276.152161	738.049011	883.830872	765.466614	18.807280
276.524384	742.507141	889.552185	763.831970	14.502243
276.896606	730.618652	889.329285	763.386169	20.646076
277.268799	725.194519	889.849365	758.779297	20.397078
277.640930	718.061462	901.514954	761.157043	23.491283
278.013031	720.216309	912.883301	764.575012	23.023510
278.385162	723.931396	920.759338	757.813477	17.214060
278.757233	727.795166	916.375488	756.030273	14.972457
279.129272	725.268860	912.511719	756.996094	16.944429
279.501282	725.640442	916.895508	766.952698	21.600607
279.873230	722.296692	920.907898	767.324219	22.671192
280.245178	722.371094	927.149353	767.695801	22.133554
280.617126	726.903503	938.443359	772.599670	21.601683
280.988983	737.603088	945.279236	773.491394	17.280899
281.360870	748.154053	958.430847	773.937195	12.261525
281.732697	747.039551	971.359436	767.918640	9.307730
282.104492	746.816650	984.288147	763.831970	7.165205
282.476288	742.432800	986.145691	766.878418	10.030499
282.848053	738.271912	991.792786	764.797852	10.463020
283.219757	736.637207	999.371582	768.364441	12.075784
283.591461	735.448425	1004.424133	766.358215	11.491666
283.963135	734.036621	1000.634705	775.200256	15.440334
284.334747	730.618652	1007.024719	777.503662	16.962366
284.706360	733.962341	1021.811035	776.463379	14.765061
285.077942	738.197510	1034.368164	770.890808	11.038669
285.449524	736.785828	1040.015259	772.599670	11.810807
285.821014	736.785828	1047.073853	773.639954	11.877393
286.192535	740.278015	1058.888062	777.800842	11.777039
286.563995	743.770264	1065.055176	771.485168	8.626270
286.935425	736.265686	1069.439087	774.903015	11.596763
287.306824	735.076843	1064.312134	776.091980	12.457698
287.678223	730.172852	1065.575317	778.395325	14.377495
288.049561	726.977844	1063.717773	775.423157	14.386566
288.420898	721.776672	1065.278198	775.200256	15.552649
288.792145	728.686829	1067.804321	775.423157	13.781751
289.163452	738.569031	1068.621704	778.915466	12.224241
289.534668	729.504150	1076.275024	766.432556	10.649223
289.905914	723.857117	1090.243774	769.330383	12.411278
290.277039	716.426941	1115.952515	770.296326	13.483338
290.648193	727.349365	1135.196899	782.036133	13.408630
291.019318	735.225403	1150.874756	776.612000	9.957094
291.390381	731.584534	1153.401001	771.410828	9.441617
291.761475	727.497864	1157.487671	774.605896	10.955616
292.132507	721.405090	1147.754028	776.314758	12.879045
292.503510	730.098572	1143.890503	774.382996	10.702100
292.874481	738.569031	1145.450806	776.686340	9.368154
293.245422	736.488586	1145.079224	777.280762	9.983629
293.616364	735.448303	1150.429077	779.064026	10.510300
293.987213	725.045898	1164.175049	766.581238	9.458570
294.358093	726.234802	1189.289429	769.107422	9.258653
294.728943	727.423645	1212.992065	764.575012	7.651109
295.099731	728.538147	1231.121826	754.767090	5.218821
295.470490	731.435974	1243.307495	751.051941	3.832205
295.841248	724.748779	1259.356812	752.389343	5.170249
296.211975	725.863281	1269.907837	763.237488	6.869696
296.582642	719.398926	1292.941650	764.277832	7.824859
296.953308	719.993347	1321.845337	767.027039	7.814827
297.323883	725.714661	1338.489380	764.946472	6.402322
297.694519	725.714661	1352.904053	769.627625	7.001548
298.065063	733.665039	1352.458130	768.513000	5.631601
298.435608	726.977844	1351.863647	773.119873	7.384074
298.806122	733.590759	1329.572876	764.797913	5.236257
299.176575	731.658875	1305.721802	762.568848	5.384422
299.547028	732.773376	1285.734253	750.011658	3.117450
299.917450	734.036621	1284.173950	756.327332	4.051845
300.287872	734.333801	1278.675537	751.943542	3.235053
300.658234	739.386414	1277.783813	755.064270	2.911949
301.028564	727.349304	1273.845825	757.813477	5.574450
301.398865	722.296814	1280.235840	764.426453	7.550940
301.769135	720.290588	1286.477295	776.760681	9.973758
302.139374	731.064453	1286.180054	773.416992	7.629499
302.509583	732.030457	1279.344238	774.085754	7.683947
302.879791	735.002502	1280.533081	771.559509	6.701184
303.249939	728.686829	1287.369019	768.215820	7.075398
303.620087	734.556702	1289.078003	763.237549	5.172181
303.990173	728.612488	1289.375122	762.271545	6.002372
304.360260	732.922058	1287.814819	764.575012	5.704337
304.730286	725.343079	1291.009766	766.209656	7.224498
305.100281	724.822998	1305.201538	766.358215	7.156574
305.470276	723.931335	1309.511108	763.757751	6.801194
305.840179	730.024231	1325.932007	763.980652	5.698268
306.210144	730.990234	1327.417969	760.859863	5.008089
306.579987	729.875671	1335.294067	767.027039	6.136478
306.949890	730.470032	1344.804810	772.674011	6.869866
307.319702	739.534973	1354.315796	774.977356	5.765044
307.689484	733.888000	1367.615845	771.633789	5.956151
308.059265	740.723816	1384.631226	777.503662	5.711977
308.429016	738.866211	1411.157227	773.937073	5.216619
308.798737	744.141785	1441.101196	768.735901	3.528773
309.168396	736.339905	1464.878296	759.522400	3.182055
309.538055	732.030457	1477.732544	759.299500	3.656828
309.907684	731.510315	1496.605469	762.568848	4.059434
310.277313	733.144958	1502.326660	762.940430	3.873658
310.646851	737.603088	1507.007813	761.528625	3.109617
311.016388	739.609314	1514.586548	763.163269	3.039309
311.385895	738.197510	1523.057129	767.472839	3.730008
311.755371	734.408142	1534.574097	776.389160	5.246539
312.124817	736.339905	1533.608032	777.503662	5.163101
312.494232	733.887939	1535.540039	773.639954	4.958761
312.863617	730.172852	1531.750610	763.906250	4.208375
313.232971	720.662109	1521.199585	762.494568	5.225546
313.602295	720.067688	1518.524780	757.887695	4.736636
313.971619	720.067688	1534.722656	764.352051	5.435966
314.340820	721.702332	1544.902222	766.061035	5.388570
314.710083	719.770508	1562.660522	776.612061	6.743650
315.079285	718.804504	1563.849487	779.138367	7.139722
315.448486	724.748779	1585.694336	780.624329	6.490021
315.817596	727.052063	1582.053589	772.451111	5.309821
316.186707	731.287415	1573.731812	767.175598	4.260006
316.555786	731.807556	1546.908203	764.649353	4.029171
316.924866	732.847717	1531.230469	768.884583	4.513733
317.293884	735.819824	1529.521484	770.965027	4.428012
317.662872	734.259460	1542.078735	772.451111	4.727747
318.031830	736.934387	1548.468750	764.946533	3.451751
318.400757	735.522644	1553.892700	772.971191	4.575992
318.769684	734.482422	1564.443726	769.701904	4.243509
319.138550	724.525818	1577.075195	782.407715	6.789272
319.507416	716.278259	1599.366089	775.423157	6.697510
319.876190	720.662109	1605.013062	774.605896	6.099817
320.244995	734.408142	1605.235962	769.330383	4.010235
320.613770	737.380188	1582.870972	767.844299	3.603127
320.982483	738.197510	1565.484009	767.844299	3.583618
321.351166	732.921936	1557.087891	766.878357	4.120095
321.719818	738.420410	1548.320190	762.791748	3.009179
322.088440	736.339905	1559.465454	763.832031	3.339967
322.457062	735.225403	1573.731567	762.940369	3.305279
322.825623	736.339905	1601.817993	766.952698	3.537096
323.194183	733.367859	1620.913940	769.479004	4.068650
323.562653	734.259521	1658.065308	768.661621	3.723954
323.931183	726.532043	1690.758423	773.417053	4.862448
324.299591	725.120300	1739.055176	769.776184	4.404216
324.668060	721.776611	1760.974609	770.073425	4.647508
325.036407	717.541321	1786.980469	764.277771	4.370183
325.404755	717.764343	1797.160034	769.033142	4.749768
325.773102	713.677673	1811.797485	770.593445	5.183020
326.141388	720.513489	1822.422729	768.735901	4.376260
326.509674	714.643555	1831.784790	766.506836	4.642500
326.877899	721.479431	1843.896362	769.330322	4.263201
327.246124	717.838562	1849.171753	771.856628	4.774726
327.614288	723.336975	1853.852905	772.525391	4.350971
327.982422	722.148132	1849.989258	769.404724	4.190004
328.350525	728.389587	1845.753906	767.472839	3.497808
328.718628	732.030457	1841.592896	764.500671	2.926398
329.086700	734.556641	1834.162720	767.547119	3.000209
329.454712	733.070618	1837.060547	772.079590	3.533453
329.822693	734.333801	1849.766113	772.451172	3.417273
330.190674	726.977844	1868.639160	771.485168	3.898470
330.558563	725.194519	1886.174438	775.125977	4.300803
330.926483	724.897400	1901.183594	776.537659	4.390110
331.294312	729.429871	1923.251587	774.011414	3.734355
331.662231	733.367859	1945.245239	767.249817	2.795824
332.029999	736.562805	1968.873535	764.203430	2.242991
332.397766	743.250183	1986.334595	764.203430	1.685585
332.765503	744.438965	2020.662476	770.073425	2.008618
333.133240	746.519348	2052.909912	776.091858	2.263680
333.500916	742.358459	2091.993164	771.410828	2.152610
333.868561	741.318176	2101.355225	767.621399	1.934008
334.236176	737.751709	2102.841553	769.999084	2.362290
334.603790	732.550537	2107.745117	777.057861	3.236438
334.971344	727.572266	2111.163330	774.457275	3.388646
335.338867	722.371094	2117.181641	771.262268	3.505220
335.706360	721.702332	2117.181641	771.039368	3.535491
336.073853	721.553711	2118.221924	771.708008	3.590996
336.441284	723.634216	2126.766846	772.451111	3.479136
336.808655	728.018066	2115.398438	773.565613	3.282989
337.176086	727.572266	2095.856689	771.708008	3.225626
337.543396	729.058289	2051.572266	774.680176	3.449634
337.910706	730.247131	2024.377563	776.017639	3.536777
338.277954	732.401917	2044.290649	781.144531	3.715454
338.645264	727.646545	2117.999023	779.064026	3.698161
339.012421	726.011902	2220.313965	775.051697	3.281786
339.379669	734.631042	2302.641357	773.937195	2.506753
339.746796	737.380188	2360.597412	775.051697	2.320793
340.113953	739.906494	2380.584717	777.355042	2.282504
340.481018	733.367859	2393.810791	771.559387	2.300081
340.848114	734.556641	2386.380615	768.661621	2.064686
341.215118	728.686707	2387.420898	766.061035	2.253184
341.582153	735.596924	2398.269043	772.748230	2.234434
341.949066	736.265625	2423.829102	774.382996	2.258722
342.316010	744.216003	2450.652344	778.543945	2.011674
342.682922	736.488586	2455.036377	777.949524	2.412556
343.049835	737.528809	2457.562500	776.314758	2.254953
343.416656	734.705322	2478.292725	775.125977	2.318247
343.783478	735.671204	2527.629883	779.361267	2.438118
344.150269	736.860046	2592.644531	776.909241	2.158074
344.516998	734.705322	2651.864014	776.166260	2.162624
344.883728	737.380188	2707.368408	768.810242	1.595444
345.250427	729.504150	2748.457764	771.336609	2.071987
345.617065	730.990173	2776.766846	772.896973	2.048454
345.983704	726.754944	2789.101563	778.618164	2.514767
346.350281	731.287415	2780.184814	785.602722	2.650953
346.716827	733.590820	2770.897217	783.150696	2.432618
347.083405	724.971619	2756.185547	785.379700	2.973989
347.449860	737.825989	2747.566406	789.169189	2.554718
347.816376	737.677429	2722.823486	790.283752	2.649998
348.182770	749.194336	2706.179443	783.299316	1.742731
348.549194	732.550537	2703.355713	771.410828	1.971798
348.915558	732.327637	2721.783203	769.107422	1.848736
349.281921	729.727051	2748.160400	779.955627	2.488493
349.648193	728.240967	2759.454834	783.745117	2.732561
350.014526	720.364807	2790.884766	790.135071	3.369698
350.380737	715.163757	2813.769531	788.277527	3.483921
350.746948	716.055359	2855.304932	786.271423	3.282276
351.113159	722.742493	2868.382080	774.382874	2.406759
351.479309	728.092346	2905.310547	764.872253	1.689307
351.845428	729.206848	2930.721924	762.048645	1.491782
352.211517	726.606262	2972.406006	770.742188	1.965265
352.577576	725.343201	2998.857666	780.475769	2.424993
352.943604	730.767334	3033.334229	781.516052	2.204006
353.309601	733.293640	3063.426758	784.636719	2.203440
353.675537	730.692932	3110.906250	779.361267	2.044705
354.041473	728.761047	3169.679688	778.692566	2.045604
354.407379	724.451477	3246.508545	779.064026	2.165397
354.773254	727.497864	3320.440186	772.376770	1.730810
355.139038	721.999512	3392.513672	776.983582	2.058932
355.504913	725.268860	3464.067139	778.246643	1.934344
355.870636	727.795166	3530.270752	786.865784	2.107801
356.236389	739.312073	3608.808594	787.534485	1.680518
356.602081	740.872498	3683.037354	789.020569	1.636485
356.967804	739.980774	3761.055420	785.899902	1.519960
357.333405	731.584656	3832.757080	786.197083	1.761025
357.699036	733.144958	3928.756592	785.008301	1.622955
358.064606	733.219238	4038.501221	793.553040	1.825375
358.430176	734.705261	4137.026855	793.924500	1.740554
358.795654	732.773438	4203.750488	791.769775	1.699704
359.161163	728.686829	4199.069824	780.624451	1.496596
359.526581	726.011963	4174.252930	780.029968	1.566538
359.892029	727.423645	4179.230957	778.915466	1.491735
360.257416	725.714661	4270.400391	779.361267	1.513438
360.622772	726.903564	4427.104980	775.720398	1.319302
360.988098	722.816895	4578.459473	772.376770	1.285386
361.353394	728.092285	4752.402344	774.754456	1.159507
361.718658	733.887939	4895.211914	776.834961	1.032052
362.083893	731.287415	5043.445801	780.327209	1.137245
362.449097	734.185242	5158.986328	782.259094	1.086464
362.814209	729.578430	5184.397949	782.556335	1.189227
363.179382	732.847839	5088.027344	774.159973	0.948575
363.544434	738.717773	4874.258301	776.686340	0.918104
363.909546	732.476257	4660.786621	777.355042	1.142445
364.274536	731.138855	4469.308594	785.082520	1.443050
364.639587	728.612488	4334.895020	784.710938	1.555576
365.004517	730.321472	4243.576660	787.014404	1.613687
365.369507	739.534973	4205.607910	791.249695	1.492026
365.734344	737.825989	4162.884277	789.243469	1.501215
366.099274	740.129395	4139.924805	794.296082	1.593234
366.464081	729.875671	4120.308594	789.169250	1.748850
366.828918	725.863281	4125.583984	789.763611	1.879576
367.193665	727.052063	4141.707520	786.419922	1.738619
367.558411	727.795105	4153.818848	791.992676	1.873822
367.923126	731.361633	4167.640137	789.540710	1.693084
368.287781	738.420410	4172.469238	788.723389	1.464830
368.652435	745.627747	4163.255859	791.472595	1.341423
369.017059	745.107666	4160.209473	792.735657	1.394629
369.381653	739.906555	4139.701660	793.181458	1.567003
369.746185	740.723877	4129.671387	784.488098	1.291381
370.110687	733.367859	4132.940430	784.859680	1.514656
370.475220	725.863281	4151.367188	782.853516	1.663704
370.839661	716.798340	4210.065918	788.203308	2.044074
371.204041	717.838562	4259.625977	791.621155	2.083202
371.568451	732.996338	4324.566895	788.797668	1.553675
371.932770	738.197510	4363.353027	784.042297	1.264629
372.297150	739.460693	4388.244629	780.475769	1.124075
372.661377	725.937561	4401.321777	782.779114	1.546547
373.025696	728.315247	4417.965332	785.156921	1.540571
373.389862	721.702332	4438.175781	783.373596	1.659403
373.754059	728.909668	4438.027344	782.853455	1.454356
374.118225	727.423645	4428.813477	781.738953	1.467430
374.482361	734.036560	4435.203613	784.413818	1.361118
374.846436	735.448303	4495.388672	783.745117	1.284510
375.210510	736.934326	4583.362793	787.831787	1.323239
375.574524	739.089172	4689.987793	793.998840	1.389802
375.938538	733.888000	4794.605957	795.782043	1.524214
376.302460	734.482361	4895.583496	794.519043	1.442808
376.666412	735.299744	5010.381348	788.649109	1.247915
377.030304	736.488525	5120.423340	791.398254	1.252522
377.394196	732.104675	5242.651855	793.330139	1.357384
377.757996	737.231628	5324.384766	791.918457	1.192174
378.121796	744.810486	5376.396484	791.992676	1.018705
378.485565	744.438965	5383.083496	791.175293	1.007543
378.849304	736.860107	5362.873047	790.506592	1.159670
379.212982	730.172852	5298.304199	787.608887	1.257320
379.576630	731.138855	5198.069824	788.128967	1.275823
379.940277	733.144958	5100.361328	792.141296	1.350891
380.303864	735.076843	5015.953613	786.197083	1.194153
380.667450	734.110840	5002.504883	782.036072	1.122793
381.030945	730.990234	4996.115234	783.522156	1.231662
381.394501	729.281250	5027.916992	794.444641	1.515909
381.757935	728.612488	5030.889160	797.491028	1.600979
382.121399	733.145020	5052.437012	790.060852	1.317712
382.484741	736.191406	5087.061523	787.757507	1.185191
382.848145	732.996338	5127.927734	782.853516	1.134424
383.211487	730.767273	5193.389160	796.525208	1.473527
383.574768	726.606262	5257.289063	798.605713	1.589152
383.938019	733.070618	5326.464844	798.531433	1.425108
384.301270	733.739441	5397.869629	793.701660	1.285603
384.664459	737.454590	5468.978027	792.067078	1.154226
385.027649	739.534973	5524.853027	807.596252	1.422294
385.390778	734.556702	5561.335938	813.986328	1.645603
385.753876	725.268860	5587.787598	817.032715	1.887167
386.116943	719.547546	5622.412598	813.614746	1.918617
386.479980	730.024231	5642.251465	813.763428	1.704709
386.842987	741.764099	5688.170410	821.788086	1.617821
387.205994	742.284180	5729.037109	829.218445	1.743304
387.568909	738.271790	5799.847656	842.295593	2.055166
387.931793	732.327637	5834.843750	847.719727	2.261474
388.294678	734.631042	5888.416016	857.973450	2.393239
388.657471	736.488586	5893.171875	862.728821	2.448090
389.020294	739.757874	5897.035645	869.862000	2.522729
389.383057	738.494812	5875.414063	877.292236	2.701958
389.745819	732.401917	5886.261719	887.917480	3.017458
390.108521	736.562805	5913.604980	909.391052	3.338359
390.471191	738.197571	5987.238770	921.130859	3.485080
390.833801	741.912659	6064.587891	938.220520	3.688143
391.196442	736.414307	6193.279785	953.898376	3.985513
391.558960	735.076843	6315.136719	981.167480	4.410179
391.921509	734.556641	6464.187988	1004.498535	4.711331
392.284027	728.835449	6590.874512	1025.600464	5.062488
392.646484	721.702393	6713.027832	1057.327637	5.601853
393.008911	722.668274	6747.281250	1086.677246	6.042031
393.371307	730.767273	6732.867188	1126.354858	6.590819
393.733673	730.247070	6663.021973	1151.097778	7.093657
394.096008	735.374023	6633.449219	1188.917847	7.689692
394.458344	735.151123	6643.257813	1232.979370	8.426189
394.820587	739.089172	6673.053223	1279.195557	9.101950
395.182831	740.500977	6717.857422	1325.560547	9.787931
395.545013	739.683594	6707.678223	1359.739746	10.389690
395.907196	744.587585	6671.642090	1408.185181	11.196076
396.269287	728.018066	6585.079590	1452.915405	12.376468
396.631409	722.073914	6503.420410	1511.465942	13.654120
396.993469	716.872620	6401.996582	1561.025879	14.848458
397.355530	724.377258	6338.542480	1615.415405	15.871249
397.717499	727.646545	6305.700684	1671.811157	16.926414
398.079468	733.293640	6304.808594	1729.841675	17.886482
398.441376	729.206970	6325.390625	1789.358032	18.944181
398.803284	728.909668	6335.421875	1857.791016	20.135180
399.165131	722.148132	6375.322266	1943.759277	21.609295
399.526978	724.674500	6388.845215	2020.588257	22.879145
399.888763	719.696106	6401.773438	2099.126221	24.276865
400.250519	719.027405	6404.597168	2181.082275	25.715187
400.612244	724.971680	6422.950684	2278.641602	27.267035
400.973938	732.253418	6442.937500	2358.814209	28.482765
401.335602	733.962341	6463.593750	2432.374023	29.642599
401.697205	733.813660	6488.039063	2508.385498	30.839455
402.058807	727.349304	6538.342285	2612.929443	32.448498
402.420349	731.361633	6624.904785	2725.200928	33.830914
402.781860	729.578430	6701.957031	2846.983154	35.453293
403.143341	731.807434	6814.005371	2964.752930	36.712807
403.504822	728.761047	6916.171875	3095.748779	38.254902
403.866241	724.674500	7044.864746	3247.251953	39.912998
404.227631	721.182190	7164.045410	3383.968750	41.329243
404.588959	723.857117	7287.388184	3526.258545	42.696548
404.950287	723.559875	7416.229004	3638.233154	43.550240
405.311554	734.482422	7498.481934	3751.990479	44.611298
405.672821	732.996338	7574.048340	3855.419678	45.642445
406.034027	735.374023	7571.298828	3952.384766	47.060360
406.395203	733.367859	7527.311035	4017.548096	48.339821
406.756348	732.476257	7456.871582	4078.476563	49.759125
407.117493	734.853821	7432.575684	4132.717285	50.731632
407.478516	730.990173	7420.761230	4207.911621	51.973698
407.839600	739.089172	7428.785645	4268.319824	52.756218
408.200592	737.380188	7439.188965	4343.216797	53.803932
408.561554	734.853943	7440.600098	4411.204102	54.823879
408.922485	726.532043	7436.959473	4488.330078	56.058994
409.283417	724.005676	7442.978027	4552.601563	56.981869
409.644257	724.228577	7506.357910	4643.250977	57.784542
410.005096	726.383362	7611.422363	4755.819824	58.524529
410.365906	728.463867	7686.988281	4853.379395	59.278595
410.726715	734.928223	7795.915527	4965.502441	59.914768
411.087433	735.894104	7866.428223	5040.399414	60.367222
411.448120	739.832214	7952.545410	5138.850586	60.989788
411.808807	727.869446	7969.115723	5199.778809	61.756073
412.169434	727.349304	7936.273926	5225.115723	62.391644
412.530029	729.132568	7913.017090	5247.257813	62.892506
412.890564	740.946777	7894.515625	5275.493164	63.388588
413.251099	746.147949	7913.685547	5341.696777	64.116142
413.611572	746.742371	7935.382324	5402.551270	64.766197
413.972076	739.089172	7956.558594	5479.008301	65.672867
414.332489	741.466797	8003.071777	5547.441406	66.183365
414.692871	737.603027	8108.359375	5654.437012	66.707321
415.053223	743.695862	8230.140625	5747.612793	66.839699
415.413574	731.436035	8394.350586	5883.884277	67.238754
415.773834	729.578430	8527.574219	5986.272949	67.410843
416.134094	726.309082	8657.307617	6109.095703	67.870224
416.494263	730.544373	8783.547852	6216.611816	68.124489
416.854462	725.343201	8967.595703	6390.405762	68.731964
417.214630	727.572266	9191.395508	6555.506348	68.856995
417.574738	729.281250	9421.584961	6739.107910	69.139633
417.934784	734.779602	9645.682617	6904.877441	69.242111
418.294861	737.454529	9932.341797	7111.885254	69.325813
418.654846	733.145020	10260.760742	7365.257324	69.609360
419.014832	730.915833	10619.047852	7632.523438	69.796883
419.374756	729.578430	10983.577148	7913.017090	70.054993
419.734680	736.042786	11393.057617	8223.453125	70.258041
420.094543	730.098572	11828.695313	8530.843750	70.285866
420.454376	721.850891	12215.961914	8816.909180	70.427872
420.814148	721.182190	12568.973633	9066.269531	70.435806
421.173920	728.092346	12917.825195	9340.891602	70.656174
421.533691	733.813660	13299.221680	9621.608398	70.732239
421.893341	725.640381	13622.512695	9874.979492	70.942307
422.253021	725.194580	13851.215820	10051.894531	71.055046
422.612640	722.668274	13919.574219	10135.633789	71.327065
422.972260	725.937500	13909.617188	10135.856445	71.375511
423.331757	725.045898	13827.809570	10110.295898	71.628021
423.691315	729.281189	13823.203125	10123.522461	71.745056
424.050781	736.265686	13913.481445	10180.290039	71.669350
424.410248	740.426575	14050.570313	10262.022461	71.536385
424.769653	739.980774	14181.195313	10373.253906	71.669662
425.128998	739.460693	14215.002930	10462.417969	72.152626
425.488373	739.386414	14168.562500	10449.339844	72.304909
425.847656	739.386414	14044.776367	10353.935547	72.260559
426.206940	733.442139	13902.484375	10240.401367	72.191727
426.566193	732.253357	13650.079102	10072.997070	72.308945
426.925385	730.395691	13400.348633	9911.388672	72.462723
427.284576	737.231628	13045.032227	9656.530273	72.468666
427.643677	734.259460	12777.987305	9480.877930	72.623848
428.002777	741.541199	12500.764648	9291.554688	72.709000
428.361847	736.711426	12205.411133	9126.528320	73.154037
428.720856	743.844482	11948.174805	8962.617188	73.353539
429.079865	743.844543	11741.539063	8823.225586	73.464317
429.438812	738.717590	11657.725586	8703.969727	72.948494
429.797760	733.144958	11581.565430	8636.577148	72.853294
430.156616	730.247131	11476.796875	8547.041992	72.737717
430.515503	728.538147	11371.957031	8497.555664	72.993629
430.874268	731.436035	11335.622070	8487.005859	73.136871
431.233093	729.801331	11340.081055	8525.569336	73.473732
431.591827	732.476257	11404.354492	8588.577148	73.614983
431.950562	737.751709	11442.471680	8601.877930	73.464096
432.309204	732.773438	11497.231445	8649.059570	73.540962
432.667877	744.364685	11605.268555	8726.780273	73.496788
433.026459	741.243958	11706.617188	8798.482422	73.478928
433.385010	737.974609	11859.754883	8877.912109	73.189163
433.743561	726.531982	11977.747070	8968.115234	73.250603
434.102051	718.433044	12134.155273	9103.717773	73.453827
434.460510	725.343201	12280.531250	9205.290039	73.386490
434.818939	730.024231	12342.871094	9273.945313	73.573013
435.177338	739.386414	12373.409180	9291.109375	73.506157
435.535675	735.299805	12342.722656	9289.250977	73.693802
435.894012	732.847717	12310.920898	9250.465820	73.566803
436.252289	723.708496	12328.531250	9294.453125	73.855026
436.610535	726.160461	12297.843750	9285.982422	73.972145
436.968719	731.956055	12400.901367	9364.446289	73.978325
437.326935	733.813660	12475.946289	9402.638672	73.826668
437.685028	735.374023	12613.480469	9492.990234	73.729057
438.043152	735.745544	12696.774414	9551.168945	73.701218
438.401215	740.129395	12857.045898	9674.883789	73.737854
438.759277	738.123230	13038.270508	9826.907227	73.891670
439.117249	733.367859	13365.276367	10075.523438	73.956802
439.475250	732.476257	13613.297852	10276.958008	74.098389
439.833130	734.185242	13922.398438	10490.429688	73.976997
440.191071	732.922058	14134.829102	10640.372070	73.925674
440.548889	721.033630	14418.293945	10827.690430	73.785973
440.906708	725.640381	14724.272461	11040.641602	73.685776
441.264496	730.767273	14952.976563	11190.956055	73.548271
441.622223	742.432800	15113.842773	11302.038086	73.476471
441.979950	735.448425	15173.656250	11367.721680	73.639839
442.337616	728.761047	15207.834961	11433.627930	73.933365
442.695251	733.145020	15132.342773	11401.752930	74.091682
443.052887	732.179016	14966.574219	11289.851563	74.170151
443.410461	733.665039	14809.573242	11140.281250	73.932114
443.768005	728.241028	14685.932617	11029.867188	73.806091
444.125458	725.491760	14623.815430	10964.926758	73.673882
444.482941	725.045959	14659.480469	11009.954102	73.809296
444.840393	724.525879	14737.497070	11114.795898	74.147514
445.197754	732.253235	14952.678711	11296.687500	74.290565
445.555084	735.522644	15113.768555	11446.481445	74.494194
445.912415	731.733215	15435.350586	11638.554688	74.177811
446.269714	729.281250	15657.217773	11793.104492	74.114883
446.626953	727.943665	15979.765625	12026.711914	74.081436
446.984161	725.714661	16236.481445	12267.973633	74.414497
447.341309	723.411316	16475.587891	12440.801758	74.385849
447.698456	724.897400	16646.558594	12539.995117	74.207695
448.055542	733.813721	16759.869141	12597.581055	74.027992
448.412598	739.014893	16761.505859	12621.953125	74.164116
448.769653	739.237793	16652.949219	12577.148438	74.388115
449.126617	726.457703	16395.265625	12397.706055	74.487152
449.483582	724.971680	16182.315430	12280.456055	74.757248
449.840515	724.302917	15936.745117	12096.854492	74.758224
450.197388	736.637207	15763.842773	11964.520508	74.717041
450.554230	745.181946	15605.949219	11838.058594	74.645386
450.911041	743.918762	15497.245117	11733.291992	74.487427
451.267822	743.101563	15395.449219	11671.471680	74.584435
451.624573	734.779602	15259.699219	11539.807617	74.389587
451.981262	732.327637	15128.554688	11480.663086	74.660789
452.337921	733.516541	14997.484375	11378.496094	74.628464
452.694580	733.442200	14929.051758	11339.041992	74.710419
453.051147	729.801331	14923.331055	11337.629883	74.737068
453.407715	727.200684	14879.937500	11309.692383	74.773468
453.764221	727.646484	14941.608398	11349.815430	74.730530
454.120728	735.076721	14783.046875	11233.976563	74.736061
454.477142	736.637207	14772.124023	11205.221680	74.586540
454.833557	738.717712	14607.320313	11078.610352	74.556122
455.189911	732.401917	14507.457031	11001.038086	74.545151
455.546265	725.491699	14342.133789	10876.283203	74.546944
455.902557	722.668274	14188.773438	10773.448242	74.637619
456.258820	726.606262	14185.653320	10763.565430	74.574066
456.615051	731.881775	14232.538086	10809.336914	74.644188
456.971252	735.373962	14261.367188	10826.872070	74.608185
457.327393	735.299622	14389.019531	10929.484375	74.662323
457.683502	735.968445	14555.382813	11064.640625	74.740303
458.039612	733.888000	14904.307617	11354.273438	74.947571
458.395630	733.516541	15246.620117	11631.050781	75.087555
458.751648	735.225403	15576.301758	11918.973633	75.356720
459.107605	737.380188	16111.132813	12302.152344	75.224136
459.463562	738.866272	16667.140625	12693.801758	75.054810
459.819458	740.575256	17215.791016	13096.597656	74.997643
460.175323	742.655762	17660.123047	13439.429688	75.051270
460.531158	743.621643	18130.904297	13805.594727	75.123711
460.886932	735.819824	18530.058594	14068.848633	74.928909
461.242676	732.104736	18757.498047	14227.411133	74.868309
461.598419	732.104736	18672.199219	14167.523438	74.890465
461.954102	733.293518	18365.552734	13976.340820	75.106918
462.309723	739.906494	17864.603516	13622.437500	75.227791
462.665344	739.757874	17335.046875	13199.209961	75.078247
463.020905	743.175781	16877.863281	12820.710938	74.854469
463.376373	736.785828	16502.783203	12540.145508	74.865921
463.731873	739.237793	16202.301758	12338.784180	75.014542
464.087341	733.219238	15911.035156	12151.245117	75.228378
464.442749	731.807434	15761.092773	12054.204102	75.335564
464.798126	730.098450	15654.839844	11974.329102	75.339531
465.153503	736.042725	15715.471680	12009.770508	75.261398
465.508820	733.070618	15743.557617	11998.254883	75.048759
465.864105	728.984070	15824.472656	12102.352539	75.342827
466.219330	728.240967	16062.539063	12273.694336	75.291695
466.574524	727.572266	16225.930664	12403.129883	75.334160
466.929657	724.228577	16432.417969	12517.333008	75.076157
467.284790	727.274963	16591.425781	12632.354492	75.043915
467.639893	731.733215	16792.265625	12785.492188	75.052048
467.994934	739.460693	16982.554688	12944.424805	75.139404
468.349945	734.036560	17060.796875	13032.102539	75.324593
468.704926	727.200684	17089.552734	13076.237305	75.472267
469.059875	726.011902	16946.369141	12953.118164	75.381241
469.414764	722.519714	16758.310547	12819.745117	75.438911
469.769653	727.795166	16572.404297	12709.703125	75.621353
470.124451	728.984070	16469.718750	12650.707031	75.738037
470.479248	736.637207	16350.090820	12539.179688	75.592140
470.834015	736.860046	16250.524414	12422.597656	75.325447
471.188721	734.779602	16298.524414	12462.127930	75.350426
471.543365	733.888000	16350.090820	12518.225586	75.462250
471.898010	730.841614	16459.093750	12617.715820	75.576576
472.252625	729.949951	16569.951172	12681.096680	75.449150
472.607178	727.423645	16796.796875	12847.757813	75.425056
472.961700	729.875671	16999.869141	12981.949219	75.304726
473.316193	731.213074	17254.802734	13217.786133	75.568161
473.670654	734.408020	17428.667969	13377.461914	75.732941
474.025055	732.773438	17646.375000	13584.915039	75.987022
474.379456	734.333801	17798.029297	13732.703125	76.175583
474.733795	728.315247	17956.291016	13844.601563	76.133644
475.088104	729.504211	18069.232422	13945.133789	76.215897
475.442383	730.395813	18108.984375	13924.182617	75.919785
475.796570	735.894226	18190.345703	13976.565430	75.858421
476.150787	740.946777	18343.410156	14058.817383	75.659134
476.504944	735.968445	18557.996094	14216.489258	75.639656
476.859070	740.426575	18754.677734	14379.062500	75.710251
477.213135	739.014893	18972.605469	14550.256836	75.746147
477.567200	735.819824	19349.025391	14824.953125	75.694290
477.921173	723.857117	19735.769531	15104.554688	75.640457
478.275146	721.850891	20180.992188	15413.282227	75.498871
478.629089	728.018066	20446.771484	15618.358398	75.513596
478.983002	730.024231	20806.619141	15884.659180	75.484085
479.336823	726.234863	21153.166016	16151.109375	75.512444
479.690643	725.789001	21535.156250	16452.775391	75.576477
480.044403	730.692932	21958.162109	16782.978516	75.620346
480.398163	734.482422	22479.248047	17210.216797	75.768738
480.751862	737.974670	23208.828125	17782.869141	75.853348
481.105499	733.590820	24134.490234	18477.376953	75.825233
481.459137	737.305969	25326.750000	19393.976563	75.872681
481.812744	731.733215	26823.578125	20510.300781	75.803635
482.166290	733.739319	28599.117188	21923.912109	76.044807
482.519806	726.606262	30795.359375	23602.484375	76.078575
482.873291	732.401917	33357.984375	25618.908203	76.279114
483.226715	737.974609	36385.003906	27907.431641	76.218010
483.580139	741.020996	39471.390625	30323.978516	76.381805
483.933502	733.590759	42743.679688	32830.808594	76.403595
484.286804	737.157288	45771.738281	35246.761719	76.629120
484.640106	735.819885	48453.996094	37435.121094	76.908432
484.993347	735.225403	50259.996094	39060.714844	77.386505
485.346558	735.002502	51084.683594	39833.988281	77.654884
485.699738	732.104736	50835.324219	39717.332031	77.809822
486.052887	733.442200	49701.832031	38753.027344	77.641075
486.405975	717.541443	48061.750000	37382.214844	77.442787
486.759064	718.433044	46186.347656	35808.636719	77.175751
487.112061	721.182190	44464.605469	34392.871094	76.975433
487.464996	729.355469	43265.503906	33385.476563	76.772636
487.817963	732.327637	42831.800781	32972.355469	76.580597
488.170868	728.761047	42879.355469	32957.792969	76.461632
488.523743	725.863281	43141.425781	33193.550781	76.546638
488.876587	715.906738	43246.636719	33255.449219	76.508308
489.229401	722.965515	43096.917969	33148.300781	76.521858
489.582153	723.634216	42479.605469	32701.148438	76.581894
489.934845	730.024231	41547.105469	32016.375000	76.650139
490.287537	726.532043	40461.171875	31206.400391	76.708557
490.640198	724.377197	39570.136719	30476.228516	76.589706
490.992798	724.302917	38779.035156	29899.119141	76.665413
491.345337	719.101624	38500.769531	29622.119141	76.500107
491.697876	723.114075	38423.644531	29530.427734	76.410896
492.050354	728.909668	38833.500000	29766.783203	76.205711
492.402832	738.123230	39176.855469	30031.078125	76.206871
492.755219	736.785828	39319.218750	30167.423828	76.279892
493.107605	734.110840	38994.363281	29932.181641	76.314369
493.459930	729.652649	38206.832031	29361.912109	76.399185
493.812225	739.237732	36878.593750	28383.640625	76.493896
494.164490	742.432800	35216.812500	27137.359375	76.563889
494.516724	744.884766	33341.707031	25694.697266	76.540627
494.868896	736.711426	31560.970703	24333.099609	76.551353
495.221039	730.990173	30085.986328	23209.123047	76.573448
495.573120	733.442139	28892.908203	22320.087891	76.658577
495.925201	735.448303	28211.775391	21760.144531	76.519310
496.277222	737.900330	27742.406250	21388.111328	76.469498
496.629211	737.603210	27568.615234	21280.746094	76.564919
496.981140	738.346191	27503.968750	21211.273438	76.489639
497.333069	740.723816	27593.357422	21295.455078	76.546425
497.684967	736.414246	27740.697266	21324.212891	76.239014
498.036804	736.042786	27868.275391	21382.244141	76.094734
498.388580	733.888000	27873.849609	21330.230469	75.889359
498.740326	737.231628	27763.509766	21293.005859	76.058472
499.092072	732.699158	27540.080078	21155.099609	76.182007
499.443756	729.504150	27258.623047	20985.615234	76.354256
499.795410	723.857178	26959.255859	20752.005859	76.340172
500.147003	724.451599	26673.337891	20530.287109	76.326340
500.498566	738.866211	26364.908203	20298.685547	76.327896
500.850098	736.785828	26077.802734	20047.097656	76.201805
501.201599	740.575195	25765.804688	19826.046875	76.264923
501.553009	727.869446	25509.162109	19599.052734	76.150925
501.904449	732.773438	25280.087891	19466.867188	76.318306
502.255859	736.711487	25023.593750	19315.736328	76.498192
502.607178	732.699158	24917.267578	19253.099609	76.579414
502.958405	732.847717	24788.427734	19158.882813	76.597755
503.309692	722.296814	24759.968750	19117.867188	76.528084
503.660919	725.194580	24733.294922	19072.466797	76.421173
504.012115	721.479492	24780.773438	19083.763672	76.320969
504.363251	730.841614	24891.263672	19123.662109	76.127892
504.714294	736.414307	24945.208984	19201.607422	76.274734
505.065369	739.534973	25017.875000	19288.169922	76.399933
505.416443	741.987000	25022.259766	19331.041016	76.560318
505.767395	738.791931	25036.822266	19356.080078	76.620567
506.118317	743.918884	25007.250000	19284.306641	76.413200
506.469238	736.488586	25048.710938	19287.576172	76.303543
506.820160	731.436035	25062.234375	19312.466797	76.368355
507.170929	726.532043	25101.462891	19381.865234	76.534920
507.521729	730.321472	25167.744141	19437.146484	76.549911
507.872498	735.522644	25247.843750	19478.976563	76.465439
508.223236	734.853943	25381.140625	19615.173828	76.605133
508.573883	725.491760	25516.818359	19745.130859	76.718925
508.924500	728.612488	25699.750000	19876.423828	76.679771
509.275116	725.714661	25864.482422	19970.193359	76.552994
509.625702	732.327637	26051.351563	20145.917969	76.675903
509.976196	727.943787	26294.470703	20319.638672	76.630257
510.326660	732.773438	26534.095703	20527.984375	76.721695
510.677124	730.321472	26772.234375	20672.578125	76.577538
511.027557	730.915833	26994.328125	20858.037109	76.635590
511.377869	730.395752	27267.539063	21058.357422	76.601921
511.728180	729.578430	27411.539063	21193.291016	76.694939
512.078430	729.355469	27527.375000	21301.177734	76.766205
512.428650	722.148132	27614.310547	21384.099609	76.832611
512.778931	725.789001	27784.314453	21455.654297	76.611214
513.129028	725.937561	27881.203125	21471.779297	76.397125
513.479126	724.971619	27908.177734	21477.572266	76.343460
513.829285	724.377197	27864.708984	21499.939453	76.548668
514.179382	725.120300	27810.244141	21488.419922	76.659424
514.529297	725.937561	27789.812500	21450.824219	76.577675
514.879272	722.816895	27827.705078	21458.255859	76.500740
515.229187	725.863281	27740.845703	21433.511719	76.652458
515.579163	730.618652	27706.148438	21401.783203	76.629318
515.928955	730.247070	27660.302734	21404.980469	76.771973
516.278748	718.878845	27825.328125	21525.052734	76.757286
516.628540	728.612488	28056.632813	21779.912109	77.031921
516.978333	734.853943	28445.533203	22079.351563	77.026253
517.327942	740.798157	28919.662109	22427.978516	76.962578
517.677612	740.129395	29482.205078	22814.798828	76.802628
518.027222	734.556702	30041.257813	23223.687500	76.737160
518.376831	735.374023	30692.150391	23712.896484	76.702255
518.726379	729.727051	31317.630859	24191.703125	76.703445
519.075867	737.528809	31868.662109	24601.109375	76.655029
519.425293	745.999329	32288.025391	24950.037109	76.735840
519.774658	737.231628	32550.164063	25167.445313	76.793343
520.124084	733.590820	32664.666016	25298.515625	76.931099
520.473389	736.117004	32584.416016	25209.947266	76.845016
520.822693	740.426575	32304.521484	25038.458984	76.979973
521.171997	733.293518	31940.437500	24741.468750	76.931664
521.521240	723.931396	31562.681641	24456.593750	76.957275
521.870361	721.479431	31208.630859	24134.712891	76.797050
522.219482	727.795166	30827.603516	23871.013672	76.888260
522.568604	727.200745	30478.306641	23671.437500	77.120621
522.917664	730.618652	30279.025391	23543.337891	77.204567
523.266724	728.018066	30288.240234	23534.939453	77.154091
523.615662	731.138733	30502.603516	23643.794922	76.961800
523.964600	739.163391	30844.322266	23884.015625	76.880020
524.313538	734.333801	31343.189453	24199.060547	76.659927
524.662354	728.463867	31895.109375	24650.375000	76.754845
525.011169	724.080017	32609.009766	25217.599609	76.818481
525.359985	729.875671	33483.554688	25961.742188	77.035217
525.708740	728.463867	34550.539063	26805.599609	77.100937
526.057434	726.086182	35766.949219	27745.974609	77.109657
526.406067	729.949890	37105.218750	28830.718750	77.252403
526.754700	734.928223	38622.253906	29984.640625	77.201843
527.103333	732.327637	40365.027344	31337.250000	77.221390
527.451782	724.674500	42284.789063	32862.906250	77.329514
527.800293	722.519714	44306.562500	34500.539063	77.500885
528.148743	726.606262	46385.703125	36235.507813	77.769608
528.497131	732.104736	48377.761719	37844.980469	77.893509
528.845642	732.699158	50168.894531	39447.683594	78.313034
529.193909	724.005676	51668.550781	40918.656250	78.898834
529.542175	719.844727	52793.050781	42205.136719	79.667252
529.890503	729.355530	53513.781250	43014.589844	80.109299
530.238770	738.420410	53608.296875	43146.328125	80.211853
530.586914	742.358459	53213.078125	42670.640625	79.907959
530.934998	737.454407	52172.625000	41603.730469	79.452011
531.283142	735.522644	50752.406250	40239.308594	78.980904
531.631226	735.522644	48864.144531	38515.113281	78.497139
531.979248	734.185242	46854.558594	36795.375000	78.189285
532.327148	741.541199	44944.531250	35160.195313	77.864990
532.675110	739.237793	43469.023438	33938.136719	77.694984
533.023071	739.386414	42631.484375	33207.074219	77.503128
533.370850	735.076843	42328.250000	32943.523438	77.436859
533.718689	739.014893	42441.191406	33072.289063	77.533783
534.066467	737.900330	42708.683594	33288.878906	77.556274
534.414246	730.395752	42891.839844	33428.792969	77.555206
534.761963	730.990173	42937.613281	33461.042969	77.547195
535.109619	729.949951	42820.214844	33383.542969	77.579918
535.457153	733.367859	42378.406250	33083.808594	77.681381
535.804749	727.646484	41703.886719	32541.099609	77.638779
536.152344	727.869446	40831.351563	31883.521484	77.688148
536.499817	725.937561	39928.722656	31141.609375	77.585487
536.847229	723.039856	38978.613281	30371.978516	77.502274
537.194641	719.993469	38085.273438	29660.083984	77.451820
537.542114	729.206970	37455.777344	29173.921875	77.449959
537.889404	731.881836	36969.246094	28816.078125	77.500656
538.236694	737.083008	36643.574219	28559.365234	77.485374
538.583984	736.265625	36306.316406	28344.181641	77.615623
538.931213	738.271790	36154.218750	28224.853516	77.610756
539.278381	742.878601	35940.597656	28065.921875	77.627312
539.625488	743.770264	35887.988281	27962.416016	77.448433
539.972595	748.451355	35977.082031	28015.990234	77.401649
540.319641	745.999329	36400.531250	28312.234375	77.314812
540.666687	736.711487	37052.613281	28863.562500	77.450508
541.013611	732.624817	38078.511719	29656.818359	77.449478
541.360596	731.658936	39244.617188	30622.007813	77.611153
541.707458	733.887939	40666.175781	31700.662109	77.548203
542.054260	728.538147	41932.148438	32697.431641	77.587601
542.401062	726.903503	43179.988281	33629.855469	77.504265
542.747864	730.395752	43931.332031	34281.191406	77.662193
543.094666	735.894226	44241.699219	34578.105469	77.787804
543.441284	738.717773	43901.542969	34352.972656	77.877792
543.787903	740.203796	43228.058594	33755.800781	77.705963
544.134460	738.866272	42162.410156	32868.847656	77.564537
544.481079	728.315247	40880.984375	31894.962891	77.620369
544.827637	722.668274	39324.273438	30734.951172	77.748795
545.174072	730.024170	37727.878906	29496.396484	77.751457
545.520508	730.692932	36259.878906	28330.882813	77.683144
545.866943	731.361633	35089.832031	27372.080078	77.537560
546.213318	723.114075	34202.582031	26699.123047	77.587883
546.559631	729.206970	33466.683594	26113.244141	77.538162
546.905823	727.126465	32866.839844	25639.343750	77.512260
547.252136	726.532043	32367.751953	25234.990234	77.457375
547.598389	722.593994	31992.150391	24909.837891	77.350777
547.944458	726.977783	31666.408203	24657.431641	77.346138
548.290588	732.624817	31230.548828	24334.140625	77.387283
548.636658	729.058289	30727.296875	23957.203125	77.431694
548.982727	730.915833	30104.861328	23490.505859	77.482239
549.328735	729.281189	29516.978516	23035.031250	77.483620
549.674622	739.757874	28773.951172	22528.880859	77.723381
550.020569	737.974609	28087.468750	22007.724609	77.770180
550.366455	740.872375	27320.962891	21439.529297	77.872787
550.712280	741.689758	26753.212891	20934.271484	77.629372
551.058044	743.621643	26222.171875	20495.810547	77.524773
551.403748	741.318176	25829.039063	20157.957031	77.394989
551.749512	738.866211	25526.552734	19909.414063	77.338989
552.095154	739.163513	25256.978516	19724.474609	77.434761
552.440735	745.404846	25167.072266	19645.863281	77.392174
552.786316	747.708313	25117.662109	19618.445313	77.434441
553.131897	743.918884	25201.697266	19673.429688	77.396690
553.477417	734.482422	25276.150391	19716.226563	77.344963
553.822815	723.336975	25288.562500	19734.654297	77.391174
554.168213	722.816895	25250.146484	19693.638672	77.345650
554.513672	723.262695	25159.943359	19629.888672	77.369858
554.859009	729.429871	25043.062500	19546.076172	77.391342
555.204285	736.414246	24923.062500	19455.646484	77.394897
555.549500	738.197510	24706.025391	19269.294922	77.316551
555.894714	741.615417	24454.585938	19064.517578	77.269539
556.239990	732.996338	24162.130859	18836.705078	77.270073
556.585022	736.785828	23896.646484	18655.035156	77.367691
556.930115	729.355469	23668.462891	18470.320313	77.339386
557.275146	732.550537	23423.634766	18300.537109	77.422417
557.620178	726.011902	23210.460938	18142.197266	77.458801
557.965149	734.185242	23025.150391	18007.041016	77.488144
558.310059	735.894226	22845.115234	17868.318359	77.489952
558.654968	741.169617	22753.650391	17755.822266	77.295479
558.999756	730.990051	22655.273438	17660.271484	77.217033
559.344604	724.822998	22598.056641	17623.712891	77.258308
559.689331	721.033691	22506.591797	17565.162109	77.317863
560.033997	729.058350	22414.306641	17502.152344	77.347946
560.378723	737.083008	22384.658203	17473.695313	77.314034
560.723389	743.398682	22356.572266	17482.462891	77.448433
561.067932	737.528809	22394.914063	17533.064453	77.551079
561.412476	734.556702	22386.666016	17528.162109	77.561058
561.757019	728.612488	22399.744141	17538.488281	77.568054
562.101501	734.036621	22420.697266	17584.259766	77.698563
562.445862	736.562927	22448.486328	17593.843750	77.640663
562.790222	739.683594	22434.740234	17580.396484	77.624657
563.134644	741.838379	22415.494141	17536.185547	77.487373
563.478943	737.677429	22390.156250	17519.320313	77.504486
563.823181	739.980774	22400.115234	17539.083984	77.557709
564.167358	746.816650	22416.906250	17519.912109	77.402061
564.511536	748.228333	22418.541016	17603.353516	77.779800
564.855774	742.655701	22439.421875	17627.279297	77.820923
565.199768	735.968445	22512.609375	17683.080078	77.822433
565.543823	735.522644	22649.031250	17707.453125	77.449623
565.887817	732.996399	22832.779297	17832.578125	77.374435
566.231812	729.429871	23003.304688	17992.253906	77.502563
566.575745	724.971680	23205.333984	18122.210938	77.388596
566.919617	726.754944	23406.767578	18281.664063	77.402550
567.263428	725.417480	23585.244141	18392.748047	77.285500
567.607239	722.891174	23729.984375	18517.427734	77.343697
567.950989	723.782776	23769.812500	18546.330078	77.334564
568.294678	728.092346	23791.134766	18581.548828	77.411545
568.638367	732.624817	23680.724609	18545.365234	77.621857
568.981995	731.287354	23566.148438	18470.763672	77.685936
569.325623	734.185242	23420.958984	18357.898438	77.682762
569.669128	736.711487	23318.349609	18261.306641	77.605507
570.012573	739.906494	23166.177734	18154.904297	77.654449
570.356140	736.265625	23073.671875	18117.232422	77.811035
570.699524	730.470032	22994.984375	18072.501953	77.890907
571.042908	734.036621	23052.939453	18109.281250	77.849907
571.386230	735.151123	23157.484375	18133.652344	77.594521
571.729492	742.729980	23284.021484	18229.353516	77.575958
572.072815	738.643311	23464.056641	18316.140625	77.347321
572.416016	731.138733	23554.333984	18444.609375	77.611702
572.759094	735.076843	23770.630859	18563.271484	77.394249
573.102234	730.247131	23845.005859	18670.267578	77.612839
573.445374	737.677429	23925.103516	18708.310547	77.501633
573.788391	733.962219	23931.421875	18703.035156	77.461380
574.131409	736.488525	23940.412109	18673.908203	77.303391
574.474365	734.779541	23915.369141	18659.791016	77.327675
574.817261	730.990173	23753.615234	18587.271484	77.559708
575.160156	729.875671	23602.109375	18477.822266	77.596039
575.502930	726.754883	23383.958984	18325.353516	77.673302
575.845703	729.801270	23229.408203	18161.292969	77.474648
576.188477	732.253357	22996.171875	18011.574219	77.611320
576.531250	730.172852	22784.111328	17820.466797	77.493156
576.873901	731.584656	22512.312500	17626.017578	77.565971
577.216431	727.795105	22235.982422	17451.925781	77.757042
577.559082	725.714661	22011.810547	17237.414063	77.570351
577.901611	718.730225	21758.810547	17038.580078	77.565529
578.244080	720.067688	21529.064453	16821.837891	77.378891
578.586487	721.925293	21209.042969	16634.669922	77.671951
578.928955	744.290344	20903.287109	16413.990234	77.730560
579.271301	747.856934	20549.306641	16136.916992	77.716843
579.613647	753.281006	20205.359375	15878.045898	77.753975
579.955872	739.832214	19894.107422	15614.047852	77.654808
580.298157	737.603210	19630.408203	15438.991211	77.814743
580.640320	734.928223	19378.074219	15247.290039	77.842873
580.982483	728.463867	19154.052734	15107.081055	78.036133
581.324524	727.200684	18983.230469	14925.557617	77.773521
581.666626	733.962219	18851.269531	14791.590820	77.592270
582.008728	739.386414	18739.443359	14704.433594	77.583351
582.350647	737.083008	18625.908203	14629.686523	77.660797
582.692566	735.374023	18522.330078	14558.950195	77.717491
583.034424	736.340027	18424.251953	14472.833008	77.660339
583.376343	739.534973	18320.302734	14391.843750	77.654793
583.718201	739.832214	18259.595703	14338.122070	77.616859
584.059937	735.002502	18183.212891	14277.491211	77.615341
584.401611	740.723816	18101.626953	14236.846680	77.738602
584.743347	737.528809	17992.923828	14169.827148	77.844055
585.085022	734.259521	17924.861328	14101.467773	77.758812
585.426514	730.990173	17864.082031	14035.932617	77.656403
585.768127	731.064453	17822.771484	13985.481445	77.548820
586.109619	729.652649	17729.818359	13955.909180	77.800751
586.451172	734.110840	17648.162109	13901.519531	77.848930
586.792542	731.733215	17613.759766	13886.510742	77.921783
587.133850	738.866272	17574.154297	13866.820313	77.978798
587.475220	734.333801	17584.630859	13878.114258	78.003258
587.816589	738.866272	17548.445313	13878.856445	78.169662
588.157776	736.934387	17600.531250	13896.317383	78.034256
588.498962	735.894226	17649.496094	13912.367188	77.904594
588.840210	729.578430	17705.966797	13908.950195	77.633545
589.181335	731.956055	17745.498047	13961.036133	77.756172
589.522400	737.900330	17772.988281	13983.252930	77.753357
589.863403	738.346130	17851.302734	14032.588867	77.685249
590.204407	739.832214	17858.287109	14027.536133	77.622101
590.545410	731.361633	17939.576172	14081.926758	77.582512
590.886353	734.631042	17900.865234	14111.573242	77.925896
591.227112	735.299744	17899.822266	14093.145508	77.822411
591.567932	732.030334	17830.945313	14044.328125	77.854637
591.908752	736.934387	17788.740234	13997.518555	77.766449
592.249512	731.584656	17771.947266	13974.261719	77.713585
592.590149	735.225403	17634.189453	13925.370117	78.052971
592.930786	728.983948	17551.341797	13854.187500	78.022377
593.271423	725.565979	17446.277344	13796.231445	78.170509
593.612000	726.532043	17410.314453	13720.590820	77.884361
593.952576	732.253357	17373.759766	13689.979492	77.863907
594.292969	734.779602	17390.179688	13679.800781	77.722664
594.633484	734.705261	17444.048828	13740.579102	77.835938
594.973877	729.058350	17536.333984	13813.842773	77.851906
595.314209	734.779602	17655.367188	13910.211914	77.866280
595.654480	737.083008	17833.767578	14025.752930	77.726593
595.994812	740.352356	18015.585938	14173.690430	77.760666
596.335022	736.562927	18210.111328	14314.122070	77.703506
596.675171	737.974609	18322.607422	14418.963867	77.800827
597.015320	732.030457	18506.357422	14540.745117	77.689102
597.355408	735.448303	18642.255859	14612.299805	77.494843
597.695496	728.389587	18793.906250	14731.554688	77.513222
598.035461	729.727051	18765.447266	14699.752930	77.457542
598.375366	721.479431	18709.871094	14733.040039	77.892235
598.715271	725.417480	18658.007813	14689.499023	77.869858
599.055176	728.835449	18552.349609	14609.698242	77.879501
599.395081	732.699158	18359.236328	14435.160156	77.737679
599.734802	737.603210	18065.814453	14195.682617	77.665718
600.074524	739.534973	17735.761719	13996.924805	78.001961
600.414246	737.157227	17355.925781	13738.796875	78.234673
600.753906	733.813660	16984.783203	13453.401367	78.269714
601.093506	729.652649	16683.189453	13185.018555	78.072754
601.433044	721.479431	16467.117188	13006.692383	78.022964
601.772583	715.015137	16339.613281	12869.752930	77.792328
602.112122	718.581604	16307.664063	12813.429688	77.585373
602.451538	729.578430	16353.956055	12795.746094	77.226547
602.790894	735.299744	16447.873047	12886.171875	77.332161
603.130310	731.584534	16562.597656	12997.254883	77.478745
603.469604	734.036621	16716.849609	13159.085938	77.740067
603.808838	730.767273	16909.072266	13332.507813	77.892838
604.148010	734.408020	17175.373047	13518.786133	77.759293
604.487305	734.259460	17460.025391	13718.660156	77.631126
604.826416	737.751709	17725.582031	13891.636719	77.431221
605.165527	737.454407	17931.625000	14025.530273	77.282455
605.504456	739.014832	18074.357422	14151.546875	77.371025
605.843445	738.940613	18183.583984	14240.265625	77.395256
606.182434	743.547363	18226.529297	14294.727539	77.510689
606.521423	735.076843	18188.859375	14260.698242	77.493919
606.860229	734.185242	18043.523438	14179.856445	77.678711
607.199036	728.761047	17812.369141	14041.132813	77.924828
607.537903	738.494812	17545.994141	13843.117188	77.968895
607.876648	741.987000	17260.523438	13592.791992	77.796265
608.215271	742.952942	16972.080078	13376.792969	77.846703
608.553955	739.832275	16715.662109	13151.136719	77.688011
608.892578	736.860107	16497.060547	12995.174805	77.780197
609.231140	734.259521	16367.774414	12862.618164	77.579216
609.569641	728.389587	16284.780273	12809.566406	77.660538
609.908081	723.559875	16276.977539	12821.083008	77.780479
610.246521	730.024231	16296.742188	12819.967773	77.665337
610.584961	729.578369	16346.450195	12842.481445	77.562927
610.923340	736.117004	16345.632813	12825.762695	77.450485
611.261597	728.166687	16306.772461	12785.789063	77.398598
611.599854	733.739319	16209.881836	12733.035156	77.534149
611.938110	730.618652	16106.823242	12691.500000	77.788254
612.276245	727.126404	15946.702148	12603.079102	78.030777
612.614319	722.593933	15718.815430	12410.114258	77.936432
612.952393	722.148193	15421.379883	12141.065430	77.683769
613.290466	726.086182	15099.799805	11877.512695	77.582085
613.628479	732.773438	14790.848633	11630.233398	77.517441
613.966370	731.807434	14517.562500	11421.516602	77.541702
614.304260	735.002502	14272.958008	11236.651367	77.571899
614.642151	725.343201	14073.901367	11088.492188	77.634972
614.979980	721.999512	13890.372070	10959.057617	77.739738
615.317749	717.615723	13730.993164	10845.745117	77.828598
615.655396	722.668274	13619.539063	10778.797852	77.973404
615.993164	728.538269	13566.265625	10726.191406	77.877129
616.330811	733.219238	13534.835938	10697.139648	77.833290
616.668396	731.287415	13507.417969	10681.758789	77.883293
617.005859	731.361633	13465.510742	10626.700195	77.707108
617.343445	732.179016	13441.584961	10620.087891	77.799927
617.680908	737.157227	13431.406250	10588.211914	77.602501
618.018311	741.763977	13497.237305	10638.588867	77.588852
618.355652	745.627747	13544.122070	10676.112305	77.591034
618.692993	740.575195	13542.933594	10724.334961	77.983757
619.030273	734.482422	13492.629883	10736.594727	78.397842
619.367554	723.559875	13473.386719	10703.901367	78.278252
619.704712	727.869385	13477.843750	10680.645508	78.061150
620.041870	734.928223	13506.749023	10686.366211	77.917145
620.379028	739.237793	13474.129883	10663.332031	77.928368
620.716064	739.906555	13430.217773	10628.186523	77.919914
621.053040	731.807556	13309.028320	10556.335938	78.113670
621.389954	731.733215	13212.211914	10512.719727	78.370285
621.726929	724.748718	13144.002930	10450.379883	78.310913
622.063843	727.200684	13111.308594	10380.015625	77.945175
622.400635	728.389587	13083.890625	10323.992188	77.662590
622.737427	732.550537	13034.034180	10293.007813	77.717918
623.074219	733.962219	12977.118164	10257.565430	77.787163
623.410889	733.367859	12920.425781	10240.252930	78.008041
623.747559	731.213074	12908.239258	10226.506836	77.977119
624.084167	731.213074	12870.643555	10202.432617	78.020294
624.420715	734.853943	12891.374023	10184.748047	77.735191
624.757324	735.299622	12900.140625	10188.909180	77.712563
625.093750	735.448303	12951.039063	10235.348633	77.768654
625.430176	733.590820	12964.933594	10273.836914	77.998352
625.766602	738.271912	12992.351563	10277.032227	77.841507
626.102905	744.884766	13065.911133	10309.427734	77.627808
626.439209	741.318298	13180.559570	10372.734375	77.427681
626.775452	740.426575	13276.335938	10459.073242	77.526459
627.111694	732.847717	13331.468750	10529.364258	77.758644
627.447876	739.534973	13427.245117	10567.110352	77.457436
627.783997	740.278015	13467.218750	10603.963867	77.502411
628.120056	739.757874	13571.987305	10658.131836	77.292679
628.456055	729.727051	13564.778320	10671.653320	77.459183
628.792053	726.086182	13567.454102	10683.765625	77.543762
629.128052	725.789063	13479.109375	10615.257813	77.544266
629.463928	731.807434	13392.620117	10582.416992	77.803925
629.799744	734.928223	13295.135742	10502.392578	77.765160
630.135559	737.083008	13162.058594	10449.563477	78.169014
630.471375	741.318298	13013.750000	10315.000977	78.009666
630.807068	745.925049	12869.007813	10188.315430	77.887703
631.142700	747.113831	12754.581055	10044.019531	77.426033
631.478333	748.302734	12611.102539	9932.936523	77.423828
631.813965	739.386414	12485.382813	9831.067383	77.402382
632.149475	737.380188	12328.901367	9739.155273	77.658272
632.484924	731.213135	12246.277344	9675.254883	77.672531
632.820435	734.110840	12173.014648	9614.624023	77.634300
633.155884	732.922058	12131.257813	9576.581055	77.587280
633.491150	735.374023	12065.499023	9529.622070	77.618279
633.826477	738.940613	12005.461914	9490.760742	77.679878
634.161804	742.730042	11929.971680	9442.315430	77.763451
634.497009	741.912781	11865.401367	9403.380859	77.866470
634.832153	740.278015	11784.709961	9326.848633	77.745697
635.167297	739.163391	11728.536133	9257.301758	77.512505
635.502380	731.361633	11644.277344	9188.943359	77.500664
635.837463	728.018066	11572.946289	9147.036133	77.630920
636.172424	720.736328	11495.820313	9066.045898	77.450066
636.507324	725.863281	11415.648438	9001.105469	77.412613
636.842224	725.640381	11296.020508	8925.391602	77.572906
637.177124	733.293518	11160.492188	8859.335938	77.931213
637.511963	727.869446	11025.706055	8778.495117	78.177834
637.846741	728.389587	10909.200195	8675.139648	78.056160
638.181396	726.011902	10790.463867	8586.942383	78.105896
638.516113	729.652649	10726.787109	8494.137695	77.667099
638.850769	732.550476	10643.939453	8443.166992	77.795525
639.185303	735.002502	10575.952148	8377.185547	77.656975
639.519836	738.123230	10517.921875	8334.907227	77.678329
639.854370	730.470032	10443.097656	8268.778320	77.613472
640.188843	732.922058	10356.461914	8199.156250	77.583031
640.523254	728.018066	10232.599609	8116.903809	77.740250
640.857605	734.556641	10141.355469	8024.916504	77.500961
641.191895	729.727051	10061.554688	7981.970215	77.715141
641.526184	730.024231	10011.028320	7928.843262	77.565086
641.860413	724.154297	9965.333008	7905.140625	77.706390
642.194580	723.708496	9913.097656	7846.664551	77.512840
642.528748	726.532043	9826.980469	7797.178223	77.695580
642.862793	724.748718	9760.777344	7742.789063	77.667313
643.196838	723.559875	9721.545898	7700.287598	77.536545
643.530823	717.392761	9674.363281	7678.442871	77.716568
643.864746	722.222412	9630.152344	7639.434082	77.652298
644.198669	717.838562	9561.050781	7627.174316	78.131523
644.532532	730.247131	9523.750977	7591.360840	78.024796
644.866333	730.841553	9486.153320	7575.088379	78.172516
645.200073	740.129395	9466.018555	7535.187500	77.872391
645.533813	736.042725	9446.476563	7520.847168	77.892845
645.867554	738.271790	9426.786133	7507.027344	77.904633
646.201172	740.723816	9421.064453	7507.101563	77.950600
646.534729	736.785828	9451.973633	7484.884277	77.429184
646.868225	735.819824	9471.813477	7493.875000	77.358742
647.201782	729.504089	9469.807617	7488.525391	77.331657
647.535217	731.956055	9455.169922	7497.812988	77.561516
647.868591	730.915833	9452.197266	7499.001953	77.604263
648.201965	726.532043	9470.549805	7522.481934	77.721138
648.535278	725.714661	9470.996094	7537.639160	77.892570
648.868591	732.402039	9476.198242	7532.289551	77.768143
649.201782	727.497986	9447.887695	7499.968262	77.662476
649.534912	724.228699	9401.968750	7493.875000	78.011627
649.868103	721.628113	9325.585938	7446.247559	78.157280
650.201172	734.705322	9271.122070	7424.922363	78.372658
650.534180	738.643311	9229.363281	7369.492188	78.095245
650.867188	735.374023	9196.075195	7356.340332	78.255524
651.200134	722.222473	9172.819336	7322.606934	78.105545
651.533020	718.953125	9137.301758	7293.927246	78.102898
651.865845	719.770447	9087.446289	7273.121582	78.317459
652.198608	729.058289	9041.898438	7225.642578	78.151207
652.531433	733.219238	9007.718750	7189.308105	78.023918
652.864136	734.779602	8990.704102	7163.970703	77.873665
653.196777	1032.807739	9301.288086	7475.373535	77.917168
653.529358	1049.228760	9252.917969	7474.036621	78.316078
653.861938	1054.058472	9207.147461	7431.460938	78.220688
654.194519	761.974365	8818.915039	7056.009277	78.119423
654.526978	746.147949	8797.218750	7001.024902	77.690002
654.859375	737.974670	8733.020508	6950.722656	77.707474
655.191833	738.197571	8686.656250	6906.958496	77.609520
655.524170	737.974609	8614.508789	6854.203125	77.651268
655.856445	737.157227	8589.617188	6822.401855	77.494759
656.188660	750.383118	8579.883789	6814.079590	77.446785
656.520874	751.943542	8543.624023	6796.321777	77.574768
656.853088	748.302673	8541.990234	6782.501465	77.424179
657.185181	722.668274	8496.218750	6775.367676	77.862740
657.517212	719.176025	8535.376953	6772.990234	77.452133
657.849243	722.519714	8550.163086	6792.085938	77.540146
658.181274	727.126404	8616.664063	6825.744629	77.300072
658.513123	721.776550	8655.524414	6880.208984	77.623245
658.844971	720.216248	8719.499023	6939.428223	77.747116
659.176819	722.816833	8791.794922	6996.715332	77.753319
659.508667	729.727051	8872.858398	7065.519531	77.805359
659.840393	735.002441	8953.477539	7112.330566	77.597466
660.172058	734.482422	8992.634766	7173.407715	77.970535
660.503662	731.510254	9014.331055	7193.097656	78.011925
660.835266	729.281189	9049.700195	7232.329590	78.157700
661.166931	728.092468	9034.170898	7196.589844	77.876678
661.498413	736.711609	9018.715820	7181.283691	77.814163
661.829773	733.962341	8922.940430	7097.099121	77.703674
662.161194	729.949951	8820.625000	7003.923340	77.545738
662.492615	726.011902	8686.210938	6887.193359	77.399841
662.823975	730.692932	8530.175781	6799.738770	77.813438
663.155212	738.791992	8390.188477	6702.031250	77.936615
663.486450	733.590759	8227.912109	6595.703613	78.220726
663.817627	734.408142	8093.943848	6480.683594	78.079323
664.148743	732.401917	7973.275879	6378.517090	77.975601
664.479858	733.219238	7872.596191	6307.929688	78.083992
664.810913	728.166687	7809.735840	6240.982910	77.847382
665.141907	726.309082	7743.235840	6200.859375	78.019203
665.472778	727.646545	7669.675781	6140.005371	77.965080
665.803711	739.237793	7590.320313	6106.939941	78.348236
666.134583	739.980774	7524.859375	6075.436035	78.637444
666.465454	740.946777	7516.017578	6052.921875	78.404716
666.796143	734.631042	7478.271484	6003.288574	78.127792
667.126831	733.070618	7469.207031	5966.657715	77.694199
667.457458	725.194641	7437.703125	5952.019531	77.866936
667.788147	721.776672	7430.644043	5940.354004	77.786263
668.118774	721.256592	7399.882324	5933.443359	78.042801
668.449219	729.429871	7381.158203	5905.802734	77.819969
668.779663	728.389648	7373.728027	5890.645996	77.682373
669.110107	729.801331	7351.585938	5864.639160	77.544624
669.440552	729.652771	7332.415527	5835.438965	77.328026
669.770874	734.408020	7282.781250	5832.688965	77.855682
670.101135	732.327637	7272.973145	5817.902832	77.753418
670.431396	732.550476	7234.187500	5816.045410	78.187920
670.761597	726.903503	7202.979980	5781.123535	78.044479
671.091797	724.971680	7160.404785	5766.411621	78.338783
671.421875	725.640381	7135.587402	5714.919922	77.836510
671.751892	739.312073	7107.724121	5693.372559	77.791145
672.081909	743.918762	7072.355957	5663.650879	77.740082
672.411865	742.581360	7011.947754	5648.938965	78.259224
672.741821	727.943787	6970.635254	5601.979004	78.075859
673.071716	730.470032	6930.884277	5569.435059	78.042610
673.401550	721.479309	6921.298828	5552.642578	77.924255
673.731262	725.863281	6887.564941	5532.729004	78.011986
674.060974	722.742493	6849.076172	5501.967285	78.011169
674.390625	735.522644	6822.847168	5467.193848	77.729897
674.720276	734.779602	6801.670410	5442.302734	77.593666
675.049927	732.773499	6770.166504	5407.380859	77.427582
675.379395	728.835449	6700.173828	5383.455078	77.949356
675.708923	730.098572	6642.738281	5344.445801	78.042084
676.038330	726.829163	6602.019531	5317.176758	78.131042
676.367737	727.126465	6584.855469	5277.647949	77.684059
676.697083	724.600159	6556.620605	5265.536621	77.862152
677.026428	731.064453	6526.007813	5234.775391	77.717949
677.355652	729.504089	6500.447754	5217.462891	77.768196
677.684875	734.110840	6497.550293	5208.843262	77.639969
678.013977	734.036621	6505.203125	5202.973633	77.435593
678.343079	736.191406	6500.002441	5211.295898	77.641418
678.672180	729.058289	6512.335938	5205.648926	77.405769
679.001221	726.457703	6513.524902	5226.602051	77.762093
679.330139	723.931396	6543.617676	5262.416016	77.985031
679.659058	724.228577	6568.286621	5283.518066	78.015816
679.987976	730.024231	6618.291504	5306.700195	77.725342
680.316772	734.110901	6648.979004	5334.489746	77.776527
680.645630	737.305908	6702.997559	5361.609863	77.514969
680.974304	737.900391	6745.498535	5396.532715	77.545670
681.302979	737.751770	6789.485840	5421.349121	77.392647
681.631653	734.556702	6791.714355	5459.986816	78.013985
681.960266	730.024231	6805.832031	5485.324219	78.266136
682.288757	735.894226	6832.877441	5487.627441	77.935806
682.617249	740.798157	6862.524902	5480.271973	77.420540
682.945679	743.993164	6859.924316	5468.011719	77.241196
683.274109	737.751770	6825.894531	5435.689453	77.165367
683.602478	739.460693	6754.117676	5396.681152	77.431190
683.930725	734.482422	6685.833496	5342.514160	77.428329
684.259033	731.213074	6613.759277	5298.081543	77.634216
684.587280	730.395813	6547.259277	5246.292480	77.634567
684.915344	733.367920	6477.934082	5212.559082	77.972664
685.243469	735.819885	6400.064941	5146.429688	77.867569
685.571533	738.420410	6328.882813	5098.801758	77.996796
685.899536	742.061218	6260.895996	5031.854980	77.730064
686.227539	740.649597	6209.478516	4984.969238	77.609299
686.555420	738.569031	6175.596191	4952.127441	77.497467
686.883301	736.785828	6159.992188	4944.474609	77.586739
687.211121	737.231628	6153.974121	4958.071777	77.922112
687.538940	736.860046	6170.692871	4957.997559	77.682510
687.866638	727.497986	6162.147949	4959.038086	77.862236
688.194336	722.593994	6172.104004	4957.700684	77.715363
688.521973	717.169922	6159.844238	4946.108887	77.699654
688.849609	721.182190	6150.853027	4933.849121	77.586044
689.177063	722.965515	6122.172363	4930.579590	77.930229
689.504578	725.714661	6070.160645	4908.512207	78.264381
689.832031	729.281250	6011.089844	4850.184082	78.020676
690.159485	727.423645	5931.957520	4773.503906	77.741455
690.486816	723.411316	5848.070313	4703.882324	77.672890
690.814087	728.909668	5758.833496	4671.114746	78.375046
691.141296	734.259460	5673.161621	4620.737793	78.691132
691.468506	737.008728	5588.828125	4565.084473	78.899796
691.795715	728.983948	5530.425781	4481.419922	78.152275
692.122803	729.949951	5468.531250	4427.253418	78.025543
692.449829	730.767334	5419.194824	4378.436523	77.801544
692.776855	733.145020	5357.300293	4330.882813	77.803139
693.103821	731.064514	5303.430664	4277.161621	77.554970
693.430664	725.120300	5250.304199	4225.893066	77.361992
693.757568	728.166687	5193.388184	4183.243164	77.377487
694.084351	731.584656	5128.299316	4143.491211	77.601265
694.411133	738.346130	5082.306152	4121.200684	77.874901
694.737854	737.380188	5041.067871	4092.519287	77.959641
695.064575	738.197510	5031.482910	4055.293945	77.262428
695.391174	743.027161	4998.195313	4022.526611	77.070976
695.717773	740.055176	4981.774902	4007.294678	77.026291
696.044250	736.562805	4946.258301	4006.031250	77.665207
696.370789	735.894104	4954.653809	4010.489502	77.619858
696.697205	740.500977	4971.074707	4024.086670	77.615616
697.023621	744.587585	5024.201172	4066.216553	77.615158
697.349915	748.079773	5088.695801	4106.637207	77.375130
697.676208	744.364685	5144.720215	4161.175293	77.648514
698.002380	740.723877	5218.354492	4209.917969	77.478340
698.328674	734.853943	5296.817871	4273.744141	77.573830
698.654724	730.172852	5396.309082	4351.612793	77.611107
698.980896	731.807434	5491.045410	4418.411133	77.462059
699.306946	728.389587	5572.927246	4490.336426	77.653374
699.632935	724.154297	5642.548828	4534.917969	77.479828
699.958862	717.838623	5674.498535	4560.626953	77.527779
700.284729	711.522888	5668.331543	4556.242676	77.564415
700.610596	719.844788	5622.041504	4527.636230	77.675209
700.936340	726.829285	5573.818848	4488.181152	77.601814
701.262146	733.144958	5480.197266	4406.448730	77.380730
701.587830	732.253235	5376.767578	4337.495605	77.623672
701.913513	731.584656	5227.196289	4227.527344	77.763443
702.239075	731.658936	5084.312500	4120.234375	77.850800
702.564697	731.658875	4955.768555	3997.188721	77.306931
702.890137	729.727051	4831.608398	3914.936279	77.652397
703.215698	730.618652	4741.033691	3855.345459	77.915298
703.541016	734.036621	4649.789551	3776.287109	77.692604
703.866455	729.875671	4593.765625	3694.702881	76.731667
704.191711	735.299744	4517.085449	3623.966553	76.383675
704.517029	724.080017	4444.045898	3589.193115	77.019875
704.842163	729.652771	4353.099121	3552.041748	77.892387
705.167419	729.875671	4307.700195	3521.800049	78.034134
705.492493	736.711487	4273.000977	3490.072998	77.860184
705.817566	737.454590	4239.564941	3469.268311	78.004784
706.142578	730.395752	4204.716797	3447.869141	78.215958
706.467590	730.692932	4180.345703	3420.674561	77.978333
706.792480	727.795166	4172.989746	3403.510498	77.665146
707.117371	732.253357	4170.908691	3402.247314	77.646454
707.442200	736.785828	4170.760254	3404.178955	77.676559
707.766907	733.442200	4175.441406	3411.906250	77.817101
708.091675	728.612488	4179.750488	3405.664795	77.570129
708.416321	725.045959	4186.141113	3409.603271	77.563812
708.741028	729.058350	4195.800293	3404.401611	77.171684
709.065552	729.652771	4203.676270	3422.680420	77.518982
709.390137	732.179016	4200.704102	3432.785889	77.860382
709.714600	735.374023	4214.598633	3457.751221	78.246666
710.039063	734.110840	4234.660645	3479.968018	78.440742
710.363403	729.652771	4284.443359	3506.419922	78.113380
710.687744	730.544373	4330.362793	3539.781494	78.038300
711.012085	729.949951	4390.398926	3573.218018	77.675392
711.336304	734.036560	4430.076660	3609.105713	77.787827
711.660461	725.789001	4471.240723	3627.012939	77.459923
711.984619	725.937500	4495.686035	3643.731201	77.400223
712.308716	727.200684	4521.469238	3658.963135	77.268188
712.632751	733.070557	4514.559082	3687.198242	78.120766
712.956726	737.528809	4488.478027	3675.606689	78.328918
713.280701	741.689758	4440.330078	3648.858154	78.601006
713.604553	741.095276	4406.151367	3603.681885	78.104851
713.928467	738.791992	4346.412109	3564.524658	78.326782
714.252258	739.757874	4300.642090	3514.741455	77.929619
714.575989	741.466797	4242.091309	3455.893799	77.541222
714.899719	740.500916	4186.066895	3401.429932	77.227631
715.223267	738.643311	4144.902832	3357.517334	76.884163
715.546936	742.061218	4107.974609	3333.071533	76.977928
715.870422	747.856934	4090.439209	3326.681396	77.150665
716.193970	734.556702	4054.699951	3325.343750	78.032387
716.517395	732.922058	4033.968994	3307.957031	78.006615
716.840820	722.445313	3996.297607	3262.037842	77.571991
717.164124	724.080078	3976.755859	3217.084717	76.644730
717.487488	713.826233	3931.505859	3179.264893	76.621635
717.810730	729.652771	3906.762939	3162.992432	76.589714
718.133972	736.637207	3850.515625	3148.949219	77.469688
718.457092	743.175842	3798.355469	3120.119873	77.800468
718.780212	731.881775	3750.653076	3079.996338	77.783783
719.103210	730.395752	3699.383789	3028.801758	77.413788
719.426208	729.801331	3665.279053	2993.656494	77.120506
719.749207	741.838379	3619.360107	2965.272705	77.269073
720.072083	743.250183	3579.236328	2928.344482	77.048836
720.394958	737.900391	3531.088623	2895.725586	77.253128
720.717773	725.640442	3484.723389	2853.670654	77.128174
721.040527	721.702332	3443.782471	2837.249268	77.718025
721.363281	726.309082	3411.238037	2815.776123	77.822060
721.685913	732.030457	3384.340576	2789.026611	77.554886
722.008545	736.711426	3350.755615	2754.327393	77.183701
722.331055	730.470032	3300.526611	2724.606201	77.591141
722.653503	726.829285	3272.589111	2706.847900	77.777115
722.976013	726.457703	3265.604492	2706.402100	77.976761
723.298401	734.259460	3287.672119	2691.392822	76.647751
723.620789	730.990173	3272.588867	2685.300293	76.892944
723.943115	729.801331	3264.415771	2658.774414	76.105186
724.265381	725.789063	3232.985596	2658.774170	77.097473
724.587585	733.962341	3231.128174	2659.740234	77.118546
724.909790	737.900391	3222.583252	2680.545166	78.184814
725.231873	743.844543	3233.877197	2685.003174	77.957153
725.553894	742.581360	3238.261475	2690.873047	78.066566
725.875916	835.757019	3340.798828	2801.732422	78.480743
726.197937	838.357666	3336.637939	2807.751221	78.829971
726.519775	838.431946	3339.833252	2810.054688	78.820732
726.841675	738.569031	3239.895752	2701.424072	78.472557
727.163513	732.922058	3254.384766	2701.126953	78.058060
727.485291	733.813660	3248.217773	2716.581787	78.856384
727.806946	741.318176	3283.288818	2730.847656	78.267212
728.128662	740.129395	3305.876953	2738.501221	77.886536
728.450256	736.562805	3345.703125	2748.754883	77.120888
728.771790	727.423645	3356.402344	2759.677490	77.302025
729.093323	728.389587	3355.139404	2772.606201	77.823044
729.414795	729.801331	3347.931885	2777.435791	78.209793
729.736145	731.287415	3340.873047	2768.593750	78.070107
730.057495	726.903564	3340.650391	2777.435791	78.451828
730.378845	728.463867	3350.904297	2773.720703	77.990593
730.700134	730.024231	3346.000000	2773.720703	78.123680
731.021301	730.024231	3345.257080	2760.048828	77.623093
731.342468	727.200745	3336.489502	2753.510498	77.657555
731.663574	727.646484	3350.235352	2748.829102	77.068222
731.984680	734.631042	3358.928955	2758.488525	77.119957
732.305664	735.671204	3389.838623	2761.386475	76.322060
732.626648	735.671204	3396.749023	2776.246826	76.682297
732.947571	730.321472	3410.792236	2781.076416	76.507271
733.268433	725.863281	3406.482422	2783.528320	76.760811
733.589233	727.423584	3387.981201	2771.714111	76.836922
733.909973	734.556702	3360.637451	2764.878662	77.313766
734.230713	735.522705	3327.498779	2748.903564	77.677444
734.551331	739.460693	3301.195313	2731.071045	77.744598
734.871948	736.339905	3263.746826	2689.015381	77.260033
735.192505	740.203613	3207.500000	2661.003174	77.850380
735.513062	734.185242	3172.057373	2626.006592	77.601334
735.833435	724.971680	3124.503906	2590.712891	77.754372
736.153931	725.863281	3078.956055	2547.171631	77.400620
736.474304	728.835449	3029.693359	2530.082031	78.285866
736.794617	734.779602	2991.353271	2509.202881	78.633522
737.114807	730.395752	2980.356445	2494.490967	78.405602
737.434998	729.206848	2971.217529	2477.624268	77.984352
737.755188	735.968445	2978.350342	2470.045166	77.331909
738.075256	736.265625	2983.551514	2479.035889	77.550003
738.395325	735.374023	2984.591797	2480.819092	77.602318
738.715271	723.114075	2992.913818	2503.035889	78.417572
739.035278	725.640381	3000.938477	2502.069580	78.074570
739.355164	721.033630	3009.185791	2510.317383	78.197762
739.675049	726.680603	3026.944336	2506.973877	77.395180
739.994873	725.863281	3031.699463	2522.800537	77.929962
740.314636	736.860107	3038.089600	2515.444580	77.288445
740.634277	741.764099	3019.885498	2510.763428	77.651672
740.953979	739.014832	2996.405518	2482.379639	77.229202
741.273499	735.076843	2963.266602	2462.837891	77.541016
741.593140	738.494812	2921.062744	2442.701904	78.082657
741.912598	739.609314	2885.546143	2411.940674	77.930130
742.232117	736.340027	2846.166016	2372.337158	77.541801
742.551453	735.448425	2809.608643	2335.557373	77.144905
742.870850	739.460693	2774.909424	2315.421631	77.425728
743.190063	738.866272	2732.854248	2301.378174	78.361153
743.509338	730.098572	2705.882080	2272.920166	78.086571
743.828552	726.234802	2678.910400	2244.610840	77.758743
744.147705	728.389587	2667.467529	2215.558350	76.694633
744.466797	733.144958	2644.359619	2196.462646	76.564796
744.785828	737.008606	2626.155518	2181.973633	76.487701
745.104858	740.649475	2588.186768	2162.655029	76.967621
745.423706	739.609314	2575.406494	2147.645752	76.698914
745.742615	737.083008	2559.356934	2130.481689	76.464828
746.061401	731.956055	2565.078369	2126.246338	76.060951
746.380249	729.652649	2552.447021	2130.184570	76.834335
746.698975	730.618652	2544.571045	2124.166260	76.823822
747.017639	736.191406	2539.146729	2127.435547	77.164650
747.336304	742.729980	2535.357422	2114.283936	76.510818
747.654907	745.330566	2532.236816	2119.187988	76.884697
747.973389	742.952881	2532.236572	2115.026855	76.682861
748.291931	745.776367	2538.403809	2115.249756	76.394760
748.610352	744.216064	2535.282959	2108.265381	76.158478
748.928711	736.562805	2543.233643	2107.522461	75.883202
749.247070	733.219238	2532.013916	2109.825928	76.529396
749.565308	735.448425	2534.540283	2118.221924	76.859528
749.883545	738.717712	2523.840576	2116.661377	77.190407
750.201782	733.590820	2525.252441	2090.803955	75.751640
750.519836	735.374023	2504.596191	2071.039795	75.494522
750.837952	742.432800	2487.878174	2060.563232	75.518288
751.155884	746.073547	2464.472656	2070.073975	77.048485
751.473877	739.609192	2465.364502	2072.228760	77.219498
751.791809	732.179016	2447.828857	2058.928467	77.332184
752.109619	729.281189	2445.005371	2046.891235	76.796150
752.427490	724.377197	2429.550537	2037.083374	76.983742
752.745300	724.897278	2433.860107	2044.067749	77.191284
753.062988	724.525818	2424.126221	2036.414673	77.188080
753.380615	730.470032	2417.439209	2030.024780	77.034874
753.698303	733.070618	2410.974609	2019.993774	76.698250
754.015808	737.454529	2416.398682	2019.696411	76.371925
754.333374	737.974609	2413.872314	2012.934937	76.076263
754.650757	739.386414	2408.894287	2003.424316	75.713203
754.968262	737.677429	2392.696289	1998.520142	76.182991
755.285583	733.962219	2399.309326	2000.229370	76.036224
755.602905	731.956116	2386.009033	2002.532715	76.815956
755.920105	722.296692	2372.560303	1993.170532	77.010345
756.237305	722.148132	2352.647217	1989.975586	77.757019
756.554443	724.377258	2356.362305	1971.325562	76.406837
756.871582	731.287354	2356.065186	1978.458618	76.759499
757.188599	732.699036	2357.253906	1968.056274	76.042809
757.505615	730.395691	2352.944336	1974.148926	76.654297
757.822510	728.389587	2369.885010	1984.254272	76.507362
758.139465	731.881836	2377.910156	2000.006348	77.041473
758.456238	735.596924	2398.937744	2017.616089	77.074951
758.773010	735.299744	2415.656006	2016.947388	76.272385
759.089783	736.488586	2430.962158	2023.263184	75.939491
759.406433	735.968445	2435.643311	2043.547852	76.931145
759.723145	736.934387	2438.020752	2053.504395	77.395836
760.039673	731.658936	2450.949463	2061.603271	77.354256
760.356201	724.005676	2451.915527	2048.823242	76.671684
760.672668	725.714661	2440.770264	2052.092773	77.337326
760.989136	718.135742	2431.110840	2056.104980	78.107918
761.305481	718.433044	2431.556641	2053.653076	77.940674
761.621826	716.575439	2446.565674	2052.761230	77.236610
761.938049	724.525879	2447.977539	2047.411499	76.757919
762.254333	736.117004	2461.351807	2067.324463	77.160942
762.570496	734.928223	2505.933594	2092.141602	76.635193
762.886597	731.807434	2576.521240	2146.233887	76.674576
763.202637	716.352539	2681.362549	2222.542725	76.650513
763.518677	719.547546	2796.680420	2323.297607	77.209793
763.834656	724.080078	2932.951416	2435.271729	77.469048
764.150574	735.596985	3069.594482	2525.252197	76.677681
764.466370	738.420410	3161.878174	2588.558350	76.342903
764.782288	736.562805	3207.722656	2613.598389	75.957680
765.097961	727.572205	3192.119141	2630.316406	77.204620
765.413696	727.572205	3154.447998	2612.632568	77.674362
765.729309	723.411316	3083.488525	2558.317139	77.747704
766.044861	733.442139	2973.074951	2466.330322	77.373764
766.360474	732.179016	2830.785156	2356.510742	77.400505
766.675903	739.014893	2695.405273	2243.644775	76.908470
766.991394	727.795166	2585.437500	2154.555908	76.804924
767.306763	724.674500	2504.373291	2084.636963	76.415314
767.622131	728.241028	2426.057861	2031.956543	76.787758
767.937378	737.528809	2356.510986	1981.950806	76.864464
768.252625	745.999329	2300.783691	1942.198853	76.936676
768.567810	740.426575	2245.948242	1907.425171	77.514557
768.882996	734.631042	2199.509033	1865.666992	77.210251
769.197998	725.343079	2150.246338	1826.212280	77.259216
769.513062	731.138855	2128.327148	1799.537598	76.467773
769.828064	732.996338	2101.281006	1776.801147	76.285645
770.142944	735.225403	2085.529053	1756.070435	75.601143
770.457825	732.327637	2054.544678	1735.042847	75.835899
770.772705	733.962219	2037.380737	1713.123535	75.122559
771.087402	734.036621	2007.288086	1702.126831	76.032913
771.402100	735.522644	1976.600952	1691.501465	77.028076
771.716736	737.900330	1953.567017	1677.086548	77.256882
772.031372	740.946777	1944.799316	1657.396484	76.126411
772.345947	740.203674	1936.477539	1636.145874	74.894402
772.660461	731.064453	1924.291870	1623.365723	74.780487
772.974854	726.754883	1898.508789	1610.734375	75.440712
773.289246	729.652771	1887.363403	1603.229858	75.457291
773.603638	727.795227	1863.437988	1599.291626	76.740364
773.917908	725.268860	1855.264648	1595.279297	76.992355
774.232178	720.736389	1844.564941	1588.517944	77.216537
774.546265	727.349304	1840.478394	1579.304321	76.536942
774.860474	730.321472	1826.583618	1575.068970	77.057068
775.174561	722.891113	1810.757324	1567.341675	77.624489
775.488586	730.024231	1804.961792	1563.106445	77.500526
775.802551	739.386414	1805.630493	1550.995117	76.118469
776.116516	747.411072	1795.748047	1542.895996	75.880653
776.430359	743.770203	1779.773071	1531.602051	76.045334
776.744202	736.488586	1768.256226	1524.023071	76.328674
777.057922	736.488586	1758.968262	1515.255371	76.164528
777.371704	739.906494	1752.355347	1510.351196	76.097145
777.685303	744.290344	1732.070679	1502.178101	76.726349
777.998962	740.055176	1720.702515	1496.308105	77.117729
778.312500	729.504089	1710.448608	1481.744751	76.685341
778.626038	729.429871	1712.752075	1470.971069	75.411819
778.939453	735.894104	1723.823120	1461.385864	73.435616
779.252869	740.426575	1724.937622	1474.017456	74.513222
779.566223	732.476257	1716.318726	1479.367188	75.915703
779.879578	729.875671	1707.253540	1487.391968	77.504959
780.192749	725.566101	1698.263062	1480.704712	77.633492
780.505920	730.692871	1700.120605	1479.515747	77.243805
780.819031	728.835388	1683.328125	1473.422974	78.008720
781.132141	740.946716	1678.944336	1481.150391	78.913170
781.445190	735.671204	1665.569824	1474.091675	79.408707
781.758118	735.745605	1669.433472	1467.850220	78.409996
782.071045	724.600159	1657.990845	1443.330200	77.002060
782.383911	727.869446	1651.526489	1432.482056	76.285088
782.696838	729.132629	1634.213989	1428.915649	77.317139
783.009583	735.374023	1635.254395	1426.835083	76.839218
783.322266	731.807434	1626.635254	1421.782593	77.107033
783.634888	732.104736	1621.136841	1403.429688	75.511894
783.947510	726.606262	1612.071899	1391.615723	75.102798
784.260132	729.132568	1600.629272	1385.671387	75.334633
784.572571	725.194519	1590.078247	1381.139038	75.841934
784.885010	725.937561	1578.858398	1370.959473	75.625061
785.197449	729.281250	1577.818359	1361.894531	74.553398
785.509766	729.355530	1572.394165	1357.287720	74.484390
785.822083	731.733215	1563.180664	1367.541626	76.470062
786.134277	730.915833	1559.242676	1368.359009	76.955513
786.446533	743.398743	1549.063110	1367.615845	77.478554
786.758606	738.791992	1544.530762	1352.012329	76.106598
787.070740	736.191406	1543.936157	1354.910156	76.598297
787.382690	721.033691	1550.474976	1355.727417	76.520630
787.694641	722.668274	1569.422241	1366.872681	76.079292
788.006653	720.736511	1588.294922	1376.755249	75.616669
788.318481	724.451477	1619.650757	1403.132446	75.813393
788.630310	723.782776	1634.065430	1419.182007	76.393768
788.942017	723.857117	1664.603882	1431.293335	75.199432
789.253784	728.538147	1677.161011	1441.769897	75.186020
789.565430	732.327637	1685.334106	1450.834961	75.393753
789.877014	736.042725	1665.941040	1438.723511	75.565338
790.188538	730.321472	1652.046509	1421.856812	75.026207
790.500061	732.847839	1632.950806	1400.680664	74.195160
790.811462	733.665039	1605.904663	1397.188477	76.071236
791.122925	735.522644	1584.876953	1378.984253	75.758919
791.434204	727.349365	1555.899048	1370.810913	77.661194
791.745483	731.436035	1543.267578	1349.337402	76.112015
792.056702	724.748718	1520.976685	1341.387085	77.444954
792.367920	729.652649	1513.620728	1326.898071	76.182365
792.678955	724.451477	1496.679688	1325.932007	77.888962
792.990112	734.036621	1488.432251	1315.381104	77.060959
793.301086	737.751709	1475.057617	1308.025024	77.345551
793.612122	741.466797	1466.290039	1304.309937	77.652466
793.922974	743.250061	1462.723267	1291.752808	76.236717
794.233826	736.042786	1461.237305	1294.130493	76.956970
794.544556	732.624817	1454.921753	1290.638184	77.255394
794.855286	726.754883	1450.240601	1302.675293	79.603561
795.166016	736.860046	1459.008179	1295.839478	77.405090
795.476624	738.346130	1469.113403	1292.570190	75.841393
795.787292	741.169678	1475.949219	1293.758911	75.204765
796.097778	730.247131	1481.967773	1305.796021	76.564201
796.408264	732.699036	1497.274048	1311.368774	75.685150
796.718689	735.968445	1513.843628	1321.250977	75.241188
797.029053	739.089172	1519.119141	1330.018677	75.757278
797.339355	737.231628	1515.106812	1336.037231	76.979652
797.649658	726.457703	1509.385376	1323.628784	76.274109
797.959839	729.949890	1498.834473	1314.935303	76.082344
798.270020	729.504089	1488.134888	1303.195435	75.621941
798.580078	738.717590	1477.658203	1308.619507	77.124184
798.890137	730.470032	1466.215698	1301.486450	77.610573
799.200195	721.925293	1465.621216	1302.526733	78.069733
799.510071	719.027527	1454.475708	1292.867310	78.025864
799.820007	721.405090	1450.834961	1281.870483	76.836090
800.129883	727.126465	1439.912476	1274.365967	76.774727
800.439575	726.606262	1432.853516	1262.477539	75.875877
800.749329	731.956116	1423.045532	1258.019409	76.120872
801.058960	735.522644	1415.986938	1245.536499	74.950859
801.368591	735.745544	1400.383423	1242.936035	76.310799
801.678162	732.624817	1393.919067	1241.152710	76.898880
801.987671	724.228699	1388.866577	1247.542725	78.736717
802.297119	723.336975	1391.095581	1243.381836	77.879173
802.606506	725.566101	1389.758179	1226.143433	75.366348
802.915894	729.355530	1383.293823	1206.304688	72.934891
803.225159	726.754883	1376.755249	1200.731934	72.919502
803.534424	728.835449	1364.569580	1204.670044	74.848045
803.843628	729.801331	1355.058716	1208.979492	76.636948
804.152771	737.083008	1360.557129	1206.081665	75.223434
804.461792	741.987000	1366.278442	1205.561646	74.256126
804.770874	741.912659	1369.101929	1204.818604	73.806419
805.079773	744.810486	1367.690308	1207.567871	74.293205
805.388733	737.751648	1371.405273	1204.967163	73.733582
805.697571	742.581360	1385.968750	1214.775146	73.391830
806.006470	738.420410	1389.981079	1220.868042	74.044930
806.315125	744.141785	1395.256470	1234.985474	75.385139
806.623901	740.129395	1394.810669	1231.196045	75.008507
806.932495	737.008728	1393.844727	1243.084473	77.047501
807.241150	733.442200	1392.061523	1234.762573	76.116867
807.549622	732.624817	1385.671509	1230.155762	76.186119
807.858154	727.795166	1388.643555	1214.329468	73.622681
808.166565	719.176025	1379.950195	1225.474854	76.622070
808.474915	721.999512	1373.114258	1233.945313	78.626053
808.783264	726.086243	1358.625366	1230.675903	79.772087
809.091492	726.086182	1359.219727	1206.676147	75.906570
809.399719	723.485596	1358.625244	1183.716675	72.461403
809.707825	727.795166	1358.179565	1176.212036	71.133881
810.015930	737.231628	1349.114380	1175.246094	71.584709
810.323975	738.569031	1338.117676	1178.143921	73.317635
810.632080	742.358459	1329.647095	1175.691895	73.785431
810.939880	736.860046	1310.402710	1168.484619	75.255882
811.247864	732.773438	1299.480225	1162.540405	75.835861
811.555664	722.371094	1296.285278	1155.407349	75.453140
811.863464	718.284424	1292.198608	1156.893433	76.424149
812.171143	718.581604	1294.204834	1159.196655	76.545738
812.478882	720.439209	1287.740479	1161.723022	77.786499
812.786438	729.132629	1293.981812	1159.642700	76.216820
813.094055	725.714661	1288.334839	1150.503418	75.501869
813.401489	734.110901	1280.235962	1143.593262	74.979599
813.708984	733.219238	1275.926392	1144.484741	75.780373
814.016357	746.073547	1280.161499	1146.416748	74.958290
814.323730	734.928223	1279.195679	1143.147339	75.003403
814.630981	727.795166	1272.062622	1129.327026	73.774734
814.938232	720.662109	1261.363037	1125.537598	74.879745
815.245361	728.984070	1269.164917	1129.475586	74.140266
815.552490	736.860046	1269.313477	1137.277466	75.202339
815.859619	737.528809	1267.604492	1129.847168	74.011765
816.166565	730.767273	1262.254761	1125.537720	74.276527
816.473572	728.909668	1259.579712	1125.983398	74.824974
816.780457	731.658875	1264.186523	1137.054565	76.126694
817.087341	741.169617	1262.477539	1140.175171	76.539322
817.394043	736.562927	1276.892212	1143.964722	75.398796
817.700806	735.076843	1284.768433	1154.218384	76.250313
818.007507	735.299744	1296.656860	1160.905640	75.817314
818.314209	739.312073	1305.573120	1165.512329	75.265686
818.620667	735.522644	1308.842407	1164.620850	74.844482
818.927246	725.268860	1319.541992	1173.314331	75.393860
819.233704	726.903503	1334.030884	1189.140747	76.135132
819.540161	734.853943	1358.699585	1214.775146	76.929482
819.846497	742.358582	1394.662109	1239.146362	76.158989
820.152832	743.175781	1444.816406	1274.068726	75.664513
820.458984	738.717590	1505.967407	1312.631836	74.801483
820.765259	737.380188	1568.307617	1358.848145	74.792084
821.071350	739.014832	1650.932129	1425.794922	75.311661
821.377502	728.018066	1792.850464	1532.567993	75.556488
821.683472	730.395752	2050.680908	1727.538208	75.524780
821.989441	727.646484	2488.546875	2060.785889	75.707825
822.295349	735.374023	3109.420654	2519.084961	75.133781
822.601196	736.934387	3827.333252	3042.250244	74.596062
822.907043	738.717590	4476.516113	3508.574463	74.103966
823.212769	738.420410	4881.540527	3810.094971	74.139160
823.518494	732.550537	5014.765137	3932.397461	74.724113
823.824097	726.457703	4883.917969	3838.330078	74.850319
824.129700	730.693054	4620.960449	3641.204834	74.815208
824.435242	729.281250	4293.359863	3395.262695	74.801422
824.740723	736.414246	4002.390381	3191.673584	75.176888
825.046082	736.191406	3729.030518	2987.712646	75.230278
825.351501	741.318298	3429.665039	2756.110596	74.945404
825.656799	733.665100	3091.141846	2510.837646	75.384521
825.962036	731.510254	2774.612061	2287.855225	76.175598
826.267212	729.875671	2542.787598	2123.125977	76.851517
826.572449	739.757874	2401.018066	2010.408813	76.487167
826.877502	740.129395	2360.745850	1978.830078	76.433922
827.182495	734.705322	2435.643311	2017.690430	75.428093
827.487488	727.572266	2562.923828	2100.240479	74.790482
827.792419	728.463867	2680.024902	2176.697998	74.209007
828.097290	739.312073	2706.773682	2198.914795	74.187103
828.402100	738.940613	2667.095947	2166.444336	74.034683
828.706848	734.556641	2561.363281	2099.051758	74.692917
829.011597	728.240967	2438.169678	2005.727539	74.709930
829.316223	728.389587	2297.068604	1901.480835	74.782112
829.620789	736.934387	2162.060547	1796.862671	74.374344
829.925354	739.460693	2024.972046	1709.482788	75.458076
830.229797	737.157288	1901.703735	1619.204712	75.741714
830.534302	739.832214	1773.234375	1535.762817	77.020416
830.838562	733.813660	1646.250977	1429.881470	76.286644
831.142944	733.516418	1537.917603	1345.696533	76.103828
831.447144	726.531982	1456.779175	1263.740601	73.565308
831.751404	722.296692	1396.445313	1219.976318	73.823425
832.055542	721.627930	1365.163696	1200.954956	74.483353
832.359619	721.107910	1345.250732	1192.112915	75.464302
832.663635	724.525818	1348.222900	1208.013672	77.519661
832.967651	727.497864	1365.163940	1221.685425	77.499428
833.271545	726.234863	1429.807251	1267.307129	76.903564
833.575439	726.457703	1521.348267	1329.127075	75.817902
833.879211	727.275085	1644.913696	1413.015015	74.728760
834.183044	729.949890	1764.689819	1508.345215	75.226173
834.486694	731.064453	1861.729004	1581.533569	75.218521
834.790344	735.671204	1913.072144	1617.644531	74.908501
835.093933	732.773438	1907.350708	1609.396973	74.633110
835.397522	738.643372	1861.580078	1576.777954	74.637733
835.700928	742.432800	1784.305542	1534.351196	76.009125
836.004395	748.451355	1722.634277	1488.506348	75.966736
836.307739	750.234619	1667.576050	1439.317993	75.117439
836.611023	748.228333	1613.855103	1396.593872	74.901283
836.914307	741.020996	1549.731812	1340.867065	74.173126
837.217529	745.404968	1473.422852	1292.421631	75.137802
837.520691	740.352295	1400.457642	1231.493286	74.403427
837.823730	739.757874	1337.820435	1180.596069	73.711052
838.126831	732.996338	1284.991211	1135.791382	72.970795
838.429749	734.036621	1241.078369	1106.738892	73.505241
838.732727	736.117004	1200.360474	1086.380005	75.448128
839.035522	735.299805	1182.379272	1066.987061	74.189774
839.338379	727.052185	1169.524902	1066.095459	76.624672
839.641113	729.578430	1167.964478	1070.256348	77.711853
839.943848	731.807434	1181.710571	1087.494629	79.058617
840.246460	733.516541	1202.143677	1094.404785	77.009674
840.549072	730.321472	1224.285889	1108.002075	76.459068
840.851563	720.810730	1239.815063	1110.602661	75.103790
841.154053	723.931396	1245.833618	1117.364258	75.384399
841.456482	730.172852	1244.421997	1112.757446	74.396736
841.758850	736.191345	1229.709961	1104.212769	74.570930
842.061157	735.299622	1202.589478	1083.407959	74.495163
842.363403	731.807434	1175.914795	1072.708374	76.760933
842.665588	730.470032	1147.159668	1064.386475	80.135529
842.967712	729.801270	1144.633423	1060.225464	79.652504
843.269775	725.417419	1131.778931	1040.981079	77.655891
843.571777	729.949890	1116.621216	1019.804871	74.961594
843.873840	731.064453	1084.596802	1003.161133	76.965141
844.175659	736.488586	1059.408203	995.507813	80.211670
844.477600	735.596924	1042.838745	984.065247	80.870605
844.779297	731.658875	1032.807739	967.570007	78.337051
845.081116	733.219238	1026.269165	952.040771	74.670395
845.382751	737.380188	1013.786316	952.858154	77.957016
845.684387	745.999329	1009.699646	943.570313	74.922546
845.985962	739.237732	1000.337585	946.765320	79.482079
846.287537	736.934387	992.684387	936.511536	78.036034
846.588989	734.556702	981.093079	937.105896	82.157936
846.890381	737.825989	982.430481	923.062744	75.729088
847.191711	735.819824	974.554443	917.192810	75.972633
847.493042	732.624817	981.390320	918.530273	74.731201
847.794250	735.819824	969.353271	926.257629	81.546265
848.095459	736.637207	976.114807	931.161682	81.228676
848.396606	739.683594	966.975586	925.366028	81.693344
848.697693	733.590820	967.124207	918.901672	79.350906
848.998657	732.476257	965.786804	907.979187	75.222885
849.299622	738.271790	970.467834	911.545715	74.623978
849.600464	736.860107	974.034424	915.781067	75.438591
849.901367	727.869446	967.272766	914.740784	78.057121
850.202087	718.730286	956.053040	911.471497	81.214806
850.502808	719.398987	947.582581	907.533447	82.448723
850.803467	729.058350	948.622803	906.493164	80.812180
851.104065	732.401917	949.217285	911.397156	82.556526
851.404663	730.395813	957.167664	906.716064	77.752266
851.705139	723.039734	962.443115	905.675842	76.288025
852.005615	722.371094	964.746521	894.827698	71.152679
852.306030	727.349304	960.585510	898.914368	73.558502
852.606384	729.504150	955.830139	897.205383	74.097206
852.906616	727.200684	955.458679	906.938965	78.743477
853.206909	728.984070	951.372070	898.319885	76.144310
853.506958	735.745605	942.752930	897.948425	78.356079
853.807129	742.952942	940.226746	886.134277	72.580002
854.107178	748.525574	937.774658	889.923645	74.715324
854.407166	749.714417	944.016052	897.725525	76.175949
854.707092	750.680420	950.628967	898.394226	73.875908
855.007019	748.079773	950.108887	889.775085	70.136086
855.306763	745.776428	946.393738	885.391296	69.592636
855.606567	741.912659	936.511414	891.484070	76.861443
855.906250	737.083008	942.827209	894.604736	76.561928
856.205933	735.745605	945.576416	891.186829	74.079315
856.505493	743.101563	946.319519	886.282898	70.457031
856.805054	747.188171	946.542297	884.573914	68.915428
857.104492	742.061340	946.616699	878.183838	66.545555
857.403931	735.522644	947.062500	881.304504	68.914604
857.703308	731.213074	944.461914	882.344788	70.871063
858.002563	735.299805	943.124512	884.796814	71.934181
858.301819	728.761169	938.814941	873.502747	68.906914
858.601013	727.869446	936.139954	874.245789	70.281837
858.900208	724.971680	935.322693	882.939209	75.097107
859.199219	726.383484	935.471252	888.957764	77.754082
859.498291	732.253235	939.855164	890.443787	76.198982
859.797302	725.937683	938.071960	888.511902	76.637413
860.096191	735.745605	941.192627	886.505676	73.381485
860.395020	725.863281	932.945007	890.220886	79.368477
860.693787	736.860107	935.842773	892.895752	78.416702
860.992554	722.445313	926.406311	897.651123	85.901627
861.291260	723.931458	927.149353	892.227051	82.815338
861.589844	720.513489	924.177246	885.093994	80.809914
861.888428	728.686768	935.917175	882.790588	74.363518
862.186890	728.983948	938.369141	882.121887	73.136948
862.485413	724.154297	943.644592	883.013489	72.376411
862.783813	720.290588	944.016113	884.276672	73.297890
863.082153	716.278259	944.610535	886.728699	74.650177
863.380371	728.315247	937.551758	889.329285	76.953125
863.678589	729.949951	930.715881	888.883484	79.163597
863.976746	734.928162	928.263977	897.948425	84.319740
864.274902	729.206848	936.139954	897.502625	81.328590
864.572937	729.578430	943.644531	901.737793	80.423462
864.870911	731.213074	946.690979	894.753418	75.896576
865.168884	733.145020	938.146179	888.660583	75.860825
865.466736	729.429871	934.579651	881.378906	74.067368
865.764587	732.922058	929.304138	879.744202	74.763512
866.062317	733.590759	939.483582	882.790710	72.464859
866.360107	734.408142	942.455750	885.614075	72.678528
866.657715	726.829163	946.022278	881.973328	70.779671
866.955322	726.011902	934.282410	883.013489	75.383492
867.252808	727.869446	928.486816	882.344788	76.999985
867.550293	735.968445	930.121399	889.923645	79.295830
867.847717	733.739319	935.322693	892.004150	78.510857
868.145081	734.259460	936.139954	893.936035	79.094604
868.442383	727.943787	933.167908	888.363281	78.167953
868.739624	726.680603	932.424988	885.465515	77.175819
869.036804	723.634216	937.180237	885.614075	75.852432
869.333984	727.497986	938.889221	889.329285	76.555351
869.631042	724.451477	942.901550	884.722473	73.367332
869.928101	723.262695	933.539368	882.270508	75.618378
870.224976	717.318542	942.752869	879.669922	72.017151
870.521851	715.832520	951.372009	889.552246	73.753967
870.818726	720.810730	959.025146	891.186829	71.522163
871.115479	725.491882	957.241943	888.809143	70.471291
871.412231	719.621887	950.926208	891.186768	74.172798
871.708862	717.912903	944.833435	894.827637	77.963303
872.005493	720.587830	939.483643	897.874084	80.991158
872.302063	731.361633	939.335022	887.323181	74.991104
872.598572	730.544373	949.068665	885.465576	70.894272
872.895020	724.971680	951.149109	883.979492	70.302246
873.191406	726.383362	951.892151	890.072266	72.586487
873.487671	724.228699	952.412292	896.165100	75.350029
873.783997	724.154297	965.266663	900.326111	73.066269
874.080200	725.491760	967.644287	903.892578	73.672913
874.376343	736.785828	970.096252	901.069092	70.414024
874.672424	745.553467	958.356445	905.007141	74.930191
874.968445	744.141785	954.418457	899.434509	73.851616
875.264465	735.894226	952.189453	900.326111	76.021965
875.560364	735.596985	960.288391	900.177490	73.247353
875.856201	732.847717	967.792969	902.703796	72.296028
876.152039	730.098633	975.074646	902.332275	70.306328
876.447754	725.640442	966.529785	900.177490	72.455276
876.743469	730.172852	964.226379	904.635559	74.539665
877.039063	739.609314	962.294617	902.183594	73.006294
877.334595	737.974670	958.430847	900.103210	73.542297
877.630127	735.374084	961.254333	898.468506	72.203934
877.925537	727.943787	961.402832	899.657410	73.551926
878.221008	725.417480	967.941467	904.189758	73.713234
878.516296	723.336914	966.232605	902.555115	73.784019
878.811646	720.587708	965.266602	913.329041	78.773178
879.106812	727.572205	977.675232	925.366028	79.084938
879.401978	719.844727	994.690613	942.158508	80.886703
879.697083	725.714661	1013.934875	947.805481	77.055946
879.992126	724.823059	1037.191650	960.065430	75.309227
880.287109	734.705322	1076.646362	982.579163	72.490227
880.582031	734.779602	1136.608643	1034.368286	74.556252
880.876892	728.538147	1242.861572	1113.054810	74.761650
881.171753	734.556641	1417.473022	1254.081421	76.074432
881.466492	736.265625	1695.810913	1454.401367	74.841255
881.761230	739.163513	2037.083374	1704.801758	74.398911
882.055786	737.157227	2387.940674	1955.201782	73.785851
882.350403	732.401917	2656.693604	2154.853271	73.920776
882.644958	734.259521	2799.132080	2274.629150	74.598778
882.939453	729.875671	2814.289795	2287.260498	74.715714
883.233826	734.779602	2752.544189	2236.808838	74.440262
883.528137	726.829285	2647.182861	2155.076172	74.374161
883.822449	725.045959	2534.614258	2089.615479	75.408569
884.116577	724.228699	2434.008545	2025.120728	76.085358
884.410828	729.281250	2326.789795	1947.548462	76.260452
884.704956	736.042725	2203.298584	1837.580566	75.074692
884.999023	737.974609	2006.396362	1706.733521	76.375145
885.292969	737.677429	1802.360962	1554.338501	76.704582
885.586914	734.185242	1602.561157	1413.683594	78.249329
885.880798	730.692932	1461.088867	1289.449341	76.500481
886.174622	730.692932	1352.086670	1205.115845	76.348198
886.468384	730.024231	1271.542480	1146.268066	76.866074
886.762085	728.538147	1221.685181	1109.191040	77.188522
887.055664	729.504089	1182.230591	1080.212891	77.465935
887.349304	725.343079	1148.868652	1045.662109	75.631569
887.642822	721.033508	1101.686523	1031.321899	81.514763
887.936340	720.885010	1076.200562	1010.888611	81.618607
888.229736	716.352539	1059.185181	1004.275635	83.983574
888.523071	720.662109	1054.801392	976.412109	76.539940
888.816284	725.343201	1037.860352	965.638184	76.890175
889.109619	734.185120	1018.021545	955.458679	77.958130
889.402710	736.191406	1008.659363	939.780823	74.720497
889.695862	735.299744	999.594482	930.418701	73.826271
889.988892	724.823059	986.220032	917.192810	73.592957
890.281921	704.166870	958.950989	909.688171	80.664879
>>>>>End Processed Spectral Data<<<<<
