Jaz Data File
++++++++++++++++++++++++++++++++++++
Date: Fri Jun 04 16:50:05 2021
User: jaz
Dark Spectrum Present: Yes
Reference Spectrum Present: Yes
Processed Spectrum Present: Yes
Spectrometers: JAZA3586
Integration Time (usec): 24900 (JAZA3586)
Spectra Averaged: 10 (JAZA3586)
Boxcar Smoothing: 1 (JAZA3586)
Correct for Electrical Dark: No (JAZA3586)
Strobe/Lamp Enabled: Yes (JAZA3586)
Correct for Detector Non-linearity: No (JAZA3586)
Correct for Stray Light: No (JAZA3586)
Number of Pixels in Processed Spectrum: 2048
>>>>>Begin Processed Spectral Data<<<<<
W	D	R	S	P
191.335022	0.000000	0.000000	0.000000	0.000000
191.713211	231.155762	234.127869	231.675903	17.500771
192.091385	464.763519	467.438385	464.466309	-11.111238
192.469528	701.492004	705.652893	698.371277	-75.001465
192.847641	713.603333	712.860291	705.355774	1109.972046
193.225739	723.857117	731.064453	713.751953	-140.206635
193.603790	734.482422	738.271790	720.736389	-362.752686
193.981842	733.739441	737.900330	723.336975	-250.005875
194.359863	736.117004	734.185120	728.315247	403.841766
194.737854	737.974609	738.123230	730.841614	-4799.466309
195.115829	740.500916	744.736145	733.442200	-166.666672
195.493774	744.141785	746.147949	736.860107	-362.965118
195.871704	743.472961	746.593750	748.154114	149.999023
196.249603	746.445068	755.361511	757.739075	126.664932
196.627457	747.188171	758.556458	754.915710	67.974533
197.005310	747.188171	764.203430	744.661865	-14.847298
197.383133	750.606140	760.339783	738.346191	-125.954376
197.760910	754.246887	757.293274	736.860046	-570.736511
198.138687	752.909485	756.327393	739.534973	-391.306976
198.516449	751.943542	754.989990	741.169617	-353.655365
198.894180	745.330566	752.612305	738.791931	-89.794975
199.271866	748.154053	751.572083	733.665039	-423.899567
199.649536	744.736145	746.816650	733.070618	-560.706421
200.027191	745.553467	751.051941	741.912598	-66.215988
200.404816	740.500916	744.364685	748.228333	199.996841
200.782410	742.432800	759.448059	747.485352	29.694237
201.159988	746.370850	763.311829	746.593750	1.315747
201.537537	747.931152	776.314880	741.095398	-24.083357
201.915070	745.999268	771.559509	736.488586	-37.208885
202.292557	737.008606	778.320984	738.791992	4.316833
202.670029	728.835388	777.726563	740.203674	23.252226
203.047485	720.885010	782.333313	747.559631	43.409859
203.424911	718.358704	770.667786	743.695984	48.437630
203.802292	723.188416	771.633789	738.494812	31.595167
204.179688	728.538147	771.930969	733.739319	11.986249
204.557037	728.835388	782.556335	731.881836	5.670875
204.934357	735.374023	782.704895	735.819824	0.941882
205.311661	737.603088	775.571777	725.120300	-32.876534
205.688934	741.912659	776.091980	725.194580	-48.912846
206.066177	736.191406	769.999084	725.268860	-32.307888
206.443390	740.278015	775.051758	734.185120	-17.521542
206.820587	744.216064	767.101318	736.117004	-35.389862
207.197769	743.101501	768.810242	738.271790	-18.786264
207.574921	737.751709	772.302429	740.723816	8.602157
207.952042	727.052185	774.159973	732.773438	12.145024
208.329147	726.309082	773.045471	729.875671	7.631290
208.706223	732.179016	770.073425	727.795105	-11.568754
209.083267	734.036621	768.364441	735.745544	4.978246
209.460297	734.333801	767.992920	728.835388	-16.335583
209.837280	723.485596	767.398499	721.479431	-4.568508
210.214264	726.457703	769.479004	714.420654	-27.979275
210.591217	725.640381	767.101318	722.593933	-7.347754
210.968124	722.668274	765.912415	734.631042	27.663328
211.345016	723.188416	764.054871	742.432800	47.090908
211.721893	720.662109	770.370605	742.878601	44.693550
212.098724	717.095520	765.986755	737.083008	40.881535
212.475555	702.383606	762.048767	728.761047	44.209118
212.852356	708.773682	761.974426	724.674377	29.888107
213.229126	711.448547	765.838135	725.268860	25.409849
213.605865	725.417480	768.661621	719.919128	-12.714675
213.982590	719.027527	761.602844	723.708496	10.994561
214.359283	722.445313	756.104492	724.154297	5.077320
214.735931	720.141907	760.785583	733.144958	31.992804
215.112579	718.284363	756.104492	735.671204	45.972450
215.489197	719.324646	761.825867	732.253357	30.419622
215.865799	714.049133	760.934143	721.628113	16.165037
216.242355	717.541321	764.203430	718.284424	1.592519
216.618896	722.816895	761.751465	722.668274	-0.381719
216.995407	731.733215	762.866028	729.949951	-5.727925
217.371902	732.104675	764.277832	726.531982	-17.320938
217.748367	733.219238	768.736023	720.216309	-36.610661
218.124802	732.104675	763.683350	723.857117	-26.117495
218.501236	736.934387	768.067200	729.281250	-24.582222
218.877609	731.510315	760.265442	736.562927	17.571171
219.253983	727.572266	757.516174	734.036621	21.588215
219.630295	726.309082	750.829041	735.225403	36.363522
220.006592	721.479431	749.342957	728.686829	25.866783
220.382889	720.142029	754.395508	726.383484	18.221376
220.759140	717.095520	761.751465	726.754944	21.630768
221.135391	717.764343	770.816406	729.949951	22.969151
221.511581	717.689941	775.497498	732.550598	25.707119
221.887772	714.420654	770.890808	724.525879	17.894806
222.263931	711.522888	761.454285	729.652771	36.309586
222.640060	704.984192	756.253113	730.247253	49.275585
223.016159	706.470276	760.785583	735.225403	52.941109
223.392212	709.145203	769.627625	727.869446	30.958157
223.768265	723.188416	774.457275	722.668274	-1.014537
224.144302	723.485596	775.200378	718.433044	-9.770033
224.520294	731.881836	767.918640	719.250305	-35.051750
224.896286	728.389648	763.757751	722.891174	-15.546421
225.272217	728.315247	766.135315	726.011902	-6.090271
225.648148	724.525818	769.701843	721.850891	-5.921120
226.024048	722.593933	772.599609	724.748718	4.309081
226.399902	718.953125	775.943359	725.343201	11.212580
226.775772	723.857178	779.064026	726.086182	4.037549
227.151581	729.206970	777.726563	718.581604	-21.899124
227.527374	734.036621	776.983582	715.015137	-44.290642
227.903137	730.395752	775.794739	713.900574	-36.333801
228.278870	730.990234	779.807129	723.411316	-15.525196
228.654572	736.042786	772.302490	727.052063	-24.795355
229.030273	733.590759	765.912415	727.572266	-18.620623
229.405930	723.782776	759.893982	725.194580	3.909601
229.781555	724.674500	762.048767	724.525879	-0.397655
230.157181	724.302917	765.838135	729.504089	12.522318
230.532761	731.658875	771.262207	723.857117	-19.699751
230.908325	720.885010	776.983582	721.479431	1.059602
231.283859	720.736389	776.091980	723.634277	5.235042
231.659332	713.603333	773.862793	731.584656	29.839834
232.034821	725.120300	770.816406	730.395752	11.544641
232.410263	722.668274	767.770020	731.733215	20.098871
232.785690	729.875671	768.438721	724.897400	-12.909434
233.161087	724.228577	761.157043	730.618713	17.304094
233.536469	720.736328	767.472839	728.984070	17.647320
233.911804	716.501160	763.163269	731.138733	31.369291
234.287140	719.621826	766.878418	725.640320	12.735776
234.662430	724.377258	766.655457	723.262695	-2.636259
235.037704	723.485596	770.890625	720.587830	-6.112782
235.412933	719.324646	778.023743	727.275085	13.544398
235.788162	718.210144	773.268372	727.943787	17.678816
236.163345	720.142029	767.027039	735.819824	33.438824
236.538513	718.953125	764.054932	733.070618	31.301390
236.913635	721.256531	774.903076	734.036560	23.822651
237.288742	723.931458	778.172363	723.931396	-0.000113
237.663834	724.748779	776.017578	720.290527	-8.695839
238.038879	730.024231	771.410889	721.033630	-21.723427
238.413910	727.646545	774.754456	725.566101	-4.416337
238.788910	733.145020	777.800842	730.395752	-6.156571
239.163879	730.692932	778.692444	728.463867	-4.643932
239.538834	735.002502	776.166199	732.550476	-5.956769
239.913757	728.092346	775.200256	730.544373	5.205127
240.288651	729.578430	777.057861	728.835388	-1.564977
240.663528	723.337097	777.726563	720.513489	-5.191462
241.038361	729.578430	778.915466	718.878845	-21.686720
241.413177	728.984070	784.190918	715.015076	-25.303009
241.787979	732.327637	787.608887	727.349304	-9.005463
242.162735	732.699219	789.243469	733.962341	2.233865
242.537476	731.881775	785.156921	745.033386	24.686205
242.912170	731.807556	787.237305	738.123230	11.394015
243.286865	727.869446	788.054688	730.395752	4.197551
243.661514	726.532043	789.689270	726.680664	0.235318
244.036148	730.024231	789.317810	729.949951	-0.125275
244.410751	730.767273	788.128906	730.024231	-1.295364
244.785339	733.516418	786.419983	725.566101	-15.027943
245.159882	724.823059	798.977234	725.491760	0.901771
245.534378	722.222412	799.348694	723.634094	1.830352
245.908890	715.758057	795.782166	722.371033	8.263730
246.283356	716.724060	782.407654	717.392761	1.018064
246.657791	721.553711	782.779114	725.268860	6.067986
247.032196	730.024231	790.357971	725.640381	-7.266001
247.406586	734.928223	803.509583	730.470032	-6.500587
247.780960	726.383362	808.710754	728.909668	3.068609
248.155289	717.987122	818.444519	737.825989	19.748537
248.529602	717.689941	815.620911	732.699158	15.326323
248.903870	725.268860	823.794250	727.126465	1.885407
249.278122	727.869446	818.370178	720.587830	-8.045919
249.652344	716.501160	814.655029	720.364929	3.936441
250.026550	713.008972	800.983337	732.030457	21.621622
250.400711	707.659180	798.679932	737.008606	32.244762
250.774857	721.033630	795.187744	738.791931	23.947830
251.148987	722.445374	795.633484	730.172852	10.558379
251.523071	726.383362	799.274414	724.748718	-2.242585
251.897125	723.262695	804.475586	728.909668	6.953296
252.271164	727.200745	806.704651	731.064453	4.859772
252.645187	728.909668	806.778992	733.962219	6.488500
253.019165	729.578430	810.122620	728.315247	-1.568311
253.393112	724.600098	812.277344	726.234680	1.864318
253.767044	723.336975	809.899719	728.389587	5.836936
254.140930	725.045959	806.704590	737.974609	15.832558
254.514801	726.309082	810.122559	744.364685	21.542601
254.888657	735.374023	814.060608	743.027283	9.726256
255.262466	731.361633	814.952209	737.528809	7.377836
255.636276	734.408142	813.911926	727.349365	-8.878542
256.010010	727.943787	813.837708	729.949951	2.335630
256.383759	733.144958	821.565186	726.754883	-7.226939
256.757446	724.600159	823.645691	732.550537	8.026994
257.131134	723.114075	827.360840	727.943787	4.632961
257.504791	724.005676	835.162598	723.782776	-0.200528
257.878418	723.857117	840.140808	725.640381	1.533546
258.252014	718.804504	848.388428	724.897400	4.701891
258.625580	711.448547	856.561768	733.665100	15.309806
258.999115	716.724060	875.731750	734.482422	11.168241
259.372650	717.318542	890.666748	739.832214	12.987542
259.746124	723.708496	902.480896	737.751709	7.855359
260.119598	733.516418	926.257751	730.321472	-1.657634
260.493042	737.900208	938.666321	726.234802	-5.810445
260.866425	730.172852	952.783752	720.885010	-4.172231
261.239838	711.448547	941.266907	724.377258	5.625621
261.613159	713.528992	925.886230	722.593994	4.268751
261.986511	715.386536	899.285828	719.770508	2.383898
262.359802	725.491699	881.824707	718.210144	-4.657721
262.733063	731.584534	879.446960	720.513489	-7.487396
263.106293	734.408142	883.087830	725.937500	-5.697242
263.479523	732.104736	890.740967	726.383362	-3.606600
263.852692	721.702332	889.997986	725.566101	2.295823
264.225861	724.005676	890.815247	724.971680	0.579105
264.598969	728.612488	893.044434	725.268860	-2.033442
264.972076	734.482422	900.325989	728.612488	-3.539440
265.345154	734.333801	894.604736	729.949951	-2.735275
265.718201	729.281189	896.016541	729.801270	0.311920
266.091217	732.699158	898.691406	729.281189	-2.059114
266.464203	733.144958	918.976074	735.671204	1.359431
266.837158	735.671204	926.109131	734.482422	-0.624236
267.210114	726.011780	929.155579	732.996338	3.438233
267.583038	720.959290	928.263977	727.126404	2.974903
267.955902	718.953125	932.350586	730.544373	5.431765
268.328766	715.015137	941.787048	730.470032	6.815172
268.701569	712.414551	941.341125	721.479492	3.959759
269.074371	713.751953	946.839600	721.702332	3.410897
269.447144	720.884949	951.594971	719.547607	-0.579663
269.819885	722.445313	966.529785	727.869446	2.222236
270.192596	725.863281	979.384094	732.550598	2.637778
270.565277	721.627991	996.622375	738.123230	5.998391
270.937927	723.039795	1007.544861	743.770203	7.286481
271.310577	710.854065	1030.801636	742.507080	9.893188
271.683136	714.494934	1047.891235	748.302734	10.140425
272.055725	711.299988	1081.550415	745.330566	9.191233
272.428284	717.392761	1092.695801	743.250183	6.889745
272.800812	719.250305	1101.389160	732.847717	3.558239
273.173279	723.931396	1073.228516	732.624817	2.488832
273.545776	728.389587	1071.445190	736.265625	2.295849
273.918152	724.302917	1064.906616	736.562805	3.599458
274.290558	725.268860	1075.606079	732.030334	1.929990
274.662964	724.302917	1056.213135	723.336914	-0.291044
275.035278	729.801270	1054.578491	726.977783	-0.869361
275.407593	725.714661	1056.064575	733.516418	2.361665
275.779907	725.863281	1070.850708	738.123230	3.553738
276.152161	723.411316	1079.395630	731.361633	2.233334
276.524384	726.977844	1103.098145	724.674500	-0.612396
276.896606	722.891113	1111.717285	720.290588	-0.668814
277.268799	719.919128	1122.639771	728.092346	2.029500
277.640930	721.776672	1119.370483	734.333801	3.158281
278.013031	724.971680	1133.488037	744.216064	4.710799
278.385162	726.309082	1127.246582	740.278015	3.484067
278.757233	725.789001	1133.710938	725.640381	-0.036434
279.129272	726.829163	1127.618042	717.244141	-2.391539
279.501282	723.559875	1138.020386	721.925293	-0.394388
279.873230	729.058289	1142.850098	732.847717	0.915781
280.245178	722.668274	1156.670532	734.705322	2.773499
280.617126	728.166687	1174.205933	728.909668	0.166573
280.988983	714.420593	1199.617432	728.612488	2.924977
281.360870	717.615662	1234.762695	736.562927	3.663806
281.732697	718.953125	1270.947876	734.333801	2.786381
282.104492	728.538269	1296.731079	740.426575	2.092301
282.476288	728.389465	1313.449097	737.157410	1.498641
282.848053	724.748718	1322.662598	741.095398	2.733952
283.219757	717.318420	1323.480103	735.745605	3.039979
283.591461	719.324707	1321.250977	737.380188	2.999617
283.963135	723.262695	1319.318970	739.609314	2.742462
284.334747	723.114075	1329.349976	742.209900	3.149900
284.706360	723.188293	1350.154663	735.745605	2.002868
285.077942	724.971619	1370.588013	728.835449	0.598472
285.449524	731.881836	1402.315063	726.903503	-0.742555
285.821014	732.030457	1420.519409	728.166687	-0.561196
286.192535	727.646545	1451.355103	735.448242	1.078016
286.563995	726.383484	1465.472656	733.516418	0.965098
286.935425	722.965515	1486.871704	742.432800	2.548387
287.306824	719.770508	1484.791382	734.482422	1.923074
287.678223	726.680664	1477.806763	737.974609	1.503602
288.049561	733.739441	1457.076294	728.092468	-0.780684
288.420898	730.024231	1444.667847	735.522644	0.769392
288.792145	724.748718	1441.770020	739.980774	2.124352
289.163452	721.107910	1448.457153	737.380188	2.237203
289.534668	726.011902	1472.605591	735.002625	1.204232
289.905914	726.680603	1497.348267	725.566101	-0.144615
290.277039	725.045898	1535.094238	730.767273	0.706300
290.648193	731.584656	1572.914429	731.361755	-0.026494
291.019318	732.699158	1598.028687	730.618652	-0.240429
291.390381	730.544373	1617.570313	723.931458	-0.745515
291.761475	727.126465	1609.471313	730.247131	0.353679
292.132507	714.123474	1606.127808	733.145020	2.132450
292.503510	712.265930	1582.573730	732.996399	2.381970
292.874481	714.346375	1570.239380	723.039856	1.015721
293.245422	715.386536	1574.326050	724.971680	1.115928
293.616364	723.485596	1596.022461	735.151123	1.336967
293.987213	713.380432	1635.254395	743.844543	3.304585
294.358093	716.724060	1671.291138	745.033386	2.965672
294.728943	715.163635	1716.913086	735.671204	2.047175
295.099731	720.216309	1765.358398	728.389587	0.782026
295.470490	720.736328	1793.147827	723.411316	0.249437
295.841248	720.885010	1824.354858	723.634216	0.249142
296.211975	731.287354	1840.106934	731.435974	0.013403
296.582642	735.076843	1885.803101	734.928223	-0.012915
296.953308	736.860107	1931.127808	741.318176	0.373289
297.323883	734.853943	1979.498657	737.974609	0.250727
297.694519	733.070618	2011.597656	746.965149	1.086761
298.065063	733.070618	2009.739868	740.872375	0.611103
298.435608	727.497986	1988.563843	735.374023	0.624554
298.806122	726.977844	1931.573608	722.668213	-0.357766
299.176575	730.692871	1875.029175	727.572266	-0.272700
299.547028	733.962219	1836.837524	732.624817	-0.121265
299.917450	734.928223	1825.692261	740.649597	0.524529
300.287872	726.160461	1823.165894	745.627747	1.774584
300.658234	728.240967	1817.295898	744.216064	1.466877
301.028564	732.847717	1812.317749	738.048889	0.481826
301.398865	737.825989	1815.586914	726.011902	-1.096169
301.769135	729.504089	1809.791382	725.417480	-0.378289
302.139374	722.148132	1811.500366	731.658936	0.873070
302.509583	712.488770	1810.088501	736.711487	2.206881
302.879791	711.076965	1809.940063	739.312073	2.569484
303.249939	707.733398	1799.983398	732.922058	2.306126
303.620087	717.838562	1789.209595	730.395752	1.172067
303.990173	721.330811	1775.760742	732.179016	1.028822
304.360260	720.290527	1785.123047	737.825989	1.646781
304.730286	722.668274	1782.819702	738.346191	1.478838
305.100281	722.519592	1798.125977	732.104736	0.891139
305.470276	735.968445	1800.875000	732.773438	-0.300027
305.840179	731.361633	1820.119507	736.191345	0.443598
306.210144	726.829285	1836.540405	737.825989	0.990952
306.579987	720.290588	1852.663940	738.940613	1.646986
306.949890	712.934631	1870.868164	737.083008	2.085472
307.319702	725.491760	1886.323120	734.333801	0.761699
307.689484	729.652771	1911.660278	730.321472	0.056573
308.059265	737.825989	1935.288696	727.497864	-0.862501
308.429016	727.349365	1967.907593	732.550476	0.419256
308.798737	723.411316	2000.526489	735.745544	0.965788
309.168396	723.634277	2049.046143	740.203674	1.250132
309.538055	726.011902	2088.575195	739.386414	0.981570
309.907684	725.863281	2122.308594	734.556641	0.622535
310.277313	723.039795	2149.428955	727.720886	0.328178
310.646851	727.275085	2172.017334	724.377258	-0.200577
311.016388	728.686829	2186.134766	726.977844	-0.117259
311.385895	724.525879	2176.549561	730.470032	0.409370
311.755371	727.646484	2178.778809	732.699158	0.348188
312.124817	731.584534	2176.772461	727.275085	-0.298193
312.494232	733.144958	2178.852783	732.179016	-0.066814
312.863617	733.813660	2163.398193	732.104736	-0.119540
313.232971	732.104675	2149.800781	738.791931	0.471699
313.602295	741.095398	2141.627441	736.414246	-0.334241
313.971619	738.271790	2153.441406	729.355469	-0.630053
314.340820	737.677429	2161.763428	723.634216	-0.986121
314.710083	722.742615	2190.369873	729.578430	0.465773
315.079285	716.649719	2216.450195	735.299744	1.243500
315.448486	716.278259	2255.013428	735.374084	1.241008
315.817596	725.268860	2255.756348	736.860107	0.757357
316.186707	730.544373	2227.892822	740.649597	0.674875
316.555786	729.652649	2188.066650	748.599915	1.299169
316.924866	726.309082	2146.605469	742.729980	1.156160
317.293884	714.717834	2128.772949	744.959167	2.138625
317.662872	712.488770	2122.754395	740.426575	1.981031
318.031830	715.609558	2140.735596	738.791992	1.626694
318.400757	726.309082	2149.280518	739.534973	0.929456
318.769684	727.720764	2160.277344	736.117004	0.586102
319.138550	721.999512	2182.791016	733.516418	0.788402
319.507416	717.764343	2212.511963	729.429871	0.780435
319.876190	715.163635	2229.675781	728.538147	0.883090
320.244995	722.891113	2222.022949	725.937561	0.203214
320.613770	725.640320	2197.800293	724.971680	-0.045419
320.982483	736.042786	2178.630127	724.154297	-0.824109
321.351166	735.745544	2161.391846	723.262695	-0.875592
321.719818	732.847717	2159.682861	721.850891	-0.770715
322.088440	725.491760	2157.082275	730.990173	0.384077
322.457062	721.479492	2179.893066	736.785828	1.049520
322.825623	721.256531	2214.740967	744.884766	1.582088
323.194183	714.569336	2254.790283	738.048889	1.524428
323.562653	712.340271	2298.183105	742.729980	1.916313
323.931183	710.705566	2351.978271	739.163391	1.733888
324.299591	715.981018	2422.343018	738.569031	1.323753
324.668060	720.662109	2479.556396	740.352295	1.119464
325.036407	725.268799	2521.908936	732.030457	0.376350
325.404755	725.640381	2539.889893	733.070618	0.409549
325.773102	725.863281	2553.264404	729.504089	0.199234
326.141388	720.885010	2552.967285	732.996338	0.661069
326.509674	722.816895	2558.837158	732.327637	0.518009
326.877899	728.240967	2567.902100	734.853943	0.359467
327.246124	731.807434	2588.632568	739.014832	0.388157
327.614288	728.463867	2586.849121	738.123230	0.519772
327.982422	717.764343	2577.858643	731.881775	0.758963
328.350525	716.278259	2549.846436	729.652649	0.729419
328.718628	712.637390	2538.106445	731.510315	1.033867
329.086700	712.191589	2529.264648	739.609314	1.508895
329.454712	713.528992	2548.211914	739.906494	1.437715
329.822693	719.101746	2563.741211	743.398743	1.317168
330.190674	724.080017	2591.381836	743.918884	1.062435
330.558563	724.674500	2599.332031	742.507141	0.951248
330.926483	722.593933	2622.291504	742.209900	1.032584
331.294312	718.432922	2634.700195	734.333801	0.829784
331.662231	716.278259	2673.634766	735.374023	0.975590
332.029999	717.169861	2723.417725	734.259521	0.851822
332.397766	720.736511	2773.126221	735.225403	0.705952
332.765503	718.061523	2805.001953	736.488586	0.882970
333.133240	723.559875	2839.701416	732.401855	0.417835
333.500916	721.999512	2883.391357	740.575195	0.859432
333.868561	733.219238	2942.610596	746.296570	0.591897
334.236176	722.148132	2982.288330	751.349121	1.291999
334.603790	723.336975	2993.433594	747.113831	1.047394
334.971344	723.708496	2979.241943	741.466797	0.787322
335.338867	734.110901	2963.712646	736.934387	0.126636
335.706360	736.117004	2971.365967	729.429749	-0.299173
336.073853	731.213074	2979.613281	732.773438	0.069399
336.441284	728.092285	2987.266602	736.265625	0.361784
336.808655	728.018066	2971.365967	739.237793	0.500133
337.176086	723.188416	2945.805664	730.395752	0.324273
337.543396	729.355469	2874.995361	729.429871	0.003468
337.910706	728.983948	2816.072998	725.045898	-0.188686
338.277954	732.476257	2820.234131	732.030457	-0.021353
338.645264	724.377258	2892.158936	730.692932	0.291343
339.012421	723.634216	3011.489258	739.460693	0.691760
339.379669	721.776672	3126.732666	734.259521	0.519047
339.746796	720.439209	3225.481201	732.476257	0.480513
340.113953	716.352539	3306.842529	732.253235	0.613810
340.481018	719.770508	3336.117920	736.860107	0.653185
340.848114	721.776672	3343.102295	739.683594	0.683125
341.215118	726.903564	3346.966064	742.581360	0.598375
341.582153	719.696106	3355.436523	745.107727	0.964117
341.949066	718.358704	3377.578857	754.246887	1.349576
342.316010	717.244141	3386.123779	747.262390	1.124751
342.682922	723.708496	3404.699219	747.485352	0.886868
343.049835	724.525879	3420.080078	734.854004	0.383154
343.416656	728.686768	3457.379883	739.609375	0.400287
343.783478	721.256531	3500.698486	738.494812	0.620207
344.150269	722.073914	3609.552002	743.695984	0.748822
344.516998	718.358704	3731.631592	742.358459	0.796468
344.883728	729.281250	3851.407227	739.609375	0.330804
345.250427	738.717712	3922.812256	741.466980	0.086344
345.617065	740.872375	3941.610596	739.386414	-0.046426
345.983704	738.643311	3939.530273	734.482422	-0.129992
346.350281	727.646484	3937.449951	732.401917	0.148153
346.716827	728.909668	3887.444092	733.070618	0.131737
347.083405	727.423645	3852.298828	737.380188	0.318622
347.449860	733.962341	3795.531494	738.123230	0.135907
347.816376	729.578430	3767.965088	739.163513	0.315466
348.182770	722.668274	3733.711670	740.203796	0.582374
348.549194	717.912903	3712.164063	735.225403	0.578191
348.915558	722.742615	3739.210205	732.253235	0.315290
349.281921	730.618652	3753.550537	730.841553	0.007374
349.648193	732.550476	3783.717041	733.665039	0.036529
350.014526	732.179016	3803.259033	730.990173	-0.038711
350.380737	729.578430	3861.809570	734.631042	0.161310
350.746948	726.680664	3925.115479	742.358459	0.490171
351.113159	726.457703	3991.616455	745.999268	0.598487
351.479309	730.767273	4037.089844	743.993103	0.400016
351.845428	728.240967	4057.002686	732.550537	0.129465
352.211517	723.188293	4083.157471	736.340027	0.391424
352.577576	718.061523	4118.896973	730.172852	0.356128
352.943604	724.005676	4179.453613	737.454529	0.389207
353.309601	723.262695	4231.763184	743.547363	0.578158
353.675537	723.262695	4310.672363	742.507141	0.536444
354.041473	723.336975	4401.916504	739.534973	0.440333
354.407379	716.872742	4500.516113	724.823059	0.210123
354.773254	715.609558	4598.001465	727.126465	0.296645
355.139038	715.312317	4684.267090	729.206970	0.350083
355.504913	726.160461	4782.420410	739.906494	0.338884
355.870636	728.240967	4876.265137	751.572021	0.562462
356.236389	725.417480	4985.786621	751.794922	0.619135
356.602081	725.863281	5117.376953	753.132324	0.620949
356.967804	726.754883	5250.527344	745.553467	0.415551
357.333405	727.349365	5384.792480	742.358459	0.322260
357.699036	728.909729	5531.316895	734.482422	0.116040
358.064606	726.234863	5683.787109	727.795227	0.031474
358.430176	723.634216	5804.603027	729.949951	0.124302
358.795654	717.764343	5856.614746	734.631042	0.328219
359.161163	715.535217	5840.193848	744.216003	0.559662
359.526581	720.884949	5804.008301	740.798096	0.391750
359.892029	727.720886	5803.414063	737.528809	0.193233
360.257416	733.219238	5889.605469	735.596924	0.046111
360.622772	731.807434	6079.820313	736.785828	0.093089
360.988098	722.668274	6338.839844	733.887939	0.199774
361.353394	720.290527	6620.446777	731.287415	0.186383
361.718658	711.597168	6894.475098	735.819824	0.391770
362.083893	714.643616	7115.971191	734.631042	0.312239
362.449097	715.460938	7268.068848	738.866211	0.357190
362.814209	725.268860	7276.465332	737.900330	0.192812
363.179382	725.566101	7095.909668	743.101501	0.275266
363.544434	734.259460	6775.665527	740.500916	0.103311
363.909546	728.761169	6403.333984	739.832214	0.195099
364.274536	724.674500	6121.800781	737.008606	0.228531
364.639587	713.826233	5915.239746	738.346130	0.471408
365.004517	717.615723	5774.436035	742.432800	0.490764
365.369507	720.736389	5684.529297	743.473083	0.458051
365.734344	721.256531	5624.715332	740.500977	0.392467
366.099274	728.092468	5604.505371	740.872498	0.262078
366.464081	726.309082	5567.057129	748.228333	0.452807
366.828918	724.674500	5567.948730	746.965271	0.460242
367.193665	716.426819	5580.505859	738.569092	0.455220
367.558411	723.411316	5617.136719	733.144958	0.198900
367.923126	730.618652	5612.158691	739.163391	0.175042
368.287781	738.866211	5594.103027	749.714417	0.223433
368.652435	734.556702	5552.791016	756.550293	0.456466
369.017059	728.686707	5532.357910	760.488342	0.662028
369.381653	723.857117	5509.101074	755.510071	0.661470
369.746185	719.919128	5503.899902	749.342957	0.615049
370.110687	725.120300	5533.323730	740.352356	0.316793
370.475220	730.544373	5573.595703	738.866272	0.171832
370.839661	740.649597	5630.957520	738.494812	-0.044062
371.204041	740.500977	5676.505371	742.878601	0.048169
371.568451	737.677429	5732.900879	742.952881	0.105610
371.932770	729.132629	5774.658691	750.160339	0.416760
372.297150	724.154297	5816.193848	752.315125	0.553036
372.661377	720.439209	5835.958496	756.624573	0.707364
373.025696	719.176086	5876.378906	744.364685	0.488416
373.389862	722.593994	5860.181641	744.364685	0.423753
373.754059	719.770508	5865.828125	744.216003	0.475033
374.118225	719.919128	5878.162598	748.376953	0.551696
374.482361	721.033630	5939.907715	741.169617	0.385830
374.846436	720.662109	6013.096191	730.098572	0.178301
375.210510	722.593933	6109.244141	734.705322	0.224841
375.574524	717.987122	6210.592285	738.420410	0.372015
375.938538	721.627991	6352.362793	751.497742	0.530477
376.302460	717.392761	6478.230957	743.101501	0.446267
376.666412	722.073914	6648.681641	750.160339	0.473904
377.030304	722.668274	6786.364746	741.169617	0.305117
377.394196	726.754944	6937.942871	747.559631	0.334955
377.757996	720.959290	7061.730469	742.284180	0.336314
378.121796	720.290588	7141.828125	742.952881	0.352911
378.485565	722.371094	7159.140625	736.191345	0.214708
378.849304	730.395752	7070.349609	734.556702	0.065631
379.212982	728.612488	6937.496094	736.117004	0.120867
379.576630	735.968445	6773.361816	748.005432	0.199374
379.940277	730.470032	6665.325684	746.222168	0.265417
380.303864	734.705383	6576.979980	748.228455	0.231469
380.667450	733.888000	6537.896484	744.736145	0.186908
381.030945	732.550598	6508.026855	748.525635	0.276601
381.394501	727.052185	6539.382813	749.491516	0.386064
381.757935	728.315247	6543.840332	749.417297	0.362857
382.121399	727.869446	6563.531250	753.726868	0.443093
382.484741	731.361633	6589.462402	756.847473	0.435053
382.848145	721.553711	6658.489746	750.977600	0.495607
383.211487	725.045959	6727.071777	746.147888	0.351580
383.574768	724.600098	6844.767090	742.061279	0.285306
383.938019	724.005676	6923.007324	750.977600	0.435101
384.301270	716.501160	7033.792969	751.646301	0.556332
384.664459	713.380432	7077.928223	749.417175	0.566211
385.027649	714.940735	7137.296387	744.290344	0.456991
385.390778	719.696106	7208.478516	747.633972	0.430556
385.753876	723.039795	7248.007813	749.640137	0.407670
386.116943	721.999512	7306.410156	754.989990	0.501039
386.479980	721.479431	7310.793457	758.259277	0.558174
386.842987	716.501160	7368.898438	765.318054	0.733824
387.205994	723.336975	7425.962402	767.472839	0.658486
387.568909	726.606262	7489.862793	761.974365	0.522945
387.931793	727.943665	7537.861816	765.392334	0.549914
388.294678	725.788879	7566.914551	768.364441	0.622347
388.657471	722.296692	7585.861816	779.212646	0.829248
389.020294	722.519714	7569.664063	778.618225	0.819298
389.383057	721.776611	7583.112793	774.457275	0.767790
389.745819	721.405090	7589.502441	778.172363	0.826536
390.108521	722.445313	7611.496094	787.757507	0.948058
390.471191	715.238037	7672.424316	800.834778	1.230336
390.833801	717.987122	7791.383301	805.144287	1.232183
391.196442	722.296692	7989.103027	816.512634	1.296525
391.558960	727.126404	8180.878906	830.704407	1.389609
391.921509	728.463867	8367.081055	851.657776	1.612778
392.284027	728.686768	8540.131836	864.363586	1.736898
392.646484	731.584656	8648.019531	878.852600	1.860281
393.008911	728.018066	8656.267578	881.824707	1.939982
393.371307	722.816895	8610.200195	898.468445	2.226994
393.733673	719.547546	8532.702148	920.090576	2.566736
394.096008	721.999573	8510.708008	947.954102	2.901052
394.458344	723.039795	8518.806641	962.888977	3.076659
394.820587	730.024231	8555.661133	977.229309	3.158913
395.182831	728.166687	8570.966797	1005.687317	3.538540
395.545013	727.052185	8521.629883	1040.312378	4.018950
395.907196	720.142029	8410.399414	1081.178833	4.694730
396.269287	723.782776	8284.753906	1098.194214	4.951896
396.631409	731.287354	8156.209473	1117.735840	5.204748
396.993469	737.305847	8051.145996	1131.704712	5.392500
397.355530	738.569092	7976.768066	1167.518677	5.926192
397.717499	730.915955	7951.654297	1201.846558	6.521918
398.079468	731.287415	7959.679199	1235.505615	6.975524
398.441376	725.863281	7957.152344	1260.322632	7.390928
398.803284	727.274963	7981.300781	1291.752808	7.781580
399.165131	717.169861	7995.121094	1326.823730	8.376724
399.526978	723.114014	8004.707031	1372.519897	8.918459
399.888763	727.423584	8000.992188	1411.751587	9.408422
400.250519	734.036621	8007.381348	1451.354980	9.862290
400.612244	726.309082	8056.198730	1487.763306	10.388345
400.973938	722.445313	8037.474121	1524.246094	10.961006
401.335602	719.027405	8049.584473	1556.641968	11.426342
401.697205	715.609558	8082.724121	1599.663208	11.999998
402.058807	708.550781	8181.621094	1647.736938	12.567608
402.420349	706.544617	8292.406250	1698.411499	13.075204
402.781860	713.306152	8402.969727	1746.262329	13.433047
403.143341	719.844727	8519.921875	1798.794556	13.832553
403.504822	727.943787	8640.218750	1854.224487	14.234601
403.866241	731.881775	8803.683594	1915.078491	14.658398
404.227631	728.092285	8986.839844	1967.313110	15.004948
404.588959	719.473206	9200.682617	2035.002930	15.511111
404.950287	716.724060	9346.910156	2091.621582	15.931260
405.311554	721.182129	9442.092773	2138.729248	16.254578
405.672821	724.525818	9454.352539	2174.766357	16.612476
406.034027	727.646545	9436.520508	2193.862061	16.835880
406.395203	728.983948	9363.925781	2218.530518	17.250223
406.756348	727.497986	9300.842773	2235.174316	17.585625
407.117493	726.680664	9232.113281	2264.895508	18.085087
407.478516	725.268860	9209.004883	2297.365723	18.530714
407.839600	721.405090	9192.731445	2331.099365	19.001680
408.200592	715.015137	9192.211914	2363.866943	19.450436
408.561554	715.981018	9167.617188	2381.922363	19.711468
408.922485	720.439209	9178.764648	2406.665039	19.935694
409.283417	727.943848	9198.973633	2437.203369	20.177708
409.644257	728.018066	9322.836914	2476.732422	20.346148
410.005096	731.510254	9466.910156	2518.119141	20.452513
410.365906	722.371094	9609.347656	2557.276611	20.647129
410.726715	722.148132	9694.202148	2602.527100	20.958178
411.087433	717.541321	9767.910156	2633.139893	21.165972
411.448120	719.770508	9826.163086	2665.015625	21.361315
411.808807	716.872742	9848.231445	2675.715088	21.451817
412.169434	717.838562	9769.991211	2695.182861	21.843912
412.530029	715.683777	9723.402344	2712.421143	22.166958
412.890564	712.860352	9693.086914	2737.163818	22.541786
413.251099	712.340149	9710.845703	2747.566162	22.617378
413.611572	717.912903	9743.242188	2773.274658	22.773262
413.972076	720.959290	9800.008789	2803.813232	22.941322
414.332489	730.544250	9864.799805	2842.896484	23.125608
414.692871	734.408020	10000.477539	2890.301514	23.266539
415.053223	733.145020	10131.250000	2952.715820	23.617216
415.413574	722.593994	10338.257813	3007.402588	23.761318
415.773834	719.770447	10481.215820	3053.544922	23.908083
416.134094	725.491699	10626.403320	3090.101563	23.882748
416.494263	733.219238	10754.278320	3150.509766	24.122108
416.854462	734.482422	11017.235352	3207.945313	24.054482
417.214630	731.881836	11325.518555	3290.644531	24.153770
417.574738	733.070618	11663.668945	3370.148438	24.125648
417.934784	730.024231	11917.487305	3468.376709	24.476974
418.294861	723.411316	12244.198242	3559.992188	24.621414
418.654846	715.015076	12632.726563	3673.823975	24.826988
419.014832	717.169861	13107.817383	3792.856689	24.822647
419.374756	729.727051	13603.343750	3923.183594	24.806210
419.734680	735.671204	14113.208008	4050.538330	24.779354
420.094543	724.302917	14608.213867	4182.945801	24.911156
420.454376	715.015076	15033.967773	4298.783691	25.028147
420.814148	708.773682	15492.860352	4417.371094	25.085062
421.173920	717.392761	15957.327148	4548.069824	25.135784
421.533691	719.547546	16436.951172	4698.384277	25.314848
421.893341	727.572266	16781.642578	4821.875000	25.503206
422.253021	723.114075	17021.416016	4893.948730	25.590609
422.612640	729.652771	17087.841797	4913.861816	25.578680
422.972260	718.655945	17047.792969	4912.673340	25.684258
423.331757	719.250305	16936.562500	4900.189941	25.780718
423.691315	715.237976	16925.789063	4909.626465	25.874437
424.050781	720.364929	17077.587891	4945.143555	25.828217
424.410248	725.268860	17235.111328	4996.337891	25.869835
424.769653	725.640381	17394.267578	5041.216797	25.890411
425.128998	723.782898	17379.037109	5075.767578	26.129803
425.488373	720.885071	17286.751953	5063.730469	26.215622
425.847656	717.392822	17063.396484	5017.886230	26.309141
426.206940	726.011902	16859.660156	4963.570313	26.265347
426.566193	726.754883	16520.837891	4895.062988	26.391581
426.925385	728.315247	16211.515625	4841.416504	26.564928
427.284576	729.578369	15750.317383	4740.290527	26.701164
427.643677	737.454529	15409.194336	4650.532715	26.670853
428.002777	738.271790	15044.293945	4573.332520	26.807318
428.361847	727.200745	14703.023438	4508.020020	27.052572
428.720856	724.377258	14409.081055	4443.822754	27.179583
429.079865	721.553711	14161.208008	4391.513672	27.306952
429.438812	726.754883	14009.703125	4341.953613	27.216839
429.797760	713.900574	13914.075195	4330.437012	27.397640
430.156616	716.798340	13761.606445	4297.446289	27.448835
430.515503	717.467041	13677.793945	4284.740723	27.524565
430.874268	726.977844	13600.890625	4281.025879	27.606588
431.233093	724.674377	13647.254883	4285.855469	27.557819
431.591827	720.736328	13680.245117	4292.914063	27.564144
431.950562	722.296692	13704.468750	4304.653809	27.594437
432.309204	726.680664	13747.859375	4322.188965	27.612772
432.667877	726.457703	13885.320313	4377.618652	27.746782
433.026459	725.343079	14029.171875	4427.030273	27.824224
433.385010	718.284424	14180.600586	4489.890137	28.016024
433.743561	715.089355	14333.515625	4542.050781	28.101349
434.102051	715.089417	14486.281250	4597.926758	28.195362
434.460510	722.891113	14657.104492	4638.124512	28.097988
434.818939	728.761047	14704.583008	4649.566895	28.054205
435.177338	724.897278	14737.796875	4649.789551	28.009138
435.535675	728.612549	14642.838867	4640.799316	28.116451
435.894012	733.813660	14586.441406	4636.192871	28.170677
436.252289	735.374023	14605.983398	4647.783691	28.206472
436.610535	726.160461	14626.120117	4659.449219	28.297123
436.968719	726.606262	14759.195313	4718.965332	28.450624
437.326935	727.423645	14846.351563	4744.822754	28.453997
437.685028	726.829285	14988.864258	4786.135254	28.462318
438.043152	726.606262	15096.231445	4801.367676	28.356770
438.401215	721.107910	15333.778320	4863.484375	28.347841
438.759277	727.720886	15545.987305	4936.078125	28.399796
439.117249	721.776611	15909.549805	5060.981445	28.570383
439.475250	724.971680	16198.586914	5147.469727	28.580896
439.833130	715.386536	16624.341797	5259.592285	28.563822
440.191071	718.210144	16917.242188	5320.520508	28.411022
440.548889	721.702332	17181.761719	5412.730469	28.499462
440.906708	731.361633	17513.521484	5518.760254	28.526712
441.264496	728.835388	17729.447266	5592.246094	28.607269
441.622223	727.646484	17908.962891	5654.140137	28.673552
441.979950	722.445313	17892.244141	5649.607422	28.696680
442.337616	722.668213	17867.203125	5678.957031	28.908857
442.695251	722.222412	17743.712891	5662.759277	29.025291
443.052887	724.377197	17573.113281	5642.846191	29.191916
443.410461	718.210144	17427.330078	5588.308105	29.146349
443.768005	713.008972	17256.804688	5566.240234	29.335661
444.125458	707.882019	17167.791016	5531.986328	29.308210
444.482941	713.380371	17198.478516	5552.642578	29.355375
444.840393	712.117249	17360.236328	5572.035156	29.191994
445.197754	711.820068	17633.447266	5680.071777	29.360369
445.555084	709.813904	17877.679688	5767.451172	29.459908
445.912415	719.473206	18255.806641	5886.187012	29.462908
446.269714	722.296692	18555.916016	5974.755371	29.452566
446.626953	724.971619	18898.970703	6069.491699	29.407505
446.984161	723.485535	19195.513672	6166.011719	29.463612
447.341309	719.770447	19413.666016	6232.958496	29.491915
447.698456	717.690002	19567.326172	6298.864746	29.608925
448.055542	710.705566	19634.123047	6349.019043	29.795429
448.412598	721.776611	19591.103516	6332.078125	29.732391
448.769653	724.674377	19456.466797	6281.997559	29.667866
449.126617	732.476257	19163.265625	6178.048340	29.546061
449.483582	727.200684	18906.476563	6128.265625	29.710012
449.840515	724.525879	18551.382813	6063.696777	29.950151
450.197388	723.634216	18293.849609	6026.471191	30.180832
450.554230	724.748718	18093.457031	5970.595215	30.202860
450.911041	733.219238	17917.285156	5936.193359	30.277899
451.267822	735.151184	17796.394531	5894.731934	30.241526
451.624573	736.191406	17627.207031	5863.376465	30.354509
451.981262	731.807434	17557.880859	5841.902832	30.370098
452.337921	728.166687	17414.253906	5818.498047	30.506441
452.694580	723.485596	17306.439453	5791.674316	30.562641
453.051147	719.621826	17285.117188	5792.193848	30.621311
453.407715	722.668274	17201.005859	5760.689941	30.573603
453.764221	735.002502	17218.095703	5773.916016	30.570192
454.120728	743.472961	16996.003906	5725.990723	30.656872
454.477142	737.974670	16925.119141	5721.830078	30.788973
454.833557	732.996399	16739.882813	5685.941895	30.942591
455.189911	733.293640	16607.623047	5631.775391	30.857883
455.546265	735.745544	16415.328125	5579.540527	30.892370
455.902557	730.098572	16301.868164	5542.388672	30.903938
456.258820	726.680664	16279.725586	5552.567871	31.028568
456.615051	723.188416	16375.500977	5581.620605	31.039709
456.971252	727.795166	16333.743164	5571.366699	31.036699
457.327393	719.547546	16536.515625	5614.462402	30.947241
457.683502	724.377258	16755.041016	5681.334473	30.921721
458.039612	715.906738	17206.802734	5829.865723	31.010799
458.395630	718.358704	17605.880859	5981.443359	31.165524
458.751648	715.758057	18088.476563	6145.652344	31.255295
459.107605	727.126404	18768.494141	6359.570313	31.219606
459.463562	735.151062	19462.111328	6569.177734	31.153090
459.819458	742.284180	20081.796875	6759.615723	31.114185
460.175323	731.881836	20584.306641	6915.131348	31.146065
460.531158	725.863281	21093.875000	7070.126953	31.148174
460.886932	721.702332	21369.460938	7173.481934	31.246878
461.242676	728.092346	21472.521484	7219.029785	31.290026
461.598419	729.355469	21226.726563	7193.841309	31.538122
461.954102	731.287415	20816.351563	7098.584473	31.701651
462.309723	723.559875	20163.751953	6930.066406	31.926159
462.665344	726.383362	19467.904297	6728.334473	32.024887
463.020905	725.789063	18905.138672	6554.911621	32.064529
463.376373	735.076904	18504.275391	6428.968750	32.043602
463.731873	736.711487	18188.859375	6333.117676	32.067146
464.087341	737.231628	17929.544922	6255.992188	32.100166
464.442749	731.287415	17784.431641	6202.345215	32.082397
464.798126	726.977844	17661.458984	6154.643066	32.050968
465.153503	725.343079	17741.931641	6173.218750	32.015087
465.508820	723.262695	17792.751953	6200.189941	32.086067
465.864105	720.141907	17995.376953	6266.394531	32.105221
466.219330	723.114075	18263.310547	6345.452637	32.054020
466.574524	726.903503	18498.255859	6405.117188	31.951502
466.929657	728.761047	18660.830078	6453.859863	31.926594
467.284790	726.903503	18791.306641	6523.407715	32.087994
467.639893	724.971680	18899.490234	6602.911621	32.341652
467.994934	726.309082	19064.740234	6681.671875	32.474766
468.349945	721.405090	19088.814453	6704.705566	32.575634
468.704926	728.166687	19063.552734	6685.906738	32.493126
469.059875	728.092346	18834.328125	6608.260254	32.475925
469.414764	727.052063	18603.248047	6540.199219	32.518929
469.769653	720.959290	18386.283203	6498.887207	32.707737
470.124451	727.646545	18328.474609	6490.268066	32.740627
470.479248	732.773438	18199.335938	6443.681152	32.696232
470.834015	738.643311	18134.841797	6405.638184	32.576054
471.188721	726.903503	18144.800781	6419.978027	32.685204
471.543365	724.377258	18238.273438	6455.940918	32.725803
471.898010	718.730225	18403.669922	6507.060547	32.730278
472.252625	725.417480	18593.882813	6544.509277	32.566265
472.607178	728.983948	18892.951172	6630.626465	32.490936
472.961700	730.841614	19100.478516	6695.938965	32.472591
473.316193	732.922058	19355.412109	6794.834473	32.551567
473.670654	727.423645	19476.228516	6844.691895	32.627510
474.025055	723.782776	19685.390625	6921.447266	32.685333
474.379456	716.649719	19837.265625	6983.563965	32.775692
474.733795	717.987122	20004.894531	7042.932129	32.793980
475.088104	723.411316	20110.404297	7089.000000	32.834328
475.442383	721.999512	20130.242188	7102.225098	32.873795
475.796570	722.073792	20215.541016	7127.339844	32.858528
476.150787	719.621826	20424.404297	7181.952637	32.795750
476.504944	723.559875	20676.441406	7246.596191	32.692204
476.859070	726.011902	20990.443359	7361.839355	32.746181
477.213135	733.962219	21237.500000	7455.980469	32.784676
477.567200	732.624817	21680.419922	7599.533203	32.781055
477.921173	727.720764	22041.455078	7720.498535	32.808788
478.275146	722.222412	22530.740234	7871.704590	32.782982
478.629089	725.566101	22828.693359	7977.660645	32.810265
478.983002	731.584656	23268.791016	8113.485840	32.754288
479.336823	732.922058	23616.156250	8241.657227	32.813259
479.690643	728.538086	24051.421875	8387.141602	32.837296
480.044403	725.194519	24514.474609	8540.280273	32.851292
480.398163	722.816895	25201.923828	8760.513672	32.834927
480.751862	725.417480	26082.632813	9037.067383	32.778248
481.105499	724.674500	27200.740234	9402.860352	32.777473
481.459137	724.525818	28618.583984	9847.562500	32.706024
481.812744	718.581726	30452.226563	10434.480469	32.676445
482.166290	719.176086	32665.482422	11139.909180	32.619526
482.519806	720.810730	35371.066406	12033.846680	32.649216
482.873291	723.708496	38503.222656	13097.786133	32.753407
483.226715	732.847717	42079.785156	14323.039063	32.868679
483.580139	731.287415	45594.375000	15567.980469	33.071049
483.933502	730.693054	48887.843750	16835.882813	33.442986
484.286804	726.754883	51570.917969	18026.953125	34.025928
484.640106	727.646545	53594.550781	19081.755859	34.717579
484.993347	735.151123	54710.730469	19797.439453	35.316509
485.346558	735.894104	54907.035156	20064.708984	35.681019
485.699738	723.411316	54248.488281	19806.654297	35.652901
486.052887	717.095520	52953.468750	19186.150391	35.356693
486.405975	705.429993	51405.519531	18394.382813	34.889393
486.759064	715.015137	49808.609375	17640.507813	34.475967
487.112061	722.668274	48518.566406	17049.279297	34.159023
487.464996	733.442139	47738.386719	16670.632813	33.905350
487.817963	737.528809	47610.285156	16544.318359	33.722763
488.170868	730.990173	47694.839844	16562.226563	33.709408
488.523743	730.098572	47794.480469	16619.513672	33.761017
488.876587	725.268860	47515.769531	16622.189453	33.974678
489.229401	728.315247	47021.363281	16486.361328	34.039768
489.582153	731.287354	46169.480469	16182.835938	34.005642
489.934845	728.835388	45181.253906	15824.176758	33.958427
490.287537	722.445313	44102.605469	15416.922852	33.873730
490.640198	716.649719	43260.828125	15151.512695	33.929115
490.992798	709.219482	42644.265625	14868.567383	33.764950
491.345337	710.482605	42541.355469	14778.809570	33.631447
491.697876	711.299988	42677.328125	14764.916992	33.488079
492.050354	721.999573	43103.007813	14931.875000	33.528873
492.402832	716.501160	43317.148438	15085.012695	33.728386
492.755219	715.460938	43127.082031	15116.815430	33.956150
493.107605	715.758118	42369.269531	14925.708008	34.114651
493.459930	726.754883	41144.910156	14523.062500	34.133938
493.812225	731.807434	39428.964844	13932.429688	34.112640
494.164490	734.556641	37456.523438	13267.344727	34.128857
494.516724	733.144958	35399.824219	12552.106445	34.093147
494.868896	726.829285	33572.417969	11950.031250	34.169586
495.221039	728.315247	32195.218750	11436.377930	34.029602
495.573120	722.296692	31157.287109	11054.460938	33.948307
495.925201	731.213074	30565.687500	10800.717773	33.751240
496.277222	732.476257	30169.953125	10657.239258	33.714718
496.629211	740.723816	30031.005859	10614.441406	33.709877
496.981140	736.191345	29952.390625	10585.016602	33.710152
497.333069	736.637207	30074.843750	10622.020508	33.694569
497.684967	738.940613	30129.009766	10664.223633	33.770874
498.036804	738.346130	30205.837891	10683.541992	33.749722
498.388580	732.179016	30068.302734	10689.337891	33.941631
498.740326	728.612488	29900.453125	10652.707031	34.019432
499.092072	727.646484	29606.587891	10581.301758	34.120556
499.443756	728.761047	29316.134766	10465.092773	34.058155
499.795410	724.451477	28996.337891	10337.588867	34.002464
500.147003	726.160461	28609.000000	10219.818359	34.048389
500.498566	718.804504	28222.255859	10095.064453	34.091213
500.850098	719.993347	27850.742188	9955.078125	34.039185
501.201599	717.987122	27556.576172	9850.757813	34.028503
501.553009	721.776672	27215.156250	9720.504883	33.965954
501.904449	716.352539	26933.771484	9660.246094	34.114319
502.255859	714.271973	26741.031250	9592.481445	34.111851
502.607178	714.717834	26646.070313	9586.536133	34.212711
502.958405	716.501160	26598.072266	9557.855469	34.160812
503.309692	717.244141	26527.556641	9532.890625	34.155521
503.660919	722.593994	26559.138672	9506.809570	33.999187
504.012115	732.401917	26577.117188	9499.602539	33.922604
504.363251	733.219238	26680.843750	9543.441406	33.953869
504.714294	729.578430	26748.537109	9575.168945	33.996712
505.065369	717.764343	26828.853516	9625.174805	34.113514
505.416443	720.810730	26849.140625	9629.112305	34.094418
505.767395	720.364807	26849.361328	9680.976563	34.293747
506.118317	735.596924	26804.556641	9671.614258	34.278381
506.469238	736.340027	26791.630859	9676.293945	34.311474
506.820160	734.110840	26781.375000	9665.594727	34.289532
507.170929	728.761169	26819.712891	9680.975586	34.311569
507.521729	722.296814	26880.718750	9726.968750	34.423607
507.872498	721.702332	26961.708984	9759.440430	34.442593
508.223236	716.724060	27156.380859	9815.539063	34.413517
508.573883	720.439209	27344.515625	9865.395508	34.348446
508.924500	722.742493	27516.673828	9909.679688	34.287380
509.275116	724.154297	27689.726563	9971.499023	34.293152
509.625702	721.405090	27900.078125	10055.981445	34.345222
509.976196	724.600098	28182.873047	10163.571289	34.375690
510.326660	723.188416	28427.404297	10248.350586	34.381634
510.677124	727.646545	28704.406250	10325.551758	34.306709
511.027557	726.754883	28919.064453	10395.916992	34.297165
511.377869	731.881836	29165.228516	10480.547852	34.286030
511.728180	730.618652	29296.818359	10539.916016	34.338825
512.078430	729.206848	29403.962891	10584.274414	34.368443
512.428650	725.714661	29437.697266	10626.551758	34.483292
512.778931	731.658875	29540.830078	10661.326172	34.467033
513.129028	735.002502	29604.134766	10693.127930	34.494022
513.479126	737.603027	29655.406250	10699.516602	34.449070
513.829285	726.977844	29606.662109	10679.083984	34.460579
514.179382	714.197754	29554.501953	10627.295898	34.372375
514.529297	711.225647	29508.734375	10599.803711	34.338314
514.879272	718.210144	29544.398438	10615.555664	34.334564
515.229187	728.240906	29500.115234	10605.747070	34.330421
515.579163	729.801270	29490.677734	10626.774414	34.411236
515.928955	726.383362	29474.328125	10621.053711	34.418701
516.278748	726.383362	29672.791016	10698.625977	34.450706
516.628540	724.228577	29966.431641	10788.011719	34.415272
516.978333	723.931396	30431.867188	10934.833008	34.370956
517.327942	726.011902	30947.083984	11128.911133	34.422668
517.677612	730.915833	31584.673828	11323.510742	34.331619
518.027222	737.380188	32163.789063	11534.085938	34.355522
518.376831	738.197510	32894.925781	11792.434570	34.376125
518.726379	733.070618	33538.019531	12037.411133	34.459255
519.075867	732.699158	34102.050781	12225.770508	34.441998
519.425293	735.745544	34466.656250	12349.039063	34.429234
519.774658	738.271790	34599.285156	12422.895508	34.507603
520.124084	735.225403	34616.152344	12468.293945	34.630306
520.473389	731.138855	34338.187500	12391.390625	34.695854
520.822693	732.476257	34022.996094	12271.465820	34.661488
521.171997	730.172852	33578.218750	12098.562500	34.609028
521.521240	730.172852	33130.394531	11964.149414	34.672527
521.870361	724.897278	32700.851563	11823.272461	34.708504
522.219482	730.247131	32342.861328	11698.293945	34.695160
522.568604	724.674500	32123.224609	11581.565430	34.577682
522.917664	730.395813	32003.224609	11527.843750	34.526611
523.266724	730.544373	32046.171875	11557.342773	34.573151
523.615662	732.179016	32312.025391	11654.976563	34.587875
523.964600	726.086182	32748.630859	11779.284180	34.516926
524.313538	716.203918	33350.332031	11949.140625	34.420826
524.662354	714.049133	34048.332031	12158.674805	34.332901
525.011169	713.306152	34883.566406	12468.293945	34.401222
525.359985	715.906738	35910.875000	12804.959961	34.348808
525.708740	715.906738	37138.875000	13246.985352	34.404331
526.057434	719.547607	38507.605469	13683.217773	34.306259
526.406067	720.216309	40075.914063	14217.231445	34.294945
526.754700	723.114075	41785.250000	14792.333008	34.263241
527.103333	725.417480	43710.437500	15492.265625	34.353474
527.451782	721.850891	45821.449219	16273.782227	34.483528
527.800293	724.674500	47939.000000	17111.173828	34.706627
528.148743	724.228577	50049.269531	18038.025391	35.101437
528.497131	723.188477	51871.917969	18874.673828	35.487656
528.845642	727.646667	53445.949219	19702.181641	35.992313
529.193909	725.640381	54641.847656	20396.914063	36.484898
529.542175	732.476257	55430.644531	21032.720703	37.113205
529.890503	727.349304	55683.125000	21262.986328	37.367565
530.238770	730.767273	55412.589844	21183.408203	37.402996
530.586914	722.445374	54653.511719	20789.234375	37.208218
530.934998	724.600159	53440.519531	20195.925781	36.936333
531.283142	721.256531	51910.699219	19441.009766	36.569561
531.631226	729.727051	50089.542969	18552.496094	36.107853
531.979248	727.720886	48230.488281	17706.560547	35.742844
532.327148	728.315247	46617.605469	16941.689453	35.331501
532.675110	727.349304	45429.652344	16415.330078	35.094345
533.023071	724.525818	44913.621094	16154.823242	34.918793
533.370850	730.395752	44747.324219	16084.829102	34.883018
533.718689	728.686768	45005.683594	16142.414063	34.812046
534.066467	732.401855	45214.468750	16235.960938	34.853504
534.414246	724.600098	45308.984375	16296.741211	34.927345
534.761963	725.714661	45100.714844	16286.562500	35.066700
535.109619	723.336975	44760.406250	16157.348633	35.047771
535.457153	722.593933	44113.375000	15949.524414	35.092548
535.804749	718.581543	43341.746094	15640.203125	35.008244
536.152344	722.668213	42452.117188	15333.481445	35.013195
536.499817	722.222473	41557.066406	14981.433594	34.919224
536.847229	726.160461	40605.769531	14652.942383	34.922062
537.194641	721.850891	39757.824219	14346.815430	34.903614
537.542114	723.188416	39137.996094	14115.289063	34.861816
537.889404	723.114075	38667.953125	13951.674805	34.862606
538.236694	722.891174	38248.511719	13802.250000	34.854477
538.583984	725.714661	37890.078125	13669.768555	34.829208
538.931213	719.101746	37629.574219	13566.636719	34.807289
539.278381	718.655945	37458.531250	13506.301758	34.805904
539.625488	714.049133	37448.421875	13502.661133	34.813751
539.972595	717.467102	37776.691406	13572.209961	34.687027
540.319641	715.163757	38449.355469	13749.198242	34.541706
540.666687	714.197754	39466.484375	14056.217773	34.428989
541.013611	713.900574	40733.941406	14501.586914	34.451958
541.360596	710.854187	42116.714844	14963.304688	34.421337
541.707458	710.185364	43577.652344	15490.409180	34.478882
542.054260	715.312317	44794.656250	15943.432617	34.547066
542.401062	718.284424	45790.316406	16372.234375	34.730961
542.747864	719.919128	46294.531250	16612.603516	34.871792
543.094666	718.358704	46236.875000	16655.921875	35.013363
543.441284	721.702332	45567.855469	16460.208984	35.094440
543.787903	724.823059	44523.894531	16131.046875	35.174774
544.134460	723.411316	43236.828125	15677.502930	35.174992
544.481079	725.937500	41834.214844	15180.937500	35.163235
544.827637	730.618652	40256.914063	14565.116211	35.000744
545.174072	728.389587	38614.605469	13943.648438	34.881443
545.520508	726.977783	37213.769531	13401.386719	34.736977
545.866943	724.154297	36077.386719	12975.039063	34.652798
546.213318	733.665100	35291.859375	12677.604492	34.561813
546.559631	730.024231	34611.988281	12446.375000	34.579903
546.905823	729.949951	33986.140625	12269.237305	34.698162
547.252136	718.135803	33530.144531	12102.352539	34.695278
547.598389	715.460876	33034.695313	11917.488281	34.660561
547.944458	712.711731	32626.474609	11791.172852	34.713741
548.290588	720.810730	32093.869141	11634.914063	34.788139
548.636658	728.018066	31547.005859	11457.925781	34.815899
548.982727	734.185242	30856.134766	11197.198242	34.735512
549.328735	730.172852	30136.439453	10949.471680	34.752113
549.674622	730.767273	29358.416016	10676.112305	34.740349
550.020569	724.154297	28655.365234	10452.757813	34.830582
550.366455	728.315247	27916.500000	10176.500000	34.751068
550.712280	727.275085	27246.658203	9936.057617	34.724724
551.058044	735.374023	26740.062500	9734.918945	34.607395
551.403748	736.711487	26361.193359	9601.545898	34.595173
551.749512	735.225403	26134.642578	9514.091797	34.563259
552.095154	728.241028	25939.228516	9437.411133	34.545135
552.440735	727.869446	25869.384766	9407.095703	34.521492
552.786316	727.274963	25883.578125	9386.365234	34.421154
553.131897	726.160461	25906.015625	9392.383789	34.417290
553.477417	725.937561	25949.630859	9375.888672	34.292961
553.822815	726.977844	25916.640625	9380.643555	34.354038
554.168213	726.829285	25882.978516	9356.941406	34.306175
554.513672	718.953125	25730.140625	9333.313477	34.442028
554.859009	718.507324	25531.232422	9269.709961	34.462975
555.204285	722.668274	25322.812500	9201.203125	34.465389
555.549500	723.039734	25089.056641	9123.407227	34.475750
555.894714	728.389587	24840.068359	9055.941406	34.537418
556.239990	730.470032	24527.031250	8973.464844	34.639439
556.585022	732.699219	24260.732422	8889.354492	34.667816
556.930115	732.104675	23995.099609	8772.476563	34.562927
557.275146	719.621826	23735.705078	8658.718750	34.493690
557.620178	723.931396	23518.818359	8577.504883	34.453224
557.965149	718.507324	23363.150391	8553.282227	34.598801
558.310059	720.662109	23167.884766	8503.574219	34.672050
558.654968	719.919006	23029.458984	8454.757813	34.670544
558.999756	721.256531	22900.099609	8386.325195	34.560272
559.344604	725.640381	22914.662109	8352.889648	34.373978
559.689331	721.256531	22872.976563	8313.434570	34.273537
560.033997	722.148132	22811.380859	8290.548828	34.262852
560.378723	722.742615	22757.958984	8287.502930	34.330318
560.723389	725.417480	22759.072266	8300.208008	34.378277
561.067932	728.018066	22819.927734	8331.416016	34.417114
561.412476	729.355530	22824.312500	8331.043945	34.404633
561.757019	727.943665	22821.562500	8315.217773	34.341473
562.101501	724.897278	22823.492188	8300.654297	34.281620
562.445862	725.714600	22784.781250	8289.063477	34.286804
562.790222	732.476257	22750.007813	8283.787109	34.296810
563.134644	729.429871	22750.156250	8273.012695	34.256741
563.478943	727.869446	22769.771484	8262.240234	34.182034
563.823181	722.816895	22799.716797	8261.571289	34.147701
564.167358	723.931396	22826.833984	8260.456055	34.097443
564.511536	722.148193	22886.873047	8268.555664	34.046925
564.855774	727.052063	22899.281250	8271.824219	34.028027
565.199768	717.764343	22967.193359	8295.824219	34.059570
565.543823	718.878845	23097.818359	8348.430664	34.092552
565.887817	717.838623	23335.958984	8425.036133	34.075321
566.231812	732.922058	23515.400391	8498.076172	34.083889
566.575745	734.185059	23690.976563	8566.731445	34.118645
566.919617	734.779602	23871.755859	8632.341797	34.133942
567.263428	734.036560	23994.798828	8664.514648	34.093803
567.607239	732.699158	24116.435547	8688.291992	34.021908
567.950989	727.349304	24109.599609	8687.772461	34.044727
568.294678	725.640320	24143.037109	8681.975586	33.976173
568.638367	729.132568	24070.591797	8670.383789	34.022083
568.981995	734.110840	23934.171875	8626.471680	34.018707
569.325623	727.795166	23731.916016	8583.748047	34.150200
569.669128	719.770508	23530.705078	8526.906250	34.225410
570.012573	715.832458	23415.240234	8490.422852	34.250191
570.356140	721.107910	23377.419922	8476.974609	34.232697
570.699524	733.367859	23365.234375	8452.750977	34.108467
571.042908	737.677429	23427.351563	8471.401367	34.084774
571.386230	740.649597	23567.931641	8480.987305	33.908279
571.729492	735.299744	23761.564453	8523.859375	33.824677
572.072815	731.138733	23945.240234	8561.382813	33.730549
572.416016	727.720886	24047.630859	8620.825195	33.847061
572.759094	726.234863	24193.412109	8673.430664	33.865154
573.102234	731.138733	24291.343750	8698.842773	33.818485
573.445374	731.213074	24358.662109	8680.340820	33.643616
573.788391	727.200745	24302.638672	8664.217773	33.666470
574.131409	718.433044	24271.056641	8652.625977	33.687088
574.474365	726.977844	24189.474609	8650.396484	33.770569
574.817261	734.036621	24067.693359	8611.461914	33.759926
575.160156	739.386292	23866.333984	8544.217773	33.747780
575.502930	734.408020	23672.328125	8466.051758	33.706821
575.845703	731.584656	23463.017578	8405.569336	33.759354
576.188477	732.104675	23221.830078	8332.159180	33.793453
576.531250	724.302917	22959.689453	8264.022461	33.908649
576.873901	723.039795	22722.218750	8157.917969	33.796162
577.216431	716.129578	22494.181641	8069.794922	33.766407
577.559082	720.290527	22228.697266	7965.548340	33.685703
577.901611	725.937500	21924.130859	7867.915527	33.691448
578.244080	733.293457	21578.103516	7755.644043	33.688725
578.586487	730.172852	21255.480469	7648.201660	33.704872
578.928955	730.470032	20886.419922	7562.084473	33.893787
579.271301	725.417480	20567.291016	7471.063965	33.997025
579.613647	725.268860	20181.660156	7314.359375	33.865944
579.955872	719.324646	19897.005859	7186.484863	33.722324
580.298157	719.844727	19590.134766	7064.628906	33.623142
580.640320	724.302917	19373.171875	7036.021973	33.845051
580.982483	725.937561	19147.587891	6961.644531	33.849884
581.324524	725.789001	18981.373047	6893.657715	33.786201
581.666626	719.250305	18819.021484	6815.268066	33.680080
582.008728	714.717957	18724.138672	6769.274902	33.618835
582.350647	716.055359	18583.705078	6741.039551	33.720070
582.692566	729.727051	18511.927734	6701.808105	33.584599
583.034424	733.145020	18392.894531	6666.365723	33.597424
583.376343	729.206848	18326.171875	6636.718750	33.571198
583.718201	720.587830	18208.402344	6632.929688	33.808353
584.059937	722.371094	18155.869141	6617.623535	33.815659
584.401611	725.937561	18055.115234	6582.106934	33.793694
584.743347	727.126404	18001.841797	6535.741699	33.624954
585.085022	721.182129	17908.664063	6483.878418	33.528450
585.426514	723.559875	17852.640625	6462.107910	33.501785
585.768127	725.194580	17770.388672	6451.185059	33.592991
586.109619	737.825989	17702.474609	6441.080078	33.618462
586.451172	736.042786	17631.812500	6416.560059	33.620945
586.792542	730.470032	17595.404297	6383.124512	33.517204
587.133850	728.612488	17556.396484	6348.795410	33.398239
587.475220	731.881775	17571.404297	6346.789551	33.343624
587.816589	733.739441	17579.355469	6359.494629	33.395962
588.157776	729.058289	17593.623047	6380.894531	33.513088
588.498962	730.693054	17647.490234	6393.005859	33.471542
588.840210	733.293640	17694.970703	6397.166504	33.392174
589.181335	735.671204	17787.476563	6403.482910	33.238777
589.522400	735.299744	17794.833984	6409.873047	33.263351
589.863403	731.658875	17860.294922	6423.544434	33.230232
590.204407	728.984070	17823.365234	6433.575684	33.371151
590.545410	721.776672	17896.849609	6441.748535	33.303917
590.886353	720.439209	17892.244141	6430.603027	33.253139
591.227112	722.816895	17916.986328	6420.201172	33.135559
591.567932	725.194580	17817.716797	6405.415527	33.232197
591.908752	723.262695	17680.333984	6377.477051	33.344288
592.249512	718.730286	17621.039063	6351.916504	33.327908
592.590149	719.696106	17530.908203	6315.359863	33.285305
592.930786	719.844788	17491.455078	6288.685059	33.203972
593.271423	713.231873	17390.181641	6265.800293	33.294868
593.612000	714.643616	17334.974609	6241.874512	33.255844
593.952576	723.782898	17339.580078	6233.923828	33.162064
594.292969	734.705322	17396.869141	6242.022949	33.052834
594.633484	732.922058	17472.210938	6254.283203	32.984444
594.973877	728.538147	17554.017578	6287.570313	33.039371
595.314209	728.612488	17673.867188	6315.210938	32.968513
595.654480	730.321472	17859.847656	6366.628418	32.904049
595.994812	732.401917	18048.207031	6409.724121	32.786938
596.335022	729.652771	18266.433594	6455.123535	32.648357
596.675171	724.897461	18480.126953	6512.484375	32.596519
597.015320	725.640442	18680.595703	6562.044434	32.505810
597.355408	729.727051	18764.781250	6605.437500	32.579388
597.695496	734.482361	18812.410156	6654.402832	32.746677
598.035461	733.739258	18756.681641	6647.121582	32.810307
598.375366	733.590637	18722.726563	6642.737793	32.848419
598.715271	739.014832	18600.794922	6607.072266	32.852592
599.055176	733.070618	18403.298828	6551.642090	32.928669
599.395081	723.262695	18152.080078	6456.757813	32.896641
599.734802	717.615723	17838.150391	6334.900879	32.810219
600.074524	722.816833	17512.333984	6231.546387	32.810528
600.414246	727.423645	17154.195313	6124.105469	32.852966
600.753906	725.343201	16839.820313	6018.817871	32.849186
601.093506	721.850891	16567.203125	5933.889160	32.893166
601.433044	721.850891	16377.805664	5858.249512	32.807953
601.772583	720.736389	16235.812500	5790.484863	32.676273
602.112122	720.885010	16212.409180	5773.767090	32.617073
602.451538	716.724060	16236.036133	5799.400879	32.750656
602.790894	715.535156	16373.050781	5828.082520	32.652355
603.130310	714.420715	16585.183594	5869.989746	32.484695
603.469604	718.061523	16796.576172	5920.292480	32.355171
603.808838	722.668274	17097.130859	5995.932129	32.204193
604.148010	724.005676	17350.501953	6055.448730	32.065945
604.487305	725.789001	17637.013672	6131.608887	31.965868
604.826416	728.092346	17829.533203	6208.884277	32.048714
605.165527	730.692932	18013.505859	6274.716309	32.078247
605.504456	734.928223	18116.193359	6321.154785	32.139355
605.843445	732.401917	18167.908203	6320.932129	32.052586
606.182434	733.590759	18141.826172	6327.099121	32.131390
606.521423	734.928223	18049.765625	6288.685059	32.075130
606.860229	740.798157	17829.458984	6249.378906	32.235298
607.199036	742.061279	17573.335938	6166.828613	32.230282
607.537903	738.569092	17310.158203	6089.182129	32.287868
607.876648	739.237793	17063.619141	5998.533203	32.217426
608.215271	730.544373	16787.585938	5906.694824	32.236015
608.553955	727.423584	16582.138672	5833.134766	32.203110
608.892578	725.343079	16391.105469	5764.850098	32.168922
609.231140	737.528809	16308.704102	5712.318848	31.948711
609.569641	736.860046	16245.027344	5672.269531	31.824585
609.908081	738.717590	16226.377930	5670.114746	31.840813
610.246521	729.726990	16228.606445	5683.415527	31.961590
610.584961	729.504089	16221.325195	5685.644531	31.991982
610.923340	721.405090	16199.034180	5671.601563	31.982910
611.261597	724.080017	16119.825195	5633.632324	31.889021
611.599854	731.658875	15975.233398	5600.864746	31.942680
611.938110	734.482422	15838.590820	5557.843750	31.934101
612.276245	737.231628	15604.092773	5508.654785	32.094357
612.614319	726.606384	15321.816406	5405.374023	32.056870
612.952393	724.377258	15012.715820	5298.452637	32.012646
613.290466	715.609558	14761.127930	5205.128418	31.964067
613.628479	717.689941	14519.569336	5117.525879	31.878529
613.966370	713.677673	14280.983398	5039.062012	31.880938
614.304260	714.272034	14041.875977	4963.941406	31.886223
614.642151	714.940735	13858.793945	4900.933105	31.847527
614.979980	713.826172	13678.312500	4845.503418	31.869194
615.317749	719.844727	13534.834961	4797.727051	31.821190
615.655396	720.885010	13434.601563	4765.553711	31.813425
615.993164	724.674377	13392.843750	4753.293945	31.801121
616.330811	728.018066	13366.911133	4730.631348	31.669020
616.668396	731.658875	13316.459961	4724.909668	31.730743
617.005859	732.327637	13290.750000	4701.430176	31.605106
617.343445	732.922058	13268.682617	4701.727539	31.659868
617.680908	737.157288	13259.468750	4682.706055	31.508150
618.018311	738.866211	13260.657227	4681.963379	31.489882
618.355652	735.448242	13260.211914	4683.895020	31.525120
618.692993	725.937561	13270.614258	4686.792480	31.573990
619.030273	720.141907	13264.522461	4674.235840	31.520838
619.367554	721.553711	13262.738281	4657.591797	31.384899
619.704712	724.154297	13239.555664	4647.709473	31.349815
620.041870	729.504150	13205.301758	4652.019043	31.440994
620.379028	721.405090	13150.540039	4620.737305	31.372517
620.716064	719.473145	13099.346680	4596.812012	31.319698
621.053040	721.330750	13032.473633	4559.734863	31.178293
621.389954	728.092285	12975.484375	4550.892578	31.213177
621.726929	726.903503	12925.032227	4513.146973	31.039543
622.063843	725.194580	12878.964844	4512.850098	31.164448
622.400635	721.776611	12857.863281	4488.850586	31.040268
622.737427	719.770508	12837.429688	4485.655273	31.077660
623.074219	721.033630	12793.887695	4452.070313	30.904345
623.410889	721.479492	12724.117188	4441.816895	30.995998
623.747559	720.810730	12689.790039	4426.139160	30.957764
624.084167	716.798401	12672.700195	4406.671875	30.862362
624.420715	719.398926	12682.062500	4388.690430	30.672863
624.757324	724.228699	12696.922852	4381.854492	30.549730
625.093750	724.451599	12750.272461	4394.188477	30.515478
625.430176	721.999573	12816.179688	4403.253418	30.438227
625.766602	726.457703	12880.153320	4416.851074	30.364372
626.102905	726.011902	12951.038086	4422.275391	30.235218
626.439209	717.838623	13025.192383	4441.445313	30.255136
626.775452	713.157532	13134.566406	4476.441895	30.296759
627.111694	716.946960	13228.114258	4503.116699	30.262321
627.447876	719.398926	13311.333008	4527.933594	30.245829
627.783997	723.782776	13360.668945	4518.571777	30.029465
628.120056	715.089355	13387.269531	4524.515137	30.061331
628.456055	717.912903	13362.971680	4506.236816	29.958927
628.792053	711.597168	13309.622070	4502.299316	30.089653
629.128052	713.826233	13251.890625	4471.537598	29.970427
629.463928	710.631165	13180.335938	4451.030273	29.995892
629.799744	716.203918	13071.854492	4421.531738	29.988934
630.135559	717.838562	12923.843750	4380.219727	30.004749
630.471375	721.776672	12784.079102	4326.573242	29.884813
630.807068	714.940857	12631.387695	4265.570801	29.796043
631.142700	724.451477	12506.113281	4225.447266	29.715635
631.478333	730.321472	12359.959961	4169.200195	29.569952
631.813965	730.024231	12251.179688	4137.770020	29.578161
632.149475	723.485596	12123.750977	4101.584473	29.631756
632.484924	725.343201	12025.375000	4075.579102	29.648020
632.820435	734.408020	11942.156250	4047.046143	29.556679
633.155884	733.219238	11866.961914	4017.325195	29.496874
633.491150	731.287354	11833.303711	4000.309814	29.445303
633.826477	725.789001	11749.934570	3978.687500	29.507034
634.161804	722.445313	11711.520508	3978.613525	29.630959
634.497009	718.804504	11634.171875	3951.196045	29.613218
634.832153	719.176086	11583.645508	3925.264404	29.509848
635.167297	728.463867	11513.058594	3885.140625	29.270241
635.502380	721.776672	11432.067383	3866.193604	29.358837
635.837463	716.575500	11361.257813	3842.788086	29.368773
636.172424	713.008972	11286.434570	3813.067139	29.319334
636.507324	715.237976	11198.534180	3783.717773	29.270182
636.842224	725.045898	11104.020508	3737.575439	29.025311
637.177124	721.925293	10982.833008	3699.829834	29.021841
637.511963	729.281250	10859.194336	3658.368896	28.915230
637.846741	727.349304	10721.882813	3628.127686	29.023649
638.181396	733.665039	10616.149414	3573.292236	28.733940
638.516113	737.380188	10530.627930	3528.710205	28.502598
638.850769	735.745544	10445.253906	3487.546631	28.341301
639.185303	729.281250	10352.671875	3466.593506	28.444365
639.519836	724.525818	10274.729492	3455.299561	28.593878
639.854370	719.473206	10183.632813	3427.138672	28.609678
640.188843	723.782776	10073.739258	3392.364990	28.541121
640.523254	724.748718	10016.674805	3345.777344	28.207592
640.857605	730.618652	9938.583008	3317.690674	28.096024
641.191895	721.107910	9876.168945	3295.548828	28.120415
641.526184	717.838623	9783.885742	3281.802734	28.280949
641.860413	716.426941	9749.780273	3264.416016	28.206457
642.194580	727.052185	9710.102539	3249.481201	28.079870
642.528748	727.869446	9662.697266	3222.731689	27.922892
642.862793	735.819824	9586.760742	3202.373047	27.867693
643.196838	735.002502	9535.788086	3175.103516	27.725948
643.530823	735.225403	9493.139648	3156.304932	27.644478
643.864746	734.705261	9440.829102	3132.899658	27.546062
644.198669	732.104675	9396.099609	3117.593750	27.533361
644.532532	728.240967	9358.427734	3107.785889	27.572346
644.866333	721.776611	9334.354492	3098.720703	27.598520
645.200073	725.417480	9308.125000	3089.358643	27.543072
645.533813	730.321472	9277.958008	3072.640381	27.403116
645.867554	725.045898	9263.915039	3055.847656	27.296375
646.201172	712.637390	9265.028320	3052.355469	27.357473
646.534729	711.671387	9262.725586	3044.479736	27.280943
646.868225	715.980957	9269.933594	3046.485596	27.244768
647.201782	725.863281	9253.883789	3032.368164	27.046192
647.535217	728.612488	9249.277344	3031.625000	27.028553
647.868591	727.720886	9248.682617	3010.894531	26.794786
648.201965	731.064514	9250.317383	2991.279053	26.530666
648.535278	721.405090	9235.977539	2975.601318	26.474569
648.868591	721.479431	9213.983398	2975.823975	26.545111
649.201782	726.754883	9183.742188	2969.508545	26.519535
649.534912	730.321472	9155.432617	2960.071533	26.465527
649.868103	729.355469	9130.615234	2945.136719	26.374393
650.201172	727.274963	9086.182617	2933.694336	26.396027
650.534180	734.779602	9049.179688	2915.193115	26.224545
650.867188	746.445129	9014.703125	2893.422119	25.966499
651.200134	741.912598	9017.229492	2885.620361	25.904844
651.533020	738.643311	8993.081055	2879.750732	25.938866
651.865845	728.240967	8933.788086	2863.478516	26.021879
652.198608	722.668274	8878.877930	2838.215088	25.937868
652.531433	725.417480	8860.748047	2806.042236	25.575172
652.864136	729.801453	8864.389648	2794.970947	25.387510
653.196777	857.899231	8997.911133	2897.434814	25.055685
653.529358	857.453369	8948.946289	2877.967529	24.970844
653.861938	855.001404	8893.516602	2856.122314	24.894161
654.194519	730.024231	8685.245117	2716.136230	24.966146
654.526978	727.720886	8635.165039	2697.783447	24.914022
654.859375	730.767273	8580.551758	2683.962891	24.882154
655.191833	726.754883	8525.123047	2664.644287	24.849936
655.524170	726.680603	8469.247070	2652.830078	24.877403
655.856445	718.804504	8409.062500	2639.455811	24.975122
656.188660	722.593933	8394.871094	2633.808350	24.910652
656.520874	715.758057	8361.062500	2624.817871	24.970356
656.853088	721.256531	8370.202148	2615.455811	24.764187
657.185181	716.649719	8356.232422	2603.567383	24.699226
657.517212	719.027405	8383.948242	2603.715820	24.588491
657.849243	714.346375	8417.086914	2594.873779	24.413744
658.181274	725.417480	8455.500977	2599.406250	24.242802
658.513123	723.931458	8504.465820	2605.499268	24.183016
658.844971	732.327637	8595.116211	2618.873779	23.993347
659.176819	722.073792	8692.080078	2634.551514	23.995937
659.508667	726.829285	8806.061523	2629.870850	23.554731
659.840393	723.485596	8876.203125	2630.241943	23.387983
660.172058	720.885010	8927.917969	2635.443115	23.328260
660.503662	723.559875	8941.515625	2649.040771	23.430168
660.835266	720.885010	8955.410156	2653.349854	23.467834
661.166931	720.513489	8917.664063	2647.406006	23.506859
661.498413	715.089355	8868.624023	2628.310303	23.464928
661.829773	712.860352	8761.034180	2611.220703	23.587467
662.161194	723.782898	8642.446289	2566.118896	23.265743
662.492615	723.782776	8509.073242	2527.927490	23.173763
662.823975	722.965515	8341.297852	2481.636719	23.084726
663.155212	721.999512	8213.571289	2445.599609	23.007189
663.486450	727.275085	8067.121094	2404.807617	22.855145
663.817627	732.773438	7960.347656	2368.176514	22.627275
664.148743	739.089172	7827.568848	2329.390381	22.435013
664.479858	739.980774	7729.935059	2303.087158	22.362185
664.810913	742.284180	7637.279297	2279.012939	22.287598
665.141907	733.962219	7585.416016	2265.564209	22.354410
665.472778	731.956116	7508.066895	2246.616943	22.352953
665.803711	723.485657	7470.395996	2226.258057	22.273491
666.134583	721.033630	7415.411621	2209.762939	22.238501
666.465454	719.844788	7396.390625	2205.899170	22.257833
666.796143	719.027527	7337.617188	2194.679443	22.295563
667.126831	722.593933	7331.821777	2186.431885	22.148394
667.457458	724.154297	7300.464844	2165.924316	21.923691
667.788147	722.371094	7296.081543	2150.989502	21.732300
668.118774	717.244141	7248.453125	2123.720459	21.534700
668.449219	716.798340	7240.279785	2118.593506	21.488451
668.779663	719.398926	7239.834473	2122.531494	21.519001
669.110107	721.182190	7235.302246	2114.209717	21.384739
669.440552	718.432922	7229.877441	2099.126221	21.204103
669.770874	722.519714	7202.014160	2074.160400	20.860279
670.101135	722.073792	7183.289551	2065.689941	20.795099
670.431396	725.194580	7157.135254	2050.829346	20.610184
670.761597	725.863281	7111.959473	2039.758301	20.574306
671.091797	724.080017	7069.606934	2030.024780	20.580559
671.421875	723.559875	7003.551270	2019.547974	20.636782
671.751892	722.668274	6973.533203	2009.071289	20.579601
672.081909	727.646545	6932.889160	1989.529785	20.335760
672.411865	728.018066	6904.877441	1963.300781	19.998556
672.741821	728.018066	6862.673340	1947.920288	19.885424
673.071716	734.631042	6814.599121	1940.118530	19.827202
673.401550	731.807556	6768.828613	1933.505493	19.905479
673.731262	733.739319	6746.538574	1915.895630	19.660664
674.060974	732.030457	6720.755371	1903.932983	19.568481
674.390625	729.058350	6699.356934	1896.874023	19.560423
674.720276	730.692932	6650.911621	1883.945313	19.479897
675.049927	721.999573	6617.846191	1876.292358	19.578066
675.379395	732.104736	6587.679688	1857.345215	19.216566
675.708923	720.662109	6539.828613	1840.701294	19.247416
676.038330	718.730225	6487.445313	1823.834595	19.156855
676.367737	712.711731	6442.491699	1815.587036	19.248127
676.697083	719.324646	6426.888184	1813.952515	19.178551
677.026428	723.559875	6402.442871	1794.336426	18.855410
677.355652	717.689941	6383.792969	1783.116577	18.803516
677.684875	721.033508	6388.101563	1769.964966	18.509243
678.013977	719.176025	6390.330566	1765.655396	18.452669
678.343079	725.863281	6408.609863	1767.587402	18.331348
678.672180	723.262695	6409.501465	1769.370605	18.397186
679.001221	723.188416	6473.550781	1776.206543	18.312204
679.330139	719.473206	6499.630859	1768.553345	18.149679
679.659058	725.417480	6541.685547	1765.581177	17.883696
679.987976	729.058289	6555.729004	1762.906372	17.743376
680.316772	730.247131	6605.066406	1767.438843	17.654869
680.645630	723.708496	6635.084473	1767.215820	17.652529
680.974304	721.702332	6674.390625	1766.175415	17.546242
681.302979	722.148193	6706.267090	1767.290161	17.465260
681.631653	725.045959	6755.157715	1771.153931	17.348068
681.960266	721.999512	6774.699219	1779.698853	17.474836
682.288757	723.262695	6773.138672	1774.051758	17.368771
682.617249	721.851013	6737.845215	1768.553345	17.398661
682.945679	724.823059	6715.851563	1764.392456	17.352102
683.274109	722.519592	6682.489746	1754.212891	17.310377
683.602478	725.045959	6630.105469	1738.386597	17.160549
683.930725	722.445313	6549.710449	1707.996704	16.912760
684.259033	726.011902	6450.367676	1686.002930	16.770288
684.587280	726.011902	6365.439941	1664.083618	16.634163
684.915344	734.779602	6301.836426	1645.582397	16.360580
685.243469	738.346191	6244.549316	1635.477173	16.293097
685.571533	737.157410	6189.713379	1627.452515	16.328032
685.899536	729.727051	6131.980469	1615.415527	16.394796
686.227539	729.206970	6087.101563	1603.973022	16.326675
686.555420	728.463867	6055.448730	1588.889526	16.152208
686.883301	730.321472	6039.250488	1587.849121	16.152554
687.211121	725.194519	6040.588379	1570.759399	15.907849
687.538940	719.398926	6055.597656	1565.484009	15.855577
687.866638	713.974854	6056.191895	1553.595581	15.716710
688.194336	720.736389	6044.377441	1554.041382	15.652914
688.521973	721.330811	6028.476563	1548.468750	15.585364
688.849609	727.869446	6025.355957	1540.221069	15.334662
689.177063	726.531982	5999.572754	1531.527710	15.266252
689.504578	728.166687	5932.403809	1515.701172	15.132563
689.832031	728.018066	5852.751465	1508.939575	15.238286
690.159485	722.148193	5780.380371	1487.391968	15.128679
690.486816	733.144958	5720.121094	1483.230957	15.040898
690.814087	734.482422	5644.777832	1459.008301	14.755240
691.141296	737.603088	5562.599121	1448.160156	14.726583
691.468506	731.510254	5482.946777	1420.965332	14.510455
691.795715	728.240967	5401.956543	1412.717773	14.645238
692.122803	729.875671	5345.857910	1403.726929	14.598220
692.449829	724.451477	5302.316406	1394.885132	14.645117
692.776855	724.897278	5254.613770	1379.058594	14.441551
693.103821	719.993347	5185.512207	1367.764526	14.506067
693.430664	722.891113	5121.612793	1350.526245	14.268580
693.757568	723.188293	5070.417969	1340.123901	14.191466
694.084351	725.045898	5030.962891	1331.950562	14.094667
694.411133	718.730225	4988.758789	1326.526489	14.234010
694.737854	726.383362	4961.415527	1316.272827	13.928807
695.064575	724.971680	4940.090820	1303.938477	13.735478
695.391174	734.036621	4920.549316	1290.415405	13.289791
695.717773	727.572205	4905.242676	1286.477417	13.378394
696.044250	723.262695	4912.970215	1271.765381	13.091670
696.370789	720.810730	4919.509277	1275.331909	13.206977
696.697205	716.872620	4939.273438	1275.406128	13.227865
697.023621	724.748718	4967.136719	1286.031372	13.230347
697.349915	720.959290	5023.458008	1293.387329	13.304549
697.676208	723.485596	5101.699219	1301.040649	13.191567
698.002380	715.535217	5191.382324	1304.681396	13.162786
698.328674	718.358704	5299.567383	1300.966309	12.717335
698.654724	712.934570	5407.604004	1306.167603	12.636311
698.980896	716.946960	5507.392090	1312.631836	12.434854
699.306946	709.367981	5573.373047	1326.972290	12.697444
699.632935	712.488770	5629.248535	1327.789551	12.514356
699.958862	716.129578	5641.730957	1333.436646	12.532623
700.284729	718.804504	5646.561035	1327.566772	12.353742
700.610596	721.776672	5595.068848	1320.285034	12.281398
700.936340	721.033630	5517.423340	1306.762085	12.211862
701.262146	736.785828	5412.656250	1296.954102	11.979979
701.587830	734.556641	5290.650879	1285.437134	12.091069
701.913513	734.630920	5156.683105	1270.130737	12.109757
702.239075	729.801270	5021.229492	1246.130859	12.031650
702.564697	731.064453	4890.976563	1219.456299	11.740437
702.890137	732.922058	4776.030273	1196.050903	11.454773
703.215698	728.538269	4666.730957	1191.964355	11.767482
703.541016	723.782898	4564.490234	1185.945801	12.033276
703.866455	722.668274	4484.392090	1171.382446	11.928419
704.191711	720.142029	4405.334473	1152.658081	11.736593
704.517029	730.247131	4360.900879	1138.168945	11.235492
704.842163	733.367859	4303.093262	1134.231079	11.229526
705.167419	735.671204	4267.428223	1125.314819	11.032571
705.492493	730.767273	4229.533691	1123.308594	11.219420
705.817566	724.897278	4203.081543	1111.791626	11.123457
706.142578	726.309082	4180.270996	1102.057983	10.878779
706.467590	731.956116	4158.945801	1087.346069	10.370324
706.792480	728.538147	4144.011230	1090.317993	10.592379
707.117371	728.463867	4132.865723	1087.048706	10.532976
707.442200	723.188416	4142.376465	1099.754639	11.013323
707.766907	725.863281	4149.881348	1095.073486	10.782951
708.091675	717.764343	4159.689453	1096.856812	11.013967
708.416321	713.454773	4148.395020	1078.949829	10.640507
708.741028	717.541321	4147.131836	1077.240845	10.488118
709.065552	720.736328	4169.794434	1081.476196	10.459084
709.390137	720.959290	4177.150879	1090.838257	10.701923
709.714600	715.832458	4204.643066	1096.856812	10.921326
710.039063	710.854187	4228.047852	1094.702026	10.913469
710.363403	716.649719	4266.982422	1101.463501	10.838809
710.687744	717.987244	4309.260254	1100.126099	10.640763
711.012085	725.120300	4353.693359	1094.107544	10.168936
711.336304	722.668274	4392.851074	1086.305786	9.907886
711.660461	730.693054	4418.262207	1087.494629	9.675794
711.984619	732.327637	4435.426270	1097.302612	9.855934
712.308716	736.265625	4452.144531	1095.073608	9.656074
712.632751	731.138855	4451.847656	1090.020874	9.645529
712.956726	735.894104	4416.405273	1078.206787	9.300683
713.280701	731.213074	4382.820313	1067.432861	9.207447
713.604553	734.482422	4335.860840	1062.677490	9.113040
713.928467	728.538147	4287.712402	1063.643433	9.415254
714.252258	727.572266	4221.731934	1062.083130	9.573428
714.575989	719.027405	4162.513184	1054.132690	9.731571
714.899719	720.885010	4115.182129	1040.832520	9.426031
715.223267	721.330811	4087.690186	1029.984253	9.168761
715.546936	724.897278	4077.436279	1023.371399	8.902927
715.870422	725.640381	4053.956299	1022.182434	8.909673
716.193970	729.727051	4034.117920	1023.519958	8.890985
716.517395	730.172852	4006.699951	1021.216553	8.882689
716.840820	734.779602	3978.167725	1012.597473	8.565668
717.164124	733.442139	3936.557861	1008.659485	8.592176
717.487488	727.795166	3893.165283	1005.241638	8.765057
717.810730	727.052063	3860.249268	1010.219910	9.037664
718.133972	730.990173	3808.534424	996.176575	8.616818
718.457092	739.534973	3754.739502	983.916687	8.104980
718.780212	738.197571	3693.365234	969.278992	7.819571
719.103210	728.538147	3653.018799	967.347107	8.165858
719.426208	717.467102	3607.025391	962.145935	8.467690
719.749207	707.510559	3586.740967	960.808533	8.797420
720.072083	717.764343	3550.927002	960.139832	8.554945
720.394958	725.491882	3506.196533	959.471008	8.414383
720.717773	728.835449	3441.033203	948.771484	8.109144
721.040527	722.816895	3397.863281	939.855164	8.113440
721.363281	723.857117	3369.925537	929.824219	7.783892
721.685913	727.423645	3346.000000	931.830383	7.806026
722.008545	728.018066	3314.124023	932.721985	7.915527
722.331055	726.903503	3286.929443	935.248291	8.138386
722.653503	724.971680	3257.951172	923.805664	7.849806
722.976013	725.566101	3249.852539	922.171082	7.788537
723.298401	728.241028	3238.929688	919.124695	7.602841
723.620789	726.086182	3230.162109	923.062683	7.866235
723.943115	719.844727	3206.236328	917.341309	7.943100
724.265381	724.154297	3182.831299	921.428040	8.023573
724.587585	721.479431	3189.889893	920.536438	8.064178
724.909790	733.665039	3196.874756	913.774902	7.311999
725.231873	733.367859	3202.670654	901.589172	6.812502
725.553894	737.008728	3195.834717	901.291992	6.681370
725.875916	768.661682	3217.902344	958.876648	7.766283
726.197937	761.974426	3239.227295	967.272766	8.287338
726.519775	765.020813	3243.387939	962.963318	7.986811
726.841675	722.222412	3225.852539	910.654114	7.526340
727.163513	720.290527	3227.710205	910.579773	7.589046
727.485291	716.724060	3247.697998	910.208313	7.644656
727.806946	718.061462	3280.390869	904.784180	7.287226
728.128662	721.033630	3307.065674	897.874084	6.838294
728.450256	724.748718	3330.470703	905.155762	6.923496
728.771790	729.727051	3334.186279	904.412781	6.707179
729.093323	723.559875	3326.830078	909.985535	7.161211
729.414795	721.107910	3316.130615	903.000977	7.009305
729.736145	715.683777	3311.078125	911.025635	7.526481
730.057495	720.439209	3317.468018	896.982422	6.797892
730.378845	719.250427	3323.114990	884.648132	6.352009
730.700134	714.272156	3319.102539	876.995056	6.246967
731.021301	719.176086	3317.393555	884.796875	6.374401
731.342468	724.674500	3314.644531	892.227112	6.469288
731.663574	737.603088	3332.402588	896.759521	6.133670
731.984680	731.881775	3347.188721	890.295227	6.057165
732.305664	730.544250	3357.888672	887.174500	5.961542
732.626648	729.949890	3357.443115	885.465515	5.918783
732.947571	736.042786	3363.758545	888.289063	5.793864
733.268433	735.745605	3353.207764	890.295166	5.904558
733.589233	735.819824	3335.151611	891.112488	5.974330
733.909973	734.779602	3319.994141	893.787415	6.150662
734.230713	736.860107	3308.923096	893.341614	6.083891
734.551331	726.754944	3278.607422	887.917480	6.315511
734.871948	717.467102	3233.877686	879.149719	6.425128
735.192505	713.751953	3176.813232	873.131287	6.470782
735.513062	720.885010	3146.051514	865.403809	5.959129
735.833435	731.213135	3088.987061	864.066345	5.634688
736.153931	738.420471	3058.002930	860.202637	5.250176
736.474304	736.637207	3001.681641	859.756836	5.435638
736.794617	728.389587	2982.436768	859.608154	5.821465
737.114807	722.073792	2954.127686	853.218079	5.875498
737.434998	728.092346	2942.684814	852.029297	5.596377
737.755188	729.578430	2935.552002	849.800232	5.449830
738.075256	725.714661	2941.347656	853.441101	5.764783
738.395325	720.810730	2971.811768	849.800232	5.730318
738.715271	721.553711	2992.022217	846.976746	5.524104
739.035278	724.897400	3010.597656	855.298584	5.705087
739.355164	719.844727	3020.702881	858.716553	6.035654
739.675049	723.188416	3026.052734	863.843445	6.107830
739.994873	721.627991	3021.297119	857.453430	5.906303
740.314636	719.621887	3006.510742	861.688660	6.212229
740.634277	719.993408	2990.535889	858.865173	6.116237
740.953979	721.330872	2961.334961	855.521545	5.990644
741.273499	731.064453	2925.000977	846.605164	5.266365
741.593140	720.736389	2894.759766	839.249207	5.451313
741.912598	717.318420	2862.809570	834.048035	5.440694
742.232117	719.547546	2828.035889	830.332947	5.254257
742.551453	727.275085	2777.584229	827.806641	4.903239
742.870850	733.293640	2745.708252	830.407227	4.825725
743.190063	729.950012	2716.284424	827.658020	4.919011
743.509338	730.470032	2693.250732	826.097656	4.872048
743.828552	726.829163	2677.646973	819.336121	4.741958
744.147705	724.897278	2661.226074	811.014160	4.447431
744.466797	722.296692	2632.099609	809.305237	4.555891
744.785828	724.080017	2606.836670	811.460022	4.641068
745.104858	723.262634	2580.533447	817.181335	5.056813
745.423706	725.863281	2572.583252	816.141113	4.888550
745.742615	728.538147	2561.363525	818.295898	4.897234
746.061401	732.476257	2561.735107	821.193665	4.849910
746.380249	730.915833	2546.205811	812.797546	4.510668
746.698975	723.708496	2533.574219	807.373352	4.622711
747.017639	719.324646	2514.032471	803.658264	4.699017
747.336304	711.745789	2510.986084	811.311462	5.533762
747.654907	709.739563	2503.184326	811.831543	5.692507
747.973389	716.426819	2502.812744	813.094666	5.411364
748.291931	729.578430	2508.088135	811.682922	4.616477
748.610352	737.157410	2516.484375	809.676758	4.075662
748.928711	735.968445	2526.738281	806.778992	3.954196
749.247070	725.937561	2524.360596	817.627136	5.098332
749.565308	714.717834	2517.673584	817.032776	5.674845
749.883545	712.191589	2506.379639	816.512634	5.814388
750.201782	715.312317	2501.772705	805.441589	5.045131
750.519836	722.891174	2502.590088	813.540527	5.093522
750.837952	724.748779	2494.119629	811.014160	4.875484
751.155884	727.200684	2471.457275	813.689148	4.958471
751.473877	730.247131	2457.116943	805.590027	4.362975
751.791809	724.600098	2443.147705	806.035889	4.738640
752.109619	727.497986	2432.299561	798.977112	4.192812
752.427490	722.296692	2413.129639	795.559265	4.332928
752.745300	728.835388	2405.550537	793.701660	3.868652
753.062988	729.801270	2411.791992	792.215576	3.710740
753.380615	733.293518	2413.426514	797.416809	3.816560
753.698303	727.572205	2415.581299	801.131897	4.357779
754.015808	725.491699	2410.157471	802.469421	4.569317
754.333374	724.748718	2403.693115	802.692200	4.642410
754.650757	722.519714	2401.835449	800.908997	4.667930
754.968262	722.371094	2401.760986	799.571594	4.596937
755.285583	721.033691	2393.588135	800.908997	4.775648
755.602905	726.160461	2377.835938	797.788330	4.336679
755.920105	722.222473	2359.928711	800.017395	4.750237
756.237305	722.593994	2361.935059	789.020691	4.052036
756.554443	724.377197	2355.247803	793.627380	4.246210
756.871582	725.417480	2360.968994	787.683105	3.807011
757.188599	725.937561	2356.510742	791.472595	4.019141
757.505615	722.593994	2360.894531	790.135193	4.122638
757.822510	721.628113	2371.222656	792.066956	4.270070
758.139465	719.101746	2379.544678	782.630554	3.826016
758.456238	724.451477	2395.445313	780.327148	3.343858
758.773010	732.327637	2400.943604	776.389160	2.640603
759.089783	731.658936	2425.166504	783.447815	3.058084
759.406433	724.748718	2453.550293	783.002014	3.369577
759.723145	723.039795	2465.512939	786.642883	3.650162
760.039673	732.550537	2470.788574	789.912292	3.299994
760.356201	730.544373	2453.476074	798.159851	3.924443
760.672668	732.476257	2455.333496	803.212402	4.105746
760.989136	726.457703	2451.097900	802.766602	4.424627
761.305481	723.262695	2456.076416	792.735779	4.009264
761.621826	719.844727	2453.550049	785.454102	3.784344
761.938049	725.491699	2462.540771	792.438538	3.854056
762.254333	734.185242	2485.723389	793.776062	3.402200
762.570496	732.030457	2531.419678	805.887390	4.104556
762.886597	735.522644	2611.146240	797.416809	3.299925
763.202637	741.095276	2735.008789	796.376526	2.772500
763.518677	742.284180	2876.630127	785.676941	2.033071
763.834656	739.906494	3025.755615	796.525146	2.476920
764.150574	736.785828	3140.181641	805.812988	2.872068
764.466370	741.689758	3206.533936	815.026550	2.975312
764.782288	735.894226	3229.196045	806.184509	2.819165
765.097961	732.624817	3205.642334	801.652039	2.791214
765.413696	730.990234	3156.602539	802.766602	2.959103
765.729309	731.956116	3058.597412	805.144226	3.145655
766.044861	725.937561	2940.901611	806.853271	3.653139
766.360474	721.850891	2814.364258	801.057617	3.785243
766.675903	724.897278	2689.906982	798.011230	3.720793
766.991394	735.374023	2575.183838	793.255859	3.146077
767.306763	737.751648	2483.048096	790.803894	3.039727
767.622131	730.544373	2411.346191	782.704834	3.103308
767.937378	726.383362	2353.761719	778.989746	3.232585
768.252625	728.909668	2307.694092	775.794678	2.969690
768.567810	732.476257	2260.065674	777.503723	2.947616
768.882996	734.853943	2213.849609	775.348938	2.738006
769.197998	733.367859	2180.636475	773.416992	2.767222
769.513062	735.002502	2154.853271	772.005310	2.606105
769.828064	729.875671	2131.076172	766.655518	2.624881
770.142944	731.213135	2107.522217	766.655518	2.575176
770.457825	726.977844	2073.491699	767.770020	3.029465
770.772705	722.296692	2054.990234	764.426453	3.161249
771.087402	719.176025	2016.278687	763.609070	3.425561
771.402100	725.714661	1992.798950	752.389343	2.105202
771.716736	732.030457	1962.037598	758.184998	2.126373
772.031372	731.807434	1963.969360	747.262512	1.254306
772.345947	727.126465	1956.687866	752.092102	2.030451
772.660461	727.275085	1953.492798	754.618408	2.229891
772.974854	729.206848	1926.892578	762.494568	2.779337
773.289246	733.070618	1915.226929	762.123047	2.457579
773.603638	730.990173	1890.186890	754.321228	2.012691
773.917908	724.600098	1884.317017	753.949707	2.530756
774.232178	721.182129	1864.552612	750.383118	2.553939
774.546265	727.646545	1863.512329	751.349121	2.086741
774.860474	725.120300	1844.936523	753.875427	2.567843
775.174561	728.389587	1838.174927	762.866028	3.106586
775.488586	729.132568	1832.602173	766.729797	3.407183
775.802551	729.578369	1808.973999	759.448059	2.767261
776.116516	725.714661	1789.209473	756.773132	2.920416
776.430359	715.386536	1762.906372	756.698914	3.943828
776.744202	717.615662	1764.095215	765.095154	4.537068
777.057922	714.940735	1762.980591	761.825867	4.473602
777.371704	718.433044	1755.550415	754.246887	3.453210
777.685303	717.690002	1749.903320	753.281006	3.448028
777.998962	721.330811	1741.655884	755.510071	3.349840
778.312500	720.587830	1745.073730	762.494568	4.090514
778.626038	728.463867	1741.655884	753.058105	2.427402
778.939453	732.327637	1741.730103	754.321289	2.178878
779.252869	732.773438	1738.535034	747.262512	1.440607
779.566223	726.903503	1740.244141	756.253113	2.896322
779.879578	719.027405	1734.968750	751.126160	3.159509
780.192749	723.262695	1721.519897	753.058105	2.984743
780.505920	719.101746	1713.272095	748.228333	2.929738
780.819031	719.473206	1701.234985	749.491516	3.057596
781.132141	724.302979	1712.528931	758.556458	3.466159
781.445190	732.253357	1708.368164	753.578186	2.184664
781.758118	735.151184	1701.755249	755.064270	2.060108
782.071045	729.727051	1679.538696	745.479187	1.658448
782.383911	728.686768	1666.535645	748.674255	2.131206
782.696838	726.754944	1669.359253	733.219238	0.685791
783.009583	725.045959	1666.089844	733.739441	0.923813
783.322266	719.621826	1659.848633	731.584656	1.272334
783.634888	717.318420	1638.375000	738.866211	2.339464
783.947510	714.717834	1625.223511	735.894104	2.325770
784.260132	715.237976	1621.508423	737.825989	2.492414
784.572571	712.265869	1609.619751	747.633972	3.941377
784.885010	715.312256	1605.533203	753.132324	4.248391
785.197449	721.776611	1585.991577	749.045715	3.155361
785.509766	733.962219	1583.093750	740.798096	0.805043
785.822083	728.909668	1575.515015	739.237793	1.219946
786.134277	726.977783	1572.839966	741.615479	1.730506
786.446533	720.884949	1571.056641	744.216064	2.744283
786.758606	724.971680	1561.397461	748.377014	2.798256
787.070740	726.606262	1571.056763	746.890930	2.402114
787.382690	726.011902	1574.846313	746.445129	2.407210
787.694641	722.371033	1590.746948	740.426575	2.079231
788.006653	717.467102	1608.059570	740.129395	2.544631
788.318481	721.107910	1639.712524	750.903320	3.243551
788.630310	720.216309	1681.396362	756.178894	3.741503
788.942017	715.906738	1709.259766	758.705078	4.308472
789.253784	715.089355	1716.095703	748.822815	3.369955
789.565430	724.971680	1701.978149	744.141663	1.962114
789.877014	735.374023	1678.944336	744.067444	0.921333
790.188538	738.271790	1664.306641	747.559753	1.002982
790.500061	737.974609	1644.541992	749.194336	1.237605
790.811462	738.940613	1629.384277	753.281006	1.610477
791.122925	743.324402	1600.926392	752.389404	1.057017
791.434204	740.129395	1587.031860	752.983826	1.517817
791.745483	735.671204	1567.341675	754.395508	2.251409
792.056702	728.463867	1560.877319	752.909485	2.936716
792.367920	725.863281	1532.419312	753.280945	3.399350
792.678955	721.330811	1520.010742	740.129395	2.353707
792.990112	722.296692	1512.654785	737.677429	1.946047
793.301086	724.228577	1512.506226	732.401917	1.036861
793.612122	730.544250	1498.834473	736.785828	0.812398
793.922974	722.222412	1485.311401	740.723816	2.424541
794.233826	720.216309	1477.583984	739.534973	2.550764
794.544556	719.770508	1471.639648	741.243958	2.856009
794.855286	722.371094	1468.890503	742.432800	2.687366
795.166016	717.467041	1471.713989	747.188171	3.940504
795.476624	717.689941	1483.528198	750.234558	4.249542
795.787292	726.829163	1494.970703	746.296570	2.534352
796.097778	728.686768	1515.255371	739.534973	1.379181
796.408264	721.033630	1543.044556	733.219238	1.482414
796.718689	719.770508	1557.087769	730.172852	1.242342
797.029053	727.126465	1567.490234	731.361755	0.503983
797.339355	735.596985	1553.744141	732.624817	-0.363280
797.649658	734.928223	1546.388306	735.076843	0.018315
797.959839	731.807556	1526.995239	743.101501	1.420287
798.270020	731.584656	1510.351563	745.850769	1.831885
798.580078	727.869446	1499.726196	746.296570	2.387376
798.890137	730.098572	1487.912109	745.479187	2.029604
799.200195	724.674500	1478.921387	748.822815	3.201646
799.510071	724.228577	1459.676880	748.897156	3.354223
799.820007	717.987122	1450.611938	744.067444	3.559847
800.129883	719.324646	1439.169312	738.643311	2.683727
800.439575	719.696106	1444.296265	739.163391	2.686625
800.749329	722.965515	1443.701782	740.055115	2.371131
801.058960	727.349365	1444.593628	741.541199	1.978661
801.368591	727.274963	1441.621460	746.222168	2.652383
801.678162	728.315247	1434.488281	745.924988	2.493686
801.987671	726.977783	1432.779297	754.246887	3.863565
802.297119	721.107910	1423.045532	750.829041	4.234156
802.606506	717.838562	1413.609253	747.411072	4.250324
802.915894	713.528992	1397.559937	736.711426	3.389091
803.225159	728.166687	1391.467163	739.832214	1.758709
803.534424	736.562927	1390.426758	745.999329	1.443175
803.843628	745.479248	1389.906738	744.216064	-0.196016
804.152771	735.448303	1380.618774	738.940613	0.541300
804.461792	721.850891	1370.216431	739.163513	2.670195
804.770874	717.541321	1375.714844	735.374023	2.709423
805.079773	719.398926	1393.399048	733.219238	2.050491
805.388733	727.943665	1412.271973	733.442139	0.803485
805.697571	727.795105	1425.423462	747.782532	2.865054
806.006470	728.761047	1423.565918	743.101563	2.063963
806.315125	728.983948	1425.349121	732.699158	0.533515
806.623901	726.606262	1414.352173	726.234802	-0.054011
806.932495	724.822998	1407.516479	728.909668	0.598610
807.241150	727.052185	1401.275024	737.974609	1.620002
807.549622	728.612488	1404.024292	735.894226	1.078118
807.858154	728.983948	1397.188354	734.036560	0.756148
808.166565	727.943787	1393.770386	733.813660	0.881592
808.474915	728.538269	1378.984009	735.448303	1.062354
808.783264	736.414246	1376.829468	738.643372	0.348075
809.091492	732.550537	1361.003052	741.169617	1.371477
809.399719	733.739319	1353.052612	740.723816	1.127781
809.707825	730.692932	1347.702759	735.448303	0.770712
810.015930	725.491699	1346.365234	728.315247	0.454770
810.323975	721.999512	1341.015503	731.658875	1.560438
810.632080	713.751953	1334.625488	735.448303	3.494488
810.939880	721.182190	1329.201416	732.996338	1.943055
811.247864	732.624817	1326.600708	735.076843	0.412816
811.555664	733.070740	1324.817505	734.853943	0.301346
811.863464	727.646545	1315.826782	738.271790	1.806461
812.171143	718.210144	1307.653687	728.538269	1.752182
812.478882	721.999512	1293.090210	735.968445	2.446010
812.786438	722.965515	1290.266846	731.584656	1.519323
813.094055	721.702332	1294.279175	735.968445	2.491563
813.401489	712.711731	1294.502075	732.773438	3.448271
813.708984	714.123474	1297.176880	738.048889	4.103469
814.016357	718.061523	1283.653809	741.392578	4.125066
814.323730	725.789001	1287.220337	746.965271	3.771836
814.630981	725.194580	1274.737427	746.445129	3.866951
814.938232	722.742615	1281.276245	746.073547	4.177176
815.245361	722.445374	1267.753052	738.940491	3.024919
815.552490	718.433044	1281.201782	732.773438	2.548186
815.859619	718.655945	1281.424683	721.033508	0.422476
816.166565	727.497986	1293.164551	722.371033	-0.906356
816.473572	731.584534	1281.870605	734.482422	0.526615
816.780457	726.829285	1286.774414	746.445129	3.503173
817.087341	718.953125	1286.625854	739.534973	3.625654
817.394043	724.080078	1297.474121	730.990051	1.205100
817.700806	723.485657	1305.052979	723.931335	0.076634
818.007507	726.532043	1316.495605	735.522644	1.523925
818.314209	723.782898	1326.006226	735.076843	1.875375
818.620667	726.903503	1326.526367	735.745544	1.474600
818.927246	727.126465	1334.328247	731.361633	0.697489
819.233704	726.754944	1346.216675	732.550537	0.935585
819.540161	731.138855	1382.401978	742.358459	1.722745
819.846497	729.429871	1421.633911	744.290344	2.146834
820.152832	728.835449	1480.110352	750.308899	2.858268
820.458984	728.240967	1535.391602	745.033386	2.080457
820.765259	722.593933	1597.211304	740.203674	2.013422
821.071350	720.364807	1687.191895	740.649597	2.098078
821.377502	713.454773	1844.639282	739.980774	2.344975
821.683472	716.946960	2144.673584	744.364685	1.920376
821.989441	714.197754	2659.443115	750.085938	1.844918
822.295349	717.467102	3376.315674	749.342957	1.198859
822.601196	724.748718	4171.652344	756.996155	0.935548
822.907043	733.813660	4845.949219	764.649231	0.749868
823.212769	733.145020	5235.815430	778.098083	0.998365
823.518494	724.674500	5296.446777	778.618164	1.179929
823.824097	720.216309	5065.736816	767.992920	1.099445
824.129700	719.993347	4701.355957	766.655518	1.172015
824.435242	727.720886	4320.183105	765.243835	1.044491
824.740723	734.333801	3988.792969	759.448059	0.771688
825.046082	738.494690	3683.854736	754.989929	0.560041
825.351501	726.457764	3363.461670	751.943542	0.966467
825.656799	723.634277	3038.906982	755.732971	1.386389
825.962036	716.649841	2743.776611	749.937317	1.642101
826.267212	727.423645	2531.567871	744.587585	0.951362
826.572449	730.098572	2424.497559	740.129395	0.591999
826.877502	725.194580	2434.751465	737.305908	0.708448
827.182495	717.095520	2540.707275	736.488586	1.063443
827.487488	707.287598	2679.876221	745.627747	1.943646
827.792419	720.439209	2798.612061	750.977600	1.469483
828.097290	717.021301	2824.766602	749.491516	1.540519
828.402100	720.662109	2752.247070	750.011536	1.444657
828.706848	724.377197	2608.917236	746.519348	1.174937
829.011597	730.470032	2442.850586	750.011719	1.141200
829.316223	734.556641	2290.009766	748.302734	0.883736
829.620789	724.451477	2150.172119	752.686523	1.980405
829.925354	725.789001	2013.380859	749.937317	1.875464
830.229797	720.736328	1890.112671	736.488525	1.347060
830.534302	721.850891	1746.931274	733.367859	1.123519
830.838562	722.371094	1629.087280	728.761047	0.704736
831.142944	720.216309	1526.103516	726.977844	0.839018
831.447144	722.073792	1458.265137	719.027405	-0.413804
831.751404	721.925232	1405.658813	720.736389	-0.173875
832.055542	726.309082	1370.959473	726.234802	-0.011522
832.359619	720.439148	1357.659302	731.733215	1.772396
832.663635	714.792175	1369.919312	732.476257	2.699336
832.967651	720.587830	1399.268921	738.346130	2.616590
833.271545	730.395752	1466.512695	741.987000	1.574648
833.575439	735.819824	1558.871094	742.135559	0.767356
833.879211	725.045959	1690.684082	735.002502	1.031084
834.183044	718.210144	1810.014282	729.058350	0.993604
834.486694	707.956360	1907.870972	735.076843	2.260201
834.790344	715.237976	1942.347290	736.860107	1.762038
835.093933	714.346375	1931.796265	742.655701	2.325297
835.397522	717.021301	1888.849487	744.661865	2.358756
835.700928	721.256531	1820.416626	750.606140	2.670185
836.004395	727.423645	1760.900269	750.531738	2.235957
836.307739	736.340027	1673.668945	740.649597	0.459771
836.611023	727.200684	1602.635376	738.197510	1.256156
836.914307	725.343201	1516.295776	729.281250	0.497887
837.217529	720.736389	1456.407593	739.237793	2.514901
837.520691	724.377258	1389.089478	736.414246	1.810857
837.823730	723.262695	1330.761841	736.562805	2.189322
838.126831	726.086243	1281.424805	726.086182	-0.000011
838.429749	727.720886	1242.936035	724.228577	-0.677835
838.732727	725.937561	1211.505859	725.194519	-0.153025
839.035522	730.470032	1186.242920	724.525879	-1.304192
839.338379	734.779602	1169.896240	727.720886	-1.622258
839.641113	738.420410	1177.623779	730.618652	-1.776343
839.943848	741.318298	1200.583374	729.206848	-2.637137
840.246460	731.658936	1226.886597	725.120300	-1.320329
840.549072	723.782898	1253.709839	722.891113	-0.168284
840.851563	713.751953	1267.455811	733.962219	3.650014
841.154053	720.885071	1279.195679	735.225403	2.568522
841.456482	724.377258	1262.923340	736.265625	2.207493
841.758850	728.984070	1241.747070	727.720886	-0.246348
842.061157	724.005676	1219.084839	734.779602	2.176203
842.363403	725.640381	1197.834106	735.968445	2.187251
842.665588	719.027527	1173.685913	736.934387	3.938531
842.967712	721.107910	1154.144165	730.395752	2.144819
843.269775	723.559875	1130.738647	727.423645	0.948912
843.571777	726.829285	1108.670776	722.445374	-1.148097
843.873840	728.240967	1080.435913	721.850891	-1.814358
844.175659	725.789001	1064.163574	722.965515	-0.834426
844.477600	727.720886	1046.999756	732.476257	1.489410
844.779297	730.692932	1034.442505	730.024170	-0.220169
845.081116	728.612488	1020.919434	729.875671	0.432143
845.382751	726.234802	1013.191895	723.857117	-0.828586
845.684387	718.878845	1015.198059	722.965515	1.379144
845.985962	719.027405	1005.984558	719.993347	0.336616
846.287537	724.748718	1000.560364	720.067627	-1.697206
846.588989	725.714661	990.381042	724.897278	-0.308835
846.890381	733.442139	995.284973	724.822998	-3.291723
847.191711	725.045898	998.257141	725.268860	0.081608
847.493042	729.801270	985.922852	726.977844	-1.102377
847.794250	724.525879	976.263489	730.767273	2.479325
848.095459	727.572266	967.198486	736.637207	3.782951
848.396606	725.937561	965.341003	732.699158	2.824352
848.697693	725.640442	962.888977	734.779602	3.852146
848.998657	729.504089	959.099426	731.213074	0.744346
849.299622	731.064453	958.133606	726.680603	-1.930623
849.600464	736.117126	958.282227	727.126404	-4.046865
849.901367	732.104736	957.985046	725.863281	-2.763169
850.202087	725.566101	955.978760	730.990173	2.354069
850.502808	716.129578	953.675476	733.293518	7.225526
850.803467	715.386658	951.743591	731.733215	6.916048
851.104065	718.804504	956.721863	735.819885	7.151803
851.404663	727.720886	953.303894	735.299744	3.359676
851.705139	728.761047	958.430847	744.884766	7.020391
852.005615	732.773438	952.709473	733.887939	0.506739
852.306030	733.665039	957.241943	734.556702	0.398817
852.606384	734.556641	957.019043	727.200684	-3.306607
852.906616	730.024231	959.025208	733.516418	1.524966
853.206909	729.504089	956.498962	731.435974	0.851070
853.506958	730.767273	944.833435	734.036621	1.527261
853.807129	726.234863	944.981995	729.206848	1.358639
854.107178	721.182190	943.718933	726.606262	2.437383
854.407166	722.668274	943.347351	722.742493	0.033632
854.707092	733.665039	942.232910	729.058289	-2.208754
855.007019	725.491699	931.607605	730.172852	2.271126
855.306763	728.240967	941.564148	729.281250	0.487656
855.606567	722.445313	937.848938	727.126465	2.173200
855.906250	726.977844	943.124512	729.355530	1.100033
856.205933	726.829285	934.282410	730.990173	2.005701
856.505493	729.578430	936.585754	738.197510	4.163659
856.805054	727.869446	939.632263	738.123230	4.842108
857.104492	728.983948	945.799316	742.432800	6.202906
857.403931	727.943787	944.981995	737.305847	4.313554
857.703308	742.804260	939.037781	736.191345	-3.369921
858.002563	737.008728	933.836609	736.339905	-0.339801
858.301819	735.745605	935.991394	734.110840	-0.816380
858.601013	728.686768	939.929443	727.869385	-0.386940
858.900208	727.497986	943.124329	717.987122	-4.410808
859.199219	728.389465	943.644531	723.782776	-2.140107
859.498291	727.126465	949.291565	728.018066	0.401324
859.797302	729.281250	955.087219	735.819824	2.895660
860.096191	726.680664	945.130615	727.349304	0.306084
860.395020	723.114075	938.369080	734.631042	5.350383
860.693787	723.708496	927.297913	736.042786	6.058414
860.992554	724.228699	930.864502	735.374023	5.393704
861.291260	728.018066	925.143127	723.634216	-2.223893
861.589844	715.237976	923.731384	718.061523	1.354262
861.888428	712.711731	921.502380	720.067627	3.523097
862.186890	718.655945	923.062683	723.262695	2.253717
862.485413	729.652649	919.719055	727.720886	-1.016362
862.783813	735.671204	919.496155	727.349304	-4.527078
863.082153	726.829163	926.480652	729.355469	1.265358
863.380371	728.538147	932.499207	728.092346	-0.218572
863.678589	718.358704	933.242188	729.132568	5.013817
863.976746	714.569275	927.372314	728.686829	6.634094
864.274902	712.414551	933.093506	730.172852	8.047120
864.572937	718.953125	929.378418	736.562927	8.368671
864.870911	716.203918	934.356689	735.076843	8.651242
865.168884	718.061523	935.099792	732.327637	6.573087
865.466736	714.717834	946.839600	723.114075	3.617171
865.764587	724.674500	941.935608	720.439148	-1.949429
866.062317	724.080017	935.396973	716.352539	-3.656819
866.360107	728.835449	934.876770	720.959290	-3.822612
866.657715	729.281250	936.883057	721.107910	-3.937027
866.955322	726.309082	939.780823	725.863281	-0.208834
867.252808	724.600098	937.105957	725.194580	0.279749
867.550293	720.364929	938.369080	725.120300	2.181321
867.847717	729.281250	935.471252	728.241028	-0.504497
868.145081	731.213074	930.270020	723.039795	-4.106000
868.442383	732.996338	935.174011	723.114075	-4.887910
868.739624	723.485596	937.848938	714.494934	-4.194123
869.036804	722.668213	941.935547	720.364807	-1.050501
869.333984	723.708496	936.511475	718.730225	-2.339381
869.631042	725.120300	940.226563	731.213074	2.832448
869.928101	718.507324	945.799316	732.104675	5.982327
870.224976	722.668274	949.663086	731.064453	3.698842
870.521851	725.045898	942.307068	723.039795	-0.923360
870.818726	732.253357	936.362854	710.779785	-10.520614
871.115479	727.052063	936.288574	715.609558	-5.468694
871.412231	732.699158	943.941833	712.191589	-9.708061
871.708862	730.470032	941.712708	722.296692	-3.869171
872.005493	731.138855	943.050110	724.971680	-2.910263
872.302063	724.748779	942.455627	728.835388	1.877115
872.598572	726.531982	943.198730	726.829285	0.137216
872.895020	730.692932	944.090332	725.120300	-2.611387
873.191406	734.259460	940.672546	724.748718	-4.607625
873.487671	732.179016	944.833313	726.160461	-2.830206
873.783997	735.151184	942.678650	724.228699	-5.263152
874.080200	736.414307	945.725037	719.250305	-8.200250
874.376343	734.408142	954.344177	723.485596	-4.966238
874.672424	730.024231	953.155273	727.126465	-1.298684
874.968445	720.141907	958.728027	731.733215	4.858333
875.264465	721.999512	960.065430	727.126465	2.153585
875.560364	722.742615	967.049988	728.835449	2.493922
875.856201	732.401917	964.375061	730.693054	-0.736664
876.152039	735.671204	949.143066	734.333801	-0.626501
876.447754	733.888000	950.777649	732.327637	-0.719428
876.743469	731.956116	952.932434	730.767273	-0.537996
877.039063	734.482422	962.888977	728.983948	-2.407319
877.334595	731.956238	954.344055	731.807434	-0.066912
877.630127	727.052063	945.427795	733.813660	3.096313
877.925537	721.702332	946.393738	731.510254	4.365063
878.221008	721.999512	959.916809	725.937500	1.655192
878.516296	721.256531	974.108643	724.228577	1.175409
878.811646	718.655945	981.984802	726.160461	2.849865
879.106812	719.919006	981.613281	728.686829	3.350407
879.401978	722.371033	991.718445	731.733215	3.475876
879.697083	727.795105	1010.665527	730.395813	0.919399
879.992126	727.572266	1044.176147	730.693054	0.985708
880.287109	729.132568	1081.699097	730.098572	0.273992
880.582031	727.497864	1141.141235	738.791992	2.730402
880.876892	726.829285	1255.641602	735.151062	1.573673
881.171753	726.457703	1465.695679	730.321472	0.522669
881.466492	733.293640	1784.157227	728.092285	-0.494960
881.761230	736.711487	2160.574707	733.070618	-0.255704
882.055786	731.807556	2526.812744	745.256287	0.749231
882.350403	717.318420	2775.057861	740.872375	1.144652
882.644958	717.689941	2875.738281	743.324463	1.187857
882.939453	729.504089	2826.475342	733.293518	0.180710
883.233826	735.299744	2706.847900	739.312073	0.203512
883.528137	733.145020	2567.381836	735.374023	0.121522
883.822449	730.024231	2455.630615	736.488586	0.374614
884.116577	725.714661	2333.699707	732.030457	0.392777
884.410828	727.497986	2222.468506	734.110840	0.442340
884.704956	718.804504	2075.720703	731.287354	0.919942
884.999023	721.107910	1916.044312	736.637207	1.299592
885.292969	721.553711	1722.411499	730.544373	0.898296
885.586914	722.965515	1553.001099	734.556702	1.396469
885.880798	722.593994	1423.491333	726.754883	0.593652
886.174622	718.655945	1331.133179	732.550537	2.268589
886.468384	715.386536	1251.034912	724.228577	1.650717
886.762085	718.135803	1192.187134	727.423584	1.959235
887.055664	712.711670	1156.521851	726.086121	3.013552
887.349304	712.563171	1128.138184	734.110840	5.185025
887.642822	714.717834	1108.447998	733.590759	4.793365
887.936340	717.318420	1080.881714	730.841553	3.719609
888.229736	720.364929	1057.550659	729.355530	2.666364
888.523071	716.203918	1037.711792	724.451599	2.565312
888.816284	714.494934	1023.742920	727.720886	4.276811
889.109619	719.844788	1019.359070	726.160461	2.108639
889.402710	726.309082	1012.448914	727.869446	0.545315
889.695862	732.550598	998.479980	723.559875	-3.380868
889.988892	735.968445	989.860840	717.541443	-7.257800
890.281921	743.175720	986.145691	706.173096	-15.229300
>>>>>End Processed Spectral Data<<<<<
