Jaz Data File
++++++++++++++++++++++++++++++++++++
Date: Fri Jun 04 16:50:10 2021
User: jaz
Dark Spectrum Present: Yes
Reference Spectrum Present: Yes
Processed Spectrum Present: Yes
Spectrometers: JAZA3586
Integration Time (usec): 24900 (JAZA3586)
Spectra Averaged: 10 (JAZA3586)
Boxcar Smoothing: 1 (JAZA3586)
Correct for Electrical Dark: No (JAZA3586)
Strobe/Lamp Enabled: Yes (JAZA3586)
Correct for Detector Non-linearity: No (JAZA3586)
Correct for Stray Light: No (JAZA3586)
Number of Pixels in Processed Spectrum: 2048
>>>>>Begin Processed Spectral Data<<<<<
W	D	R	S	P
191.335022	0.000000	0.000000	0.000000	0.000000
191.713211	231.155762	234.127869	234.053589	97.500771
192.091385	464.763519	467.438385	466.249603	55.557331
192.469528	701.492004	705.652893	704.984192	83.928886
192.847641	713.603333	712.860291	710.259766	449.983582
193.225739	723.857117	731.064453	726.086243	30.928568
193.603790	734.482422	738.271790	733.070618	-37.256985
193.981842	733.739441	737.900330	743.993164	246.431091
194.359863	736.117004	734.185120	747.188171	-573.075928
194.737854	737.974609	738.123230	748.005554	6749.363281
195.115829	740.500916	744.736145	747.411072	163.158951
195.493774	744.141785	746.147949	752.612244	422.221558
195.871704	743.472961	746.593750	756.847473	428.561920
196.249603	746.445068	755.361511	763.088867	186.664108
196.627457	747.188171	758.556458	749.120056	16.993633
197.005310	747.188171	764.203430	749.491516	13.536936
197.383133	750.606140	760.339783	741.392517	-94.657501
197.760910	754.246887	757.293274	742.655762	-380.487671
198.138687	752.909485	756.327393	738.494812	-421.739685
198.516449	751.943542	754.989990	733.665100	-599.992004
198.894180	745.330566	752.612305	745.107666	-3.061088
199.271866	748.154053	751.572083	747.559631	-17.390760
199.649536	744.736145	746.816650	749.788757	242.855042
200.027191	745.553467	751.051941	743.250183	-41.889507
200.404816	740.500916	744.364685	735.745544	-123.075951
200.782410	742.432800	759.448059	739.534973	-17.030756
201.159988	746.370850	763.311829	733.665039	-75.000450
201.537537	747.931152	776.314880	743.324402	-16.230251
201.915070	745.999268	771.559509	746.890930	3.488475
202.292557	737.008606	778.320984	752.017883	36.331188
202.670029	728.835388	777.726563	749.788818	42.857285
203.047485	720.885010	782.333313	743.918762	37.484764
203.424911	718.358704	770.667786	739.163391	39.772610
203.802292	723.188416	771.633789	733.813660	21.932423
204.179688	728.538147	771.930969	736.488586	18.322016
204.557037	728.835388	782.556335	742.432800	25.311192
204.934357	735.374023	782.704895	742.061279	14.128740
205.311661	737.603088	775.571777	742.061279	11.741756
205.688934	741.912659	776.091980	742.432800	1.521802
206.066177	736.191406	769.999084	751.572021	45.494446
206.443390	740.278015	775.051758	747.188171	19.871765
206.820587	744.216064	767.101318	740.055115	-18.181793
207.197769	743.101501	768.810242	737.603088	-21.387329
207.574921	737.751709	772.302429	731.436035	-18.279427
207.952042	727.052185	774.159973	727.349365	0.630851
208.329147	726.309082	773.045471	720.959290	-11.446739
208.706223	732.179016	770.073425	739.014893	18.039274
209.083267	734.036621	768.364441	751.646301	51.298569
209.460297	734.333801	767.992920	750.606140	48.344517
209.837280	723.485596	767.398499	733.888000	23.688721
210.214264	726.457703	769.479004	725.566101	-2.072465
210.591217	725.640381	767.101318	725.194580	-1.075231
210.968124	722.668274	765.912415	726.606262	9.106409
211.345016	723.188416	764.054871	728.835449	13.818262
211.721893	720.662109	770.370605	732.179016	23.168890
212.098724	717.095520	765.986755	737.528809	41.793358
212.475555	702.383606	762.048767	744.067383	69.862839
212.852356	708.773682	761.974426	739.609192	57.960674
213.229126	711.448547	765.838135	734.482422	42.349789
213.605865	725.417480	768.661621	726.011902	1.374571
213.982590	719.027527	761.602844	726.977844	18.673536
214.359283	722.445313	756.104492	733.145020	31.788378
214.735931	720.141907	760.785583	724.822998	11.517391
215.112579	718.284363	756.104492	726.086182	20.628748
215.489197	719.324646	761.825867	720.439148	2.622282
215.865799	714.049133	760.934143	730.024231	34.072933
216.242355	717.541321	764.203430	732.030457	31.051180
216.618896	722.816895	761.751465	732.253235	24.236406
216.995407	731.733215	762.866028	728.463867	-10.501294
217.371902	732.104675	764.277832	721.479431	-33.025185
217.748367	733.219238	768.736023	713.900574	-54.393055
218.124802	732.104675	763.683350	709.665283	-71.058693
218.501236	736.934387	768.067200	712.340149	-78.997803
218.877609	731.510315	760.265442	719.101746	-43.152546
219.253983	727.572266	757.516174	724.080078	-11.662431
219.630295	726.309082	750.829041	725.045959	-5.151406
220.006592	721.479431	749.342957	734.110840	45.333134
220.382889	720.142029	754.395508	734.482422	41.865509
220.759140	717.095520	761.751465	733.739441	37.271458
221.135391	717.764343	770.816406	727.943787	19.187649
221.511581	717.689941	775.497498	730.618652	22.365088
221.887772	714.420654	770.890808	738.791992	43.157909
222.263931	711.522888	761.454285	743.027161	63.095116
222.640060	704.984192	756.253113	745.999329	80.000000
223.016159	706.470276	760.785583	739.163513	60.191570
223.392212	709.145203	769.627625	737.157288	46.314423
223.768265	723.188416	774.457275	735.745605	24.492821
224.144302	723.485596	775.200378	734.705383	21.695513
224.520294	731.881836	767.918640	735.745605	10.721732
224.896286	728.389648	763.757751	729.504089	3.150977
225.272217	728.315247	766.135315	725.566101	-7.269012
225.648148	724.525818	769.701843	724.228577	-0.657962
226.024048	722.593933	772.599609	726.754883	8.320954
226.399902	718.953125	775.943359	731.287354	21.642706
226.775772	723.857178	779.064026	727.349304	6.325531
227.151581	729.206970	777.726563	725.789001	-7.044513
227.527374	734.036621	776.983582	733.144958	-2.076195
227.903137	730.395752	775.794739	734.110840	8.183196
228.278870	730.990234	779.807129	742.507080	23.591927
228.654572	736.042786	772.302490	740.723816	12.909731
229.030273	733.590759	765.912415	741.243958	23.678238
229.405930	723.782776	759.893982	737.157288	37.037010
229.781555	724.674500	762.048767	739.237793	38.966099
230.157181	724.302917	765.838135	740.352295	38.640408
230.532761	731.658875	771.262207	736.042786	11.069551
230.908325	720.885010	776.983582	732.327637	20.397358
231.283859	720.736389	776.091980	731.435974	19.328825
231.659332	713.603333	773.862793	738.717590	41.676872
232.034821	725.120300	770.816406	738.346191	28.943148
232.410263	722.668274	767.770020	736.042725	29.653954
232.785690	729.875671	768.438721	733.590759	9.633802
233.161087	724.228577	761.157043	728.463806	11.468740
233.536469	720.736328	767.472839	726.457703	12.241766
233.911804	716.501160	763.163269	729.875671	28.662468
234.287140	719.621826	766.878418	729.949951	21.855417
234.662430	724.377258	766.655457	731.584656	17.047550
235.037704	723.485596	770.890625	721.850891	-3.448378
235.412933	719.324646	778.023743	729.058289	16.582270
235.788162	718.210144	773.268372	732.253357	25.506111
236.163345	720.142029	767.027039	732.030457	25.356564
236.538513	718.953125	764.054932	727.572266	19.110411
236.913635	721.256531	774.903076	731.361633	18.836447
237.288742	723.931458	778.172363	736.488586	23.150661
237.663834	724.748779	776.017578	736.934387	23.768078
238.038879	730.024231	771.410889	729.652649	-0.897830
238.413910	727.646545	774.754456	732.996338	11.356463
238.788910	733.145020	777.800842	731.807556	-2.995048
239.163879	730.692932	778.692444	739.386414	18.111605
239.538834	735.002502	776.166199	736.860107	4.512726
239.913757	728.092346	775.200256	740.872375	27.129265
240.288651	729.578430	777.057861	736.488525	14.553871
240.663528	723.337097	777.726563	732.996338	17.759396
241.038361	729.578430	778.915466	737.528809	16.114422
241.413177	728.984070	784.190918	738.048889	16.419737
241.787979	732.327637	787.608887	741.987000	17.473127
242.162735	732.699219	789.243469	735.225403	4.467623
242.537476	731.881775	785.156921	733.367859	2.789451
242.912170	731.807556	787.237305	733.962219	3.887196
243.286865	727.869446	788.054688	736.042786	13.580306
243.661514	726.532043	789.689270	737.380188	17.176411
244.036148	730.024231	789.317810	732.253357	3.759473
244.410751	730.767273	788.128906	727.200684	-6.217726
244.785339	733.516418	786.419983	724.822998	-16.432579
245.159882	724.823059	798.977234	728.240906	4.609109
245.534378	722.222412	799.348694	734.333801	15.703323
245.908890	715.758057	795.782166	738.049011	27.855299
246.283356	716.724060	782.407654	744.810547	42.760277
246.657791	721.553711	782.779114	741.764099	33.009808
247.032196	730.024231	790.357971	736.339905	10.467897
247.406586	734.928223	803.509583	728.315247	-9.642527
247.780960	726.383362	808.710754	726.234802	-0.180450
248.155289	717.987122	818.444519	728.983948	10.946756
248.529602	717.689941	815.620911	736.340027	19.044113
248.903870	725.268860	823.794250	744.216064	19.230783
249.278122	727.869446	818.370178	747.856934	22.085443
249.652344	716.501160	814.655029	739.460693	23.391369
250.026550	713.008972	800.983337	739.609314	30.236469
250.400711	707.659180	798.679932	740.649597	36.244942
250.774857	721.033630	795.187744	745.330566	32.765461
251.148987	722.445374	795.633484	741.243958	25.685297
251.523071	726.383362	799.274414	732.253235	8.052940
251.897125	723.262695	804.475586	735.448303	15.004524
252.271164	727.200745	806.704651	730.618652	4.299044
252.645187	728.909668	806.778992	737.157227	10.591537
253.019165	729.578430	810.122620	732.327637	3.413290
253.393112	724.600098	812.277344	732.624817	9.152568
253.767044	723.336975	809.899719	736.265686	14.935653
254.140930	725.045959	806.704590	738.717590	16.742420
254.514801	726.309082	810.122559	738.940613	15.071002
254.888657	735.374023	814.060608	734.928223	-0.566552
255.262466	731.361633	814.952209	738.123230	8.088946
255.636276	734.408142	813.911926	746.296570	14.953285
256.010010	727.943787	813.837708	746.890930	22.058771
256.383759	733.144958	821.565186	738.569092	6.134494
256.757446	724.600159	823.645691	730.172852	5.626395
257.131134	723.114075	827.360840	724.154297	0.997846
257.504791	724.005676	835.162598	725.640320	1.470573
257.878418	723.857117	840.140808	731.361633	6.453628
258.252014	718.804504	848.388428	737.825989	14.678892
258.625580	711.448547	856.561768	742.209900	21.198174
258.999115	716.724060	875.731750	735.522644	11.822437
259.372650	717.318542	890.666748	736.265625	10.930071
259.746124	723.708496	902.480896	732.030334	4.654991
260.119598	733.516418	926.257751	726.457703	-3.662274
260.493042	737.900208	938.666321	719.324646	-9.252339
260.866425	730.172852	952.783752	720.513489	-4.339124
261.239838	711.448547	941.266907	730.841553	8.438406
261.613159	713.528992	925.886230	735.522644	10.356912
261.986511	715.386536	899.285828	730.544373	8.242466
262.359802	725.491699	881.824707	724.674377	-0.522808
262.733063	731.584534	879.446960	727.572266	-2.713514
263.106293	734.408142	883.087830	732.104675	-1.549281
263.479523	732.104736	890.740967	741.466797	5.901590
263.852692	721.702332	889.997986	736.934387	9.050772
264.225861	724.005676	890.815247	735.894226	7.127019
264.598969	728.612488	893.044434	731.436035	1.717153
264.972076	734.482422	900.325989	732.104736	-1.433692
265.345154	734.333801	894.604736	729.058350	-3.291584
265.718201	729.281189	896.016541	732.327637	1.827116
266.091217	732.699158	898.691406	733.962402	0.761026
266.464203	733.144958	918.976074	733.590820	0.239928
266.837158	735.671204	926.109131	728.909668	-3.550519
267.210114	726.011780	929.155579	724.154297	-0.914369
267.583038	720.959290	928.263977	731.658936	5.161314
267.955902	718.953125	932.350586	734.333801	7.207525
268.328766	715.015137	941.787048	743.621643	12.614660
268.701569	712.414551	941.341125	735.002502	9.866898
269.074371	713.751953	946.839600	732.104736	7.873769
269.447144	720.884949	951.594971	724.005798	1.352715
269.819885	722.445313	966.529785	725.417480	1.217680
270.192596	725.863281	979.384094	731.213135	2.110223
270.565277	721.627991	996.622375	731.658875	3.647669
270.937927	723.039795	1007.544861	735.076721	4.230830
271.310577	710.854065	1030.801636	731.287354	6.386449
271.683136	714.494934	1047.891235	733.665039	5.749945
272.055725	711.299988	1081.550415	737.231628	7.003811
272.428284	717.392761	1092.695801	738.717712	5.682062
272.800812	719.250305	1101.389160	741.392578	5.794301
273.173279	723.931396	1073.228516	748.154236	6.934738
273.545776	728.389587	1071.445190	741.392639	3.790363
273.918152	724.302917	1064.906616	733.813721	2.792337
274.290558	725.268860	1075.606079	724.080078	-0.339325
274.662964	724.302917	1056.213135	724.451477	0.044759
275.035278	729.801270	1054.578491	733.367859	1.098165
275.407593	725.714661	1056.064575	734.705322	2.721557
275.779907	725.863281	1070.850708	743.027161	4.975219
276.152161	723.411316	1079.395630	732.773438	2.629925
276.524384	726.977844	1103.098145	733.739319	1.797689
276.896606	722.891113	1111.717285	735.448425	3.229544
277.268799	719.919128	1122.639771	742.729980	5.664187
277.640930	721.776672	1119.370483	746.742371	6.279197
278.013031	724.971680	1133.488037	744.067444	4.674418
278.385162	726.309082	1127.246582	744.587585	4.558941
278.757233	725.789001	1133.710938	742.209900	4.025500
279.129272	726.829163	1127.618042	743.472961	4.152760
279.501282	723.559875	1138.020386	749.120056	6.167097
279.873230	729.058289	1142.850098	745.553467	3.986347
280.245178	722.668274	1156.670532	742.655762	4.605388
280.617126	728.166687	1174.205933	738.346130	2.282186
280.988983	714.420593	1199.617432	730.544250	3.323117
281.360870	717.615662	1234.762695	733.367859	3.045980
281.732697	718.953125	1270.947876	736.042786	3.095983
282.104492	728.538269	1296.731079	741.912659	2.353847
282.476288	728.389465	1313.449097	736.414307	1.371628
282.848053	724.748718	1322.662598	731.733215	1.168144
283.219757	717.318420	1323.480103	727.943787	1.752893
283.591461	719.324707	1321.250977	728.835388	1.580041
283.963135	723.262695	1319.318970	731.361633	1.358754
284.334747	723.114075	1329.349976	740.649597	2.892524
284.706360	723.188293	1350.154663	742.507080	3.081311
285.077942	724.971619	1370.588013	736.860107	1.841417
285.449524	731.881836	1402.315063	729.281189	-0.387905
285.821014	732.030457	1420.519409	727.646484	-0.636753
286.192535	727.646545	1451.355103	728.389587	0.102671
286.563995	726.383484	1465.472656	730.098572	0.502658
286.935425	722.965515	1486.871704	729.429871	0.846224
287.306824	719.770508	1484.791382	727.572266	1.019810
287.678223	726.680664	1477.806763	732.624817	0.791366
288.049561	733.739441	1457.076294	738.791931	0.698498
288.420898	730.024231	1444.667847	747.113831	2.391346
288.792145	724.748718	1441.770020	743.101501	2.559587
289.163452	721.107910	1448.457153	736.117004	2.063533
289.534668	726.011902	1472.605591	731.510254	0.736458
289.905914	726.680603	1497.348267	734.779602	1.050907
290.277039	725.045898	1535.094238	730.767273	0.706300
290.648193	731.584656	1572.914429	732.327637	0.088310
291.019318	732.699158	1598.028687	733.888000	0.137386
291.390381	730.544373	1617.570313	741.095398	1.189483
291.761475	727.126465	1609.471313	735.151184	0.909477
292.132507	714.123474	1606.127808	728.538269	1.616001
292.503510	712.265930	1582.573730	727.795166	1.784338
292.874481	714.346375	1570.239380	732.401917	2.109556
293.245422	715.386536	1574.326050	735.151123	2.301045
293.616364	723.485596	1596.022461	738.940491	1.771260
293.987213	713.380432	1635.254395	738.866272	2.764569
294.358093	716.724060	1671.291138	740.798157	2.521991
294.728943	715.163635	1716.913086	737.900391	2.269705
295.099731	720.216309	1765.358398	745.479187	2.417172
295.470490	720.736328	1793.147827	741.318176	1.919212
295.841248	720.885010	1824.354858	743.844543	2.080667
296.211975	731.287354	1840.106934	738.197510	0.623199
296.582642	735.076843	1885.803101	747.708191	1.097685
296.953308	736.860107	1931.127808	746.593689	0.815025
297.323883	734.853943	1979.498657	740.872375	0.483546
297.694519	733.070618	2011.597656	736.414246	0.261522
298.065063	733.070618	2009.739868	733.962219	0.069838
298.435608	727.497986	1988.563843	742.209900	1.166625
298.806122	726.977844	1931.573608	738.940613	0.993094
299.176575	730.692871	1875.029175	730.470032	-0.019473
299.547028	733.962219	1836.837524	722.742493	-1.017316
299.917450	734.928223	1825.692261	722.742493	-1.117174
300.287872	726.160461	1823.165894	728.686768	0.230291
300.658234	728.240967	1817.295898	732.401917	0.382070
301.028564	732.847717	1812.317749	730.841614	-0.185842
301.398865	737.825989	1815.586914	736.117126	-0.158557
301.769135	729.504089	1809.791382	733.219238	0.343904
302.139374	722.148132	1811.500366	736.637146	1.330058
302.509583	712.488770	1810.088501	734.259460	1.983482
302.879791	711.076965	1809.940063	737.528809	2.407201
303.249939	707.733398	1799.983398	736.934387	2.673471
303.620087	717.838562	1789.209595	736.117004	1.706079
303.990173	721.330811	1775.760742	737.900330	1.571420
304.360260	720.290527	1785.123047	740.278015	1.877055
304.730286	722.668274	1782.819702	741.838379	1.808242
305.100281	722.519592	1798.125977	735.522644	1.208904
305.470276	735.968445	1800.875000	729.058289	-0.648898
305.840179	731.361633	1820.119507	734.556702	0.293460
306.210144	726.829285	1836.540405	734.333801	0.676259
306.579987	720.290588	1852.663940	738.791992	1.633861
306.949890	712.934631	1870.868164	735.596985	1.957138
307.319702	725.491760	1886.323120	741.764099	1.401783
307.689484	729.652771	1911.660278	746.147949	1.395522
308.059265	737.825989	1935.288696	739.906555	0.173748
308.429016	727.349365	1967.907593	738.346191	0.886442
308.798737	723.411316	2000.526489	734.853943	0.895975
309.168396	723.634277	2049.046143	733.144958	0.717564
309.538055	726.011902	2088.575195	730.395691	0.321731
309.907684	725.863281	2122.308594	724.822998	-0.074495
310.277313	723.039795	2149.428955	736.117004	0.916805
310.646851	727.275085	2172.017334	737.825989	0.730297
311.016388	728.686829	2186.134766	744.959045	1.116487
311.385895	724.525879	2176.549561	740.723816	1.115542
311.755371	727.646484	2178.778809	739.237793	0.798777
312.124817	731.584534	2176.772461	736.117004	0.313625
312.494232	733.144958	2178.852783	732.996338	-0.010280
312.863617	733.813660	2163.398193	734.853943	0.072768
313.232971	732.104675	2149.800781	734.110840	0.141509
313.602295	741.095398	2141.627441	741.615479	0.037135
313.971619	738.271790	2153.441406	741.318298	0.215275
314.340820	737.677429	2161.763428	743.844543	0.433058
314.710083	722.742615	2190.369873	736.785828	0.956865
315.079285	716.649719	2216.450195	738.420410	1.451572
315.448486	716.278259	2255.013428	744.810547	1.854269
315.817596	725.268860	2255.756348	750.754700	1.665210
316.186707	730.544373	2227.892822	740.872498	0.689761
316.555786	729.652649	2188.066650	732.699158	0.208892
316.924866	726.309082	2146.605469	726.977844	0.047086
317.293884	714.717834	2128.772949	737.900330	1.639434
317.662872	712.488770	2122.754395	739.757874	1.933615
318.031830	715.609558	2140.735596	738.049011	1.574559
318.400757	726.309082	2149.280518	729.727051	0.240199
318.769684	727.720764	2160.277344	731.807556	0.285280
319.138550	721.999512	2182.791016	732.401917	0.712107
319.507416	717.764343	2212.511963	736.414307	1.247700
319.876190	715.163635	2229.675781	735.076843	1.314826
320.244995	722.891113	2222.022949	740.872375	1.199445
320.613770	725.640320	2197.800293	745.479187	1.347603
320.982483	736.042786	2178.630127	749.714417	0.947716
321.351166	735.745544	2161.391846	740.352356	0.323138
321.719818	732.847717	2159.682861	740.203796	0.515552
322.088440	725.491760	2157.082275	734.779602	0.648778
322.457062	721.479492	2179.893066	735.819824	0.983283
322.825623	721.256531	2214.740967	735.596924	0.960197
323.194183	714.569336	2254.790283	730.990173	1.066135
323.562653	712.340271	2298.183105	733.367859	1.325957
323.931183	710.705566	2351.978271	734.631042	1.457739
324.299591	715.981018	2422.343018	740.798157	1.454389
324.668060	720.662109	2479.556396	742.952942	1.267321
325.036407	725.268799	2521.908936	742.507141	0.959477
325.404755	725.640381	2539.889893	743.101563	0.962447
325.773102	725.863281	2553.264404	740.575195	0.805073
326.141388	720.885010	2552.967285	737.825989	0.924684
326.509674	722.816895	2558.837158	738.791992	0.870094
326.877899	728.240967	2567.902100	738.420410	0.553333
327.246124	731.807434	2588.632568	740.352295	0.460187
327.614288	728.463867	2586.849121	739.534973	0.595738
327.982422	717.764343	2577.858643	742.581360	1.334181
328.350525	716.278259	2549.846436	741.318176	1.365639
328.718628	712.637390	2538.106445	741.318176	1.571146
329.086700	712.191589	2529.264648	745.181946	1.815577
329.454712	713.528992	2548.211914	739.832214	1.433666
329.822693	719.101746	2563.741211	742.358582	1.260780
330.190674	724.080017	2591.381836	735.745605	0.624730
330.558563	724.674500	2599.332031	745.702148	1.121680
330.926483	722.593933	2622.291504	746.965271	1.282906
331.294312	718.432922	2634.700195	752.463684	1.775888
331.662231	716.278259	2673.634766	751.720642	1.810727
332.029999	717.169861	2723.417725	737.528809	1.014777
332.397766	720.736511	2773.126221	736.562805	0.771115
332.765503	718.061523	2805.001953	734.408142	0.783282
333.133240	723.559875	2839.701416	741.912659	0.867276
333.500916	721.999512	2883.391357	739.980774	0.831930
333.868561	733.219238	2942.610596	739.014893	0.262319
334.236176	722.148132	2982.288330	738.866211	0.739692
334.603790	723.336975	2993.433594	733.516418	0.448415
334.971344	723.708496	2979.241943	735.671204	0.530372
335.338867	734.110901	2963.712646	734.928223	0.036658
335.706360	736.117004	2971.365967	741.169617	0.226042
336.073853	731.213074	2979.613281	738.123230	0.307337
336.441284	728.092285	2987.266602	744.513184	0.726854
336.808655	728.018066	2971.365967	745.479187	0.778351
337.176086	723.188416	2945.805664	746.222168	1.036335
337.543396	729.355469	2874.995361	744.661865	0.713372
337.910706	728.983948	2816.072998	743.398743	0.690665
338.277954	732.476257	2820.234131	740.426697	0.380812
338.645264	724.377258	2892.158936	734.705383	0.476438
339.012421	723.634216	3011.489258	734.779602	0.487154
339.379669	721.776672	3126.732666	731.064453	0.386193
339.746796	720.439209	3225.481201	736.265686	0.631785
340.113953	716.352539	3306.842529	731.584656	0.588001
340.481018	719.770508	3336.117920	745.999329	1.002498
340.848114	721.776672	3343.102295	741.169678	0.739817
341.215118	726.903564	3346.966064	753.949707	1.032271
341.582153	719.696106	3355.436523	745.850647	0.992303
341.949066	718.358704	3377.578857	747.559570	1.098099
342.316010	717.244141	3386.123779	740.649597	0.876977
342.682922	723.708496	3404.699219	737.974609	0.532121
343.049835	724.525879	3420.080078	736.562805	0.446547
343.416656	728.686768	3457.379883	733.293518	0.168826
343.783478	721.256531	3500.698486	740.575195	0.695056
344.150269	722.073914	3609.552002	740.278015	0.630450
344.516998	718.358704	3731.631592	745.627747	0.904964
344.883728	729.281250	3851.407227	741.392578	0.387919
345.250427	738.717712	3922.812256	750.234558	0.361699
345.617065	740.872375	3941.610596	748.599915	0.241430
345.983704	738.643311	3939.530273	751.349121	0.396947
346.350281	727.646484	3937.449951	739.906494	0.381955
346.716827	728.909668	3887.444092	742.284180	0.423440
347.083405	727.423645	3852.298828	743.027161	0.499332
347.449860	733.962341	3795.531494	753.652527	0.643140
347.816376	729.578430	3767.965088	750.160217	0.677392
348.182770	722.668274	3733.711670	745.330566	0.752639
348.549194	717.912903	3712.164063	746.222351	0.945460
348.915558	722.742615	3739.210205	746.890930	0.800550
349.281921	730.618652	3753.550537	749.045715	0.609576
349.648193	732.550476	3783.717041	743.175781	0.348237
350.014526	732.179016	3803.259033	739.386414	0.234686
350.380737	729.578430	3861.809570	739.089172	0.303641
350.746948	726.680664	3925.115479	740.798096	0.441386
351.113159	726.457703	3991.616455	741.318176	0.455123
351.479309	730.767273	4037.089844	738.569031	0.235965
351.845428	728.240967	4057.002686	730.990234	0.082591
352.211517	723.188293	4083.157471	731.807434	0.256524
352.577576	718.061523	4118.896973	737.454529	0.570242
352.943604	724.005676	4179.453613	745.999329	0.636492
353.309601	723.262695	4231.763184	745.181946	0.624747
353.675537	723.262695	4310.672363	740.129395	0.470164
354.041473	723.336975	4401.916504	745.404968	0.599905
354.407379	716.872742	4500.516113	748.674255	0.840500
354.773254	715.609558	4598.001465	746.890930	0.805724
355.139038	715.312317	4684.267090	739.089172	0.599071
355.504913	726.160461	4782.420410	738.569153	0.305915
355.870636	728.240967	4876.265137	742.358582	0.340346
356.236389	725.417480	4985.786621	737.900330	0.292999
356.602081	725.863281	5117.376953	742.878601	0.387459
356.967804	726.754883	5250.527344	743.695984	0.374491
357.333405	727.349365	5384.792480	752.983704	0.550395
357.699036	728.909729	5531.316895	750.903320	0.457970
358.064606	726.234863	5683.787109	755.510071	0.590517
358.430176	723.634216	5804.603027	745.627869	0.432863
358.795654	717.764343	5856.614746	741.764099	0.467026
359.161163	715.535217	5840.193848	732.104736	0.323329
359.526581	720.884949	5804.008301	734.705322	0.271887
359.892029	727.720886	5803.414063	734.333801	0.130286
360.257416	733.219238	5889.605469	740.055176	0.132572
360.622772	731.807434	6079.820313	740.500916	0.162555
360.988098	722.668274	6338.839844	737.974609	0.272540
361.353394	720.290527	6620.446777	736.265625	0.270757
361.718658	711.597168	6894.475098	736.265625	0.398980
362.083893	714.643616	7115.971191	740.575195	0.405097
362.449097	715.460938	7268.068848	740.129395	0.376468
362.814209	725.268860	7276.465332	738.271790	0.198482
363.179382	725.566101	7095.909668	742.952881	0.272933
363.544434	734.259460	6775.665527	748.822815	0.241059
363.909546	728.761169	6403.333984	754.841370	0.459598
364.274536	724.674500	6121.800781	749.120056	0.452937
364.639587	713.826233	5915.239746	744.884766	0.597117
365.004517	717.615723	5774.436035	745.776367	0.556884
365.369507	720.736389	5684.529297	746.742371	0.523914
365.734344	721.256531	5624.715332	749.194336	0.569757
366.099274	728.092468	5604.505371	742.507141	0.295600
366.464081	726.309082	5567.057129	746.222229	0.411365
366.828918	724.674500	5567.948730	734.853821	0.210174
367.193665	716.426819	5580.505859	740.426575	0.493408
367.558411	723.411316	5617.136719	734.779602	0.232303
367.923126	730.618652	5612.158691	735.671204	0.103503
368.287781	738.866211	5594.103027	729.578430	-0.191294
368.652435	734.556702	5552.791016	732.179016	-0.049348
369.017059	728.686707	5532.357910	735.745544	0.146947
369.381653	723.857117	5509.101074	745.627747	0.454953
369.746185	719.919128	5503.899902	745.107727	0.526520
370.110687	725.120300	5533.323730	747.039551	0.455872
370.475220	730.544373	5573.595703	745.553528	0.309911
370.839661	740.649597	5630.957520	745.850647	0.106354
371.204041	740.500977	5676.505371	743.621582	0.063221
371.568451	737.677429	5732.900879	734.482361	-0.063962
371.932770	729.132629	5774.658691	735.299744	0.122229
372.297150	724.154297	5816.193848	740.352234	0.318103
372.661377	720.439209	5835.958496	748.451355	0.547591
373.025696	719.176086	5876.378906	751.051941	0.618084
373.389862	722.593994	5860.181641	754.395508	0.618997
373.754059	719.770508	5865.828125	748.971436	0.567443
374.118225	719.919128	5878.162598	745.702148	0.499841
374.482361	721.033630	5939.907715	745.256287	0.464136
374.846436	720.662109	6013.096191	748.451355	0.525075
375.210510	722.593933	6109.244141	741.020996	0.342088
375.574524	717.987122	6210.592285	731.361633	0.243500
375.938538	721.627991	6352.362793	733.219238	0.205857
376.302460	717.392761	6478.230957	741.318298	0.415313
376.666412	722.073914	6648.681641	748.377014	0.443814
377.030304	722.668274	6786.364746	744.438965	0.359033
377.394196	726.754944	6937.942871	740.426575	0.220113
377.757996	720.959290	7061.730469	738.271790	0.273035
378.121796	720.290588	7141.828125	742.209900	0.341341
378.485565	722.371094	7159.140625	744.736145	0.347458
378.849304	730.395752	7070.349609	745.330566	0.235567
379.212982	728.612488	6937.496094	738.643372	0.161557
379.576630	735.968445	6773.361816	735.522644	-0.007384
379.940277	730.470032	6665.325684	744.513367	0.236625
380.303864	734.705383	6576.979980	749.045715	0.245458
380.667450	733.888000	6537.896484	750.828918	0.291883
381.030945	732.550598	6508.026855	745.107727	0.217422
381.394501	727.052185	6539.382813	748.377014	0.366889
381.757935	728.315247	6543.840332	756.178772	0.479123
382.121399	727.869446	6563.531250	752.315125	0.418902
382.484741	731.361633	6589.462402	754.321289	0.391930
382.848145	721.553711	6658.489746	749.863037	0.476834
383.211487	725.045959	6727.071777	750.903320	0.430811
383.574768	724.600098	6844.767090	746.667969	0.360576
383.938019	724.005676	6923.007324	746.519470	0.363184
384.301270	716.501160	7033.792969	746.667969	0.477528
384.664459	713.380432	7077.928223	745.107666	0.498499
385.027649	714.940735	7137.296387	753.949707	0.607394
385.390778	719.696106	7208.478516	760.116882	0.622933
385.753876	723.039795	7248.007813	764.723572	0.638835
386.116943	721.999512	7306.410156	755.435730	0.507809
386.479980	721.479431	7310.793457	757.516174	0.546897
386.842987	716.501160	7368.898438	754.915588	0.577452
387.205994	723.336975	7425.962402	757.887756	0.515481
387.568909	726.606262	7489.862793	756.773193	0.446042
387.931793	727.943665	7537.861816	763.906250	0.528091
388.294678	725.788879	7566.914551	765.689514	0.583247
388.657471	722.296692	7585.861816	767.770020	0.662532
389.020294	722.519714	7569.664063	768.735901	0.674970
389.383057	721.776611	7583.112793	776.760559	0.801359
389.745819	721.405090	7589.502441	780.624451	0.862238
390.108521	722.445313	7611.496094	786.642883	0.931878
390.471191	715.238037	7672.424316	799.645813	1.213246
390.833801	717.987122	7791.383301	818.072937	1.414961
391.196442	722.296692	7989.103027	831.150208	1.497955
391.558960	727.126404	8180.878906	836.722961	1.470354
391.921509	728.463867	8367.081055	843.930359	1.511615
392.284027	728.686768	8540.131836	854.927063	1.616094
392.646484	731.584656	8648.019531	876.400574	1.829307
393.008911	728.018066	8656.267578	889.106384	2.031827
393.371307	722.816895	8610.200195	892.970032	2.157282
393.733673	719.547546	8532.702148	905.081482	2.374635
394.096008	721.999573	8510.708008	930.715881	2.679729
394.458344	723.039795	8518.806641	973.662903	3.214862
394.820587	730.024231	8555.661133	990.083801	3.323174
395.182831	728.166687	8570.966797	1009.253906	3.584016
395.545013	727.052185	8521.629883	1026.714966	3.844503
395.907196	720.142029	8410.399414	1056.733276	4.376853
396.269287	723.782776	8284.753906	1088.089111	4.818248
396.631409	731.287354	8156.209473	1109.934082	5.099673
396.993469	737.305847	8051.145996	1137.797607	5.475807
397.355530	738.569092	7976.768066	1149.165894	5.672637
397.717499	730.915955	7951.654297	1186.465820	6.308910
398.079468	731.287415	7959.679199	1224.286011	6.820308
398.441376	725.863281	7957.152344	1268.124512	7.498818
398.803284	727.274963	7981.300781	1303.641235	7.945467
399.165131	717.169861	7995.121094	1334.551147	8.482900
399.526978	723.114014	8004.707031	1370.290649	8.887844
399.888763	727.423584	8000.992188	1400.903687	9.259280
400.250519	734.036621	8007.381348	1434.562622	9.631414
400.612244	726.309082	8056.198730	1475.354858	10.219059
400.973938	722.445313	8037.474121	1520.605103	10.911232
401.335602	719.027405	8049.584473	1562.883423	11.511485
401.697205	715.609558	8082.724121	1610.214355	12.143218
402.058807	708.550781	8181.621094	1653.235718	12.641189
402.420349	706.544617	8292.406250	1703.984375	13.148667
402.781860	713.306152	8402.969727	1743.364746	13.395366
403.143341	719.844727	8519.921875	1784.008301	13.642988
403.504822	727.943787	8640.218750	1841.444336	14.073076
403.866241	731.881775	8803.683594	1900.143555	14.473370
404.227631	728.092285	8986.839844	1959.659790	14.912278
404.588959	719.473206	9200.682617	2007.362305	15.185207
404.950287	716.724060	9346.910156	2063.980957	15.610982
405.311554	721.182129	9442.092773	2126.320801	16.112293
405.672821	724.525818	9454.352539	2179.001221	16.660986
406.034027	727.646545	9436.520508	2211.694580	17.040642
406.395203	728.983948	9363.925781	2227.967041	17.359507
406.756348	727.497986	9300.842773	2246.988525	17.723427
407.117493	726.680664	9232.113281	2270.096680	18.146238
407.478516	725.268860	9209.004883	2295.805420	18.512321
407.839600	721.405090	9192.731445	2316.312744	18.827131
408.200592	715.015137	9192.211914	2339.049561	19.157681
408.561554	715.981018	9167.617188	2358.294189	19.431898
408.922485	720.439209	9178.764648	2392.621826	19.769667
409.283417	727.943848	9198.973633	2429.996338	20.092628
409.644257	728.018066	9322.836914	2486.317627	20.457670
410.005096	731.510254	9466.910156	2526.664307	20.550335
410.365906	722.371094	9609.347656	2571.840088	20.811003
410.726715	722.148132	9694.202148	2601.486816	20.946583
411.087433	717.541321	9767.910156	2639.009766	21.230831
411.448120	719.770508	9826.163086	2673.188721	21.451065
411.808807	716.872742	9848.231445	2708.185547	21.807409
412.169434	717.838562	9769.991211	2712.643555	22.036802
412.530029	715.683777	9723.402344	2723.491699	22.289860
412.890564	712.860352	9693.086914	2736.866455	22.538475
413.251099	712.340149	9710.845703	2761.757813	22.775089
413.611572	717.912903	9743.242188	2787.094971	22.926390
413.972076	720.959290	9800.008789	2812.060547	23.032160
414.332489	730.544250	9864.799805	2843.490967	23.132118
414.692871	734.408020	10000.477539	2883.094482	23.188759
415.053223	733.145020	10131.250000	2927.229736	23.346031
415.413574	722.593994	10338.257813	2996.405518	23.646952
415.773834	719.770447	10481.215820	3051.761475	23.889812
416.134094	725.491699	10626.403320	3106.670898	24.050098
416.494263	733.219238	10754.278320	3150.880859	24.125811
416.854462	734.482422	11017.235352	3218.347900	24.155647
417.214630	731.881836	11325.518555	3301.789795	24.258978
417.574738	733.070618	11663.668945	3385.900635	24.269760
417.934784	730.024231	11917.487305	3468.153564	24.474981
418.294861	723.411316	12244.198242	3570.914795	24.716223
418.654846	715.015076	12632.726563	3678.727783	24.868135
419.014832	717.169861	13107.817383	3797.537842	24.860428
419.374756	729.727051	13603.343750	3911.815674	24.717907
419.734680	735.671204	14113.208008	4046.452148	24.748808
420.094543	724.302917	14608.213867	4182.574707	24.908484
420.454376	715.015076	15033.967773	4307.180664	25.086788
420.814148	708.773682	15492.860352	4423.761230	25.128284
421.173920	717.392761	15957.327148	4555.351074	25.183561
421.533691	719.547546	16436.951172	4690.062012	25.261898
421.893341	727.572266	16781.642578	4793.788574	25.328259
422.253021	723.114075	17021.416016	4876.339355	25.482563
422.612640	729.652771	17087.841797	4918.171387	25.605026
422.972260	718.655945	17047.792969	4921.218262	25.736588
423.331757	719.250305	16936.562500	4902.865234	25.797215
423.691315	715.237976	16925.789063	4908.958008	25.870314
424.050781	720.364929	17077.587891	4966.022949	25.955862
424.410248	725.268860	17235.111328	5003.248535	25.911694
424.769653	725.640381	17394.267578	5051.916504	25.954605
425.128998	723.782898	17379.037109	5084.312500	26.181107
425.488373	720.885071	17286.751953	5076.361816	26.291872
425.847656	717.392822	17063.396484	5040.102051	26.445051
426.206940	726.011902	16859.660156	4981.402832	26.375875
426.566193	726.754883	16520.837891	4906.951660	26.466854
426.925385	728.315247	16211.515625	4838.296387	26.544777
427.284576	729.578369	15750.317383	4745.640625	26.736782
427.643677	737.454529	15409.194336	4670.297363	26.805565
428.002777	738.271790	15044.293945	4574.000977	26.811989
428.361847	727.200745	14703.023438	4491.004883	26.930824
428.720856	724.377258	14409.081055	4416.107910	26.977058
429.079865	721.553711	14161.208008	4360.157715	27.073643
429.438812	726.754883	14009.703125	4329.916504	27.126219
429.797760	713.900574	13914.075195	4317.805176	27.301945
430.156616	716.798340	13761.606445	4283.254395	27.340042
430.515503	717.467041	13677.793945	4259.625977	27.330784
430.874268	726.977844	13600.890625	4263.935547	27.473837
431.233093	724.674377	13647.254883	4290.387695	27.592890
431.591827	720.736328	13680.245117	4316.765137	27.748188
431.950562	722.296692	13704.468750	4336.529785	27.839973
432.309204	726.680664	13747.859375	4347.229004	27.805073
432.667877	726.457703	13885.320313	4375.687500	27.732107
433.026459	725.343079	14029.171875	4402.287598	27.638243
433.385010	718.284424	14180.600586	4455.265137	27.758823
433.743561	715.089355	14333.515625	4503.190918	27.816002
434.102051	715.089417	14486.281250	4583.883301	28.093386
434.460510	722.891113	14657.104492	4631.734375	28.052128
434.818939	728.761047	14704.583008	4653.356934	28.081324
435.177338	724.897278	14737.796875	4655.882813	28.052622
435.535675	728.612549	14642.838867	4653.282715	28.206169
435.894012	733.813660	14586.441406	4664.502441	28.375040
436.252289	735.374023	14605.983398	4656.774902	28.271296
436.610535	726.160461	14626.120117	4668.365723	28.361271
436.968719	726.606262	14759.195313	4696.526367	28.290718
437.326935	727.423645	14846.351563	4728.625488	28.339275
437.685028	726.829285	14988.864258	4758.271973	28.266953
438.043152	726.606262	15096.231445	4789.553711	28.274555
438.401215	721.107910	15333.778320	4853.974121	28.282759
438.759277	727.720886	15545.987305	4936.821777	28.404814
439.117249	721.776611	15909.549805	5049.166504	28.492588
439.475250	724.971680	16198.586914	5158.094238	28.649559
439.833130	715.386536	16624.341797	5268.137207	28.617533
440.191071	718.210144	16917.242188	5364.284668	28.681187
440.548889	721.702332	17181.761719	5450.476074	28.728779
440.906708	731.361633	17513.521484	5541.942871	28.664850
441.264496	728.835388	17729.447266	5591.874512	28.605083
441.622223	727.646484	17908.962891	5652.356934	28.663174
441.979950	722.445313	17892.244141	5671.080566	28.821743
442.337616	722.668213	17867.203125	5684.380859	28.940493
442.695251	722.222412	17743.712891	5633.632324	28.854172
443.052887	724.377197	17573.113281	5597.818359	28.924669
443.410461	718.210144	17427.330078	5556.729004	28.957355
443.768005	713.008972	17256.804688	5539.193848	29.172176
444.125458	707.882019	17167.791016	5500.630371	29.117712
444.482941	713.380371	17198.478516	5511.479004	29.105673
444.840393	712.117249	17360.236328	5537.558594	28.984905
445.197754	711.820068	17633.447266	5651.316406	29.190432
445.555084	709.813904	17877.679688	5744.492188	29.326176
445.912415	719.473206	18255.806641	5861.816406	29.323935
446.269714	722.296692	18555.916016	5934.930176	29.229252
446.626953	724.971619	18898.970703	6051.659668	29.309387
446.984161	723.485535	19195.513672	6162.445313	29.444304
447.341309	719.770447	19413.666016	6257.775391	29.624668
447.698456	717.690002	19567.326172	6313.947754	29.688942
448.055542	710.705566	19634.123047	6348.870605	29.794643
448.412598	721.776611	19591.103516	6328.065918	29.711124
448.769653	724.674377	19456.466797	6298.567871	29.756327
449.126617	732.476257	19163.265625	6231.992188	29.838745
449.483582	727.200684	18906.476563	6193.503418	30.068871
449.840515	724.525879	18551.382813	6097.058594	30.137295
450.197388	723.634216	18293.849609	6029.220215	30.196478
450.554230	724.748718	18093.457031	5968.960938	30.193449
450.911041	733.219238	17917.285156	5947.338379	30.342754
451.267822	735.151184	17796.394531	5905.506348	30.304678
451.624573	736.191406	17627.207031	5847.772949	30.262133
451.981262	731.807434	17557.880859	5801.333984	30.128990
452.337921	728.166687	17414.253906	5788.033203	30.323864
452.694580	723.485596	17306.439453	5785.507324	30.525452
453.051147	719.621826	17285.117188	5788.775879	30.600679
453.407715	722.668274	17201.005859	5755.488770	30.542038
453.764221	735.002502	17218.095703	5760.021484	30.485897
454.120728	743.472961	16996.003906	5708.009277	30.546234
454.477142	737.974670	16925.119141	5711.575684	30.725624
454.833557	732.996399	16739.882813	5667.439941	30.827002
455.189911	733.293640	16607.623047	5643.143066	30.929493
455.546265	735.745544	16415.328125	5595.291504	30.992826
455.902557	730.098572	16301.868164	5553.459473	30.975033
456.258820	726.680664	16279.725586	5540.902344	30.953564
456.615051	723.188416	16375.500977	5545.806641	30.810900
456.971252	727.795166	16333.743164	5561.261719	30.971952
457.327393	719.547546	16536.515625	5627.167969	31.027569
457.683502	724.377258	16755.041016	5709.347168	31.096464
458.039612	715.906738	17206.802734	5843.834473	31.095507
458.395630	718.358704	17605.880859	5979.363281	31.153206
458.751648	715.758057	18088.476563	6118.978027	31.101751
459.107605	727.126404	18768.494141	6335.198730	31.084518
459.463562	735.151062	19462.111328	6533.437988	30.962242
459.819458	742.284180	20081.796875	6745.052246	31.038881
460.175323	731.881836	20584.306641	6907.626465	31.108261
460.531158	725.863281	21093.875000	7086.696777	31.229527
460.886932	721.702332	21369.460938	7209.816406	31.422852
461.242676	728.092346	21472.521484	7258.335938	31.479504
461.598419	729.355469	21226.726563	7212.044922	31.626932
461.954102	731.287415	20816.351563	7092.120605	31.669468
462.309723	723.559875	20163.751953	6912.456543	31.835573
462.665344	726.383362	19467.904297	6715.183105	31.954716
463.020905	725.789063	18905.138672	6549.339355	32.033875
463.376373	735.076904	18504.275391	6410.169922	31.937809
463.731873	736.711487	18188.859375	6307.037598	31.917709
464.087341	737.231628	17929.544922	6212.895996	31.849495
464.442749	731.287415	17784.431641	6188.376465	32.000484
464.798126	726.977844	17661.458984	6158.803223	32.075535
465.153503	725.343079	17741.931641	6183.323730	32.074471
465.508820	723.262695	17792.751953	6191.720215	32.036446
465.864105	720.141907	17995.376953	6241.428223	31.960701
466.219330	723.114075	18263.310547	6341.439941	32.031143
466.574524	726.903503	18498.255859	6412.101563	31.990805
466.929657	728.761047	18660.830078	6477.933594	32.060844
467.284790	726.903503	18791.306641	6521.847168	32.079357
467.639893	724.971680	18899.490234	6564.050781	32.127831
467.994934	726.309082	19064.740234	6633.746582	32.213428
468.349945	721.405090	19088.814453	6646.304199	32.257671
468.704926	728.166687	19063.552734	6657.821777	32.339951
469.059875	728.092346	18834.328125	6602.019531	32.441460
469.414764	727.052063	18603.248047	6549.562500	32.571304
469.769653	720.959290	18386.283203	6482.540527	32.615200
470.124451	727.646545	18328.474609	6441.005371	32.460739
470.479248	732.773438	18199.335938	6394.492188	32.414612
470.834015	738.643311	18134.841797	6374.058594	32.394520
471.188721	726.903503	18144.800781	6404.002441	32.593483
471.543365	724.377258	18238.273438	6447.767090	32.679134
471.898010	718.730225	18403.669922	6515.605469	32.778595
472.252625	725.417480	18593.882813	6559.443848	32.649845
472.607178	728.983948	18892.951172	6652.396973	32.610790
472.961700	730.841614	19100.478516	6706.712402	32.531239
473.316193	732.922058	19355.412109	6793.349121	32.543591
473.670654	727.423645	19476.228516	6850.710938	32.659615
474.025055	723.782776	19685.390625	6935.044434	32.757042
474.379456	716.649719	19837.265625	6998.275879	32.852634
474.733795	717.987122	20004.894531	7038.622559	32.771637
475.088104	723.411316	20110.404297	7072.801270	32.750774
475.442383	721.999512	20130.242188	7084.541504	32.782681
475.796570	722.073792	20215.541016	7134.845215	32.897030
476.150787	719.621826	20424.404297	7192.429688	32.848915
476.504944	723.559875	20676.441406	7283.599121	32.877655
476.859070	726.011902	20990.443359	7358.347168	32.728951
477.213135	733.962219	21237.500000	7447.658691	32.744087
477.567200	732.624817	21680.419922	7573.676270	32.657619
477.921173	727.720764	22041.455078	7722.281738	32.817154
478.275146	722.222412	22530.740234	7880.769531	32.824547
478.629089	725.566101	22828.693359	7980.855469	32.824718
478.983002	731.584656	23268.791016	8084.433594	32.625378
479.336823	732.922058	23616.156250	8209.039063	32.670719
479.690643	728.538086	24051.421875	8356.827148	32.707317
480.044403	725.194519	24514.474609	8529.729492	32.806942
480.398163	722.816895	25201.923828	8750.631836	32.794556
480.751862	725.417480	26082.632813	9034.988281	32.770042
481.105499	724.674500	27200.740234	9399.961914	32.766525
481.459137	724.525818	28618.583984	9893.852539	32.871971
481.812744	718.581726	30452.226563	10460.931641	32.765408
482.166290	719.176086	32665.482422	11161.160156	32.686047
482.519806	720.810730	35371.066406	12024.038086	32.620907
482.873291	723.708496	38503.222656	13066.432617	32.670414
483.226715	732.847717	42079.785156	14272.661133	32.746834
483.580139	731.287415	45594.375000	15519.981445	32.964058
483.933502	730.693054	48887.843750	16847.546875	33.467205
484.286804	726.754883	51570.917969	18082.830078	34.135822
484.640106	727.646545	53594.550781	19135.847656	34.819897
484.993347	735.151123	54710.730469	19811.259766	35.342113
485.346558	735.894104	54907.035156	20043.976563	35.642746
485.699738	723.411316	54248.488281	19780.572266	35.604172
486.052887	717.095520	52953.468750	19192.093750	35.368073
486.405975	705.429993	51405.519531	18412.880859	34.925877
486.759064	715.015137	49808.609375	17648.009766	34.491249
487.112061	722.668274	48518.566406	16995.634766	34.046783
487.464996	733.442139	47738.386719	16622.783203	33.803551
487.817963	737.528809	47610.285156	16541.197266	33.716103
488.170868	730.990173	47694.839844	16590.013672	33.768574
488.523743	730.098572	47794.480469	16633.482422	33.790699
488.876587	725.268860	47515.769531	16602.496094	33.932587
489.229401	728.315247	47021.363281	16488.144531	34.043621
489.582153	731.287354	46169.480469	16233.065430	34.116188
489.934845	728.835388	45181.253906	15829.898438	33.971298
490.287537	722.445313	44102.605469	15422.347656	33.886234
490.640198	716.649719	43260.828125	15119.340820	33.853493
490.992798	709.219482	42644.265625	14860.989258	33.746880
491.345337	710.482605	42541.355469	14798.351563	33.678162
491.697876	711.299988	42677.328125	14802.885742	33.578556
492.050354	721.999573	43103.007813	15007.664063	33.707703
492.402832	716.501160	43317.148438	15105.000000	33.775307
492.755219	715.460938	43127.082031	15116.963867	33.956501
493.107605	715.758118	42369.269531	14916.493164	34.092529
493.459930	726.754883	41144.910156	14518.305664	34.122166
493.812225	731.807434	39428.964844	13921.135742	34.083454
494.164490	734.556641	37456.523438	13240.893555	34.056828
494.516724	733.144958	35399.824219	12537.395508	34.050713
494.868896	726.829285	33572.417969	11920.534180	34.079781
495.221039	728.315247	32195.218750	11398.112305	33.907997
495.573120	722.296692	31157.287109	11022.065430	33.841866
495.925201	731.213074	30565.687500	10778.128906	33.675526
496.277222	732.476257	30169.953125	10662.812500	33.733654
496.629211	740.723816	30031.005859	10611.023438	33.698208
496.981140	736.191345	29952.390625	10608.348633	33.790012
497.333069	736.637207	30074.843750	10610.206055	33.654301
497.684967	738.940613	30129.009766	10637.176758	33.678848
498.036804	738.346130	30205.837891	10656.941406	33.659451
498.388580	732.179016	30068.302734	10663.851563	33.854755
498.740326	728.612488	29900.453125	10647.430664	34.001347
499.092072	727.646484	29606.587891	10560.719727	34.049286
499.443756	728.761047	29316.134766	10445.402344	33.989277
499.795410	724.451477	28996.337891	10309.206055	33.902069
500.147003	726.160461	28609.000000	10204.736328	33.994301
500.498566	718.804504	28222.255859	10088.303711	34.066631
500.850098	719.993347	27850.742188	9976.848633	34.119427
501.201599	717.987122	27556.576172	9856.404297	34.049541
501.553009	721.776672	27215.156250	9751.414063	34.082619
501.904449	716.352539	26933.771484	9648.875977	34.070950
502.255859	714.271973	26741.031250	9583.713867	34.078163
502.607178	714.717834	26646.070313	9551.168945	34.076324
502.958405	716.501160	26598.072266	9550.426758	34.132111
503.309692	717.244141	26527.556641	9522.488281	34.115215
503.660919	722.593994	26559.138672	9515.875000	34.034275
504.012115	732.401917	26577.117188	9509.559570	33.961128
504.363251	733.219238	26680.843750	9559.713867	34.016579
504.714294	729.578430	26748.537109	9584.753906	34.033550
505.065369	717.764343	26828.853516	9621.979492	34.101276
505.416443	720.810730	26849.140625	9607.192383	34.010525
505.767395	720.364807	26849.361328	9623.167969	34.072502
506.118317	735.596924	26804.556641	9601.768555	34.010456
506.469238	736.340027	26791.630859	9635.577148	34.155201
506.820160	734.110840	26781.375000	9643.006836	34.202812
507.170929	728.761169	26819.712891	9682.165039	34.316128
507.521729	722.296814	26880.718750	9701.855469	34.327602
507.872498	721.702332	26961.708984	9728.306641	34.323944
508.223236	716.724060	27156.380859	9768.949219	34.237305
508.573883	720.439209	27344.515625	9811.301758	34.145267
508.924500	722.742493	27516.673828	9873.866211	34.153717
509.275116	724.154297	27689.726563	9960.948242	34.254025
509.625702	721.405090	27900.078125	10039.784180	34.285629
509.976196	724.600098	28182.873047	10129.244141	34.250675
510.326660	723.188416	28427.404297	10236.462891	34.338722
510.677124	727.646545	28704.406250	10341.230469	34.362751
511.027557	726.754883	28919.064453	10432.770508	34.427887
511.377869	731.881836	29165.228516	10485.228516	34.302490
511.728180	730.618652	29296.818359	10535.530273	34.323475
512.078430	729.206848	29403.962891	10559.679688	34.282673
512.428650	725.714661	29437.697266	10594.378906	34.371239
512.778931	731.658875	29540.830078	10641.932617	34.399715
513.129028	735.002502	29604.134766	10676.038086	34.434826
513.479126	737.603027	29655.406250	10684.210938	34.396137
513.829285	726.977844	29606.662109	10675.815430	34.449261
514.179382	714.197754	29554.501953	10649.140625	34.448124
514.529297	711.225647	29508.734375	10635.988281	34.463963
514.879272	718.210144	29544.398438	10638.291992	34.413437
515.229187	728.240906	29500.115234	10626.774414	34.403503
515.579163	729.801270	29490.677734	10613.473633	34.364986
515.928955	726.383362	29474.328125	10608.645508	34.375542
516.278748	726.383362	29672.791016	10680.199219	34.387047
516.628540	724.228577	29966.431641	10792.618164	34.431023
516.978333	723.931396	30431.867188	10936.096680	34.375210
517.327942	726.011902	30947.083984	11103.426758	34.338341
517.677612	730.915833	31584.673828	11286.362305	34.211216
518.027222	737.380188	32163.789063	11527.918945	34.335896
518.376831	738.197510	32894.925781	11761.674805	34.280468
518.726379	733.070618	33538.019531	11998.551758	34.340797
519.075867	732.699158	34102.050781	12157.708008	34.238029
519.425293	735.745544	34466.656250	12311.886719	34.319092
519.774658	738.271790	34599.285156	12400.379883	34.441109
520.124084	735.225403	34616.152344	12443.031250	34.555744
520.473389	731.138855	34338.187500	12372.889648	34.640804
520.822693	732.476257	34022.996094	12241.745117	34.572212
521.171997	730.172852	33578.218750	12048.038086	34.455215
521.521240	730.172852	33130.394531	11912.286133	34.512459
521.870361	724.897278	32700.851563	11771.186523	34.545612
522.219482	730.247131	32342.861328	11658.839844	34.570354
522.568604	724.674500	32123.224609	11541.664063	34.450600
522.917664	730.395813	32003.224609	11495.968750	34.424686
523.266724	730.544373	32046.171875	11534.382813	34.499832
523.615662	732.179016	32312.025391	11604.821289	34.429054
523.964600	726.086182	32748.630859	11747.557617	34.417850
524.313538	716.203918	33350.332031	11885.686523	34.226383
524.662354	714.049133	34048.332031	12116.618164	34.206734
525.011169	713.306152	34883.566406	12395.551758	34.188343
525.359985	715.906738	35910.875000	12789.726563	34.305531
525.708740	715.906738	37138.875000	13215.110352	34.316814
526.057434	719.547607	38507.605469	13705.359375	34.364857
526.406067	720.216309	40075.914063	14225.776367	34.316658
526.754700	723.114075	41785.250000	14825.621094	34.344307
527.103333	725.417480	43710.437500	15481.640625	34.328758
527.451782	721.850891	45821.449219	16299.863281	34.541355
527.800293	724.674500	47939.000000	17127.521484	34.741253
528.148743	724.228577	50049.269531	18030.894531	35.086979
528.497131	723.188477	51871.917969	18857.585938	35.454250
528.845642	727.646667	53445.949219	19690.220703	35.969624
529.193909	725.640381	54641.847656	20390.599609	36.473186
529.542175	732.476257	55430.644531	20965.851563	36.990955
529.890503	727.349304	55683.125000	21243.148438	37.331470
530.238770	730.767273	55412.589844	21210.306641	37.452187
530.586914	722.445374	54653.511719	20842.359375	37.306725
530.934998	724.600159	53440.519531	20186.117188	36.917725
531.283142	721.256531	51910.699219	19387.513672	36.465054
531.631226	729.727051	50089.542969	18458.281250	35.916977
531.979248	727.720886	48230.488281	17647.861328	35.619274
532.327148	728.315247	46617.605469	16930.839844	35.307858
532.675110	727.349304	45429.652344	16466.150391	35.208031
533.023071	724.525818	44913.621094	16190.041992	34.998493
533.370850	730.395752	44747.324219	16097.460938	34.911716
533.718689	728.686768	45005.683594	16155.565430	34.841747
534.066467	732.401855	45214.468750	16245.175781	34.874218
534.414246	724.600098	45308.984375	16289.237305	34.910511
534.761963	725.714661	45100.714844	16264.866211	35.017807
535.109619	723.336975	44760.406250	16161.065430	35.056213
535.457153	722.593933	44113.375000	15977.090820	35.156078
535.804749	718.581543	43341.746094	15664.054688	35.064201
536.152344	722.668213	42452.117188	15339.648438	35.027973
536.499817	722.222473	41557.066406	15005.805664	34.978909
536.847229	726.160461	40605.769531	14648.781250	34.911629
537.194641	721.850891	39757.824219	14330.023438	34.860596
537.542114	723.188416	39137.996094	14074.570313	34.755821
537.889404	723.114075	38667.953125	13918.609375	34.775467
538.236694	722.891174	38248.511719	13749.570313	34.714092
538.583984	725.714661	37890.078125	13614.413086	34.680260
538.931213	719.101746	37629.574219	13507.268555	34.646446
539.278381	718.655945	37458.531250	13441.734375	34.630161
539.625488	714.049133	37448.421875	13433.633789	34.625839
539.972595	717.467102	37776.691406	13495.752930	34.480717
540.319641	715.163757	38449.355469	13720.073242	34.464523
540.666687	714.197754	39466.484375	14017.430664	34.328899
541.013611	713.900574	40733.941406	14474.245117	34.383636
541.360596	710.854187	42116.714844	14966.796875	34.429771
541.707458	710.185364	43577.652344	15496.352539	34.492744
542.054260	715.312317	44794.656250	15948.930664	34.559540
542.401062	718.284424	45790.316406	16325.868164	34.628090
542.747864	719.919128	46294.531250	16586.892578	34.815376
543.094666	718.358704	46236.875000	16625.306641	34.946106
543.441284	721.702332	45567.855469	16469.865234	35.115974
543.787903	724.823059	44523.894531	16137.213867	35.188854
544.134460	723.411316	43236.828125	15687.088867	35.197540
544.481079	725.937500	41834.214844	15124.617188	35.026230
544.827637	730.618652	40256.914063	14499.582031	34.834942
545.174072	728.389587	38614.605469	13897.284180	34.759068
545.520508	726.977783	37213.769531	13376.942383	34.669983
545.866943	724.154297	36077.386719	12952.524414	34.589111
546.213318	733.665100	35291.859375	12649.073242	34.479256
546.559631	730.024231	34611.988281	12422.300781	34.508850
546.905823	729.949951	33986.140625	12232.382813	34.587341
547.252136	718.135803	33530.144531	12068.395508	34.591785
547.598389	715.460876	33034.695313	11913.252930	34.647453
547.944458	712.711731	32626.474609	11785.229492	34.695118
548.290588	720.810730	32093.869141	11618.344727	34.735325
548.636658	728.018066	31547.005859	11416.390625	34.681129
548.982727	734.185242	30856.134766	11172.007813	34.651882
549.328735	730.172852	30136.439453	10919.824219	34.651295
549.674622	730.767273	29358.416016	10649.214844	34.646393
550.020569	724.154297	28655.365234	10391.161133	34.610054
550.366455	728.315247	27916.500000	10134.817383	34.597755
550.712280	727.275085	27246.658203	9915.104492	34.645714
551.058044	735.374023	26740.062500	9725.112305	34.569683
551.403748	736.711487	26361.193359	9574.351563	34.489048
551.749512	735.225403	26134.642578	9473.374023	34.402946
552.095154	728.241028	25939.228516	9402.860352	34.408089
552.440735	727.869446	25869.384766	9365.114258	34.354511
552.786316	727.274963	25883.578125	9335.468750	34.218834
553.131897	726.160461	25906.015625	9347.877930	34.240536
553.477417	725.937561	25949.630859	9367.939453	34.261444
553.822815	726.977844	25916.640625	9385.994141	34.375278
554.168213	726.829285	25882.978516	9372.172852	34.366722
554.513672	718.953125	25730.140625	9319.343750	34.386173
554.859009	718.507324	25531.232422	9256.632813	34.410267
555.204285	722.668274	25322.812500	9173.488281	34.352726
555.549500	723.039734	25089.056641	9099.706055	34.378479
555.894714	728.389587	24840.068359	9005.564453	34.328487
556.239990	730.470032	24527.031250	8905.404297	34.353428
556.585022	732.699219	24260.732422	8844.476563	34.477074
556.930115	732.104675	23995.099609	8766.160156	34.535778
557.275146	719.621826	23735.705078	8701.889648	34.681259
557.620178	723.931396	23518.818359	8611.387695	34.601864
557.965149	718.507324	23363.150391	8556.330078	34.612263
558.310059	720.662109	23167.884766	8509.147461	34.696877
558.654968	719.919006	23029.458984	8448.218750	34.641235
558.999756	721.256531	22900.099609	8392.863281	34.589752
559.344604	725.640381	22914.662109	8344.938477	34.338142
559.689331	721.256531	22872.976563	8335.873047	34.374832
560.033997	722.148132	22811.380859	8311.577148	34.358047
560.378723	722.742615	22757.958984	8315.812500	34.458794
560.723389	725.417480	22759.072266	8292.555664	34.343548
561.067932	728.018066	22819.927734	8303.625977	34.291321
561.412476	729.355530	22824.312500	8272.344727	34.138962
561.757019	727.943665	22821.562500	8269.448242	34.134308
562.101501	724.897278	22823.492188	8264.542969	34.118210
562.445862	725.714600	22784.781250	8281.781250	34.253792
562.790222	732.476257	22750.007813	8283.266602	34.294445
563.134644	729.429871	22750.156250	8285.868164	34.315117
563.478943	727.869446	22769.771484	8273.236328	34.231922
563.823181	722.816895	22799.716797	8258.969727	34.135918
564.167358	723.931396	22826.833984	8263.205078	34.109879
564.511536	722.148193	22886.873047	8290.325195	34.145142
564.855774	727.052063	22899.281250	8292.852539	34.122868
565.199768	717.764343	22967.193359	8309.347656	34.120350
565.543823	718.878845	23097.818359	8325.842773	33.991619
565.887817	717.838623	23335.958984	8408.319336	34.001411
566.231812	732.922058	23515.400391	8459.513672	33.914623
566.575745	734.185059	23690.976563	8534.411133	33.977859
566.919617	734.779602	23871.755859	8582.261719	33.917492
567.263428	734.036560	23994.798828	8638.286133	33.981045
567.607239	732.699158	24116.435547	8675.289063	33.966301
567.950989	727.349304	24109.599609	8696.167969	34.080631
568.294678	725.640320	24143.037109	8703.969727	34.070095
568.638367	729.132568	24070.591797	8682.124023	34.072384
568.981995	734.110840	23934.171875	8621.715820	33.998207
569.325623	727.795166	23731.916016	8559.598633	34.045219
569.669128	719.770508	23530.705078	8500.676758	34.110424
570.012573	715.832458	23415.240234	8481.061523	34.208950
570.356140	721.107910	23377.419922	8468.503906	34.195309
570.699524	733.367859	23365.234375	8438.931641	34.047405
571.042908	737.677429	23427.351563	8442.721680	33.958374
571.386230	740.649597	23567.931641	8455.723633	33.797604
571.729492	735.299744	23761.564453	8515.240234	33.787243
572.072815	731.138733	23945.240234	8563.909180	33.741432
572.416016	727.720886	24047.630859	8595.190430	33.737137
572.759094	726.234863	24193.412109	8635.239258	33.702408
573.102234	731.138733	24291.343750	8652.625977	33.622318
573.445374	731.213074	24358.662109	8673.430664	33.614368
573.788391	727.200745	24302.638672	8664.217773	33.666470
574.131409	718.433044	24271.056641	8652.032227	33.684566
574.474365	726.977844	24189.474609	8639.400391	33.723701
574.817261	734.036621	24067.693359	8593.183594	33.681591
575.160156	739.386292	23866.333984	8525.418945	33.666496
575.502930	734.408020	23672.328125	8451.934570	33.645275
575.845703	731.584656	23463.017578	8382.387695	33.657372
576.188477	732.104675	23221.830078	8315.217773	33.718124
576.531250	724.302917	22959.689453	8213.422852	33.681087
576.873901	723.039795	22722.218750	8118.463379	33.616817
577.216431	716.129578	22494.181641	8023.653809	33.554535
577.559082	720.290527	22228.697266	7958.861816	33.654613
577.901611	725.937500	21924.130859	7861.451172	33.660954
578.244080	733.293457	21578.103516	7770.727051	33.761082
578.586487	730.172852	21255.480469	7649.687988	33.712112
578.928955	730.470032	20886.419922	7573.156250	33.948715
579.271301	725.417480	20567.291016	7457.243652	33.927372
579.613647	725.268860	20181.660156	7331.226074	33.952633
579.955872	719.324646	19897.005859	7176.380371	33.669636
580.298157	719.844727	19590.134766	7056.307129	33.579044
580.640320	724.302917	19373.171875	6992.257813	33.610374
580.982483	725.937561	19147.587891	6933.929688	33.699436
581.324524	725.789001	18981.373047	6890.982910	33.771549
581.666626	719.250305	18819.021484	6812.593750	33.665306
582.008728	714.717957	18724.138672	6760.730469	33.571392
582.350647	716.055359	18583.705078	6705.523438	33.521297
582.692566	729.727051	18511.927734	6677.288574	33.446712
583.034424	733.145020	18392.894531	6664.582520	33.587326
583.376343	729.206848	18326.171875	6655.517578	33.678028
583.718201	720.587830	18208.402344	6639.914063	33.848289
584.059937	722.371094	18155.869141	6598.972656	33.708675
584.401611	725.937561	18055.115234	6553.276855	33.627327
584.743347	727.126404	18001.841797	6513.524902	33.496346
585.085022	721.182129	17908.664063	6496.138184	33.599777
585.426514	723.559875	17852.640625	6470.355469	33.549934
585.768127	725.194580	17770.388672	6452.002441	33.597786
586.109619	737.825989	17702.474609	6400.436035	33.378880
586.451172	736.042786	17631.812500	6369.154785	33.340370
586.792542	730.470032	17595.404297	6337.278809	33.245365
587.133850	728.612488	17556.396484	6326.207520	33.264008
587.475220	731.881775	17571.404297	6330.591309	33.247433
587.816589	733.739441	17579.355469	6343.445801	33.300694
588.157776	729.058289	17593.623047	6361.576172	33.398537
588.498962	730.693054	17647.490234	6368.040527	33.323967
588.840210	733.293640	17694.970703	6375.173340	33.262512
589.181335	735.671204	17787.476563	6392.263184	33.172981
589.522400	735.299744	17794.833984	6394.640625	33.174061
589.863403	731.658875	17860.294922	6390.256348	33.035889
590.204407	728.984070	17823.365234	6402.591309	33.189896
590.545410	721.776672	17896.849609	6418.714844	33.169804
590.886353	720.439209	17892.244141	6422.207031	33.204243
591.227112	722.816895	17916.986328	6390.777344	32.964432
591.567932	725.194580	17817.716797	6379.928223	33.083084
591.908752	723.262695	17680.333984	6356.597656	33.221157
592.249512	718.730286	17621.039063	6342.851563	33.274277
592.590149	719.696106	17530.908203	6300.127441	33.194698
592.930786	719.844788	17491.455078	6274.344238	33.118465
593.271423	713.231873	17390.181641	6244.994629	33.170113
593.612000	714.643616	17334.974609	6234.369629	33.210690
593.952576	723.782898	17339.580078	6233.329590	33.158485
594.292969	734.705322	17396.869141	6255.248535	33.132210
594.633484	732.922058	17472.210938	6264.908203	33.047916
594.973877	728.538147	17554.017578	6271.075684	32.941338
595.314209	728.612488	17673.867188	6282.443848	32.775146
595.654480	730.321472	17859.847656	6334.083984	32.714058
595.994812	732.401917	18048.207031	6407.644043	32.774925
596.335022	729.652771	18266.433594	6481.203125	32.797070
596.675171	724.897461	18480.126953	6526.007813	32.672684
597.015320	725.640442	18680.595703	6584.781250	32.632442
597.355408	729.727051	18764.781250	6611.232910	32.611523
597.695496	734.482361	18812.410156	6643.851563	32.688309
598.035461	733.739258	18756.681641	6635.307129	32.744755
598.375366	733.590637	18722.726563	6625.053223	32.750111
598.715271	739.014832	18600.794922	6594.440918	32.781876
599.055176	733.070618	18403.298828	6536.187500	32.841209
599.395081	723.262695	18152.080078	6469.910156	32.972103
599.734802	717.615723	17838.150391	6359.718750	32.955177
600.074524	722.816833	17512.333984	6245.366699	32.892845
600.414246	727.423645	17154.195313	6109.020996	32.761139
600.753906	725.343201	16839.820313	6001.356934	32.740829
601.093506	721.850891	16567.203125	5895.103516	32.648388
601.433044	721.850891	16377.805664	5818.423340	32.553570
601.772583	720.736389	16235.812500	5777.110840	32.590073
602.112122	720.885010	16212.409180	5766.708496	32.571510
602.451538	716.724060	16236.036133	5784.095703	32.652035
602.790894	715.535156	16373.050781	5824.664551	32.630524
603.130310	714.420715	16585.183594	5870.955566	32.490780
603.469604	718.061523	16796.576172	5938.868652	32.470707
603.808838	722.668274	17097.130859	6009.381348	32.286327
604.148010	724.005676	17350.501953	6090.965332	32.279556
604.487305	725.789001	17637.013672	6171.807129	32.203571
604.826416	728.092346	17829.533203	6224.189941	32.138214
605.165527	730.692932	18013.505859	6277.242188	32.092861
605.504456	734.928223	18116.193359	6303.025391	32.035049
605.843445	732.401917	18167.908203	6326.133301	32.082417
606.182434	733.590759	18141.826172	6327.693848	32.134808
606.521423	734.928223	18049.765625	6294.554688	32.109032
606.860229	740.798157	17829.458984	6240.017090	32.180515
607.199036	742.061279	17573.335938	6157.912598	32.177311
607.537903	738.569092	17310.158203	6099.510254	32.350193
607.876648	739.237793	17063.619141	6002.470703	32.241547
608.215271	730.544373	16787.585938	5919.994629	32.318844
608.553955	727.423584	16582.138672	5814.187500	32.083603
608.892578	725.343079	16391.105469	5749.024902	32.067902
609.231140	737.528809	16308.704102	5705.929199	31.907677
609.569641	736.860046	16245.027344	5674.053223	31.836086
609.908081	738.717590	16226.377930	5679.700684	31.902708
610.246521	729.726990	16228.606445	5664.616699	31.840300
610.584961	729.504089	16221.325195	5665.433594	31.861519
610.923340	721.405090	16199.034180	5656.145996	31.883053
611.261597	724.080017	16119.825195	5650.722168	32.000023
611.599854	731.658875	15975.233398	5604.282715	31.965101
611.938110	734.482422	15838.590820	5553.162109	31.903107
612.276245	737.231628	15604.092773	5476.333496	31.876951
612.614319	726.606384	15321.816406	5421.795410	32.169384
612.952393	724.377258	15012.715820	5318.886230	32.155655
613.290466	715.609558	14761.127930	5239.530762	32.209003
613.628479	717.689941	14519.569336	5126.813477	31.945822
613.966370	713.677673	14280.983398	5040.250488	31.889698
614.304260	714.272034	14041.875977	4957.402832	31.837164
614.642151	714.940735	13858.793945	4881.688965	31.701115
614.979980	713.826172	13678.312500	4824.252441	31.705276
615.317749	719.844727	13534.834961	4766.519531	31.577665
615.655396	720.885010	13434.601563	4742.519531	31.632248
615.993164	724.674377	13392.843750	4716.439453	31.510199
616.330811	728.018066	13366.911133	4704.922363	31.465607
616.668396	731.658875	13316.459961	4690.582520	31.457975
617.005859	732.327637	13290.750000	4660.043457	31.275553
617.343445	732.922058	13268.682617	4643.622559	31.196356
617.680908	737.157288	13259.468750	4644.217285	31.200790
618.018311	738.866211	13260.657227	4661.381348	31.325512
618.355652	735.448242	13260.211914	4677.430664	31.473507
618.692993	725.937561	13270.614258	4681.145996	31.528978
619.030273	720.141907	13264.522461	4690.210938	31.648188
619.367554	721.553711	13262.738281	4673.492676	31.511688
619.704712	724.154297	13239.555664	4656.403320	31.419281
620.041870	729.504150	13205.301758	4639.462402	31.340345
620.379028	721.405090	13150.540039	4612.936035	31.309750
620.716064	719.473145	13099.346680	4594.880371	31.304094
621.053040	721.330750	13032.473633	4556.465332	31.151735
621.389954	728.092285	12975.484375	4540.416504	31.127640
621.726929	726.903503	12925.032227	4517.605469	31.076094
622.063843	725.194580	12878.964844	4512.107422	31.158337
622.400635	721.776611	12857.863281	4503.042480	31.157207
622.737427	719.770508	12837.429688	4488.330078	31.099731
623.074219	721.033630	12793.887695	4461.729492	30.984352
623.410889	721.479492	12724.117188	4429.185059	30.890757
623.747559	720.810730	12689.790039	4405.630859	30.786419
624.084167	716.798401	12672.700195	4382.076660	30.656645
624.420715	719.398926	12682.062500	4371.080566	30.525656
624.757324	724.228699	12696.922852	4377.247559	30.511251
625.093750	724.451599	12750.272461	4399.018066	30.555637
625.430176	721.999573	12816.179688	4423.835449	30.608408
625.766602	726.457703	12880.153320	4426.287598	30.442017
626.102905	726.011902	12951.038086	4442.411133	30.399927
626.439209	717.838623	13025.192383	4451.253418	30.334829
626.775452	713.157532	13134.566406	4473.915527	30.276421
627.111694	716.946960	13228.114258	4489.965332	30.157206
627.447876	719.398926	13311.333008	4510.249512	30.105389
627.783997	723.782776	13360.668945	4538.855957	30.189980
628.120056	715.089355	13387.269531	4551.562012	30.274765
628.456055	717.912903	13362.971680	4551.562012	30.317369
628.792053	711.597168	13309.622070	4523.698242	30.259512
629.128052	713.826233	13251.890625	4492.639648	30.138731
629.463928	710.631165	13180.335938	4443.228516	29.933325
629.799744	716.203918	13071.854492	4410.980957	29.903542
630.135559	717.838562	12923.843750	4357.111816	29.815434
630.471375	721.776672	12784.079102	4323.823730	29.862019
630.807068	714.940857	12631.387695	4261.112793	29.758633
631.142700	724.451477	12506.113281	4215.564941	29.631758
631.478333	730.321472	12359.959961	4162.363770	29.511168
631.813965	730.024231	12251.179688	4118.451172	29.410479
632.149475	723.485596	12123.750977	4085.535156	29.490976
632.484924	725.343201	12025.375000	4046.897705	29.394203
632.820435	734.408020	11942.156250	4016.062256	29.280230
633.155884	733.219238	11866.961914	3996.594971	29.310682
633.491150	731.287354	11833.303711	3991.244873	29.363651
633.826477	725.789001	11749.934570	3972.297852	29.449074
634.161804	722.445313	11711.520508	3953.425049	29.401743
634.497009	718.804504	11634.171875	3917.239502	29.302130
634.832153	719.176086	11583.645508	3892.347656	29.206871
635.167297	728.463867	11513.058594	3860.471924	29.041500
635.502380	721.776672	11432.067383	3837.438232	29.090355
635.837463	716.575500	11361.257813	3818.342041	29.139118
636.172424	713.008972	11286.434570	3795.382813	29.152082
636.507324	715.237976	11198.534180	3769.302734	29.132677
636.842224	725.045898	11104.020508	3735.420654	29.004549
637.177124	721.925293	10982.833008	3692.027588	28.945803
637.511963	729.281250	10859.194336	3652.276123	28.855083
637.846741	727.349304	10721.882813	3613.935547	28.881651
638.181396	733.665039	10616.149414	3574.703857	28.748224
638.516113	737.380188	10530.627930	3543.571045	28.654343
638.850769	735.745544	10445.253906	3516.524658	28.639750
639.185303	729.281250	10352.671875	3478.927734	28.572533
639.519836	724.525818	10274.729492	3445.714111	28.493509
639.854370	719.473206	10183.632813	3394.817139	28.268164
640.188843	723.782776	10073.739258	3368.365234	28.284437
640.523254	724.748718	10016.674805	3336.415039	28.106834
640.857605	730.618652	9938.583008	3333.443115	28.267097
641.191895	721.107910	9876.168945	3303.201904	28.204008
641.526184	717.838623	9783.885742	3280.762451	28.269474
641.860413	716.426941	9749.780273	3240.193115	27.938309
642.194580	727.052185	9710.102539	3233.282959	27.899549
642.528748	727.869446	9662.697266	3212.849609	27.812288
642.862793	735.819824	9586.760742	3199.697998	27.837471
643.196838	735.002502	9535.788086	3177.184326	27.749592
643.530823	735.225403	9493.139648	3161.060547	27.698778
643.864746	734.705261	9440.829102	3134.460205	27.563988
644.198669	732.104675	9396.099609	3124.281006	27.610544
644.532532	728.240967	9358.427734	3088.020752	27.343323
644.866333	721.776611	9334.354492	3075.612549	27.330214
645.200073	725.417480	9308.125000	3038.312500	26.948317
645.533813	730.321472	9277.958008	3036.157471	26.976297
645.867554	725.045898	9263.915039	3023.154541	26.913502
646.201172	712.637390	9265.028320	3026.423828	27.054264
646.534729	711.671387	9262.725586	3026.349609	27.068920
646.868225	715.980957	9269.933594	3034.448975	27.104053
647.201782	725.863281	9253.883789	3020.256836	26.904175
647.535217	728.612488	9249.277344	3011.563477	26.793108
647.868591	727.720886	9248.682617	3006.436768	26.742472
648.201965	731.064514	9250.317383	3014.015625	26.797552
648.535278	721.405090	9235.977539	3019.959961	26.995543
648.868591	721.479431	9213.983398	3010.449219	26.952826
649.201782	726.754883	9183.742188	2988.083984	26.739180
649.534912	730.321472	9155.432617	2956.579834	26.424082
649.868103	729.355469	9130.615234	2927.898682	26.169209
650.201172	727.274963	9086.182617	2911.329346	26.128469
650.534180	734.779602	9049.179688	2898.548828	26.024357
650.867188	746.445129	9014.703125	2890.227295	25.927858
651.200134	741.912598	9017.229492	2886.883545	25.920109
651.533020	738.643311	8993.081055	2859.837646	25.697624
651.865845	728.240967	8933.788086	2844.828369	25.794592
652.198608	722.668274	8878.877930	2843.788086	26.006197
652.531433	725.417480	8860.748047	2833.608398	25.914017
652.864136	729.801453	8864.389648	2819.788330	25.692595
653.196777	857.899231	8997.911133	2902.338623	25.115927
653.529358	857.453369	8948.946289	2887.106689	25.083792
653.861938	855.001404	8893.516602	2855.973877	24.892313
654.194519	730.024231	8685.245117	2712.123779	24.915709
654.526978	727.720886	8635.165039	2697.040283	24.904625
654.859375	730.767273	8580.551758	2685.300293	24.899193
655.191833	726.754883	8525.123047	2660.185791	24.792763
655.524170	726.680603	8469.247070	2650.452148	24.846689
655.856445	718.804504	8409.062500	2622.514404	24.754826
656.188660	722.593933	8394.871094	2637.300781	24.956173
656.520874	715.758057	8361.062500	2602.972900	24.684626
656.853088	721.256531	8370.202148	2603.344482	24.605846
657.185181	716.649719	8356.232422	2571.468506	24.279060
657.517212	719.027405	8383.948242	2584.099854	24.332573
657.849243	714.346375	8417.086914	2585.437500	24.291237
658.181274	725.417480	8455.500977	2598.514648	24.231266
658.513123	723.931458	8504.465820	2597.994385	24.086559
658.844971	732.327637	8595.116211	2614.192627	23.933811
659.176819	722.073792	8692.080078	2617.461914	23.781513
659.508667	726.829285	8806.061523	2638.341064	23.659571
659.840393	723.485596	8876.203125	2639.678467	23.503731
660.172058	720.885010	8927.917969	2645.697021	23.453201
660.503662	723.559875	8941.515625	2639.752686	23.317146
660.835266	720.885010	8955.410156	2644.508057	23.360460
661.166931	720.513489	8917.664063	2639.158447	23.406244
661.498413	715.089355	8868.624023	2620.954102	23.374706
661.829773	712.860352	8761.034180	2586.031982	23.274492
662.161194	723.782898	8642.446289	2554.156006	23.114672
662.492615	723.782776	8509.073242	2522.503174	23.104090
662.823975	722.965515	8341.297852	2484.906006	23.127640
663.155212	721.999512	8213.571289	2442.776123	22.969500
663.486450	727.275085	8067.121094	2400.720947	22.799467
663.817627	732.773438	7960.347656	2365.427002	22.589233
664.148743	739.089172	7827.568848	2330.058838	22.444443
664.479858	739.980774	7729.935059	2308.510986	22.439779
664.810913	742.284180	7637.279297	2287.929443	22.416916
665.141907	733.962219	7585.416016	2276.263672	22.510574
665.472778	731.956116	7508.066895	2242.827881	22.297035
665.803711	723.485657	7470.395996	2222.320068	22.215124
666.134583	721.033630	7415.411621	2198.320313	22.067572
666.465454	719.844788	7396.390625	2175.360840	21.800436
666.796143	719.027527	7337.617188	2156.785156	21.723019
667.126831	722.593933	7331.821777	2152.921387	21.641369
667.457458	724.154297	7300.464844	2153.218506	21.730486
667.788147	722.371094	7296.081543	2149.280518	21.706303
668.118774	717.244141	7248.453125	2135.683105	21.717863
668.449219	716.798340	7240.279785	2119.856689	21.507816
668.779663	719.398926	7239.834473	2101.281006	21.193094
669.110107	721.182190	7235.302246	2091.324463	21.033421
669.440552	718.432922	7229.877441	2101.132324	21.234911
669.770874	722.519714	7202.014160	2093.850586	21.164164
670.101135	722.073792	7183.289551	2076.983643	20.969891
670.431396	725.194580	7157.135254	2051.200928	20.615961
670.761597	725.863281	7111.959473	2027.423950	20.381163
671.091797	724.080017	7069.606934	2008.328247	20.238640
671.421875	723.559875	7003.551270	1991.609985	20.191908
671.751892	722.668274	6973.533203	1998.668945	20.413187
672.081909	727.646545	6932.889160	1988.192017	20.314199
672.411865	728.018066	6904.877441	1984.402710	20.340185
672.741821	728.018066	6862.673340	1967.313110	20.201544
673.071716	734.631042	6814.599121	1954.607422	20.065504
673.401550	731.807556	6768.828613	1930.161743	19.850092
673.731262	733.739319	6746.538574	1915.895874	19.660667
674.060974	732.030457	6720.755371	1898.880371	19.484112
674.390625	729.058350	6699.356934	1890.484009	19.453392
674.720276	730.692932	6650.911621	1873.320190	19.300423
675.049927	721.999573	6617.846191	1864.032349	19.370123
675.379395	732.104736	6587.679688	1850.360718	19.097286
675.708923	720.662109	6539.828613	1836.614624	19.177189
676.038330	718.730225	6487.445313	1823.165649	19.145260
676.367737	712.711731	6442.491699	1806.670532	19.092510
676.697083	719.324646	6426.888184	1798.274414	18.903858
677.026428	723.559875	6402.442871	1794.187866	18.852791
677.355652	717.689941	6383.792969	1787.574829	18.882200
677.684875	721.033508	6388.101563	1780.664673	18.698048
678.013977	719.176025	6390.330566	1771.228394	18.550940
678.343079	725.863281	6408.609863	1769.816406	18.370573
678.672180	723.262695	6409.501465	1765.432617	18.327930
679.001221	723.188416	6473.550781	1776.578125	18.318666
679.330139	719.473206	6499.630859	1781.407593	18.372065
679.659058	725.417480	6541.685547	1780.070313	18.132811
679.987976	729.058289	6555.729004	1771.748413	17.895128
680.316772	730.247131	6605.066406	1776.057983	17.801582
680.645630	723.708496	6635.084473	1783.116699	17.921516
680.974304	721.702332	6674.390625	1779.029907	17.762186
681.302979	722.148193	6706.267090	1773.903198	17.575769
681.631653	725.045959	6755.157715	1761.717407	17.191578
681.960266	721.999512	6774.699219	1762.312012	17.187578
682.288757	723.262695	6773.138672	1763.129272	17.188231
682.617249	721.851013	6737.845215	1766.398560	17.362843
682.945679	724.823059	6715.851563	1757.407837	17.235518
683.274109	722.519592	6682.489746	1750.646484	17.250538
683.602478	725.045959	6630.105469	1733.036743	17.069952
683.930725	722.445313	6549.710449	1718.770630	17.097649
684.259033	726.011902	6450.367676	1694.027832	16.910477
684.587280	726.011902	6365.439941	1666.387085	16.675009
684.915344	734.779602	6301.836426	1648.926147	16.420645
685.243469	738.346191	6244.549316	1636.442993	16.310637
685.571533	737.157410	6189.713379	1633.099487	16.431597
685.899536	729.727051	6131.980469	1621.211060	16.502077
686.227539	729.206970	6087.101563	1603.750000	16.322514
686.555420	728.463867	6055.448730	1587.329102	16.122915
686.883301	730.321472	6039.250488	1568.976196	15.797060
687.211121	725.194519	6040.588379	1559.465454	15.695374
687.538940	719.398926	6055.597656	1569.793579	15.936337
687.866638	713.974854	6056.191895	1576.109375	16.138142
688.194336	720.736389	6044.377441	1570.536743	15.962766
688.521973	721.330811	6028.476563	1557.087891	15.747770
688.849609	727.869446	6025.355957	1542.301636	15.373937
689.177063	726.531982	5999.572754	1539.403809	15.415617
689.504578	728.166687	5932.403809	1520.828125	15.231078
689.832031	728.018066	5852.751465	1512.357544	15.304981
690.159485	722.148193	5780.380371	1501.360718	15.404839
690.486816	733.144958	5720.121094	1491.181274	15.200320
690.814087	734.482422	5644.777832	1475.800659	15.097222
691.141296	737.603088	5562.599121	1455.515991	14.879036
691.468506	731.510254	5482.946777	1425.051880	14.596462
691.795715	728.240967	5401.956543	1413.757935	14.667494
692.122803	729.875671	5345.857910	1394.884888	14.406667
692.449829	724.451477	5302.316406	1395.850952	14.666215
692.776855	724.897278	5254.613770	1374.823242	14.348050
693.103821	719.993347	5185.512207	1365.535522	14.456151
693.430664	722.891113	5121.612793	1354.835815	14.366553
693.757568	723.188293	5070.417969	1345.176392	14.307690
694.084351	725.045898	5030.962891	1334.253906	14.148160
694.411133	718.730225	4988.758789	1323.405640	14.160923
694.737854	726.383362	4961.415527	1315.232422	13.904241
695.064575	724.971680	4940.090820	1306.018921	13.784836
695.391174	734.036621	4920.549316	1300.594727	13.532936
695.717773	727.572205	4905.242676	1302.600952	13.764339
696.044250	723.262695	4912.970215	1303.121094	13.840069
696.370789	720.810730	4919.509277	1298.068481	13.748492
696.697205	716.872620	4939.273438	1287.591797	13.516461
697.023621	724.748718	4967.136719	1284.545410	13.195320
697.349915	720.959290	5023.458008	1286.774536	13.150853
697.676208	723.485596	5101.699219	1292.941650	13.006584
698.002380	715.535217	5191.382324	1296.210938	12.973537
698.328674	718.358704	5299.567383	1307.802246	12.866551
698.654724	712.934570	5407.604004	1328.235474	13.106374
698.980896	716.946960	5507.392090	1337.151855	12.946707
699.306946	709.367981	5573.373047	1331.653442	12.793685
699.632935	712.488770	5629.248535	1327.418091	12.506801
699.958862	716.129578	5641.730957	1334.476929	12.553742
700.284729	718.804504	5646.561035	1337.523315	12.555792
700.610596	721.776672	5595.068848	1331.133301	12.504004
700.936340	721.033630	5517.423340	1310.774292	12.295512
701.262146	736.785828	5412.656250	1300.074707	12.046717
701.587830	734.556641	5290.650879	1273.697266	11.833395
701.913513	734.630920	5156.683105	1251.555054	11.689689
702.239075	729.801270	5021.229492	1225.994995	11.562438
702.564697	731.064453	4890.976563	1208.087769	11.467149
702.890137	732.922058	4776.030273	1196.719604	11.471312
703.215698	728.538269	4666.730957	1184.682495	11.582578
703.541016	723.782898	4564.490234	1171.605347	11.659895
703.866455	722.668274	4484.392090	1160.534180	11.640033
704.191711	720.142029	4405.334473	1149.537354	11.651911
704.517029	730.247131	4360.900879	1144.410522	11.407405
704.842163	733.367859	4303.093262	1132.967896	11.194139
705.167419	735.671204	4267.428223	1126.206421	11.057817
705.492493	730.767273	4229.533691	1112.386108	10.907240
705.817566	724.897278	4203.081543	1103.395386	10.882060
706.142578	726.309082	4180.270996	1104.138550	10.939016
706.467590	731.956116	4158.945801	1108.893921	10.999093
706.792480	728.538147	4144.011230	1105.624512	11.040531
707.117371	728.463867	4132.865723	1100.646362	10.932390
707.442200	723.188416	4142.376465	1104.064087	11.139360
707.766907	725.863281	4149.881348	1107.036133	11.132326
708.091675	717.764343	4159.689453	1102.206543	11.169394
708.416321	713.454773	4148.395020	1085.562744	10.833026
708.741028	717.541321	4147.131836	1079.841553	10.563950
709.065552	720.736328	4169.794434	1071.296753	10.163946
709.390137	720.959290	4177.150879	1078.726929	10.351499
709.714600	715.832458	4204.643066	1078.949829	10.408056
710.039063	710.854187	4228.047852	1088.906372	10.748689
710.363403	716.649719	4266.982422	1086.825806	10.426518
710.687744	717.987244	4309.260254	1084.745239	10.212479
711.012085	725.120300	4353.693359	1084.151001	9.894543
711.336304	722.668274	4392.851074	1082.590698	9.806662
711.660461	730.693054	4418.262207	1093.884644	9.849079
711.984619	732.327637	4435.426270	1085.339844	9.532887
712.308716	736.265625	4452.144531	1089.277832	9.500100
712.632751	731.138855	4451.847656	1086.900269	9.561657
712.956726	735.894104	4416.405273	1082.739258	9.423831
713.280701	731.213074	4382.820313	1072.485474	9.345814
713.604553	734.482422	4335.860840	1068.919067	9.286351
713.928467	728.538147	4287.712402	1065.203735	9.459092
714.252258	727.572266	4221.731934	1070.999390	9.828604
714.575989	719.027405	4162.513184	1047.742676	9.546003
714.899719	720.885010	4115.182129	1037.265991	9.320957
715.223267	721.330811	4087.690186	1018.764587	8.835473
715.546936	724.897278	4077.436279	1020.696472	8.823139
715.870422	725.640381	4053.956299	1023.222839	8.940932
716.193970	729.727051	4034.117920	1016.089661	8.666124
716.517395	730.172852	4006.699951	1005.687317	8.408734
716.840820	734.779602	3978.167725	1001.600647	8.226615
717.164124	733.442139	3936.557861	995.359192	8.176947
717.487488	727.795166	3893.165283	998.702881	8.558485
717.810730	727.052063	3860.249268	990.975342	8.423450
718.133972	730.990173	3808.534424	990.083740	8.418841
718.457092	739.534973	3754.739502	985.551270	8.159191
718.780212	738.197571	3693.365234	979.978577	8.181634
719.103210	728.538147	3653.018799	976.114929	8.465667
719.426208	717.467102	3607.025391	966.975647	8.634833
719.749207	707.510559	3586.740967	962.814697	8.867096
720.072083	717.764343	3550.927002	962.145935	8.625752
720.394958	725.491882	3506.196533	963.854797	8.572033
720.717773	728.835449	3441.033203	965.266602	8.717327
721.040527	722.816895	3397.863281	954.344177	8.655075
721.363281	723.857117	3369.925537	943.570251	8.303381
721.685913	727.423645	3346.000000	930.938782	7.771976
722.008545	728.018066	3314.124023	930.047119	7.812095
722.331055	726.903503	3286.929443	929.675598	7.920705
722.653503	724.971680	3257.951172	930.641602	8.119683
722.976013	725.566101	3249.852539	927.372253	7.994582
723.298401	728.241028	3238.929688	922.171082	7.724177
723.620789	726.086182	3230.162109	918.530273	7.685234
723.943115	719.844727	3206.236328	917.192871	7.937130
724.265381	724.154297	3182.831299	909.391052	7.534001
724.587585	721.479431	3189.889893	907.459167	7.534393
724.909790	733.665039	3196.874756	908.350830	7.091795
725.231873	733.367859	3202.670654	920.610657	7.582821
725.553894	737.008728	3195.834717	918.010071	7.361291
725.875916	768.661682	3217.902344	958.728027	7.760215
726.197937	761.974426	3239.227295	962.443176	8.092381
726.519775	765.020813	3243.387939	958.579407	7.809924
726.841675	722.222412	3225.852539	911.694397	7.567891
727.163513	720.290527	3227.710205	894.530457	6.948974
727.485291	716.724060	3247.697998	899.137207	7.207232
727.806946	718.061462	3280.390869	900.920471	7.136436
728.128662	721.033630	3307.065674	908.127869	7.234800
728.450256	724.748718	3330.470703	902.183655	6.809435
728.771790	729.727051	3334.186279	900.177490	6.544562
729.093323	723.559875	3326.830078	898.022705	6.701680
729.414795	721.107910	3316.130615	910.431213	7.295632
729.736145	715.683777	3311.078125	914.889404	7.675351
730.057495	720.439209	3317.468018	911.025635	7.338634
730.378845	719.250427	3323.114990	906.270264	7.182395
730.700134	714.272156	3319.102539	897.725403	7.042810
731.021301	719.176086	3317.393555	899.954590	6.957789
731.342468	724.674500	3314.644531	893.861816	6.532404
731.663574	737.603088	3332.402588	895.050598	6.067810
731.984680	731.881775	3347.188721	887.620300	5.954885
732.305664	730.544250	3357.888672	884.053772	5.842763
732.626648	729.949890	3357.443115	886.505676	5.958371
732.947571	736.042786	3363.758545	897.651184	6.150147
733.268433	735.745605	3353.207764	901.217712	6.321853
733.589233	735.819824	3335.151611	897.205383	6.208733
733.909973	734.779602	3319.994141	893.787415	6.150662
734.230713	736.860107	3308.923096	893.267334	6.081003
734.551331	726.754944	3278.607422	890.369446	6.411597
734.871948	717.467102	3233.877686	886.059875	6.699732
735.192505	713.751953	3176.813232	877.515137	6.648766
735.513062	720.885010	3146.051514	873.354187	6.286957
735.833435	731.213135	3088.987061	867.632813	5.785953
736.153931	738.420471	3058.002930	865.478027	5.477604
736.474304	736.637207	3001.681641	870.530701	5.911296
736.794617	728.389587	2982.436768	874.691650	6.490639
737.114807	722.073792	2954.127686	874.840149	6.844205
737.434998	728.092346	2942.684814	867.409973	6.290892
737.755188	729.578430	2935.552002	859.385254	5.884333
738.075256	725.714661	2941.347656	855.893066	5.875450
738.395325	720.810730	2971.811768	856.041687	6.007592
738.715271	721.553711	2992.022217	848.462708	5.589551
739.035278	724.897400	3010.597656	849.280090	5.441776
739.355164	719.844727	3020.702881	845.267761	5.451141
739.675049	723.188416	3026.052734	849.131531	5.468977
739.994873	721.627991	3021.297119	844.896179	5.360258
740.314636	719.621887	3006.510742	842.444275	5.370719
740.634277	719.993408	2990.535889	846.159363	5.556643
740.953979	721.330872	2961.334961	848.537109	5.678839
741.273499	731.064453	2925.000977	846.828064	5.276525
741.593140	720.736389	2894.759766	845.787842	5.752075
741.912598	717.318420	2862.809570	840.289490	5.731605
742.232117	719.547546	2828.035889	836.797180	5.560839
742.551453	727.275085	2777.584229	831.373108	5.077187
742.870850	733.293640	2745.708252	836.202820	5.113717
743.190063	729.950012	2716.284424	828.252441	4.948936
743.509338	730.470032	2693.250732	827.732361	4.955333
743.828552	726.829163	2677.646973	817.032715	4.623884
744.147705	724.897278	2661.226074	824.017273	5.118965
744.466797	722.296692	2632.099609	814.803711	4.843799
744.785828	724.080017	2606.836670	811.014160	4.617386
745.104858	723.262634	2580.533447	808.933777	4.612744
745.423706	725.863281	2572.583252	808.636536	4.482177
745.742615	728.538147	2561.363525	817.924316	4.876960
746.061401	732.476257	2561.735107	815.100891	4.516837
746.380249	730.915833	2546.205811	816.066833	4.690765
746.698975	723.708496	2533.574219	807.299072	4.618607
747.017639	719.324646	2514.032471	809.082336	5.001243
747.336304	711.745789	2510.986084	806.556091	5.269463
747.654907	709.739563	2503.184326	816.289734	5.941090
747.973389	716.426819	2502.812744	814.506348	5.490388
748.291931	729.578430	2508.088135	816.586914	4.892213
748.610352	737.157410	2516.484375	811.534363	4.180061
748.928711	735.968445	2526.738281	813.466125	4.327618
749.247070	725.937561	2524.360596	813.168945	4.850437
749.565308	714.717834	2517.673584	807.224792	5.130850
749.883545	712.191589	2506.379639	807.373352	5.305005
750.201782	715.312317	2501.772705	807.224792	5.144949
750.519836	722.891174	2502.590088	805.961670	4.667671
750.837952	724.748779	2494.119629	799.645813	4.232975
751.155884	727.200684	2471.457275	803.583984	4.379132
751.473877	730.247131	2457.116943	804.698486	4.311347
751.791809	724.600098	2443.147705	798.457092	4.297640
752.109619	727.497986	2432.299561	787.831726	3.539048
752.427490	722.296692	2413.129639	787.163025	3.836354
752.745300	728.835388	2405.550537	794.890442	3.939551
753.062988	729.801270	2411.791992	801.949280	4.289442
753.380615	733.293518	2413.426514	803.138184	4.157091
753.698303	727.572205	2415.581299	797.268250	4.128891
754.015808	725.491699	2410.157471	800.537537	4.454642
754.333374	724.748718	2403.693115	798.159851	4.372458
754.650757	722.519714	2401.835449	799.794434	4.601560
754.968262	722.371094	2401.760986	792.810059	4.194319
755.285583	721.033691	2393.588135	789.169128	4.073735
755.602905	726.160461	2377.835938	791.323914	3.945294
755.920105	722.222473	2359.928711	788.351868	4.037928
756.237305	722.593994	2361.935059	793.998840	4.355704
756.554443	724.377197	2355.247803	790.803894	4.073082
756.871582	725.417480	2360.968994	794.964844	4.252227
757.188599	725.937561	2356.510742	789.540710	3.900662
757.505615	722.593994	2360.894531	796.153625	4.489996
757.822510	721.628113	2371.222656	793.850281	4.378177
758.139465	719.101746	2379.544678	795.930664	4.627014
758.456238	724.451477	2395.445313	791.175293	3.993062
758.773010	732.327637	2400.943604	788.723328	3.379789
759.089783	731.658936	2425.166504	786.419983	3.233588
759.406433	724.748718	2453.550293	785.231140	3.498518
759.723145	723.039795	2465.512939	785.305481	3.573409
760.039673	732.550537	2470.788574	786.197083	3.086260
760.356201	730.544373	2453.476074	778.543945	2.785924
760.672668	732.476257	2455.333496	776.017578	2.527274
760.989136	726.457703	2451.097900	771.039368	2.584984
761.305481	723.262695	2456.076416	780.030029	3.276021
761.621826	719.844727	2453.550049	784.339539	3.720056
761.938049	725.491699	2462.540771	790.283752	3.730007
762.254333	734.185242	2485.723389	784.488098	2.871925
762.570496	732.030457	2531.419678	785.305481	2.960728
762.886597	735.522644	2611.146240	788.946289	2.848314
763.202637	741.095276	2735.008789	792.587158	2.582453
763.518677	742.284180	2876.630127	803.732605	2.879028
763.834656	739.906494	3025.755615	808.264954	2.990506
764.150574	736.785828	3140.181641	817.850098	3.372905
764.466370	741.689758	3206.533936	809.825378	2.764297
764.782288	735.894226	3229.196045	806.927551	2.848966
765.097961	732.624817	3205.642334	801.057617	2.767178
765.413696	730.990234	3156.602539	796.599426	2.704851
765.729309	731.956116	3058.597412	795.262024	2.720914
766.044861	725.937561	2940.901611	789.912170	2.888291
766.360474	721.850891	2814.364258	796.450867	3.565089
766.675903	724.897278	2689.906982	795.484863	3.592226
766.991394	735.374023	2575.183838	797.416748	3.372236
767.306763	737.751648	2483.048096	782.036133	2.537362
767.622131	730.544373	2411.346191	774.457214	2.612613
767.937378	726.383362	2353.761719	776.314880	3.068218
768.252625	728.909668	2307.694092	779.212585	3.186180
768.567810	732.476257	2260.065674	778.989746	3.044895
768.882996	734.853943	2213.849609	773.639954	2.622456
769.197998	733.367859	2180.636475	764.054871	2.120340
769.513062	735.002502	2154.853271	767.770020	2.307814
769.828064	729.875671	2131.076172	766.804016	2.635479
770.142944	731.213135	2107.522217	771.930969	2.958480
770.457825	726.977844	2073.491699	764.500732	2.786669
770.772705	722.296692	2054.990234	766.804138	3.339661
771.087402	719.176025	2016.278687	767.472839	3.723438
771.402100	725.714661	1992.798950	766.655457	3.231103
771.716736	732.030457	1962.037598	763.980530	2.597552
772.031372	731.807434	1963.969360	770.444824	3.135740
772.345947	727.126465	1956.687866	776.240479	3.994434
772.660461	727.275085	1953.492798	773.119812	3.738710
772.974854	729.206848	1926.892578	763.906250	2.897204
773.289246	733.070618	1915.226929	771.039368	3.211822
773.603638	730.990173	1890.186890	772.153870	3.551053
773.917908	724.600098	1884.317017	779.063965	4.696307
774.232178	721.182129	1864.552612	765.689636	3.892658
774.546265	727.646545	1863.512329	763.163269	3.126842
774.860474	725.120300	1844.936523	755.881592	2.746995
775.174561	728.389587	1838.174927	751.126221	2.048741
775.488586	729.132568	1832.602173	747.931152	1.703589
775.802551	729.578369	1808.973999	750.754700	1.961869
776.116516	725.714661	1789.209473	756.773193	2.920421
776.430359	715.386536	1762.906372	765.615234	4.795012
776.744202	717.615662	1764.095215	759.150879	3.969043
777.057922	714.940735	1762.980591	757.367676	4.048219
777.371704	718.433044	1755.550415	747.188171	2.772601
777.685303	717.690002	1749.903320	747.856934	2.922548
777.998962	721.330811	1741.655884	751.423523	2.949326
778.312500	720.587830	1745.073730	754.469910	3.307228
778.626038	728.463867	1741.655884	761.974426	3.307424
778.939453	732.327637	1741.730103	757.219055	2.465956
779.252869	732.773438	1738.535034	758.110657	2.519207
779.566223	726.903503	1740.244141	756.698914	2.940315
779.879578	719.027405	1734.968750	759.893860	4.022521
780.192749	723.262695	1721.519897	760.116760	3.691841
780.505920	719.101746	1713.272095	762.420166	4.357243
780.819031	719.473206	1701.234985	762.048645	4.336637
781.132141	724.302979	1712.528931	768.810242	4.503754
781.445190	732.253357	1708.368164	766.878357	3.547226
781.758118	735.151184	1701.755249	764.723572	3.059411
782.071045	729.727051	1679.538696	757.813477	2.957052
782.383911	728.686768	1666.535645	746.073547	1.853900
782.696838	726.754944	1669.359253	741.764099	1.592307
783.009583	725.045959	1666.089844	741.615417	1.760753
783.322266	719.621826	1659.848633	744.290344	2.623677
783.634888	717.318420	1638.375000	747.485352	3.275253
783.947510	714.717834	1625.223511	740.055115	2.782770
784.260132	715.237976	1621.508423	741.169617	2.861358
784.572571	712.265869	1609.619751	744.438965	3.585330
784.885010	715.312256	1605.533203	751.274841	4.039737
785.197449	721.776611	1585.991577	754.469910	3.783005
785.509766	733.962219	1583.093750	751.051941	2.012612
785.822083	728.909668	1575.515015	749.863098	2.474994
786.134277	726.977783	1572.839966	748.971436	2.600146
786.446533	720.884949	1571.056641	748.377014	3.233707
786.758606	724.971680	1561.397461	748.599915	2.824905
787.070740	726.606262	1571.056763	753.058105	3.132433
787.382690	726.011902	1574.846313	750.085999	2.836136
787.694641	722.371033	1590.746948	751.274902	3.328497
788.006653	717.467102	1608.059570	753.058105	3.996329
788.318481	721.107910	1639.712524	759.076660	4.133307
788.630310	720.216309	1681.396362	755.064270	3.625539
788.942017	715.906738	1709.259766	752.612305	3.695118
789.253784	715.089355	1716.095703	749.491516	3.436758
789.565430	724.971680	1701.978149	756.401672	3.216969
789.877014	735.374023	1678.944336	751.349121	1.693048
790.188538	738.271790	1664.306641	747.708313	1.019025
790.500061	737.974609	1644.541992	745.404968	0.819615
790.811462	738.940613	1629.384277	741.838379	0.325429
791.122925	743.324402	1600.926392	744.884827	0.181952
791.434204	740.129395	1587.031860	745.107666	0.587821
791.745483	735.671204	1567.341675	748.897156	1.590288
792.056702	728.463867	1560.877319	741.689758	1.588861
792.367920	725.863281	1532.419312	736.711426	1.344996
792.678955	721.330811	1520.010742	733.813660	1.562935
792.990112	722.296692	1512.654785	742.284180	2.528915
793.301086	724.228577	1512.506226	744.067383	2.516728
793.612122	730.544250	1498.834473	747.856934	2.253404
793.922974	722.222412	1485.311401	746.445129	3.174298
794.233826	720.216309	1477.583984	744.513245	3.208077
794.544556	719.770508	1471.639648	741.689758	2.915301
794.855286	722.371094	1468.890503	738.791992	2.199661
795.166016	717.467041	1471.713989	741.541199	3.191814
795.476624	717.689941	1483.528198	743.993164	3.434566
795.787292	726.829163	1494.970703	745.181946	2.389245
796.097778	728.686768	1515.255371	742.135559	1.709805
796.408264	721.033630	1543.044556	743.027283	2.675591
796.718689	719.770508	1557.087769	740.500977	2.475820
797.029053	727.126465	1567.490234	743.175781	1.909806
797.339355	735.596985	1553.744141	739.906494	0.526740
797.649658	734.928223	1546.388306	743.770203	1.089638
797.959839	731.807556	1526.995239	741.764099	1.252100
798.270020	731.584656	1510.351563	743.770203	1.564723
798.580078	727.869446	1499.726196	745.181946	2.242968
798.890137	730.098572	1487.912109	747.336731	2.274723
799.200195	724.674500	1478.921387	744.141663	2.581007
799.510071	724.228577	1459.676880	735.151062	1.485147
799.820007	717.987122	1450.611938	731.138733	1.795136
800.129883	719.324646	1439.169312	728.463928	1.269619
800.439575	719.696106	1444.296265	735.448303	2.173916
800.749329	722.965515	1443.701782	736.785828	1.917527
801.058960	727.349365	1444.593628	743.621643	2.268722
801.368591	727.274963	1441.621460	745.553528	2.558781
801.678162	728.315247	1434.488281	739.832214	1.630899
801.987671	726.977783	1432.779297	738.049011	1.568604
802.297119	721.107910	1423.045532	739.832214	2.667517
802.606506	717.838562	1413.609253	747.039551	4.196927
802.915894	713.528992	1397.559937	747.782532	5.007601
803.225159	728.166687	1391.467163	737.900391	1.467465
803.534424	736.562927	1390.426758	733.813660	-0.420465
803.843628	745.479248	1389.906738	728.389587	-2.651914
804.152771	735.448303	1380.618774	730.395752	-0.783134
804.461792	721.850891	1370.216431	735.374023	2.085726
804.770874	717.541321	1375.714844	737.677429	3.059392
805.079773	719.398926	1393.399048	738.569031	2.844229
805.388733	727.943665	1412.271973	735.819824	1.150933
805.697571	727.795105	1425.423462	735.374023	1.086383
806.006470	728.761047	1423.565918	726.309082	-0.352900
806.315125	728.983948	1425.349121	725.789063	-0.458795
806.623901	726.606262	1414.352173	724.005676	-0.378132
806.932495	724.822998	1407.516479	732.179016	1.077499
807.241150	727.052185	1401.275024	734.482422	1.102045
807.549622	728.612488	1404.024292	737.751709	1.353133
807.858154	728.983948	1397.188354	741.689758	1.901486
808.166565	727.943787	1393.770386	739.089172	1.673917
808.474915	728.538269	1378.984009	735.151123	1.016665
808.783264	736.414246	1376.829468	735.076843	-0.208834
809.091492	732.550537	1361.003052	741.541199	1.430603
809.399719	733.739319	1353.052612	744.216064	1.691671
809.707825	730.692932	1347.702759	735.299805	0.746645
810.015930	725.491699	1346.365234	729.429871	0.634295
810.323975	721.999512	1341.015503	730.692932	1.404394
810.632080	713.751953	1334.625488	735.819824	3.554326
810.939880	721.182190	1329.201416	735.299744	2.321893
811.247864	732.624817	1326.600708	733.962341	0.225182
811.555664	733.070740	1324.817505	734.853943	0.301346
811.863464	727.646545	1315.826782	740.426575	2.172808
812.171143	718.210144	1307.653687	740.203674	3.731236
812.478882	721.999512	1293.090210	735.819824	2.419986
812.786438	722.965515	1290.266846	731.138733	1.440719
813.094055	721.702332	1294.279175	728.240967	1.141966
813.401489	712.711731	1294.502075	732.476257	3.397191
813.708984	714.123474	1297.176880	731.881836	3.045752
814.016357	718.061523	1283.653809	738.123230	3.547026
814.323730	725.789001	1287.220337	739.014832	2.355734
814.630981	725.194580	1274.737427	736.265625	2.014592
814.938232	722.742615	1281.276245	733.367859	1.902346
815.245361	722.445374	1267.753052	736.711426	2.616147
815.552490	718.433044	1281.201782	739.460632	3.736453
815.859619	718.655945	1281.424683	740.575195	3.894895
816.166565	727.497986	1293.164551	744.587585	3.021144
816.473572	731.584534	1281.870605	746.445129	2.700522
816.780457	726.829285	1286.774414	747.336731	3.662403
817.087341	718.953125	1286.625854	738.866272	3.507857
817.394043	724.080078	1297.474121	738.866211	2.578704
817.700806	723.485657	1305.052979	733.813660	1.775891
818.007507	726.532043	1316.495605	736.711487	1.725436
818.314209	723.782898	1326.006226	732.922058	1.517570
818.620667	726.903503	1326.526367	735.894226	1.499396
818.927246	727.126465	1334.328247	740.129395	2.141451
819.233704	726.754944	1346.216675	746.742371	3.226580
819.540161	731.138855	1382.401978	745.924988	2.270378
819.846497	729.429871	1421.633911	735.299744	0.847997
820.152832	728.835449	1480.110352	729.578430	0.098896
820.458984	728.240967	1535.391602	731.584534	0.414243
820.765259	722.593933	1597.211304	739.534973	1.936966
821.071350	720.364807	1687.191895	740.203674	2.051956
821.377502	713.454773	1844.639282	742.209900	2.542037
821.683472	716.946960	2144.673584	742.284180	1.774655
821.989441	714.197754	2659.443115	749.565857	1.818182
822.295349	717.467102	3376.315674	754.618408	1.397270
822.601196	724.748718	4171.652344	755.955872	0.905368
822.907043	733.813660	4845.949219	763.683411	0.726380
823.212769	733.145020	5235.815430	764.797913	0.702980
823.518494	724.674500	5296.446777	772.599609	1.048283
823.824097	720.216309	5065.736816	766.804016	1.072086
824.129700	719.993347	4701.355957	766.729797	1.173881
824.435242	727.720886	4320.183105	763.683411	1.001055
824.740723	734.333801	3988.792969	758.407898	0.739726
825.046082	738.494690	3683.854736	759.522461	0.713929
825.351501	726.457764	3363.461670	757.590576	1.180613
825.656799	723.634277	3038.906982	759.522461	1.550063
825.962036	716.649841	2743.776611	750.011658	1.645769
826.267212	727.423645	2531.567871	745.850769	1.021378
826.572449	730.098572	2424.497559	744.364685	0.841957
826.877502	725.194580	2434.751465	746.073547	1.221309
827.182495	717.095520	2540.707275	749.714417	1.788697
827.487488	707.287598	2679.876221	744.290344	1.875847
827.792419	720.439209	2798.612061	743.398743	1.104794
828.097290	717.021301	2824.766602	736.191345	0.909505
828.402100	720.662109	2752.247070	736.562805	0.782674
828.706848	724.377197	2608.917236	738.123230	0.729410
829.011597	730.470032	2442.850586	740.649475	0.594462
829.316223	734.556641	2290.009766	735.448242	0.057321
829.620789	724.451477	2150.172119	738.197510	0.964146
829.925354	725.789001	2013.380859	736.711426	0.848283
830.229797	720.736328	1890.112671	751.349121	2.617873
830.534302	721.850891	1746.931274	756.327393	3.363297
830.838562	722.371094	1629.087280	755.955872	3.704001
831.142944	720.216309	1526.103516	751.051941	3.826296
831.447144	722.073792	1458.265137	733.442139	1.544211
831.751404	721.925232	1405.658813	727.646484	0.836766
832.055542	726.309082	1370.959473	725.863281	-0.069154
832.359619	720.439148	1357.659302	733.516418	2.052238
832.663635	714.792175	1369.919312	739.609192	3.788122
832.967651	720.587830	1399.268921	731.658875	1.631259
833.271545	730.395752	1466.512695	735.225403	0.656098
833.575439	735.819824	1558.871094	731.510254	-0.523609
833.879211	725.045959	1690.684082	730.841553	0.600183
834.183044	718.210144	1810.014282	727.126404	0.816654
834.486694	707.956360	1907.870972	722.816833	1.238461
834.790344	715.237976	1942.347290	728.612488	1.089920
835.093933	714.346375	1931.796265	731.287354	1.391513
835.397522	717.021301	1888.849487	732.030457	1.280833
835.700928	721.256531	1820.416626	730.321472	0.824715
836.004395	727.423645	1760.900269	727.349304	-0.007193
836.307739	736.340027	1673.668945	736.414246	0.007918
836.611023	727.200684	1602.635376	741.615479	1.646587
836.914307	725.343201	1516.295776	742.507141	2.170034
837.217529	720.736389	1456.407593	738.420410	2.403794
837.520691	724.377258	1389.089478	738.791992	2.168568
837.823730	723.262695	1330.761841	735.225403	1.969173
838.126831	726.086243	1281.424805	728.612488	0.454902
838.429749	727.720886	1242.936035	718.507324	-1.788294
838.732727	725.937561	1211.505859	721.850891	-0.841626
839.035522	730.470032	1186.242920	726.606262	-0.847740
839.338379	734.779602	1169.896240	735.225403	0.102455
839.641113	738.420410	1177.623779	734.928223	-0.795119
839.943848	741.318298	1200.583374	735.151184	-1.342822
840.246460	731.658936	1226.886597	736.934387	1.065258
840.549072	723.782898	1253.709839	735.968445	2.299477
840.851563	713.751953	1267.455811	734.928223	3.824476
841.154053	720.885071	1279.195679	733.219238	2.209195
841.456482	724.377258	1262.923340	734.631042	1.903975
841.758850	728.984070	1241.747070	737.008606	1.564960
842.061157	724.005676	1219.084839	737.677429	2.761529
842.363403	725.640381	1197.834106	734.556641	1.888263
842.665588	719.027527	1173.685913	741.318176	4.902725
842.967712	721.107910	1154.144165	733.665039	2.899787
843.269775	723.559875	1130.738647	730.395691	1.678824
843.571777	726.829285	1108.670776	727.274963	0.116718
843.873840	728.240967	1080.435913	729.132568	0.253156
844.175659	725.789001	1064.163574	740.723816	4.413693
844.477600	727.720886	1046.999756	730.990173	1.023960
844.779297	730.692932	1034.442505	735.002502	1.418791
845.081116	728.612488	1020.919434	725.937561	-0.915109
845.382751	726.234802	1013.191895	730.915833	1.631265
845.684387	718.878845	1015.198059	728.612488	3.284850
845.985962	719.027405	1005.984558	726.606262	2.641111
846.287537	724.748718	1000.560364	733.070618	3.017240
846.588989	725.714661	990.381042	730.990173	1.993269
846.890381	733.442139	995.284973	735.151123	0.652676
847.191711	725.045898	998.257141	727.423645	0.870296
847.493042	729.801270	985.922852	727.795105	-0.783286
847.794250	724.525879	976.263489	720.810730	-1.475802
848.095459	727.572266	967.198486	718.730225	-3.689930
848.396606	725.937561	965.341003	713.008972	-5.400335
848.697693	725.640442	962.888977	716.946960	-3.664293
848.998657	729.504089	959.099426	720.736389	-3.818762
849.299622	731.064453	958.133606	729.429871	-0.719861
849.600464	736.117126	958.282227	737.974609	0.836082
849.901367	732.104736	957.985046	739.237793	3.157892
850.202087	725.566101	955.978760	734.853943	4.030960
850.502808	716.129578	953.675476	720.364929	1.782961
850.803467	715.386658	951.743591	712.637390	-1.163185
851.104065	718.804504	956.721863	722.073792	1.374127
851.404663	727.720886	953.303894	725.268860	-1.086973
851.705139	728.761047	958.430847	735.671326	3.008788
852.005615	732.773438	952.709473	722.742615	-4.560791
852.306030	733.665039	957.241943	720.810730	-5.749391
852.606384	734.556641	957.019043	717.021301	-7.882383
852.906616	730.024231	959.025208	727.795166	-0.973387
853.206909	729.504089	956.498962	729.281250	-0.098169
853.506958	730.767273	944.833435	728.240967	-1.180152
853.807129	726.234863	944.981995	723.039795	-1.460622
854.107178	721.182190	943.718933	727.052185	2.637764
854.407166	722.668274	943.347351	728.463867	2.626254
854.707092	733.665039	942.232910	729.281189	-2.101882
855.007019	725.491699	931.607605	729.058350	1.730410
855.306763	728.240967	941.564148	724.971680	-1.532551
855.606567	722.445313	937.848938	728.018066	2.587122
855.906250	726.977844	943.124512	729.355469	1.100005
856.205933	726.829285	934.282410	729.281067	1.181849
856.505493	729.578430	936.585754	722.593933	-3.374034
856.805054	727.869446	939.632263	720.141907	-3.649148
857.104492	728.983948	945.799316	728.240967	-0.342679
857.403931	727.943787	944.981995	735.225403	3.354993
857.703308	742.804260	939.037781	735.671204	-3.634984
858.002563	737.008728	933.836609	729.132629	-4.001516
858.301819	735.745605	935.991394	724.971680	-5.380351
858.601013	728.686768	939.929443	727.349365	-0.633112
858.900208	727.497986	943.124329	727.349304	-0.068953
859.199219	728.389465	943.644531	729.132568	0.345220
859.498291	727.126465	949.291565	732.773438	2.541791
859.797302	729.281250	955.087219	732.773438	1.546543
860.096191	726.680664	945.130615	734.779602	3.707457
860.395020	723.114075	938.369080	729.281250	2.865056
860.693787	723.708496	927.297913	726.903503	1.569339
860.992554	724.228699	930.864502	720.067627	-2.013723
861.291260	728.018066	925.143127	721.033630	-3.543150
861.589844	715.237976	923.731384	724.897400	4.632964
861.888428	712.711731	921.502380	723.114075	4.982189
862.186890	718.655945	923.062683	726.606262	3.889460
862.485413	729.652649	919.719055	726.903564	-1.446381
862.783813	735.671204	919.496155	726.532043	-4.971665
863.082153	726.829163	926.480652	726.977844	0.074471
863.380371	728.538147	932.499207	727.572205	-0.473592
863.678589	718.358704	933.242188	721.999512	1.694317
863.976746	714.569275	927.372314	717.541321	1.396618
864.274902	712.414551	933.093506	721.256531	4.006716
864.572937	718.953125	929.378418	728.538269	4.555129
864.870911	716.203918	934.356689	728.761047	5.756117
865.168884	718.061523	935.099792	722.742493	2.156748
865.466736	714.717834	946.839600	717.169861	1.056353
865.764587	724.674500	941.935608	718.433044	-2.872790
866.062317	724.080017	935.396973	720.810730	-1.547101
866.360107	728.835449	934.876770	728.612488	-0.108212
866.657715	729.281250	936.883057	729.355469	0.035751
866.955322	726.309082	939.780823	729.504089	1.496689
867.252808	724.600098	937.105957	729.058289	2.097914
867.550293	720.364929	938.369080	731.584656	5.146565
867.847717	729.281250	935.471252	730.395752	0.540522
868.145081	731.213074	930.270020	731.138733	-0.037347
868.442383	732.996338	935.174011	730.990173	-0.992278
868.739624	723.485596	937.848938	731.956055	3.951449
869.036804	722.668213	941.935547	732.104675	4.303634
869.333984	723.708496	936.511475	726.457764	1.291931
869.631042	725.120300	940.226563	725.417480	0.138155
869.928101	718.507324	945.799316	725.120300	2.909463
870.224976	722.668274	949.663086	718.210022	-1.964033
870.521851	725.045898	942.307068	720.513489	-2.086157
870.818726	732.253357	936.362854	717.912903	-7.025863
871.115479	727.052063	936.288574	728.240967	0.568210
871.412231	732.699158	943.941833	728.240967	-2.110459
871.708862	730.470032	941.712708	733.367859	1.371800
872.005493	731.138855	943.050110	733.442078	1.086881
872.302063	724.748779	942.455627	732.922058	3.754259
872.598572	726.531982	943.198730	731.733154	2.400540
872.895020	730.692932	944.090332	728.166687	-1.183822
873.191406	734.259460	940.672546	729.281250	-2.411771
873.487671	732.179016	944.833313	723.485657	-4.088024
873.783997	735.151184	942.678650	720.662109	-6.981762
874.080200	736.414307	945.725037	717.095520	-9.229716
874.376343	734.408142	954.344177	721.999512	-5.641927
874.672424	730.024231	953.155273	724.823059	-2.330994
874.968445	720.141907	958.728027	728.612488	3.550324
875.264465	721.999512	960.065430	727.423645	2.278417
875.560364	722.742615	967.049988	729.504150	2.767635
875.856201	732.401917	964.375061	726.680664	-2.466343
876.152039	735.671204	949.143066	729.578430	-2.854134
876.447754	733.888000	950.777649	733.962219	0.034220
876.743469	731.956116	952.932434	727.126465	-2.185597
877.039063	734.482422	962.888977	728.761047	-2.504908
877.334595	731.956238	954.344055	730.024231	-0.868756
877.630127	727.052063	945.427795	742.729980	7.179331
877.925537	721.702332	946.393738	744.587585	10.185193
878.221008	721.999512	959.916809	739.312073	7.276714
878.516296	721.256531	974.108643	732.550537	4.466645
878.811646	718.655945	981.984802	731.361633	4.825027
879.106812	719.919006	981.613281	730.544373	4.060221
879.401978	722.371033	991.718445	726.309082	1.462071
879.697083	727.795105	1010.665527	719.993347	-2.758068
879.992126	727.572266	1044.176147	720.290527	-2.299952
880.287109	729.132568	1081.699097	727.275085	-0.526846
880.582031	727.497864	1141.141235	727.423645	-0.017943
880.876892	726.829285	1255.641602	728.092468	0.238872
881.171753	726.457703	1465.695679	725.640381	-0.110563
881.466492	733.293640	1784.157227	729.949951	-0.318185
881.761230	736.711487	2160.574707	734.036621	-0.187860
882.055786	731.807556	2526.812744	739.237793	0.413940
882.350403	717.318420	2775.057861	741.095398	1.155490
882.644958	717.689941	2875.738281	739.163513	0.995046
882.939453	729.504089	2826.475342	742.581360	0.623627
883.233826	735.299744	2706.847900	737.454590	0.109297
883.528137	733.145020	2567.381836	735.448425	0.125578
883.822449	730.024231	2455.630615	735.522644	0.318637
884.116577	725.714661	2333.699707	736.637207	0.679269
884.410828	727.497986	2222.468506	741.838379	0.959243
884.704956	718.804504	2075.720703	728.761047	0.733763
884.999023	721.107910	1916.044312	727.646484	0.547190
885.292969	721.553711	1722.411499	723.485596	0.193023
885.586914	722.965515	1553.001099	729.132629	0.742994
885.880798	722.593994	1423.491333	731.510254	1.272121
886.174622	718.655945	1331.133179	729.578430	1.783329
886.468384	715.386536	1251.034912	725.566101	1.900419
886.762085	718.135803	1192.187134	720.885010	0.579939
887.055664	712.711670	1156.521851	725.194580	2.812669
887.349304	712.563171	1128.138184	731.881836	4.648659
887.642822	714.717834	1108.447998	737.825989	5.869033
887.936340	717.318420	1080.881714	732.401917	4.148795
888.229736	720.364929	1057.550659	727.720886	2.181574
888.523071	716.203918	1037.711792	722.296692	1.895062
888.816284	714.494934	1023.742920	726.903503	4.012498
889.109619	719.844788	1019.359070	725.417480	1.860577
889.402710	726.309082	1012.448914	731.213074	1.713844
889.695862	732.550598	998.479980	721.702332	-4.079379
889.988892	735.968445	989.860840	723.114075	-5.062921
890.281921	743.175720	986.145691	723.782837	-7.981597
>>>>>End Processed Spectral Data<<<<<
