Jaz Data File
++++++++++++++++++++++++++++++++++++
Date: Fri Jun 04 16:03:44 2021
User: jaz
Dark Spectrum Present: Yes
Reference Spectrum Present: Yes
Processed Spectrum Present: Yes
Spectrometers: JAZA3586
Integration Time (usec): 24600 (JAZA3586)
Spectra Averaged: 10 (JAZA3586)
Boxcar Smoothing: 1 (JAZA3586)
Correct for Electrical Dark: No (JAZA3586)
Strobe/Lamp Enabled: Yes (JAZA3586)
Correct for Detector Non-linearity: No (JAZA3586)
Correct for Stray Light: No (JAZA3586)
Number of Pixels in Processed Spectrum: 2048
>>>>>Begin Processed Spectral Data<<<<<
W	D	R	S	P
191.335022	0.000000	0.000000	0.000000	0.000000
191.713211	387.488678	386.225494	379.241089	652.920837
192.091385	782.481934	776.240479	763.683411	301.188141
192.469528	1172.942749	1174.948853	1147.011230	-1292.631104
192.847641	1184.311157	1189.289429	1154.367065	-601.495728
193.225739	1196.571167	1199.320190	1159.196777	-1359.551514
193.603790	1211.877319	1200.360474	1164.620728	410.325836
193.981842	1215.518188	1204.224121	1168.633301	415.128448
194.359863	1208.905273	1203.852661	1174.503052	680.879883
194.737854	1212.768921	1214.849487	1184.459595	-1360.654785
195.115829	1216.855591	1212.694702	1187.877563	696.438416
195.493774	1224.806030	1210.465576	1186.020020	270.465698
195.871704	1219.159058	1204.892944	1182.379272	257.812225
196.249603	1223.468628	1208.533691	1187.580444	240.296860
196.627457	1216.781372	1210.985718	1191.221191	441.023224
197.005310	1218.787598	1215.221069	1191.890015	754.167114
197.383133	1212.026001	1212.248901	1189.735229	-10000.328125
197.760910	1210.688599	1217.821655	1193.747437	-237.502136
198.138687	1208.013672	1216.707031	1190.998169	-195.729889
198.516449	1204.521484	1217.301392	1187.505981	-133.142624
198.894180	1206.527466	1213.883545	1183.716675	-310.094421
199.271866	1202.069458	1216.038330	1185.425537	-119.150070
199.649536	1199.171753	1215.221069	1183.939575	-94.908577
200.027191	1201.846558	1219.901978	1175.840576	-144.034210
200.404816	1200.360474	1213.437622	1170.342163	-229.547836
200.782410	1202.440918	1226.069214	1179.035645	-99.056122
201.159988	1203.183960	1232.756470	1189.958008	-44.723808
201.537537	1212.397461	1237.586060	1201.920776	-41.592964
201.915070	1209.796875	1236.694458	1205.933228	-14.364292
202.292557	1204.149902	1234.911255	1212.991821	28.743597
202.670029	1196.422485	1242.490112	1211.877319	33.548145
203.047485	1196.050903	1249.400269	1203.852661	14.623900
203.424911	1191.592773	1261.734497	1191.369751	-0.317960
203.802292	1197.462524	1257.053345	1187.060181	-17.456285
204.179688	1197.314087	1248.359985	1183.047974	-27.947618
204.557037	1199.691772	1237.957642	1179.184204	-53.592323
204.934357	1188.397827	1239.518066	1184.534058	-7.558199
205.311661	1187.060181	1244.867798	1186.985962	-0.128389
205.688934	1192.038574	1253.858398	1197.091187	8.173126
206.066177	1193.004517	1257.796387	1190.923950	-3.211154
206.443390	1195.902222	1252.743774	1190.106689	-10.195943
206.820587	1191.741333	1246.428101	1189.140747	-4.755421
207.197769	1198.057129	1237.363281	1194.639282	-8.695450
207.574921	1199.914551	1239.517944	1196.422485	-8.817592
207.952042	1195.307739	1233.127930	1193.450317	-4.911191
208.329147	1190.626831	1241.747070	1191.221191	1.162671
208.706223	1191.444092	1237.586060	1199.022949	16.425085
209.083267	1196.868286	1233.499390	1202.441040	15.213175
209.460297	1206.378906	1227.109497	1200.732056	-27.239218
209.837280	1203.926880	1224.806030	1197.165527	-32.383274
210.214264	1195.456421	1231.567627	1198.131470	7.407808
210.591217	1186.168579	1228.595581	1196.125122	23.467468
210.968124	1186.094360	1228.223999	1187.654663	3.703575
211.345016	1190.032349	1233.053589	1185.722900	-10.017025
211.721893	1193.004517	1244.496216	1188.100464	-9.523968
212.098724	1191.592773	1248.657227	1188.546387	-5.338501
212.475555	1193.227417	1249.771851	1183.790894	-16.688686
212.852356	1191.369873	1240.929810	1173.462891	-36.131973
213.229126	1188.917847	1246.799683	1173.611450	-26.444214
213.605865	1193.598999	1250.663330	1175.617554	-31.510832
213.982590	1197.388550	1256.830444	1184.534058	-21.625307
214.359283	1196.645386	1256.681885	1193.896118	-4.579327
214.735931	1192.261475	1249.028687	1194.416260	3.795827
215.112579	1187.580444	1251.703613	1182.750610	-7.532120
215.489197	1193.524536	1248.880249	1171.456665	-39.865570
215.865799	1187.431885	1243.381714	1166.627075	-37.184761
216.242355	1187.357544	1238.774902	1174.948975	-24.133036
216.618896	1182.379272	1232.310547	1176.732300	-11.309490
216.995407	1182.230469	1236.545898	1173.314331	-16.415478
217.371902	1183.270752	1230.824585	1176.880859	-13.437177
217.748367	1195.084961	1229.858521	1172.942749	-63.675426
218.124802	1206.304565	1228.001099	1173.983032	-148.970963
218.501236	1204.001221	1234.168213	1170.862427	-109.851173
218.877609	1188.843384	1244.570557	1175.097656	-24.666113
219.253983	1176.063354	1250.366211	1173.908691	-2.899839
219.630295	1180.744507	1244.719238	1177.178101	-5.574711
220.006592	1182.453613	1247.096802	1179.778687	-4.137987
220.382889	1194.119019	1249.846069	1182.676392	-20.533344
220.759140	1195.307861	1256.904785	1178.589844	-27.140995
221.135391	1203.852661	1257.499146	1175.989136	-51.939144
221.511581	1203.258301	1251.332153	1183.270874	-41.576504
221.887772	1196.422485	1251.555054	1190.403931	-10.916514
222.263931	1193.227417	1245.833740	1189.066528	-7.909484
222.640060	1189.066528	1242.713013	1182.082031	-13.019487
223.016159	1190.329590	1241.821411	1181.116089	-17.893135
223.392212	1188.843506	1243.381714	1186.614380	-4.087274
223.768265	1186.094238	1250.514771	1193.450317	11.418842
224.144302	1185.276978	1253.486938	1187.729004	3.594821
224.520294	1188.249023	1251.183594	1187.580322	-1.062534
224.896286	1190.106567	1257.573608	1175.840454	-21.145308
225.272217	1193.598877	1257.127808	1180.001465	-21.403496
225.648148	1188.769409	1260.397095	1181.487549	-10.166265
226.024048	1191.964233	1254.452759	1187.952026	-6.420710
226.399902	1191.146851	1262.106079	1187.060425	-5.758836
226.775772	1198.428589	1261.140015	1181.116089	-27.606611
227.151581	1191.592651	1265.152344	1184.905396	-9.090924
227.527374	1192.558594	1260.322754	1182.453491	-14.912164
227.903137	1188.471924	1273.474243	1181.487427	-8.216831
228.278870	1188.992065	1284.248169	1184.831177	-4.368107
228.654572	1186.911621	1300.000366	1186.985962	0.065737
229.030273	1183.939575	1312.111816	1194.193359	8.000004
229.405930	1187.729126	1317.461548	1183.345093	-3.379289
229.781555	1192.856079	1320.730957	1178.218262	-11.446984
230.157181	1197.982910	1324.891846	1175.320435	-17.857273
230.532761	1198.279907	1332.024902	1184.756958	-10.110994
230.908325	1194.936401	1332.396362	1189.214966	-4.162256
231.283859	1189.512207	1324.297363	1185.574097	-2.921769
231.659332	1186.020020	1311.442993	1181.041626	-3.969284
232.034821	1189.661011	1304.978638	1178.961304	-9.278466
232.410263	1187.580444	1303.567017	1176.806519	-9.288942
232.785690	1192.855957	1298.588745	1174.800293	-17.076693
233.161087	1187.283203	1297.028198	1176.212158	-10.087973
233.536469	1194.564819	1292.272827	1174.651733	-20.380199
233.911804	1192.930176	1291.009766	1173.834351	-19.469725
234.287140	1193.524536	1292.421509	1173.462891	-20.285398
234.662430	1192.558594	1291.604248	1173.685913	-19.054527
235.037704	1197.091064	1300.223267	1177.772461	-18.731884
235.412933	1202.440918	1307.430786	1183.716675	-17.834333
235.788162	1197.091187	1317.164307	1195.085083	-1.670735
236.163345	1193.301758	1320.507935	1197.982788	3.679877
236.538513	1195.233521	1319.244751	1197.685547	1.977262
236.913635	1197.611206	1312.260376	1189.363647	-7.193736
237.288742	1196.942505	1309.585571	1186.317139	-9.432775
237.663834	1191.444214	1304.012817	1182.007690	-8.382909
238.038879	1189.958130	1307.802124	1190.478149	0.441278
238.413910	1192.558716	1315.380981	1191.741333	-0.665501
238.788910	1196.868286	1316.644165	1192.187134	-3.908260
239.163879	1202.069458	1317.089966	1187.208862	-12.919953
239.538834	1201.846558	1314.638062	1189.066406	-11.330775
239.913757	1198.800171	1325.857666	1188.620605	-8.011779
240.288651	1200.954956	1341.238281	1187.060181	-9.904795
240.663528	1200.657715	1351.046387	1180.447388	-13.438729
241.038361	1196.793945	1366.798462	1179.258423	-10.314739
241.413177	1193.524536	1384.110962	1178.664063	-7.797236
241.787979	1199.394531	1414.649536	1181.413208	-8.353498
242.162735	1194.490601	1437.163208	1179.704224	-6.093138
242.537476	1190.849731	1452.989624	1182.379028	-3.231367
242.912170	1187.729004	1465.101074	1188.992188	0.455411
243.286865	1186.837280	1482.042114	1189.883789	1.031998
243.661514	1186.391602	1493.484741	1192.335815	1.935639
244.036148	1187.134644	1488.506470	1176.286377	-3.599629
244.410751	1196.422485	1474.908813	1176.063354	-7.310639
244.785339	1201.995117	1457.967896	1171.010864	-12.104511
245.159882	1201.252075	1450.091797	1181.487671	-7.942625
245.534378	1201.549194	1447.639771	1185.054077	-6.702864
245.908890	1200.806274	1471.639648	1186.688843	-5.212589
246.283356	1200.360474	1503.515625	1185.797119	-4.803928
246.657791	1195.976685	1551.292114	1189.660889	-1.777518
247.032196	1191.741333	1598.846069	1189.512329	-0.547526
247.406586	1194.787720	1662.300415	1190.998413	-0.810525
247.780960	1191.667114	1722.188477	1188.323364	-0.630276
248.155289	1189.363647	1747.599976	1192.410156	0.545738
248.529602	1183.047852	1741.878784	1193.747681	1.914681
248.903870	1195.159302	1695.067993	1192.410156	-0.549929
249.278122	1198.725830	1649.148804	1197.462769	-0.280417
249.652344	1201.995117	1596.096680	1193.524536	-2.149340
250.026550	1195.456543	1558.648071	1191.666992	-1.043403
250.400711	1199.989136	1534.871460	1182.676392	-5.169799
250.774857	1201.400757	1520.456665	1191.518433	-3.097364
251.148987	1197.759888	1518.004517	1187.060303	-3.341066
251.523071	1190.255249	1513.769165	1178.738403	-3.559923
251.897125	1186.837280	1524.766113	1173.908691	-3.825832
252.271164	1195.159302	1534.574097	1182.304810	-3.787251
252.645187	1201.177856	1558.127930	1196.496704	-1.311431
253.019165	1196.645264	1576.852173	1193.821777	-0.742618
253.393112	1194.787720	1585.099976	1190.552368	-1.085119
253.767044	1195.307983	1572.914429	1185.128296	-2.695846
254.140930	1201.475098	1541.781616	1183.790894	-5.196552
254.514801	1196.942505	1523.131470	1181.859009	-4.624159
254.888657	1196.125244	1503.738647	1182.230591	-4.516921
255.262466	1192.855835	1508.642578	1182.230591	-3.364690
255.636276	1192.038452	1503.589966	1186.911621	-1.645581
256.010010	1192.781616	1508.493774	1187.506104	-1.670988
256.383759	1195.159302	1519.861938	1190.775513	-1.350093
256.757446	1196.050903	1540.221069	1188.546387	-2.180467
257.131134	1190.775269	1566.895874	1195.233521	1.185325
257.504791	1188.546265	1589.409668	1192.558716	1.000952
257.878418	1192.187134	1620.319458	1194.639160	0.572726
258.252014	1190.849731	1657.099243	1190.478149	-0.079696
258.625580	1193.821777	1694.027710	1193.524536	-0.059424
258.999115	1196.496704	1755.401733	1188.769165	-1.382621
259.372650	1199.840332	1837.803345	1188.769287	-1.735374
259.746124	1190.478149	1936.105957	1185.722778	-0.637767
260.119598	1183.122192	2027.572632	1189.883789	0.800710
260.493042	1179.852905	2101.429443	1188.249146	0.911074
260.866425	1188.620605	2141.181396	1192.781616	0.436824
261.239838	1191.295410	2115.547119	1199.543091	0.892363
261.613159	1198.948608	2026.160767	1198.428589	-0.062864
261.986511	1194.639282	1921.914063	1194.341919	-0.040887
262.359802	1194.862061	1844.342163	1188.397827	-0.995293
262.733063	1191.146851	1812.466309	1198.428589	1.171980
263.106293	1197.685425	1800.875000	1205.933105	1.367345
263.479523	1194.564819	1787.277710	1203.406860	1.491792
263.852692	1197.314087	1784.156860	1201.029175	0.633064
264.225861	1195.010620	1772.862915	1191.072632	-0.681487
264.598969	1203.852661	1773.754517	1188.917847	-2.620594
264.972076	1204.447144	1764.764038	1179.184204	-4.508688
265.345154	1204.372681	1772.045532	1185.722778	-3.285326
265.718201	1201.474976	1786.683105	1188.174805	-2.272725
266.091217	1197.091187	1816.329956	1190.181030	-1.115911
266.464203	1191.146973	1851.846558	1185.648560	-0.832211
266.837158	1188.843628	1894.124878	1184.236694	-0.653205
267.210114	1190.255371	1932.836548	1187.728882	-0.340231
267.583038	1194.342041	1960.328735	1197.388306	0.397692
267.955902	1189.958130	1966.272949	1200.954956	1.416542
268.328766	1188.174805	1969.913696	1198.131470	1.273656
268.701569	1189.586548	1969.022095	1195.382202	0.743571
269.074371	1193.598877	1982.842407	1194.119019	0.065904
269.447144	1195.679321	1986.185913	1195.530762	-0.018793
269.819885	1195.307861	2008.030884	1182.825073	-1.535922
270.192596	1201.549316	2029.504395	1187.060303	-1.749976
270.565277	1202.218140	2077.132568	1184.979858	-1.970282
270.937927	1208.310791	2138.655273	1190.255249	-1.940737
271.310577	1201.846558	2206.642334	1187.877686	-1.390220
271.683136	1200.731934	2290.901611	1182.527832	-1.669841
272.055725	1192.038452	2350.640869	1181.116089	-0.942719
272.428284	1194.341919	2380.659180	1184.682617	-0.814226
272.800812	1191.592773	2357.179443	1192.038696	0.038257
273.173279	1188.843384	2322.554443	1197.834106	0.793035
273.545776	1186.242798	2302.789795	1190.403931	0.372679
273.918152	1189.735229	2282.059326	1186.837280	-0.265301
274.290558	1196.199585	2252.784180	1182.082031	-1.336150
274.662964	1199.691772	2237.403564	1187.357422	-1.188610
275.035278	1199.245972	2224.474854	1193.970459	-0.514569
275.407593	1191.146851	2239.260986	1199.097290	0.758547
275.779907	1190.106567	2248.400391	1197.759888	0.723175
276.152161	1190.998169	2273.885986	1188.694946	-0.212693
276.524384	1191.443970	2305.910889	1187.877563	-0.320010
276.896606	1188.769287	2340.981689	1188.174805	-0.051595
277.268799	1193.227417	2373.451904	1192.410034	-0.069257
277.640930	1202.515259	2388.015137	1192.410034	-0.852402
278.013031	1202.812378	2398.863281	1192.484497	-0.863498
278.385162	1199.691772	2404.064697	1200.806274	0.092538
278.757233	1193.970337	2396.411377	1199.543091	0.463453
279.129272	1203.035522	2384.374268	1200.137573	-0.245311
279.501282	1201.177856	2381.996582	1198.057129	-0.264285
279.873230	1202.069458	2407.185303	1202.886841	0.067826
280.245178	1192.187134	2443.965088	1201.920898	0.777595
280.617126	1189.437988	2506.305176	1198.279907	0.671436
280.988983	1188.323364	2566.193115	1189.363647	0.075499
281.360870	1190.478149	2625.858154	1186.094238	-0.305418
281.732697	1191.518433	2684.780273	1180.224487	-0.756327
282.104492	1189.809448	2746.376953	1188.174805	-0.105016
282.476288	1187.431763	2805.150391	1196.273804	0.546575
282.848053	1190.775391	2847.577393	1199.320190	0.515741
283.219757	1196.125244	2867.639404	1196.199585	0.004448
283.591461	1195.605103	2852.555908	1192.261353	-0.201801
283.963135	1194.267700	2831.676758	1190.255249	-0.245049
284.334747	1195.159302	2827.441406	1184.311157	-0.664600
284.706360	1198.205688	2861.174805	1184.608276	-0.817659
285.077942	1198.428589	2914.375732	1187.803345	-0.619206
285.449524	1195.530762	2967.427734	1187.060181	-0.478052
285.821014	1198.651489	3006.436768	1181.933350	-0.924786
286.192535	1197.982788	3066.919189	1183.939575	-0.751401
286.563995	1197.388428	3120.863037	1185.425659	-0.621935
286.935425	1192.187256	3173.915039	1190.032349	-0.108739
287.306824	1193.078735	3157.642578	1189.586548	-0.177759
287.678223	1195.605103	3115.438721	1198.131470	0.131593
288.049561	1202.738159	3054.510498	1197.982788	-0.256801
288.420898	1202.663818	3007.105469	1195.159302	-0.415891
288.792145	1201.326294	2986.672119	1192.112915	-0.516056
289.163452	1192.484253	2991.799072	1190.552490	-0.107361
289.534668	1187.431641	3032.294189	1198.205566	0.583996
289.905914	1182.304810	3074.349365	1196.273804	0.738302
290.277039	1188.769165	3150.732422	1206.601929	0.908924
290.648193	1187.060181	3225.183594	1198.874390	0.579661
291.019318	1189.214966	3303.127197	1200.954956	0.555368
291.390381	1181.859131	3336.786377	1190.106689	0.382730
291.761475	1183.865356	3328.687500	1182.379150	-0.069293
292.132507	1182.825073	3301.418701	1180.744507	-0.098205
292.503510	1179.852905	3267.462158	1180.298706	0.021355
292.874481	1183.493652	3247.177734	1194.044800	0.511277
293.245422	1187.134644	3249.332275	1198.948730	0.572888
293.616364	1188.992188	3284.106201	1198.577271	0.457497
293.987213	1188.620605	3327.870361	1194.341919	0.267445
294.358093	1190.106689	3409.305908	1191.592773	0.066965
294.728943	1195.902344	3496.983154	1194.193359	-0.074269
295.099731	1198.800049	3603.384521	1195.084961	-0.154500
295.470490	1194.416138	3661.860596	1191.221191	-0.129484
295.841248	1192.112793	3702.355713	1193.078735	0.038480
296.211975	1192.261475	3742.330811	1193.598877	0.052446
296.582642	1197.313965	3815.890625	1204.744263	0.283753
296.953308	1196.348145	3898.218018	1202.663940	0.233756
297.323883	1190.552612	3972.149170	1201.920776	0.408692
297.694519	1186.391602	4024.384033	1200.657593	0.502679
298.065063	1191.147095	4035.455078	1201.177856	0.352661
298.435608	1195.382202	3997.709229	1202.738159	0.262495
298.806122	1196.719604	3882.242920	1191.741333	-0.185374
299.176575	1197.165405	3752.212891	1193.821777	-0.130864
299.547028	1196.942505	3644.473877	1198.502930	0.063755
299.917450	1197.091187	3595.657227	1203.109741	0.250923
300.287872	1197.239746	3577.899170	1200.731934	0.146690
300.658234	1196.719604	3559.768799	1195.085083	-0.069170
301.028564	1198.577271	3535.249023	1197.314087	-0.054059
301.398865	1196.125244	3521.800049	1198.948608	0.121400
301.769135	1195.605103	3506.642578	1203.332397	0.334365
302.139374	1193.524536	3519.571289	1203.109497	0.412071
302.509583	1190.923950	3534.283203	1206.081787	0.646842
302.879791	1192.038452	3539.707764	1199.394653	0.313341
303.249939	1189.958008	3516.822266	1200.583374	0.456639
303.620087	1197.982788	3488.364014	1195.828003	-0.094080
303.990173	1195.605103	3468.005127	1196.793945	0.052317
304.360260	1195.456421	3454.110352	1188.769165	-0.296073
304.730286	1186.243042	3436.054932	1189.214966	0.132097
305.100281	1186.763062	3434.494385	1186.094360	-0.029750
305.470276	1183.939575	3457.008057	1189.586548	0.248430
305.840179	1185.648560	3471.051514	1186.020142	0.016259
306.210144	1186.614502	3482.791260	1189.512329	0.126202
306.579987	1194.193359	3489.404297	1194.490479	0.012945
306.949890	1200.211914	3510.134766	1196.273804	-0.170487
307.319702	1197.759766	3546.765869	1200.063354	0.098067
307.689484	1193.375977	3583.545898	1192.484497	-0.037298
308.059265	1188.843628	3633.922852	1195.679321	0.279569
308.429016	1189.215088	3703.395752	1186.911621	-0.091619
308.798737	1191.444092	3776.807373	1195.976563	0.175313
309.168396	1191.221191	3856.682861	1192.632935	0.052964
309.538055	1188.546265	3903.790771	1201.029175	0.459734
309.907684	1185.648560	3950.378174	1196.050903	0.376252
310.277313	1187.803345	3985.821045	1196.422485	0.308045
310.646851	1196.496704	4020.371826	1193.673218	-0.099986
311.016388	1207.493530	4042.662842	1200.137573	-0.259454
311.385895	1204.372681	4044.520264	1202.663696	-0.060172
311.755371	1200.732056	4044.891602	1202.886597	0.075753
312.124817	1194.044800	4049.498291	1204.669922	0.372099
312.494232	1196.125244	4037.386963	1206.973267	0.381803
312.863617	1191.890015	4016.136719	1207.419312	0.549856
313.232971	1184.236694	3975.195557	1194.713501	0.375384
313.602295	1190.032349	3947.629150	1189.289429	-0.026941
313.971619	1188.694946	3945.325928	1190.701050	0.072774
314.340820	1193.450317	3949.709717	1198.502930	0.183314
314.710083	1188.174927	3985.226563	1201.400635	0.472845
315.079285	1191.444214	4022.452148	1208.682373	0.608905
315.448486	1189.809570	4070.451904	1205.933228	0.559724
315.817596	1184.608276	4078.922607	1209.276855	0.852312
316.186707	1186.094360	4034.637939	1202.366577	0.571247
316.555786	1189.140747	3955.728516	1202.961060	0.499544
316.924866	1192.187134	3873.326904	1203.258301	0.412928
317.293884	1192.261353	3826.218750	1206.750366	0.550085
317.662872	1194.193359	3804.670898	1209.202393	0.574954
318.031830	1193.970459	3821.017334	1210.391235	0.625066
318.400757	1194.119019	3837.884033	1207.716431	0.514320
318.769684	1192.855957	3864.929932	1211.431519	0.695174
319.138550	1193.153076	3899.555420	1211.282837	0.669884
319.507416	1197.388306	3934.106201	1205.487305	0.295938
319.876190	1200.954834	3954.836670	1198.354370	-0.094429
320.244995	1201.400757	3922.886475	1196.125122	-0.193851
320.613770	1196.645264	3884.843018	1198.354126	0.063569
320.982483	1194.787720	3855.122314	1202.886719	0.304435
321.351166	1192.707275	3828.299072	1195.828003	0.118407
321.719818	1193.153198	3812.398438	1196.496704	0.127652
322.088440	1187.803345	3818.045166	1187.431641	-0.014132
322.457062	1188.397705	3847.840820	1193.301636	0.184397
322.825623	1184.534058	3889.821533	1197.165405	0.466913
323.194183	1192.112793	3945.325928	1208.236450	0.585631
323.562653	1190.701050	4032.928955	1214.700806	0.844399
323.931183	1193.673218	4123.280762	1208.905273	0.519935
324.299591	1194.193359	4205.236816	1207.196411	0.431845
324.668060	1196.273804	4273.669922	1207.047729	0.350099
325.036407	1195.679321	4330.511230	1213.809204	0.578337
325.404755	1190.180908	4361.644043	1208.310913	0.571661
325.773102	1189.512329	4375.092773	1202.292358	0.401184
326.141388	1191.295532	4375.315918	1203.481201	0.382713
326.509674	1188.174805	4364.541992	1204.595703	0.516971
326.877899	1184.385376	4358.226074	1202.069458	0.557182
327.246124	1184.682617	4361.644043	1196.348145	0.367191
327.614288	1186.317261	4356.739746	1201.029175	0.464036
327.982422	1184.608276	4339.130371	1211.728882	0.859737
328.350525	1186.911743	4295.291504	1215.592651	0.922696
328.718628	1191.072632	4291.948242	1215.369629	0.783553
329.086700	1196.719604	4292.319336	1203.555542	0.220828
329.454712	1191.146973	4322.709473	1212.174561	0.671473
329.822693	1185.277100	4337.272461	1219.381958	1.082008
330.190674	1184.459717	4347.377441	1231.121704	1.475283
330.558563	1186.317261	4365.358887	1223.840210	1.180323
330.926483	1186.020142	4387.204102	1210.242798	0.756678
331.294312	1186.540283	4444.342773	1207.122070	0.631769
331.662231	1185.871460	4502.373535	1208.608154	0.685562
332.029999	1187.506226	4567.313965	1217.970337	0.901356
332.397766	1196.125122	4611.672363	1217.301392	0.619996
332.765503	1203.183960	4672.452637	1219.010498	0.456192
333.133240	1197.982910	4735.312500	1221.388184	0.661665
333.500916	1192.707275	4830.270996	1222.131226	0.808892
333.868561	1183.122192	4884.957520	1215.518188	0.875133
334.236176	1194.416138	4910.815430	1217.895874	0.631787
334.603790	1189.363647	4893.800293	1218.416016	0.784259
334.971344	1193.152954	4881.391602	1226.515015	0.904553
335.338867	1185.128418	4869.057129	1222.205444	1.006453
335.706360	1189.512207	4856.797363	1226.440674	1.006970
336.073853	1193.004517	4856.054199	1216.781372	0.649100
336.441284	1195.456543	4863.930176	1212.694702	0.469900
336.808655	1199.765991	4865.937012	1213.957886	0.387104
337.176086	1198.279907	4828.190918	1220.199341	0.603856
337.543396	1195.753784	4732.562988	1227.480957	0.897056
337.910706	1185.574219	4648.452637	1226.812134	1.190857
338.277954	1181.859131	4632.774414	1229.115601	1.369389
338.645264	1189.958130	4711.460938	1232.607910	1.211124
339.012421	1190.181030	4855.459961	1231.716187	1.133206
339.379669	1191.072632	4989.056152	1234.911255	1.154261
339.746796	1187.357422	5102.070801	1233.202271	1.171091
340.113953	1194.341919	5172.138184	1232.384888	0.956383
340.481018	1196.348022	5222.738281	1237.586060	1.024194
340.848114	1197.388428	5239.233887	1240.558228	1.068071
341.215118	1197.314087	5258.849609	1244.421997	1.159855
341.582153	1189.660889	5275.419434	1234.316772	1.092964
341.949066	1190.998291	5323.418457	1229.115601	0.922397
342.316010	1189.958130	5341.474121	1229.041382	0.941421
342.682922	1189.437866	5372.160645	1237.586182	1.151124
343.049835	1188.249023	5410.055176	1238.032104	1.179189
343.416656	1184.533936	5475.292969	1249.400269	1.511768
343.783478	1189.140747	5579.539551	1245.536499	1.284525
344.150269	1180.893066	5725.173340	1252.669556	1.579491
344.516998	1180.150024	5925.716309	1242.638672	1.316779
344.883728	1186.391479	6071.052246	1247.542725	1.251904
345.250427	1191.146973	6155.608887	1255.493042	1.296134
345.617065	1190.552490	6166.828125	1262.997681	1.455812
345.983704	1188.694946	6142.828613	1270.502197	1.651293
346.350281	1185.797241	6125.738770	1262.477539	1.552251
346.716827	1189.363647	6042.817871	1258.688110	1.428353
347.083405	1189.735229	5984.638184	1260.842896	1.482985
347.449860	1195.456421	5891.982910	1266.044067	1.502976
347.816376	1192.187134	5832.392090	1269.239014	1.660527
348.182770	1184.311035	5772.652832	1263.071899	1.716543
348.549194	1184.831177	5738.474121	1264.037842	1.739413
348.915558	1178.663940	5744.640625	1267.530151	1.946270
349.281921	1184.088135	5762.622559	1269.907715	1.874390
349.648193	1178.143921	5816.491699	1267.232910	1.920705
350.014526	1176.806519	5864.564941	1266.415649	1.911556
350.380737	1170.787964	5933.517578	1268.273071	2.046833
350.746948	1172.348267	6002.544922	1273.102905	2.085932
351.113159	1182.156372	6058.494629	1274.291626	1.889435
351.479309	1187.431763	6116.748535	1274.886108	1.774168
351.845428	1184.534058	6154.494629	1274.068726	1.801517
352.211517	1182.007690	6219.063965	1274.143066	1.829151
352.577576	1180.447388	6262.455566	1282.910767	2.016199
352.943604	1185.499878	6307.260254	1283.133667	1.906255
353.309601	1188.174683	6379.854004	1284.991211	1.864840
353.675537	1190.626831	6505.797363	1280.310181	1.687309
354.041473	1197.759888	6654.923340	1297.994141	1.836746
354.407379	1202.143677	6771.875488	1299.628906	1.750268
354.773254	1201.549194	6897.298828	1301.857910	1.761115
355.139038	1199.022949	7009.050293	1290.489624	1.574290
355.504913	1197.239746	7163.822266	1293.164551	1.607701
355.870636	1194.787720	7271.933105	1300.446289	1.738622
356.236389	1198.948730	7444.463379	1307.356323	1.735767
356.602081	1194.713501	7622.791016	1315.603882	1.880661
356.967804	1198.948730	7803.420410	1306.316162	1.625678
357.333405	1193.598877	7960.571777	1311.740234	1.745852
357.699036	1196.273804	8122.476563	1311.442993	1.662804
358.064606	1194.044678	8320.418945	1323.851563	1.821500
358.430176	1186.688721	8475.934570	1321.845337	1.854192
358.795654	1184.608276	8576.020508	1321.919800	1.857717
359.161163	1183.047974	8578.546875	1323.554443	1.899892
359.526581	1183.642334	8559.748047	1323.331543	1.893807
359.892029	1186.020020	8585.753906	1334.848511	2.011268
360.257416	1189.512207	8702.186523	1341.684326	2.025539
360.622772	1200.063354	8933.491211	1350.526367	1.945619
360.988098	1201.400757	9239.989258	1356.024780	1.923522
361.353394	1191.815674	9581.633789	1365.832642	2.074145
361.718658	1180.744507	9879.364258	1382.699341	2.321688
362.083893	1173.537231	10100.191406	1394.810669	2.478795
362.449097	1185.797119	10221.454102	1404.172852	2.416822
362.814209	1193.078857	10226.135742	1404.692993	2.342664
363.179382	1198.948730	10020.463867	1405.213013	2.338196
363.544434	1195.307861	9638.399414	1398.971680	2.412195
363.909546	1200.880493	9166.280273	1391.615601	2.394545
364.274536	1200.063110	8747.881836	1390.798340	2.527025
364.639587	1208.831055	8448.368164	1390.352539	2.507363
365.004517	1199.468872	8269.075195	1403.950073	2.892399
365.369507	1197.759888	8148.854004	1409.151001	3.041120
365.734344	1192.335815	8075.813965	1425.274780	3.384030
366.099274	1192.261475	8009.981934	1423.417114	3.390512
366.464081	1192.038452	7972.681641	1434.785522	3.580001
366.828918	1181.784668	7951.134277	1441.249878	3.832942
367.193665	1182.825073	7922.750488	1456.630493	4.062440
367.558411	1180.818848	7910.564941	1470.896606	4.310382
367.923126	1185.797241	7919.927246	1491.255493	4.535972
368.287781	1187.952026	7916.880859	1503.144043	4.684134
368.652435	1190.552612	7875.791504	1514.883789	4.851452
369.017059	1194.787720	7814.491699	1522.611328	4.952240
369.381653	1193.153076	7748.881348	1543.713257	5.347387
369.746185	1191.890015	7745.835449	1564.889648	5.691223
370.110687	1184.311035	7768.200684	1591.638672	6.186732
370.475220	1184.236816	7837.005371	1615.415527	6.481192
370.839661	1193.227539	7891.766113	1634.214233	6.583327
371.204041	1201.772339	7976.322754	1657.842407	6.732109
371.568451	1198.874390	8024.990723	1695.290894	7.272313
371.932770	1189.214966	8086.885254	1732.962402	7.883059
372.297150	1192.558594	8093.052246	1762.014648	8.252396
372.661377	1197.759766	8144.173340	1778.509766	8.360430
373.025696	1197.834106	8192.098633	1802.583984	8.646368
373.389862	1179.109863	8199.379883	1835.425781	9.348870
373.754059	1176.360718	8182.067871	1879.784546	10.040726
374.118225	1181.561890	8168.395996	1929.344360	10.702737
374.482361	1190.626831	8240.394531	1979.498657	11.190041
374.846436	1193.375977	8334.090820	2023.857422	11.630228
375.210510	1187.951904	8466.497070	2072.451416	12.152147
375.574524	1189.289429	8599.871094	2126.246826	12.643507
375.938538	1188.472046	8767.944336	2194.159424	13.268567
376.302460	1188.323364	8935.645508	2270.616943	13.969905
376.666412	1186.168579	9118.950195	2344.250977	14.598692
377.030304	1190.701050	9306.043945	2424.349121	15.201429
377.394196	1195.753662	9470.030273	2488.100830	15.618855
377.757996	1206.527588	9612.765625	2550.515137	15.987978
378.121796	1201.177734	9673.470703	2600.966797	16.521963
378.485565	1194.936401	9663.440430	2656.099365	17.254086
378.849304	1189.512329	9580.815430	2704.767822	18.057453
379.212982	1187.877563	9428.791992	2731.814209	18.735018
379.576630	1189.735229	9223.048828	2748.680420	19.406004
379.940277	1188.397705	9053.637695	2777.584229	20.205187
380.303864	1188.026123	8909.342773	2820.308350	21.139948
380.667450	1188.694824	8842.692383	2870.611328	21.974354
381.030945	1187.951782	8805.169922	2913.409424	22.652071
381.394501	1187.951782	8832.141602	2975.823975	23.388641
381.757935	1191.889893	8875.459961	3038.981201	24.039492
382.121399	1195.382202	8899.980469	3099.315186	24.711645
382.484741	1197.982910	8974.505859	3169.085205	25.346832
382.848145	1193.599121	9036.028320	3238.855469	26.079372
383.211487	1186.094360	9134.776367	3320.811523	26.856241
383.574768	1184.385376	9203.135742	3404.847656	27.690878
383.938019	1187.654663	9289.028320	3500.549805	28.549417
384.301270	1198.354370	9399.517578	3594.394287	29.215857
384.664459	1197.462769	9508.371094	3677.538818	29.841217
385.027649	1192.484375	9596.271484	3760.311768	30.555597
385.390778	1181.859009	9648.357422	3851.184326	31.528091
385.753876	1186.837280	9694.870117	3928.681885	32.226540
386.116943	1190.626831	9712.554688	3974.006836	32.661388
386.479980	1198.205688	9737.074219	4030.179688	33.165684
386.842987	1194.787720	9771.700195	4100.544434	33.878822
387.205994	1193.078735	9857.073242	4179.602051	34.470516
387.568909	1191.221313	9908.192383	4268.468262	35.301796
387.931793	1193.227417	9943.933594	4320.257324	35.734600
388.294678	1189.809448	10001.591797	4401.099121	36.443134
388.657471	1189.215088	10035.918945	4457.048828	36.938431
389.020294	1190.701172	10033.987305	4529.270996	37.752594
389.383057	1198.874390	10029.306641	4595.697754	38.467236
389.745819	1197.982788	10065.416992	4645.257813	38.875675
390.108521	1198.279907	10107.696289	4712.353027	39.442242
390.471191	1195.605103	10199.163086	4783.758301	39.852615
390.833801	1193.524536	10306.084961	4903.013672	40.707432
391.196442	1189.958008	10504.993164	5029.328125	41.216915
391.558960	1190.255371	10664.372070	5161.289551	41.914555
391.921509	1194.639160	10865.584961	5286.563965	42.311527
392.284027	1190.106812	11050.671875	5398.984375	42.683937
392.646484	1188.546265	11194.968750	5496.171875	43.048607
393.008911	1185.499878	11215.699219	5536.221191	43.376221
393.371307	1189.066406	11170.597656	5562.747559	43.817738
393.733673	1188.249146	11094.808594	5555.242676	44.081841
394.096008	1191.369873	11033.583008	5565.050781	44.437981
394.458344	1188.843628	11014.932617	5609.929688	44.993343
394.820587	1188.546265	11007.206055	5646.189453	45.399708
395.182831	1186.614380	11037.000000	5705.482910	45.875042
395.545013	1192.855957	10994.351563	5706.151855	46.047009
395.907196	1199.023071	10902.364258	5697.903809	46.364246
396.269287	1196.794067	10754.798828	5652.876465	46.621471
396.631409	1195.159302	10609.537109	5614.759277	46.945217
396.993469	1195.010742	10431.507813	5571.515625	47.382736
397.355530	1194.936401	10301.106445	5540.085449	47.716537
397.717499	1194.341919	10248.424805	5540.679688	48.004177
398.079468	1192.112793	10239.955078	5570.475098	48.391235
398.441376	1185.945679	10246.493164	5589.199219	48.598091
398.803284	1188.100464	10236.833984	5612.604980	48.896393
399.165131	1191.964233	10271.161133	5632.740723	48.911552
399.526978	1202.738159	10269.601563	5669.148926	49.260815
399.888763	1201.549194	10272.946289	5694.857422	49.532700
400.250519	1199.468750	10283.050781	5748.652344	50.081383
400.612244	1201.252075	10300.215820	5779.859863	50.320103
400.973938	1197.016724	10277.478516	5791.600098	50.598564
401.335602	1193.376099	10284.684570	5805.494629	50.731075
401.697205	1185.054199	10340.709961	5847.475098	50.923939
402.058807	1186.242798	10426.899414	5914.719238	51.170353
402.420349	1189.958130	10573.499023	5996.972168	51.228146
402.781860	1194.044800	10686.663086	6076.401855	51.433197
403.143341	1192.187256	10848.494141	6157.986328	51.425446
403.504822	1187.431763	10988.703125	6230.505859	51.453266
403.866241	1188.472046	11187.909180	6339.433594	51.512512
404.227631	1191.666992	11357.468750	6438.999512	51.617496
404.588959	1195.976563	11535.942383	6557.512207	51.852547
404.950287	1191.890015	11699.706055	6637.833496	51.827545
405.311554	1195.010742	11819.631836	6687.914063	51.699757
405.672821	1192.633057	11872.460938	6715.628906	51.714279
406.034027	1193.896118	11839.618164	6699.431152	51.715942
406.395203	1188.100464	11738.343750	6662.576660	51.889572
406.756348	1187.060303	11666.492188	6621.189941	51.855198
407.117493	1186.985962	11611.063477	6605.884277	51.984444
407.478516	1193.078857	11608.610352	6622.973145	52.132671
407.839600	1197.536987	11581.268555	6625.424316	52.272991
408.200592	1196.050903	11564.996094	6632.260254	52.427795
408.561554	1195.233521	11554.593750	6641.251465	52.570988
408.922485	1191.666870	11549.465820	6647.493652	52.673611
409.283417	1191.592651	11541.515625	6676.471191	52.994389
409.644257	1192.632935	11609.799805	6727.145996	53.128777
410.005096	1203.332520	11742.429688	6824.556152	53.336861
410.365906	1208.682373	11899.358398	6904.728516	53.280502
410.726715	1210.465698	12006.278320	6965.285645	53.306038
411.087433	1208.831055	12067.281250	6986.313965	53.207253
411.448120	1208.162231	12140.247070	7021.830078	53.179863
411.808807	1200.732056	12182.301758	7018.708496	52.979465
412.169434	1184.311035	12140.469727	6983.489746	52.930767
412.530029	1181.338989	12081.399414	6956.964355	52.987095
412.890564	1184.162476	12054.799805	6957.855469	53.112736
413.251099	1192.558716	12071.887695	6990.399902	53.292271
413.611572	1192.558716	12107.479492	7014.770996	53.341774
413.972076	1194.564819	12149.833008	7038.325684	53.342014
414.332489	1200.137573	12209.200195	7079.191895	53.401951
414.692871	1201.920776	12337.893555	7152.900391	53.439243
415.053223	1198.948608	12465.247070	7265.469238	53.846615
415.413574	1198.725708	12683.473633	7379.969238	53.821327
415.773834	1197.685547	12865.292969	7470.395996	53.761753
416.134094	1192.335815	13081.588867	7560.078613	53.558811
416.494263	1188.472046	13239.926758	7663.210938	53.725784
416.854462	1188.174927	13507.268555	7818.726563	53.823372
417.214630	1195.605103	13818.596680	7996.681152	53.878483
417.574738	1190.403809	14173.762695	8183.626953	53.862972
417.934784	1189.363525	14516.002930	8372.727539	53.902294
418.294861	1185.054077	14929.497070	8591.698242	53.888279
418.654846	1188.174805	15428.960938	8855.174805	53.838322
419.014832	1190.255371	15937.636719	9120.065430	53.770973
419.374756	1188.472046	16431.822266	9422.476563	54.017029
419.734680	1188.694946	16990.283203	9738.709961	54.108578
420.094543	1183.419434	17514.341797	10068.614258	54.407188
420.454376	1187.729004	18040.255859	10329.564453	54.246082
420.814148	1188.323486	18518.912109	10598.094727	54.295742
421.173920	1204.595703	19014.585938	10878.512695	54.317364
421.533691	1204.744263	19527.572266	11150.237305	54.279247
421.893341	1200.360474	19903.619141	11341.640625	54.222000
422.253021	1187.729004	20212.568359	11468.401367	54.038151
422.612640	1196.422485	20301.064453	11529.776367	54.088181
422.972260	1201.252075	20285.236328	11516.475586	54.051731
423.331757	1200.063232	20210.414063	11447.448242	53.904236
423.691315	1196.645386	20206.548828	11440.613281	53.887531
424.050781	1201.549316	20305.669922	11503.843750	53.927082
424.410248	1207.270630	20346.462891	11573.168945	54.160587
424.769653	1198.948730	20416.531250	11627.558594	54.265980
425.128998	1195.605103	20401.224609	11643.088867	54.398056
425.488373	1191.072632	20334.798828	11596.722656	54.355408
425.847656	1194.639160	20130.244141	11487.348633	54.356377
426.206940	1187.506104	19901.242188	11351.968750	54.315517
426.566193	1189.512207	19540.873047	11160.416992	54.333321
426.925385	1199.988892	19176.195313	10954.375000	54.262756
427.284576	1203.852661	18657.115234	10661.919922	54.190830
427.643677	1202.515259	18250.234375	10449.117188	54.239525
428.002777	1193.152954	17832.429688	10225.837891	54.285316
428.361847	1188.992188	17443.232422	10019.053711	54.324665
428.720856	1184.979858	17095.494141	9852.689453	54.477875
429.079865	1183.716675	16822.656250	9746.362305	54.752087
429.438812	1191.815552	16654.509766	9664.184570	54.792320
429.797760	1191.518433	16509.173828	9573.311523	54.719818
430.156616	1190.329590	16319.776367	9438.155273	54.515053
430.515503	1182.527832	16159.207031	9360.210938	54.602779
430.874268	1183.567993	16085.350586	9327.443359	54.650345
431.233093	1183.419434	16079.703125	9356.868164	54.869049
431.591827	1187.729004	16148.433594	9387.851563	54.811073
431.950562	1188.917847	16167.975586	9397.733398	54.801949
432.309204	1186.168579	16250.823242	9427.008789	54.703148
432.667877	1187.357422	16371.192383	9511.713867	54.823807
433.026459	1193.227417	16552.640625	9610.462891	54.801804
433.385010	1203.852661	16651.685547	9688.183594	54.922466
433.743561	1203.704102	16776.513672	9785.593750	55.108166
434.102051	1198.354370	16928.685547	9864.280273	55.090549
434.460510	1192.038574	17123.431641	9967.263672	55.081341
434.818939	1188.100586	17222.255859	9987.176758	54.877079
435.177338	1192.781616	17219.804688	10012.960938	55.033173
435.535675	1188.694824	17169.054688	9968.750000	54.942787
435.894012	1190.181030	17084.052734	9964.440430	55.205299
436.252289	1190.998169	17089.253906	9967.263672	55.202694
436.610535	1192.855835	17046.603516	9980.563477	55.429844
436.968719	1195.010742	17179.531250	10045.208008	55.367298
437.326935	1196.273926	17294.255859	10112.526367	55.387386
437.685028	1198.948730	17493.611328	10196.117188	55.215431
438.043152	1199.691772	17632.035156	10258.605469	55.128559
438.401215	1194.639160	17856.056641	10377.415039	55.114010
438.759277	1190.106689	18091.375000	10519.110352	55.197067
439.117249	1190.106689	18508.064453	10761.114258	55.266380
439.475250	1195.382202	18822.884766	10930.895508	55.229118
439.833130	1197.239746	19234.820313	11151.575195	55.186649
440.191071	1198.354248	19455.275391	11248.836914	55.050259
440.548889	1201.326294	19750.035156	11399.299805	54.979427
440.906708	1204.595703	20056.533203	11560.984375	54.935406
441.264496	1197.834106	20304.259766	11680.981445	54.867130
441.622223	1184.756836	20479.093750	11790.355469	54.967419
441.979950	1186.168579	20496.033203	11814.950195	55.043270
442.337616	1188.620605	20552.876953	11850.020508	55.057114
442.695251	1194.564941	20461.855469	11788.497070	54.984024
443.052887	1194.341919	20345.498047	11713.750000	54.928318
443.410461	1194.119019	20174.898438	11636.698242	55.016598
443.768005	1192.707153	20045.314453	11575.843750	55.075336
444.125458	1192.707275	19934.529297	11508.153320	55.039719
444.482941	1198.948608	19915.431641	11538.247070	55.241676
444.840393	1205.635986	19999.246094	11589.218750	55.250607
445.197754	1202.589478	20241.400391	11748.746094	55.392937
445.555084	1202.515259	20518.919922	11891.333008	55.335442
445.912415	1202.589478	20900.537109	12128.804688	55.468800
446.269714	1200.954956	21174.640625	12276.221680	55.449287
446.626953	1195.085083	21490.650391	12453.506836	55.472328
446.984161	1198.057007	21761.630859	12594.756836	55.421787
447.341309	1198.354370	22002.224609	12740.984375	55.483086
447.698456	1195.456421	22144.365234	12830.817383	55.541611
448.055542	1187.134521	22287.546875	12888.846680	55.457268
448.412598	1185.871460	22262.431641	12860.983398	55.393822
448.769653	1188.100464	22143.474609	12787.200195	55.351429
449.126617	1188.472046	21778.425781	12603.672852	55.440636
449.483582	1195.902222	21506.253906	12480.182617	55.559258
449.840515	1197.462646	21158.515625	12278.598633	55.513783
450.197388	1192.335693	20900.759766	12163.875000	55.669289
450.554230	1194.119019	20661.876953	12048.260742	55.754452
450.911041	1196.348145	20464.232422	11971.059570	55.920570
451.267822	1201.846436	20283.304688	11868.077148	55.898399
451.624573	1195.307739	20069.164063	11778.393555	56.072731
451.981262	1194.861938	19927.025391	11715.831055	56.165260
452.337921	1188.694946	19749.365234	11632.909180	56.270672
452.694580	1186.985962	19615.027344	11548.575195	56.227295
453.051147	1184.756958	19566.656250	11499.906250	56.115799
453.407715	1181.561890	19469.689453	11440.910156	56.098412
453.764221	1179.035522	19502.904297	11423.894531	55.909912
454.120728	1182.899292	19252.427734	11303.895508	56.011398
454.477142	1186.465942	19210.894531	11266.893555	55.926479
454.833557	1187.134521	19020.753906	11172.750977	55.993214
455.189911	1184.682495	18877.126953	11108.256836	56.089333
455.546265	1185.425659	18629.697266	11017.979492	56.365517
455.902557	1190.701050	18450.779297	10943.082031	56.502529
456.258820	1192.038452	18419.498047	10938.252930	56.573723
456.615051	1198.577271	18497.513672	11000.368164	56.661240
456.971252	1197.314087	18513.041016	11001.112305	56.617882
457.327393	1197.239746	18744.939453	11119.921875	56.546909
457.683502	1197.314087	18999.947266	11267.116211	56.563553
458.039612	1199.468750	19491.087891	11568.933594	56.689705
458.395630	1192.038452	19929.253906	11816.286133	56.701321
458.751648	1187.431763	20402.785156	12054.204102	56.552551
459.107605	1184.756836	21065.044922	12390.200195	56.364590
459.463562	1181.710449	21724.853516	12751.981445	56.321819
459.819458	1187.431763	22339.039063	13082.183594	56.235687
460.175323	1186.688843	22813.833984	13366.093750	56.315365
460.531158	1194.267578	23304.009766	13639.156250	56.286900
460.886932	1187.951904	23619.498047	13828.851563	56.353222
461.242676	1183.939575	23773.601563	13920.317383	56.381447
461.598419	1186.020020	23607.091797	13839.848633	56.437214
461.954102	1188.917847	23261.359375	13642.723633	56.422421
462.309723	1195.456543	22688.708984	13318.614258	56.404484
462.665344	1201.177734	22049.775391	12962.035156	56.410786
463.020905	1204.447144	21456.396484	12664.528320	56.587547
463.376373	1201.623657	20965.033203	12409.223633	56.708836
463.731873	1192.484253	20546.187500	12207.268555	56.913059
464.087341	1183.270752	20269.412109	12036.075195	56.862228
464.442749	1184.162476	20066.416016	11925.958008	56.888313
464.798126	1187.060181	19931.109375	11851.209961	56.893520
465.153503	1189.363647	19974.279297	11885.760742	56.941418
465.508820	1185.351196	20038.849609	11918.527344	56.929359
465.864105	1184.311157	20240.431641	12001.375000	56.764248
466.219330	1187.283203	20501.087891	12174.351563	56.887127
466.574524	1193.078857	20703.708984	12304.233398	56.949230
466.929657	1191.072632	20853.578125	12413.903320	57.077320
467.284790	1191.221191	20993.492188	12501.803711	57.117599
467.639893	1192.187134	21143.509766	12596.464844	57.160507
467.994934	1197.834229	21294.865234	12700.786133	57.237072
468.349945	1197.685547	21318.044922	12713.343750	57.233860
468.704926	1198.874390	21277.921875	12704.502930	57.301670
469.059875	1200.880493	21083.470703	12619.500000	57.430241
469.414764	1200.731812	20864.724609	12497.124023	57.447098
469.769653	1194.044556	20672.429688	12395.253906	57.505840
470.124451	1189.289185	20564.466797	12321.174805	57.454369
470.479248	1186.837280	20408.431641	12234.760742	57.476627
470.834015	1187.431763	20284.123047	12151.168945	57.411713
471.188721	1192.632935	20325.955078	12141.733398	57.225296
471.543365	1196.050903	20419.949219	12180.519531	57.139652
471.898010	1204.670044	20584.455078	12278.895508	57.143181
472.252625	1196.273804	20746.210938	12412.864258	57.374050
472.607178	1196.199585	21004.337891	12559.760742	57.368145
472.961700	1190.255249	21198.267578	12692.242188	57.486908
473.316193	1200.360474	21427.419922	12808.600586	57.389660
473.670654	1204.372681	21546.673828	12893.379883	57.461578
474.025055	1206.007446	21781.841797	13014.640625	57.390785
474.379456	1196.496704	21943.154297	13151.507813	57.623791
474.733795	1189.066528	22133.888672	13272.323242	57.690903
475.088104	1184.236694	22259.681641	13371.518555	57.826927
475.442383	1191.592773	22292.154297	13398.639648	57.851761
475.796570	1193.375977	22403.533203	13473.460938	57.897194
476.150787	1197.834106	22598.650391	13574.067383	57.830662
476.504944	1189.809448	22869.857422	13665.385742	57.544041
476.859070	1186.391602	23143.068359	13790.214844	57.403149
477.213135	1183.939575	23397.851563	13933.394531	57.394012
477.567200	1187.357544	23878.367188	14245.614258	57.548153
477.921173	1194.044800	24267.937500	14504.039063	57.684216
478.275146	1197.982788	24781.220703	14838.104492	57.838207
478.629089	1201.177856	25065.281250	14993.397461	57.794838
478.983002	1198.800171	25522.615234	15261.629883	57.815067
479.336823	1199.914673	25902.375000	15468.711914	57.762653
479.690643	1198.131348	26434.603516	15772.312500	57.750469
480.044403	1201.029175	26999.603516	16110.909180	57.793427
480.398163	1199.989014	27726.062500	16570.099609	57.943405
480.751862	1200.434814	28640.357422	17149.142578	58.122280
481.105499	1198.205688	29801.708984	17819.277344	58.108517
481.459137	1191.666992	31363.029297	18723.765625	58.108402
481.812744	1182.453369	33313.847656	19892.398438	58.229485
482.166290	1185.722778	35658.246094	21328.150391	58.430386
482.519806	1196.645386	38424.316406	23017.197266	58.613800
482.873291	1201.920898	41492.273438	24875.806641	58.758202
483.226715	1197.239746	44907.968750	26924.630859	58.858295
483.580139	1193.673218	48077.050781	28868.093750	59.028210
483.933502	1194.490601	50999.972656	30834.443359	59.511429
484.286804	1197.239746	53370.605469	32641.037109	60.267906
484.640106	1193.896118	55267.406250	34253.105469	61.137531
484.993347	1198.354370	56492.355469	35435.636719	61.918617
485.346558	1200.211792	56989.519531	36020.394531	62.413723
485.699738	1200.583374	56829.097656	35929.972656	62.430912
486.052887	1196.199463	56130.207031	35277.667969	62.040749
486.405975	1193.004517	55109.812500	34320.351563	61.441597
486.759064	1187.877563	53815.156250	33130.023438	60.695038
487.112061	1194.416138	52516.050781	32024.103516	60.071526
487.464996	1192.410034	51351.128906	31078.750000	59.583538
487.817963	1194.861938	50636.113281	30607.593750	59.490269
488.170868	1187.877563	50270.546875	30281.775391	59.275299
488.523743	1191.666992	50230.718750	30197.591797	59.148628
488.876587	1194.936401	50122.832031	30052.328125	58.979427
489.229401	1200.434692	49862.031250	29934.708984	59.049179
489.582153	1198.800171	49301.718750	29614.539063	59.072796
489.934845	1198.651489	48574.667969	29211.296875	59.128326
490.287537	1201.623657	47780.738281	28670.447266	58.972408
490.640198	1201.029175	47069.582031	28228.349609	58.923420
490.992798	1200.360474	46402.125000	27736.314453	58.705566
491.345337	1192.261353	45962.769531	27446.755859	58.642387
491.697876	1193.301758	45570.453125	27176.517578	58.550884
492.050354	1192.632935	45538.277344	27200.294922	58.647614
492.402832	1192.261353	45469.105469	27157.349609	58.642590
492.755219	1189.586548	45234.824219	27019.591797	58.644264
493.107605	1188.694946	44622.203125	26621.701172	58.556187
493.459930	1188.769165	43617.703125	26030.101563	58.548096
493.812225	1191.444214	42237.976563	25208.388672	58.511509
494.164490	1191.221313	40533.246094	24225.662109	58.549202
494.516724	1186.763062	38682.589844	23112.162109	58.474236
494.868896	1185.202637	36854.890625	22058.173828	58.517391
495.221039	1185.425537	35276.035156	21097.812500	58.410183
495.573120	1197.239746	33902.472656	20323.652344	58.481197
495.925201	1201.623657	33037.886719	19755.310547	58.278469
496.277222	1210.614258	32479.724609	19443.240234	58.308743
496.629211	1198.874390	32256.744141	19272.712891	58.194069
496.981140	1195.902344	32131.171875	19200.490234	58.200844
497.333069	1187.134521	32124.187500	19155.537109	58.080524
497.684967	1187.803223	32122.923828	19144.095703	58.045006
498.036804	1193.673218	32135.705078	19168.689453	58.092552
498.388580	1196.868286	32045.203125	19129.755859	58.132431
498.740326	1201.400757	31906.554688	19107.240234	58.315422
499.092072	1199.245972	31611.943359	18977.210938	58.455730
499.443756	1193.598877	31315.845703	18818.650391	58.511742
499.795410	1187.729004	30982.748047	18606.292969	58.461330
500.147003	1179.258423	30663.843750	18366.814453	58.293362
500.498566	1181.636108	30249.455078	18149.851563	58.374573
500.850098	1186.614380	29835.218750	17908.814453	58.370033
501.201599	1186.391602	29451.666016	17726.177734	58.516273
501.553009	1188.323364	29125.328125	17542.576172	58.539753
501.904449	1189.363647	28922.111328	17441.597656	58.603043
502.255859	1198.502808	28717.037109	17324.943359	58.602104
502.607178	1197.611206	28630.322266	17271.814453	58.595024
502.958405	1205.115845	28489.296875	17177.080078	58.539280
503.309692	1200.286133	28425.025391	17112.734375	58.448490
503.660919	1197.611206	28373.830078	17102.033203	58.523308
504.012115	1182.602173	28383.865234	17104.486328	58.533619
504.363251	1181.190308	28437.806641	17131.009766	58.517239
504.714294	1183.865234	28488.630859	17156.421875	58.497322
505.065369	1194.267700	28519.984375	17192.533203	58.546555
505.416443	1195.233521	28518.201172	17190.378906	58.541027
505.767395	1195.084961	28519.759766	17200.412109	58.574627
506.118317	1186.985962	28456.900391	17173.662109	58.623859
506.469238	1189.066406	28489.296875	17198.404297	58.641769
506.820160	1190.106689	28490.486328	17159.767578	58.496117
507.170929	1195.382202	28570.585938	17178.416016	58.385078
507.521729	1183.790894	28589.533203	17242.986328	58.597923
507.872498	1184.905396	28690.880859	17300.572266	58.589695
508.223236	1190.106567	28860.587891	17448.287109	58.756409
508.573883	1201.995117	29079.412109	17554.761719	58.659546
508.924500	1200.731934	29276.609375	17686.943359	58.720200
509.275116	1197.685547	29428.412109	17795.427734	58.793182
509.625702	1192.707153	29622.859375	17910.966797	58.804680
509.976196	1188.397705	29880.990234	18065.740234	58.821251
510.326660	1184.236816	30155.166016	18192.279297	58.707275
510.677124	1185.796997	30384.611328	18342.220703	58.757263
511.027557	1195.159302	30530.244141	18457.761719	58.846268
511.377869	1197.091064	30751.740234	18589.724609	58.849060
511.728180	1198.205688	30929.619141	18676.583984	58.787579
512.078430	1190.701050	31087.142578	18722.279297	58.641018
512.428650	1189.660889	31187.525391	18765.896484	58.591625
512.778931	1183.642456	31262.275391	18823.480469	58.645744
513.129028	1182.676392	31323.724609	18911.380859	58.819138
513.479126	1184.905518	31350.994141	18962.724609	58.933125
513.829285	1195.605103	31277.210938	18927.058594	58.944504
514.179382	1199.543091	31193.992188	18892.732422	58.988213
514.529297	1202.663818	31083.650391	18824.892578	58.974720
514.879272	1198.502930	31123.103516	18869.251953	59.050911
515.229187	1198.800171	31026.658203	18800.447266	59.010765
515.579163	1191.741333	31075.552734	18815.455078	58.974113
515.928955	1193.227417	31058.388672	18811.814453	58.993778
516.278748	1196.645386	31310.794922	18989.845703	59.085850
516.628540	1200.880493	31580.365234	19162.896484	59.125481
516.978333	1204.521362	32052.337891	19407.126953	59.007759
517.327942	1192.038574	32556.851563	19679.226563	58.942444
517.677612	1196.199585	33111.820313	20002.591797	58.925354
518.027222	1189.289429	33628.222656	20306.265625	58.932198
518.376831	1197.239746	34249.613281	20673.394531	58.925129
518.726379	1193.301636	34762.527344	21036.437500	59.111092
519.075867	1192.261475	35272.394531	21344.869141	59.133007
519.425293	1190.626831	35616.785156	21539.169922	59.107792
519.774658	1181.710449	35901.515625	21644.085938	58.935745
520.124084	1182.602051	36011.929688	21737.853516	59.017078
520.473389	1179.555542	35945.429688	21672.542969	58.945702
520.822693	1181.115967	35679.722656	21573.720703	59.111389
521.171997	1186.911621	35323.218750	21365.003906	59.110352
521.521240	1195.902344	34904.964844	21173.451172	59.264622
521.870361	1203.332642	34518.144531	20958.716797	59.299103
522.219482	1195.084839	34135.933594	20703.189453	59.221626
522.568604	1187.877563	33831.371094	20497.001953	59.151527
522.917664	1190.255249	33665.671875	20377.820313	59.083351
523.266724	1198.057129	33716.941406	20401.001953	59.051674
523.615662	1200.657593	33896.085938	20560.007813	59.211182
523.964600	1196.496704	34255.566406	20761.814453	59.182907
524.313538	1199.171631	34748.933594	21083.322266	59.267635
524.662354	1198.279907	35397.152344	21471.033203	59.279015
525.011169	1194.639160	36269.089844	21976.367188	59.250336
525.359985	1184.608276	37217.566406	22615.742188	59.476482
525.708740	1185.351196	38407.000000	23312.998047	59.448326
526.057434	1190.552490	39685.007813	24100.755859	59.515591
526.406067	1196.571045	41259.406250	25003.013672	59.422760
526.754700	1196.868164	43039.777344	26099.873047	59.515469
527.103333	1196.348145	45008.730469	27387.462891	59.780167
527.451782	1191.741333	47108.968750	28774.248047	60.070061
527.800293	1186.020020	49143.449219	30138.669922	60.371563
528.148743	1185.648438	51076.285156	31484.439453	60.730415
528.497131	1183.642456	52769.937500	32682.349609	61.060223
528.845642	1185.425659	54124.480469	33803.203125	61.613827
529.193909	1183.270874	55173.707031	34718.464844	62.113213
529.542175	1185.574219	55840.425781	35429.984375	62.655754
529.890503	1188.026245	56193.957031	35778.839844	62.885605
530.238770	1193.227417	56118.988281	35752.984375	62.920853
530.586914	1200.732056	55699.769531	35400.417969	62.752827
530.934998	1196.868286	54910.300781	34681.464844	62.339336
531.283142	1189.437988	53879.355469	33834.414063	61.956779
531.631226	1186.763184	52532.468750	32679.228516	61.334171
531.979248	1187.208984	50958.511719	31487.710938	60.879459
532.327148	1187.134644	49316.050781	30247.820313	60.380924
532.675110	1184.831177	47841.218750	29251.273438	60.155624
533.023071	1187.357544	46835.386719	28556.689453	59.957317
533.370850	1189.958130	46185.750000	28139.853516	59.894253
533.718689	1194.713501	46025.703125	28006.703125	59.806824
534.066467	1200.360474	46054.015625	27975.345703	59.694096
534.414246	1200.063354	46149.640625	27982.179688	59.582577
534.761963	1198.651489	46113.675781	27933.365234	59.522873
535.109619	1201.920776	45973.843750	27838.554688	59.494061
535.457153	1204.447144	45632.792969	27628.650391	59.475998
535.804749	1205.487183	45094.843750	27300.974609	59.457443
536.152344	1195.010620	44276.027344	26873.064453	59.604107
536.499817	1192.484375	43374.066406	26331.623047	59.597431
536.847229	1185.648560	42300.464844	25663.789063	59.536057
537.194641	1187.952026	41343.593750	25011.337891	59.327621
537.542114	1188.620605	40532.503906	24463.875000	59.158508
537.889404	1189.735229	39933.332031	24066.501953	59.046574
538.236694	1188.992065	39428.292969	23783.484375	59.087097
538.583984	1186.094360	39068.296875	23642.009766	59.278275
538.931213	1179.184204	38948.746094	23654.937500	59.507584
539.278381	1182.825073	38930.687500	23700.562500	59.653015
539.625488	1182.081909	39066.886719	23779.546875	59.647831
539.972595	1193.376099	39317.511719	24006.318359	59.838577
540.319641	1188.992065	39846.621094	24354.724609	59.925385
540.666687	1196.868286	40537.261719	24806.927734	60.014797
541.013611	1189.735229	41506.464844	25334.775391	59.888390
541.360596	1189.437988	42589.425781	25941.458984	59.787510
541.707458	1188.249146	43753.675781	26619.322266	59.745842
542.054260	1199.691772	44811.082031	27281.283203	59.804539
542.401062	1205.710327	45728.425781	27848.806641	59.841579
542.747864	1199.543091	46354.277344	28257.695313	59.923180
543.094666	1192.261353	46542.332031	28354.138672	59.893791
543.441284	1189.066406	46243.859375	28201.818359	59.955334
543.787903	1187.357544	45619.488281	27773.759766	59.835987
544.134460	1189.586548	44665.519531	27198.064453	59.822704
544.481079	1187.580444	43511.230469	26446.271484	59.679855
544.827637	1194.787720	42058.535156	25579.976563	59.674385
545.174072	1190.998413	40494.460938	24589.818359	59.533741
545.520508	1193.078735	38985.968750	23693.056641	59.534950
545.866943	1192.409912	37707.222656	22912.656250	59.483383
546.213318	1193.896118	36684.371094	22288.291016	59.436775
546.559631	1195.679443	35888.066406	21773.892578	59.316223
546.905823	1198.577271	35163.761719	21263.433594	59.074776
547.252136	1196.348145	34579.667969	20927.583984	59.105076
547.598389	1194.713501	34016.003906	20561.716797	59.007446
547.944458	1192.038574	33575.019531	20322.537109	59.075779
548.290588	1192.410156	32968.562500	20005.785156	59.205956
548.636658	1198.428589	32392.642578	19697.056641	59.301472
548.982727	1194.713501	31723.025391	19320.267578	59.372932
549.328735	1198.131348	31159.960938	18940.208984	59.215603
549.674622	1185.202637	30452.970703	18551.384766	59.335518
550.020569	1182.453491	29748.876953	18166.941406	59.456123
550.366455	1180.521606	28950.421875	17748.095703	59.660187
550.712280	1184.905396	28276.271484	17354.960938	59.687119
551.058044	1188.100586	27702.802734	17021.935547	59.717186
551.403748	1184.088257	27268.947266	16730.074219	59.597740
551.749512	1186.985962	26932.880859	16544.986328	59.652229
552.095154	1187.283203	26684.412109	16397.718750	59.655483
552.440735	1191.072632	26570.947266	16300.010742	59.531178
552.786316	1190.923950	26496.273438	16219.987305	59.390854
553.131897	1197.239868	26473.908203	16193.609375	59.328899
553.477417	1195.382202	26453.400391	16212.706055	59.455673
553.822815	1200.806274	26416.919922	16196.804688	59.469902
554.168213	1194.416382	26381.849609	16164.557617	59.434963
554.513672	1187.506104	26271.955078	16070.713867	59.332409
554.859009	1181.116089	26126.250000	15983.629883	59.340282
555.204285	1182.379272	25918.500000	15866.305664	59.362286
555.549500	1196.496704	25726.130859	15768.597656	59.406105
555.894714	1199.766113	25533.460938	15671.558594	59.472237
556.239990	1201.400757	25317.984375	15499.770508	59.288540
556.585022	1208.905396	25047.593750	15332.960938	59.248463
556.930115	1201.623657	24765.615234	15133.085938	59.121822
557.275146	1191.444092	24438.388672	14985.817383	59.338432
557.620178	1181.859009	24240.593750	14873.027344	59.375195
557.965149	1186.317139	24020.507813	14777.327148	59.520435
558.310059	1196.719604	23873.017578	14699.307617	59.544937
558.654968	1191.889771	23698.927734	14627.604492	59.695618
558.999756	1191.815552	23586.208984	14561.327148	59.700264
559.344604	1185.945679	23539.177734	14520.164063	59.652306
559.689331	1188.546265	23461.603516	14441.997070	59.504410
560.033997	1188.917847	23393.990234	14390.801758	59.454361
560.378723	1196.273804	23334.099609	14373.563477	59.523865
560.723389	1196.199585	23307.796875	14367.992188	59.569611
561.067932	1196.570923	23311.068359	14379.656250	59.612862
561.412476	1203.926880	23239.884766	14354.617188	59.678326
561.757019	1199.988892	23193.669922	14341.836914	59.752831
562.101501	1197.314087	23184.009766	14330.022461	59.730251
562.445862	1190.552490	23197.755859	14284.252930	59.497337
562.790222	1199.097290	23224.505859	14256.983398	59.285557
563.134644	1195.233521	23211.054688	14240.414063	59.253666
563.478943	1193.821777	23241.443359	14262.629883	59.275368
563.823181	1181.784668	23236.539063	14283.805664	59.406792
564.167358	1187.060181	23265.814453	14322.741211	59.494663
564.511536	1176.509277	23339.302734	14391.026367	59.624786
564.855774	1180.670288	23410.781250	14418.368164	59.548500
565.199768	1179.630005	23524.912109	14462.652344	59.444420
565.543823	1187.060181	23615.484375	14513.549805	59.417858
565.887817	1195.084961	23824.052734	14617.648438	59.315842
566.231812	1205.710205	24010.328125	14703.022461	59.186752
566.575745	1212.694702	24150.759766	14741.065430	58.977821
566.919617	1207.790771	24251.515625	14804.668945	59.004688
567.263428	1200.806274	24326.859375	14888.704102	59.188213
567.607239	1191.741333	24455.255859	14982.995117	59.282764
567.950989	1197.016846	24462.166016	15055.291992	59.566673
568.294678	1193.598999	24469.818359	15059.972656	59.573139
568.638367	1195.753662	24435.640625	15034.858398	59.548931
568.981995	1192.484375	24397.818359	14984.182617	59.433311
569.325623	1190.701050	24279.900391	14917.385742	59.450676
569.669128	1198.057007	24107.218750	14867.456055	59.667828
570.012573	1197.462646	23969.984375	14788.545898	59.681942
570.356140	1203.629761	23908.384766	14743.073242	59.632633
570.699524	1198.651489	23881.265625	14692.247070	59.488716
571.042908	1195.456543	23911.134766	14734.675781	59.602970
571.386230	1188.620605	23980.757813	14721.301758	59.374344
571.729492	1189.883789	24080.322266	14771.382813	59.332630
572.072815	1195.530762	24155.367188	14783.790039	59.182739
572.416016	1193.152954	24237.398438	14865.893555	59.332558
572.759094	1195.902344	24339.044922	14924.293945	59.319481
573.102234	1186.317261	24462.166016	14953.273438	59.146954
573.445374	1191.667114	24532.751953	14990.276367	59.117260
573.788391	1177.772461	24543.898438	15010.336914	59.199223
574.131409	1179.184204	24545.458984	15018.734375	59.228737
574.474365	1177.846680	24530.375000	14993.471680	59.161156
574.817261	1181.041748	24462.462891	14938.414063	59.091633
575.160156	1187.729004	24293.201172	14853.336914	59.144463
575.502930	1187.951782	24065.537109	14739.282227	59.234093
575.845703	1186.168579	23866.851563	14578.639648	59.047916
576.188477	1193.895996	23668.685547	14435.086914	58.915752
576.531250	1200.954956	23447.708984	14281.800781	58.798897
576.873901	1204.892944	23158.671875	14151.770508	58.973343
577.216431	1192.855835	22908.865234	14019.362305	59.064751
577.559082	1191.072632	22646.353516	13874.992188	59.117939
577.901611	1200.434692	22346.171875	13709.594727	59.156891
578.244080	1202.217896	21991.822266	13498.723633	59.147381
578.586487	1198.131348	21639.181641	13316.237305	59.283184
578.928955	1203.035400	21287.060547	13113.539063	59.303371
579.271301	1211.357300	20994.158203	12965.007813	59.413479
579.613647	1215.443848	20660.019531	12779.770508	59.473274
579.955872	1208.756714	20338.064453	12605.604492	59.577938
580.298157	1203.629761	20019.380859	12387.304688	59.437832
580.640320	1206.081787	19760.361328	12232.307617	59.426861
580.982483	1205.487305	19584.710938	12099.528320	59.273678
581.324524	1207.122070	19360.613281	12005.239258	59.482315
581.666626	1198.800171	19215.427734	11903.815430	59.417423
582.008728	1196.719727	19068.603516	11836.942383	59.536102
582.350647	1194.341919	18970.375000	11753.500977	59.401100
582.692566	1196.719727	18852.755859	11654.456055	59.230377
583.034424	1182.750732	18738.328125	11581.416992	59.232830
583.376343	1178.664185	18652.955078	11547.164063	59.335739
583.718201	1178.218262	18593.289063	11530.148438	59.442364
584.059937	1193.747681	18539.345703	11461.269531	59.193817
584.401611	1190.924194	18410.208984	11400.637695	59.292320
584.743347	1187.803345	18320.970703	11344.242188	59.279396
585.085022	1179.109863	18221.404297	11333.617188	59.584156
585.426514	1182.973633	18183.138672	11290.149414	59.453400
585.768127	1184.979858	18104.302734	11244.007813	59.452904
586.109619	1191.221191	18055.783203	11193.109375	59.307133
586.451172	1190.626831	18032.082031	11155.290039	59.167473
586.792542	1196.199585	17999.240234	11152.317383	59.251884
587.133850	1196.051025	17970.857422	11131.959961	59.231140
587.475220	1200.732056	17912.158203	11124.159180	59.381088
587.816589	1199.914673	17873.369141	11100.379883	59.378605
588.157776	1202.069458	17889.867188	11110.633789	59.376110
588.498962	1203.555542	17941.208984	11151.575195	59.434967
588.840210	1201.103394	17988.093750	11180.254883	59.445744
589.181335	1199.023071	17985.865234	11191.995117	59.528599
589.522400	1196.942505	18006.447266	11186.942383	59.430664
589.863403	1191.221191	18014.398438	11188.652344	59.426537
590.204407	1189.437866	18026.361328	11177.284180	59.321091
590.545410	1183.196533	18042.337891	11199.351563	59.410828
590.886353	1192.410156	18050.509766	11209.976563	59.422871
591.227112	1194.936401	18054.669922	11186.348633	59.261978
591.567932	1198.948730	18029.853516	11119.179688	58.940567
591.908752	1196.942505	17982.150391	11082.846680	58.896530
592.249512	1196.050903	17967.958984	11098.226563	59.040245
592.590149	1188.694946	17911.041016	11069.098633	59.085033
592.930786	1190.329590	17859.103516	11037.075195	59.073009
593.271423	1193.301636	17779.970703	10978.971680	58.997196
593.612000	1195.753662	17704.408203	10975.625977	59.240879
593.952576	1195.382202	17671.119141	10975.625977	59.361500
594.292969	1192.335815	17669.708984	10992.567383	59.476906
594.633484	1191.667114	17713.173828	11007.948242	59.415173
594.973877	1189.512329	17790.966797	11036.332031	59.312988
595.314209	1185.202637	17897.369141	11105.730469	59.361111
595.654480	1190.106689	18043.748047	11197.270508	59.376869
595.994812	1185.871460	18174.816406	11304.192383	59.558266
596.335022	1190.106567	18336.871094	11396.996094	59.526623
596.675171	1194.416138	18503.830078	11483.485352	59.442043
597.015320	1196.719604	18679.183594	11555.559570	59.252743
597.355408	1201.549316	18765.078125	11602.293945	59.217850
597.695496	1195.679321	18803.937500	11617.675781	59.188118
598.035461	1197.388306	18764.482422	11562.765625	59.004505
598.375366	1199.914673	18733.796875	11543.151367	58.989994
598.715271	1198.502930	18659.121094	11505.331055	59.029003
599.055176	1199.320190	18535.408203	11449.528320	59.126419
599.395081	1195.233521	18350.990234	11326.706055	59.055820
599.734802	1200.657715	18136.253906	11211.909180	59.113670
600.074524	1195.828003	17917.134766	11073.854492	59.074490
600.414246	1197.165527	17611.601563	10897.088867	59.093861
600.753906	1191.592773	17274.416016	10697.511719	59.106033
601.093506	1190.106689	16968.291016	10494.665039	58.971035
601.433044	1191.072632	16729.185547	10342.864258	58.898991
601.772583	1197.239746	16577.679688	10230.518555	58.732258
602.112122	1208.756714	16494.908203	10216.549805	58.927803
602.451538	1205.115845	16505.681641	10220.264648	58.920361
602.790894	1199.765991	16597.445313	10269.454102	58.902954
603.130310	1193.524536	16725.023438	10348.882813	58.947037
603.469604	1190.775391	16915.830078	10479.953125	59.072468
603.808838	1193.821777	17115.259766	10618.750977	59.196476
604.148010	1192.112793	17354.291016	10761.412109	59.207977
604.487305	1194.713379	17581.880859	10862.538086	58.996307
604.826416	1193.524536	17785.025391	10948.133789	58.792812
605.165527	1196.942505	17921.890625	10985.360352	58.525852
605.504456	1200.211914	18023.314453	11060.034180	58.608826
605.843445	1199.023071	18096.130859	11095.550781	58.569359
606.182434	1196.645264	18122.804688	11121.706055	58.637402
606.521423	1197.908447	18059.351563	11102.460938	58.740837
606.860229	1194.267578	17919.216797	11036.479492	58.847485
607.199036	1198.502930	17744.529297	10930.895508	58.820118
607.537903	1195.085083	17583.218750	10821.150391	58.738026
607.876648	1203.183960	17370.787109	10696.619141	58.718880
608.215271	1198.725952	17159.841797	10576.620117	58.754627
608.553955	1194.713501	16917.021484	10440.051758	58.803951
608.892578	1190.403809	16675.462891	10305.043945	58.860874
609.231140	1195.902222	16497.507813	10200.946289	58.850323
609.569641	1198.131470	16384.343750	10120.625000	58.753910
609.908081	1204.818726	16353.879883	10092.761719	58.669926
610.246521	1204.669922	16309.745117	10060.067383	58.625313
610.584961	1212.991821	16299.043945	10047.065430	58.557888
610.923340	1207.865112	16269.546875	10026.260742	58.548546
611.261597	1205.561768	16194.426758	9988.069336	58.593548
611.599854	1196.125244	16055.629883	9914.435547	58.671608
611.938110	1196.422485	15928.942383	9843.178711	58.691631
612.276245	1195.753662	15754.925781	9749.706055	58.753014
612.614319	1198.725830	15549.032227	9635.131836	58.789032
612.952393	1198.651489	15299.747070	9487.269531	58.779957
613.290466	1193.673218	15057.965820	9323.654297	58.639709
613.628479	1186.465942	14767.368164	9154.913086	58.673916
613.966370	1184.682739	14472.684570	8996.647461	58.789612
614.304260	1181.116089	14218.715820	8862.530273	58.917397
614.642151	1187.803345	14041.801758	8728.637695	58.665283
614.979980	1193.598877	13915.635742	8624.465820	58.409412
615.317749	1201.474976	13780.627930	8549.642578	58.415440
615.655396	1199.543091	13672.145508	8502.832031	58.554653
615.993164	1195.456543	13586.624023	8477.197266	58.765572
616.330811	1193.450317	13544.270508	8447.922852	58.736767
616.668396	1192.261353	13516.704102	8432.616211	58.747932
617.005859	1196.125122	13456.890625	8412.555664	58.857914
617.343445	1196.570923	13440.543945	8410.920898	58.921646
617.680908	1190.626831	13416.174805	8411.959961	59.067562
618.018311	1182.973633	13451.022461	8411.142578	58.918652
618.355652	1182.453491	13461.499023	8413.817383	58.891903
618.692993	1181.487671	13457.188477	8398.510742	58.791126
619.030273	1187.431885	13447.604492	8390.485352	58.751648
619.367554	1187.654785	13410.453125	8384.095703	58.877193
619.704712	1201.921021	13414.464844	8409.804688	59.020329
620.041870	1199.394653	13394.402344	8401.557617	59.058289
620.379028	1195.530762	13372.781250	8397.323242	59.141369
620.716064	1189.140747	13295.282227	8358.239258	59.218693
621.053040	1189.437988	13253.971680	8312.765625	59.043541
621.389954	1192.112915	13185.835938	8247.378906	58.824657
621.726929	1190.106567	13155.296875	8180.878418	58.425915
622.063843	1190.181030	13065.984375	8158.364746	58.675468
622.400635	1193.078735	13023.855469	8126.191406	58.602348
622.737427	1195.084961	12977.713867	8120.321777	58.774971
623.074219	1198.948730	12942.938477	8077.077637	58.567223
623.410889	1203.406860	12876.437500	8053.894531	58.686455
623.747559	1207.344849	12855.262695	8040.000000	58.659885
624.084167	1209.276733	12812.910156	8012.805176	58.632740
624.420715	1204.372803	12844.859375	8020.161621	58.552441
624.757324	1200.806274	12831.411133	8026.551270	58.687794
625.093750	1190.924072	12877.331055	8076.333984	58.918110
625.430176	1193.524658	12932.686523	8119.355469	58.997662
625.766602	1187.729004	12987.223633	8133.546875	58.865387
626.102905	1187.134521	13049.713867	8172.333496	58.884323
626.439209	1189.734985	13100.757813	8187.789063	58.752758
626.775452	1195.604980	13208.125000	8247.378906	58.703537
627.111694	1199.171509	13281.684570	8266.995117	58.496307
627.447876	1190.180908	13340.532227	8287.577148	58.413097
627.783997	1186.985962	13355.020508	8297.831055	58.438736
628.120056	1187.283203	13384.000000	8312.542969	58.419491
628.456055	1187.357544	13405.473633	8325.620117	58.423595
628.792053	1179.778687	13396.557617	8314.919922	58.404438
629.128052	1182.230591	13329.090820	8294.784180	58.554668
629.463928	1189.437988	13240.448242	8253.694336	58.619621
629.799744	1200.360474	13180.187500	8201.311523	58.439499
630.135559	1191.815552	13096.002930	8143.205566	58.394493
630.471375	1193.821777	12982.765625	8080.494629	58.416370
630.807068	1192.558594	12805.480469	7996.904297	58.592884
631.142700	1201.474976	12674.781250	7915.469238	58.518387
631.478333	1192.261353	12530.411133	7820.658691	58.461018
631.813965	1187.951782	12392.579102	7749.029785	58.556862
632.149475	1186.465820	12242.635742	7693.303223	58.852547
632.484924	1192.112793	12138.539063	7653.849121	59.030560
632.820435	1197.313965	12063.714844	7603.025879	58.949715
633.155884	1200.063354	12009.325195	7528.128906	58.542995
633.491150	1200.434692	11957.686523	7469.800781	58.280369
633.826477	1197.388306	11871.122070	7431.980957	58.410610
634.161804	1196.348022	11807.965820	7392.526855	58.390518
634.497009	1197.165405	11731.285156	7354.558105	58.451893
634.832153	1197.016724	11687.817383	7306.855469	58.239967
635.167297	1201.474976	11617.082031	7274.607910	58.308002
635.502380	1193.153076	11567.002930	7236.787598	58.258362
635.837463	1193.896118	11490.098633	7206.101074	58.392452
636.172424	1178.886963	11435.187500	7173.481934	58.447922
636.507324	1186.168579	11361.554688	7111.884766	58.235790
636.842224	1188.620728	11301.221680	7063.142090	58.091106
637.177124	1199.245972	11181.148438	6983.935547	57.951775
637.511963	1195.085083	11060.109375	6951.242188	58.349144
637.846741	1190.701172	10935.502930	6884.369629	58.427750
638.181396	1184.088257	10805.102539	6830.724121	58.690647
638.516113	1188.992188	10682.280273	6754.637207	58.627159
638.850769	1189.289429	10595.270508	6700.693848	58.594677
639.185303	1193.301758	10533.079102	6657.078125	58.500072
639.519836	1187.283203	10459.668945	6615.542969	58.542213
639.854370	1186.688843	10376.301758	6564.199219	58.517265
640.188843	1187.728882	10286.766602	6496.583984	58.345234
640.523254	1188.026245	10199.237305	6451.333984	58.408440
640.857605	1198.948730	10102.791992	6394.195313	58.348358
641.191895	1202.589478	10032.353516	6359.941406	58.408722
641.526184	1200.137573	9998.025391	6307.186035	58.048573
641.860413	1187.580444	9957.233398	6296.709473	58.259190
642.194580	1184.756836	9901.877930	6271.669922	58.355427
642.528748	1189.363647	9821.111328	6245.218262	58.572777
642.862793	1202.143677	9722.139648	6195.732422	58.610226
643.196838	1200.880615	9656.605469	6172.698730	58.798252
643.530823	1198.651489	9591.589844	6131.980469	58.779522
643.864746	1192.335815	9570.487305	6098.692871	58.561329
644.198669	1194.564819	9555.627930	6063.101563	58.228676
644.532532	1199.097290	9532.073242	6044.080566	58.142296
644.866333	1198.205688	9488.606445	6033.752441	58.327061
645.200073	1194.490601	9442.686523	6015.177246	58.445343
645.533813	1195.010620	9444.543945	6001.060059	58.258438
645.867554	1200.434814	9438.451172	5982.408691	58.047634
646.201172	1202.292358	9443.653320	5970.966309	57.862698
646.534729	1198.280029	9417.053711	5969.554688	58.053364
646.868225	1197.908569	9422.477539	5967.251953	57.988972
647.201782	1200.732056	9420.693359	5968.366699	58.000698
647.535217	1202.292358	9446.846680	5979.511719	57.943932
647.868591	1198.577271	9442.686523	5986.941895	58.082256
648.201965	1195.679443	9434.959961	5988.576172	58.171299
648.535278	1196.868286	9390.081055	5978.545410	58.361443
648.868591	1196.422485	9396.025391	5966.210938	58.170975
649.201782	1197.759888	9361.994141	5955.064941	58.270073
649.534912	1198.131348	9346.836914	5947.115234	58.278996
649.868103	1192.410034	9294.527344	5917.468750	58.318813
650.201172	1188.100464	9269.264648	5898.744629	58.291653
650.534180	1178.589722	9218.589844	5869.171875	58.340572
650.867188	1183.716675	9172.448242	5857.357910	58.502918
651.200134	1187.729004	9160.484375	5850.373047	58.482216
651.533020	1201.623657	9119.395508	5817.829590	58.301830
651.865845	1200.954956	9092.720703	5794.052246	58.201134
652.198608	1199.914673	9027.557617	5752.145020	58.155827
652.531433	1191.146973	9004.300781	5739.513672	58.214222
652.864136	1189.809448	8974.059570	5716.108887	58.146889
653.196777	1234.168213	8993.526367	5754.300293	58.253937
653.529358	1238.923584	8953.477539	5719.006348	58.073132
653.861938	1239.220825	8894.704102	5689.062500	58.126202
654.194519	1196.348145	8775.374023	5588.679688	57.953773
654.526978	1189.214966	8719.795898	5567.131348	58.135174
654.859375	1189.437988	8671.276367	5538.004395	58.121632
655.191833	1193.227417	8631.524414	5520.023438	58.169174
655.524170	1198.948730	8592.960938	5480.345703	57.903568
655.856445	1199.765991	8540.131836	5457.608887	58.005867
656.188660	1194.044556	8502.237305	5431.751465	57.985703
656.520874	1194.341919	8472.368164	5420.309082	58.064743
656.853088	1194.119019	8476.305664	5408.495117	57.872398
657.185181	1193.747559	8462.113281	5396.383789	57.820923
657.517212	1188.546387	8463.749023	5410.056152	58.026009
657.849243	1193.078735	8479.203125	5414.439453	57.936985
658.181274	1191.369751	8546.967773	5461.026855	58.046364
658.513123	1201.474976	8615.771484	5496.767090	57.932564
658.844971	1196.422485	8700.476563	5557.917969	58.121857
659.176819	1191.890015	8788.525391	5587.787598	57.866375
659.508667	1192.855835	8864.833984	5613.199219	57.616734
659.840393	1201.177734	8910.307617	5630.957031	57.461468
660.172058	1213.660645	8963.508789	5656.517578	57.328308
660.503662	1204.967285	8970.715820	5653.396973	57.282692
660.835266	1195.976563	8981.416016	5653.842285	57.259010
661.166931	1189.437988	8940.176758	5637.347656	57.386913
661.498413	1190.552368	8944.487305	5643.588379	57.429371
661.829773	1196.125244	8897.750000	5608.146484	57.286892
662.161194	1199.394531	8808.512695	5570.771973	57.449200
662.492615	1204.372925	8705.677734	5516.531250	57.485443
662.823975	1200.063232	8564.725586	5436.358887	57.521931
663.155212	1199.245850	8425.408203	5350.836426	57.452225
663.486450	1190.923950	8266.400391	5248.149902	57.342091
663.817627	1194.044556	8130.872559	5173.029785	57.360298
664.148743	1190.106689	8024.024902	5106.008789	57.300983
664.479858	1190.626831	7899.121582	5058.306641	57.653465
664.810913	1189.437988	7831.061035	5024.646973	57.745056
665.141907	1189.363647	7762.479004	5001.241699	57.991955
665.472778	1191.146973	7705.786621	4988.016113	58.282104
665.803711	1198.428589	7647.310059	4960.598145	58.338326
666.134583	1201.623657	7571.744141	4908.512207	58.191814
666.465454	1205.412964	7529.688965	4855.162598	57.710155
666.796143	1199.543091	7475.894043	4823.807129	57.744766
667.126831	1203.555298	7473.664063	4799.807617	57.355503
667.457458	1204.967163	7453.974609	4797.281250	57.486153
667.788147	1203.926880	7437.033203	4777.739746	57.335987
668.118774	1192.484253	7406.644043	4766.073730	57.507202
668.449219	1183.642334	7390.594238	4754.408203	57.528492
668.779663	1187.431763	7380.563965	4753.368164	57.578884
669.110107	1194.861938	7356.860840	4755.374512	57.781780
669.440552	1206.156128	7334.792969	4742.816895	57.707134
669.770874	1201.995117	7310.124512	4714.433594	57.504322
670.101135	1199.988892	7273.195313	4703.733887	57.691849
670.431396	1188.769165	7234.781250	4666.879395	57.527348
670.761597	1186.911621	7195.327637	4659.300781	57.792091
671.091797	1188.546265	7174.150879	4638.570313	57.638687
671.421875	1193.153076	7136.702637	4632.403320	57.865253
671.751892	1195.010620	7117.754395	4613.753418	57.722279
672.081909	1198.205688	7104.230957	4589.084473	57.413891
672.411865	1194.193237	7076.813965	4553.790527	57.110554
672.741821	1190.626831	7037.210938	4542.941895	57.338009
673.071716	1182.899414	6976.579590	4515.450195	57.520447
673.401550	1189.066406	6928.580078	4508.020508	57.826401
673.731262	1184.533936	6897.744629	4480.008301	57.681652
674.060974	1189.809448	6848.705078	4465.296875	57.882095
674.390625	1191.146851	6823.441895	4456.156738	57.969440
674.720276	1198.725830	6768.457520	4422.201172	57.874878
675.049927	1198.205688	6755.528809	4394.931641	57.522766
675.379395	1195.679565	6725.585449	4355.254395	57.136139
675.708923	1190.329590	6707.083984	4340.393066	57.099941
676.038330	1188.026245	6681.152344	4318.919922	56.996574
676.367737	1184.459717	6640.880371	4296.479980	57.034096
676.697083	1193.227417	6596.149902	4288.455566	57.288036
677.026428	1193.153076	6553.128906	4276.864746	57.532196
677.355652	1196.273926	6537.302246	4276.642090	57.673691
677.684875	1192.335815	6519.544434	4264.382324	57.667095
678.013977	1193.747559	6537.970703	4253.013184	57.244347
678.343079	1189.437988	6548.967285	4251.675781	57.136318
678.672180	1186.985962	6577.945313	4247.366699	56.768761
679.001221	1184.608276	6594.365723	4270.994629	57.052212
679.330139	1188.249023	6608.186035	4282.214355	57.084896
679.659058	1193.004395	6621.709473	4307.402832	57.369083
679.987976	1202.886841	6643.332031	4325.384277	57.394154
680.316772	1206.304688	6680.482910	4335.489746	57.162643
680.645630	1203.704102	6719.417969	4348.417969	57.013725
680.974304	1195.753784	6741.337402	4362.907715	57.111282
681.302979	1188.992188	6780.197266	4376.430664	57.008076
681.631653	1183.122192	6789.113281	4378.585449	57.000862
681.960266	1183.047852	6806.128906	4381.780273	56.885761
682.288757	1186.242798	6801.894531	4401.544434	57.256073
682.617249	1197.239868	6812.147949	4405.482422	57.137936
682.945679	1199.023071	6793.349121	4396.863281	57.162209
683.274109	1207.419312	6772.767090	4356.888672	56.590702
683.602478	1201.326416	6708.718262	4328.208008	56.776089
683.930725	1197.314087	6645.857910	4286.523926	56.697899
684.259033	1188.323364	6565.091309	4255.465820	57.044353
684.587280	1191.146973	6510.627441	4215.193848	56.848537
684.915344	1194.639160	6446.801270	4175.144043	56.748150
685.243469	1199.691772	6385.427246	4144.011230	56.777279
685.571533	1199.171509	6335.495605	4116.965332	56.807045
685.899536	1196.868286	6284.375488	4097.720703	57.019131
686.227539	1196.496704	6218.988770	4067.925537	57.171391
686.555420	1190.923950	6164.079590	4042.811279	57.345623
686.883301	1191.890015	6159.992188	4022.006104	56.965744
687.211121	1188.397583	6161.181641	4011.529541	56.771656
687.538940	1189.586548	6164.228027	4019.257080	56.881893
687.866638	1187.877563	6135.621094	4023.789307	57.317272
688.194336	1185.945801	6136.958984	4035.826416	57.561565
688.521973	1187.283203	6125.664551	4014.130127	57.242378
688.849609	1190.478149	6112.810547	4011.083740	57.302212
689.177063	1190.998291	6071.498535	3979.802002	57.141762
689.504578	1192.484497	6021.195313	3955.356689	57.217590
689.832031	1196.496826	5973.046875	3913.821533	56.888859
690.159485	1201.252075	5909.146484	3872.509033	56.739948
690.486816	1201.549316	5858.323730	3838.701172	56.630440
690.814087	1198.800171	5792.343262	3815.816162	56.971626
691.141296	1191.592773	5738.027832	3782.602783	56.989925
691.468506	1189.363770	5675.613281	3738.838623	56.828648
691.795715	1181.636108	5593.434082	3679.470703	56.617157
692.122803	1184.459595	5526.042480	3655.322266	56.911564
692.449829	1196.125244	5466.674316	3632.362549	57.047405
692.776855	1199.765991	5404.111328	3594.914063	56.968395
693.103821	1196.199341	5352.842285	3561.255127	56.898212
693.430664	1186.985840	5297.338379	3532.128174	57.054531
693.757568	1185.351318	5272.372559	3516.450439	57.036629
694.084351	1191.369751	5222.292480	3485.689453	56.917980
694.411133	1195.530884	5191.679199	3459.163086	56.645351
694.737854	1193.376099	5148.435059	3441.701904	56.846828
695.064575	1190.403809	5141.673828	3427.733154	56.623043
695.391174	1191.815674	5114.181641	3418.965576	56.780777
695.717773	1198.725830	5106.603027	3411.163330	56.614815
696.044250	1200.211792	5089.067871	3407.820068	56.767555
696.370789	1189.214966	5099.470215	3409.305908	56.776108
696.697205	1185.202637	5115.593750	3416.364990	56.766930
697.023621	1180.967529	5169.314453	3437.318359	56.573586
697.349915	1188.323364	5212.410156	3465.404541	56.586281
697.676208	1192.187256	5277.201660	3508.054443	56.691776
698.002380	1200.211914	5347.492188	3543.719727	56.507099
698.328674	1198.577271	5428.928223	3589.787109	56.525093
698.654724	1197.685547	5519.726074	3634.219971	56.374630
698.980896	1198.502808	5588.158691	3688.386719	56.721619
699.306946	1197.982788	5652.207520	3722.343018	56.673397
699.632935	1197.833984	5676.728027	3739.432861	56.746128
699.958862	1199.840210	5686.684082	3730.887939	56.410431
700.284729	1200.880615	5678.511230	3712.683838	56.096703
700.610596	1201.400757	5653.545410	3699.086670	56.100739
700.936340	1191.889893	5608.295410	3670.851807	56.130760
701.262146	1194.193237	5517.051270	3636.969482	56.508366
701.587830	1191.964233	5429.300293	3577.007080	56.286381
701.913513	1195.530762	5318.068848	3519.274170	56.366814
702.239075	1190.255371	5215.679688	3447.572266	56.076496
702.564697	1187.134521	5095.160156	3374.829346	55.979542
702.890137	1186.317139	4972.783691	3306.768311	56.000790
703.215698	1191.295532	4867.273926	3245.171143	55.872890
703.541016	1195.902344	4792.599609	3193.233643	55.532372
703.866455	1196.719604	4716.662109	3153.184570	55.582302
704.191711	1188.546265	4653.355957	3124.057861	55.861992
704.517029	1188.992188	4583.957520	3112.094971	56.645725
704.842163	1180.001587	4534.992188	3070.634033	56.352837
705.167419	1183.568115	4497.617676	3034.671631	55.856239
705.492493	1183.791016	4454.225098	2990.387451	55.240265
705.817566	1192.855957	4418.262207	2987.489502	55.640541
706.142578	1193.673218	4377.470215	2987.266602	56.335045
706.467590	1198.131348	4355.253906	2979.241943	56.415630
706.792480	1191.518433	4350.499023	2964.009766	56.109600
707.117371	1191.295532	4345.817871	2953.755859	55.870907
707.442200	1186.540039	4357.111816	2956.282471	55.817768
707.766907	1197.536987	4354.659668	2954.945068	55.664867
708.091675	1200.434692	4357.780273	2962.375000	55.804478
708.416321	1205.635986	4338.684570	2955.316406	55.845940
708.741028	1193.450317	4348.715332	2968.542236	56.258091
709.065552	1188.992188	4359.415039	2970.102783	56.178959
709.390137	1185.425659	4383.117676	2988.530029	56.387684
709.714600	1194.862183	4390.547852	2989.049805	56.144062
710.039063	1200.509155	4416.256348	3006.659424	56.165806
710.363403	1196.942505	4443.822754	3019.662842	56.137589
710.687744	1190.849731	4480.082520	3047.303467	56.440323
711.012085	1190.106689	4524.961426	3063.872803	56.187340
711.336304	1195.010742	4558.917480	3095.599854	56.499458
711.660461	1197.165527	4586.483887	3115.958984	56.612961
711.984619	1198.800171	4588.193359	3115.587646	56.552528
712.308716	1190.626831	4593.542480	3107.785889	56.338718
712.632751	1183.791016	4590.124512	3102.287109	56.321442
712.956726	1179.332886	4582.843262	3099.983643	56.431465
713.280701	1180.373047	4557.729004	3079.922119	56.243675
713.604553	1187.431763	4516.268066	3056.368164	56.143833
713.928467	1194.713501	4463.661621	3026.795654	56.045002
714.252258	1199.691772	4426.733887	2998.560547	55.743580
714.575989	1203.555542	4383.415039	2971.068604	55.584629
714.899719	1202.440918	4343.588867	2952.046875	55.699574
715.223267	1203.183960	4294.399902	2925.372314	55.712330
715.546936	1198.577148	4258.734863	2897.063232	55.503220
715.870422	1200.731934	4230.202637	2881.905518	55.493969
716.193970	1205.784546	4207.392090	2875.515381	55.627888
716.517395	1211.654419	4192.976563	2868.828125	55.585194
716.840820	1208.013550	4160.506348	2847.800049	55.539055
717.164124	1193.450195	4122.091797	2825.360596	55.722435
717.487488	1192.484375	4081.671143	2803.739014	55.768448
717.810730	1186.837402	4061.535156	2791.255859	55.811726
718.133972	1191.444214	4028.098877	2767.850586	55.572727
718.457092	1188.917969	3989.461670	2745.262695	55.572948
718.780212	1194.119019	3933.808838	2723.714844	55.830982
719.103210	1196.570923	3890.565186	2701.052490	55.845764
719.426208	1199.988892	3846.875000	2669.028076	55.500656
719.749207	1196.645386	3808.163330	2630.539307	54.906528
720.072083	1199.023071	3758.974609	2604.681885	54.909584
720.394958	1195.828003	3722.417725	2589.375244	55.155262
720.717773	1190.849731	3686.677734	2564.929932	55.055080
721.040527	1192.781616	3669.737061	2555.419189	55.012596
721.363281	1192.633057	3652.721436	2526.069580	54.202789
721.685913	1195.902344	3628.424561	2519.233643	54.401611
722.008545	1199.989014	3603.161865	2500.955078	54.135353
722.331055	1199.394531	3555.607666	2493.524902	54.924164
722.653503	1205.115845	3531.087891	2476.361084	54.654362
722.976013	1194.936401	3499.137939	2465.958740	55.161072
723.298401	1192.112915	3494.382568	2460.608643	55.097622
723.620789	1187.060181	3481.008057	2458.008301	55.404408
723.943115	1184.459595	3480.636719	2440.026855	54.680763
724.265381	1190.626831	3466.073242	2441.290283	54.963436
724.587585	1194.341919	3460.054688	2425.983887	54.360020
724.909790	1197.759888	3462.878174	2425.240967	54.190598
725.231873	1198.057007	3469.416992	2416.101807	53.626236
725.553894	1196.793945	3475.881592	2435.940430	54.370285
725.875916	1217.672974	3490.072998	2480.001953	55.550476
726.197937	1208.905273	3494.977295	2486.317627	55.878044
726.519775	1212.026001	3493.936768	2481.710938	55.641308
726.841675	1188.843628	3491.930664	2448.497559	54.694157
727.163513	1195.382202	3504.264893	2460.609131	54.798229
727.485291	1180.595825	3535.100342	2468.559326	54.702106
727.806946	1188.472046	3538.518311	2487.580811	55.280132
728.128662	1189.363770	3550.852539	2489.289795	55.046886
728.450256	1202.663940	3545.576904	2495.976807	55.201061
728.771790	1199.914673	3544.833984	2490.255859	55.027100
729.093323	1196.273804	3547.211914	2493.450684	55.176994
729.414795	1192.112915	3542.976563	2490.701416	55.238781
729.736145	1190.775391	3550.852783	2500.806641	55.507977
730.057495	1205.115845	3541.936523	2499.840820	55.405403
730.378845	1209.053833	3545.577393	2500.955322	55.291615
730.700134	1205.784546	3543.942627	2492.856201	55.046391
731.021301	1189.140747	3559.546143	2488.175049	54.802204
731.342468	1184.682617	3562.815674	2491.147461	54.936573
731.663574	1189.066528	3555.310791	2490.181396	54.986500
731.984680	1194.193359	3551.744141	2488.249268	54.889843
732.305664	1193.673218	3557.390869	2497.017334	55.139584
732.626648	1196.348145	3572.029053	2514.404297	55.481194
732.947571	1194.862061	3582.134033	2518.416260	55.442120
733.268433	1202.589478	3565.639404	2502.738525	55.019958
733.589233	1196.942505	3559.249023	2493.525146	54.886295
733.909973	1193.227417	3533.688721	2493.673584	55.563667
734.230713	1185.276978	3508.128906	2480.819336	55.773777
734.551331	1182.899292	3469.491455	2455.036377	55.634628
734.871948	1186.465820	3435.832031	2418.999756	54.794720
735.192505	1185.871460	3407.448242	2400.052246	54.654011
735.513062	1188.397827	3388.872314	2388.163818	54.523056
735.833435	1185.574219	3346.148438	2375.086670	55.055386
736.153931	1190.255249	3313.604248	2348.114502	54.529858
736.474304	1191.741333	3258.917236	2321.439941	54.649372
736.794617	1194.490479	3247.028564	2307.916992	54.246326
737.114807	1190.701050	3227.115479	2308.437012	54.887451
737.434998	1186.317261	3218.793701	2304.796143	55.030350
737.755188	1185.128418	3189.889893	2294.542236	55.338943
738.075256	1187.134521	3191.599365	2298.703125	55.454632
738.395325	1195.902344	3202.893311	2308.139893	55.418163
738.715271	1202.961060	3233.505859	2325.972412	55.305912
739.035278	1202.961060	3250.075439	2328.647217	54.988922
739.355164	1190.626831	3269.765625	2317.947754	54.220573
739.675049	1182.453491	3275.041016	2313.638184	54.056747
739.994873	1185.054077	3275.115234	2310.740479	53.859020
740.314636	1197.834106	3271.028564	2320.028076	54.128738
740.634277	1201.326294	3247.772217	2311.706299	54.258945
740.953979	1204.372681	3227.710205	2298.628906	54.081745
741.273499	1199.691772	3200.069580	2274.109131	53.710720
741.593140	1196.868286	3176.441406	2256.648193	53.535778
741.912598	1195.010742	3145.234375	2241.936279	53.682331
742.232117	1191.072632	3098.274658	2224.772217	54.199795
742.551453	1196.422363	3067.290283	2218.679199	54.640781
742.870850	1192.335815	3034.077148	2205.973633	55.036926
743.190063	1202.292358	3023.452148	2191.187500	54.300297
743.509338	1196.719727	2986.746338	2168.599365	54.294144
743.828552	1193.227417	2963.638428	2147.645752	53.909420
744.147705	1183.790894	2930.425049	2133.305420	54.362530
744.466797	1183.939575	2915.787354	2117.627686	53.912827
744.785828	1189.735229	2896.988525	2103.287109	53.510036
745.104858	1194.861938	2878.264404	2094.370850	53.433979
745.423706	1195.976685	2866.598877	2089.095459	53.460247
745.742615	1193.673218	2855.304932	2081.516602	53.432018
746.061401	1196.422363	2841.484619	2072.080078	53.229458
746.380249	1197.759888	2828.407227	2062.569336	53.034733
746.698975	1199.320190	2815.404297	2061.231689	53.333332
747.017639	1197.314087	2805.670654	2054.544678	53.298542
747.336304	1199.543091	2794.896729	2050.011963	53.309113
747.654907	1199.766113	2794.599609	2056.624756	53.727154
747.973389	1196.793823	2794.451172	2054.247314	53.669422
748.291931	1196.199585	2798.760742	2050.531982	53.310440
748.610352	1194.490601	2799.503662	2034.779907	52.354050
748.928711	1197.685547	2798.314697	2031.956421	52.121433
749.247070	1202.218018	2788.581299	2038.272095	52.702560
749.565308	1199.988892	2783.825439	2040.501343	53.068130
749.883545	1197.091064	2781.968018	2044.736450	53.483356
750.201782	1191.072632	2776.915771	2034.928589	53.211819
750.519836	1190.923950	2762.649414	2024.897827	53.061039
750.837952	1192.632935	2757.522705	2017.541870	52.713551
751.155884	1190.329468	2752.247070	2011.151733	52.552212
751.473877	1191.295532	2748.531982	2010.408569	52.600430
751.791809	1193.896118	2733.077148	2005.801880	52.749207
752.109619	1191.890015	2716.135986	2003.647095	53.256306
752.427490	1199.320190	2706.104736	2001.343750	53.227489
752.745300	1195.828003	2697.783203	2001.715332	53.655884
753.062988	1199.765991	2701.349854	2000.749390	53.342567
753.380615	1187.505981	2696.742920	1998.817383	53.756397
753.698303	1186.837402	2694.959717	1988.117798	53.130997
754.015808	1185.871460	2682.922607	1992.576050	53.886242
754.333374	1189.066406	2679.356201	1991.833008	53.866478
754.650757	1184.385376	2693.324951	1993.616211	53.629108
754.968262	1184.162476	2705.213623	1985.071655	52.654980
755.285583	1184.682617	2710.191650	1977.344116	51.960461
755.602905	1186.985962	2683.368408	1979.721680	52.976810
755.920105	1180.893188	2667.541748	1970.433960	53.108772
756.237305	1184.534058	2643.988037	1976.898071	54.291813
756.554443	1193.598877	2645.399658	1978.904297	54.091816
756.871582	1197.388306	2650.378174	1979.424683	53.822563
757.188599	1195.084961	2661.895020	1964.118164	52.428955
757.505615	1190.181030	2669.548096	1958.842773	51.958824
757.822510	1197.016846	2672.297363	1962.854980	51.911358
758.139465	1201.103516	2683.888428	1980.167603	52.540600
758.456238	1196.719604	2698.229004	1992.427368	52.993858
758.773010	1194.193359	2706.030762	2006.470703	53.727825
759.089783	1189.512207	2716.878906	2002.012329	53.196140
759.406433	1192.261597	2725.944092	1998.223022	52.550735
759.723145	1186.688843	2741.918945	1998.371704	52.190533
760.039673	1192.484375	2747.566162	2011.597534	52.673317
760.356201	1192.558594	2750.389648	2013.009277	52.666218
760.672668	1193.598877	2746.005859	2019.102051	53.175694
760.989136	1189.215088	2736.792236	2006.693726	52.823128
761.305481	1186.094360	2738.872803	2005.133301	52.746670
761.621826	1189.140747	2735.454834	2004.984741	52.760563
761.938049	1191.072632	2738.055420	2013.529419	53.165218
762.254333	1187.803223	2746.897461	2025.863647	53.753033
762.570496	1185.425537	2781.447998	2044.662109	53.836121
762.886597	1177.921021	2858.574219	2086.643311	54.069592
763.202637	1183.419434	2950.560791	2138.952393	54.072243
763.518677	1181.561890	3089.655518	2201.664063	53.461849
763.834656	1192.187134	3205.865234	2267.347656	53.392868
764.150574	1189.883667	3314.495850	2322.702881	53.318867
764.466370	1195.976563	3361.975342	2357.699463	53.634514
764.782288	1188.620605	3390.359131	2362.380615	53.310600
765.097961	1195.902222	3366.582031	2351.606689	53.241592
765.413696	1194.564819	3316.501953	2318.913818	52.986916
765.729309	1199.394531	3231.127930	2281.093506	53.240204
766.044861	1193.450317	3127.772705	2230.641846	53.620407
766.360474	1200.509155	3022.560547	2182.642334	53.902607
766.675903	1203.258301	2910.214844	2115.547119	53.445347
766.991394	1199.840454	2824.023682	2060.042969	52.962158
767.306763	1185.351318	2746.228516	1996.588501	51.973160
767.622131	1175.097534	2686.637695	1968.724976	52.504555
767.937378	1181.710571	2638.563721	1936.848999	51.833530
768.252625	1187.431885	2594.948242	1924.737671	52.383461
768.567810	1194.416260	2557.277100	1896.502563	51.515625
768.882996	1190.255249	2510.986328	1883.351074	52.478195
769.197998	1195.679321	2461.500732	1867.375977	53.064095
769.513062	1198.279907	2437.574951	1850.955078	52.665035
769.828064	1200.880737	2410.974609	1832.973999	52.235062
770.142944	1198.057129	2397.080078	1812.317749	51.230099
770.457825	1190.923950	2360.448730	1805.704712	52.566715
770.772705	1188.174805	2335.780273	1780.664673	51.628357
771.087402	1192.261597	2310.888916	1774.125977	52.015926
771.402100	1192.112915	2293.353516	1768.404785	52.331150
771.716736	1191.890015	2288.598145	1771.599609	52.859058
772.031372	1192.112915	2271.359863	1759.042480	52.530106
772.345947	1194.342041	2262.889404	1745.890991	51.616707
772.660461	1194.490601	2237.180420	1730.213013	51.378887
772.974854	1189.883789	2235.248779	1720.925293	50.799625
773.289246	1195.233521	2220.313721	1712.529175	50.463921
773.603638	1200.657715	2211.174561	1710.894531	50.492657
773.917908	1197.834229	2192.524658	1711.934937	51.684494
774.232178	1195.902344	2182.642334	1706.139160	51.709347
774.546265	1190.255249	2174.320557	1705.173218	52.325588
774.860474	1195.605103	2165.329834	1698.040039	51.812119
775.174561	1192.707153	2156.339111	1692.318848	51.846733
775.488586	1195.679321	2147.571533	1684.591309	51.362118
775.802551	1186.094360	2136.426270	1681.321899	52.111008
776.116516	1185.871460	2129.962158	1674.857544	51.794395
776.430359	1187.357544	2133.379883	1667.353027	50.738281
776.744202	1197.759888	2132.190918	1660.888672	49.562649
777.057922	1199.023071	2112.946533	1659.105469	50.341457
777.371704	1196.793945	2096.079834	1659.699829	51.474831
777.685303	1194.341919	2092.736084	1661.111694	51.956013
777.998962	1197.388306	2091.770264	1650.114868	50.618927
778.312500	1201.177856	2082.408203	1641.792847	49.999981
778.626038	1202.663818	2074.234619	1640.307007	50.213154
778.939453	1195.902222	2080.401855	1650.114868	51.352497
779.252869	1195.084839	2085.528809	1647.959961	50.859474
779.566223	1192.781494	2076.389648	1638.449219	50.437260
779.879578	1195.530762	2073.937744	1629.755859	49.433247
780.192749	1196.570923	2064.426758	1629.533081	49.888718
780.505920	1195.530884	2067.621826	1626.858032	49.458965
780.819031	1195.902344	2060.042969	1631.167603	50.369724
781.132141	1195.456543	2062.940674	1640.827026	51.340477
781.445190	1195.976563	2062.420654	1635.922974	50.776089
781.758118	1201.920776	2055.659180	1628.344116	49.947777
782.071045	1193.524658	2040.798462	1611.923218	49.381741
782.383911	1190.701050	2019.027832	1608.951050	50.493359
782.696838	1184.831177	2009.814331	1602.709595	50.652966
783.009583	1188.174805	1996.959961	1594.090454	50.188316
783.322266	1189.809570	1989.901245	1589.186523	49.916401
783.634888	1189.363647	1973.554565	1581.310547	49.981056
783.947510	1193.747559	1967.907593	1574.771973	49.217785
784.260132	1194.936401	1955.647461	1573.657593	49.785156
784.572571	1202.812622	1949.554688	1581.087524	50.656700
784.885010	1200.211914	1948.886108	1588.740845	51.895596
785.197449	1204.447144	1948.068726	1584.579712	51.119087
785.509766	1203.704102	1943.833618	1574.623413	50.115459
785.822083	1206.081787	1936.477539	1575.589233	50.590031
786.134277	1200.509155	1932.167969	1574.697632	51.142483
786.446533	1193.078735	1927.189575	1578.858521	52.550617
786.758606	1190.552368	1929.195923	1573.508789	51.845901
787.070740	1186.763062	1935.883179	1571.576782	51.368759
787.382690	1184.459839	1952.229858	1566.895874	49.811275
787.694641	1183.642334	1961.889038	1572.542603	49.971336
788.006653	1192.112793	1983.511230	1585.174316	49.666706
788.318481	1200.657715	2004.984497	1601.817993	49.875286
788.630310	1204.298462	2023.634399	1609.396973	49.442299
788.942017	1204.818726	2038.049194	1618.016113	49.589809
789.253784	1199.543091	2049.194580	1615.266968	48.928753
789.565430	1203.555420	2046.445679	1619.279297	49.321236
789.877014	1191.592773	2034.854126	1607.687988	49.343567
790.188538	1191.444214	2020.365234	1602.486816	49.587669
790.500061	1190.329468	1997.925781	1589.706665	49.452579
790.811462	1198.577148	1981.430664	1585.991699	49.487488
791.122925	1198.057007	1959.213989	1578.264160	49.951214
791.434204	1198.279907	1950.892212	1572.542603	49.728485
791.745483	1198.577148	1936.551758	1568.084595	50.070484
792.056702	1200.434692	1916.935913	1556.864868	49.745926
792.367920	1196.868286	1906.087769	1549.657715	49.743336
792.678955	1191.295532	1893.084595	1541.930176	49.962967
792.990112	1189.363647	1883.796875	1541.261353	50.674088
793.301086	1184.013794	1881.270630	1531.527710	49.840160
793.612122	1183.865234	1868.861938	1525.583496	49.886116
793.922974	1183.642456	1856.304810	1523.354492	50.502609
794.233826	1182.156372	1838.249390	1525.137695	52.276325
794.544556	1182.973633	1834.831421	1517.187134	51.270924
794.855286	1186.317261	1853.332642	1508.642212	48.323467
795.166016	1186.985962	1858.905396	1503.812866	47.152515
795.476624	1187.729004	1872.131348	1510.054199	47.095863
795.787292	1186.540161	1871.239868	1522.239868	49.028751
796.097778	1188.992065	1885.431641	1543.416138	50.890858
796.408264	1195.828003	1895.313843	1559.911255	52.050125
796.718689	1191.221069	1915.970093	1572.691406	52.634819
797.029053	1193.153076	1917.307251	1558.722534	50.482269
797.339355	1187.580444	1919.016235	1547.279907	49.177177
797.649658	1187.580444	1907.202148	1539.775391	48.941681
797.959839	1186.911621	1912.031860	1542.301636	49.011185
798.270020	1192.781616	1908.167969	1549.508911	49.864986
798.580078	1199.320190	1893.827637	1538.809448	48.882019
798.890137	1195.976685	1868.936401	1529.075684	49.497612
799.200195	1193.004517	1846.793945	1512.803345	48.914654
799.510071	1193.301758	1834.385620	1510.500000	49.478432
799.820007	1198.057129	1831.636353	1507.750854	48.880032
800.129883	1202.440918	1831.562134	1503.069824	47.785530
800.439575	1192.112915	1829.109985	1490.215454	46.798103
800.749329	1189.586548	1825.543457	1486.946167	46.757824
801.058960	1189.289307	1811.946167	1479.515625	46.610958
801.368591	1201.103394	1810.088501	1485.311401	46.669125
801.678162	1205.858887	1797.605835	1482.487915	46.747860
801.987671	1201.846558	1800.949341	1486.054321	47.438900
802.297119	1193.673218	1790.918579	1485.905762	48.930065
802.606506	1183.122192	1785.271484	1494.079102	51.641167
802.915894	1181.338989	1776.801147	1489.546509	51.759380
803.225159	1179.109863	1773.160156	1485.534302	51.582237
803.534424	1187.208862	1768.478882	1478.772827	50.159813
803.843628	1183.493652	1762.757446	1481.224731	51.398186
804.152771	1186.614380	1758.893921	1472.085449	49.883152
804.461792	1189.512207	1765.061157	1469.187622	48.592812
804.770874	1192.632935	1777.841187	1469.930664	47.384453
805.079773	1190.998291	1782.893921	1475.949219	48.142090
805.388733	1186.763062	1787.203491	1475.875000	48.149979
805.697571	1187.803345	1792.999023	1475.875000	47.599754
806.006470	1198.948730	1801.543579	1484.494019	47.385948
806.315125	1199.988892	1809.717163	1501.732300	49.488178
806.623901	1195.530762	1811.500366	1503.143921	49.939667
806.932495	1191.815552	1810.683105	1501.063599	49.969990
807.241150	1197.908569	1805.481934	1493.484741	48.648640
807.549622	1202.143677	1792.033203	1493.410278	49.376465
807.858154	1200.657593	1785.197144	1487.094727	49.002182
808.166565	1192.261475	1769.370728	1481.150391	50.057926
808.474915	1190.181030	1767.513184	1481.447632	50.450439
808.783264	1186.688843	1753.172729	1490.884155	53.698845
809.091492	1188.100464	1754.881836	1479.292847	51.376492
809.399719	1189.809448	1748.268677	1467.330078	49.693981
809.707825	1196.496704	1753.544312	1452.692383	45.991703
810.015930	1198.131348	1741.729980	1451.875366	46.678562
810.323975	1197.759766	1728.058228	1452.320923	48.003376
810.632080	1186.317261	1717.581665	1443.776245	48.461555
810.939880	1186.317261	1720.405273	1438.352051	47.189747
811.247864	1184.682495	1718.770508	1433.373901	46.563751
811.555664	1189.289307	1716.095581	1429.584351	45.613548
811.863464	1191.221191	1710.151367	1424.829102	45.017216
812.171143	1194.936401	1705.098633	1420.519531	44.217922
812.478882	1199.766113	1702.423828	1422.376953	44.286766
812.786438	1202.143677	1692.244507	1426.612183	45.800476
813.094055	1203.926880	1682.807983	1431.962036	47.618324
813.401489	1196.050903	1672.405640	1433.448242	49.836250
813.708984	1190.106689	1664.009399	1427.949585	50.188126
814.016357	1186.763062	1665.421265	1420.519531	48.835781
814.323730	1183.865356	1667.873169	1413.980835	47.543755
814.630981	1181.636230	1675.823608	1413.460571	46.910210
814.938232	1184.756958	1675.154785	1410.934204	46.121178
815.245361	1186.911743	1670.250977	1415.169556	47.225178
815.552490	1194.044800	1667.576172	1426.686523	49.129105
815.859619	1197.091187	1670.770996	1430.030151	49.176460
816.166565	1203.035400	1680.281860	1426.166382	46.753826
816.473572	1200.063354	1682.659546	1419.107788	45.388760
816.780457	1195.605103	1681.470581	1421.039551	46.398533
817.087341	1193.450317	1681.396118	1422.971313	47.038216
817.394043	1191.815674	1683.699585	1424.531738	47.311176
817.700806	1195.530762	1688.380737	1433.968140	48.379303
818.007507	1195.753784	1691.055664	1438.872192	49.084896
818.314209	1197.908569	1699.080444	1450.166382	50.333591
818.620667	1196.645386	1713.495117	1445.633789	48.174236
818.927246	1202.589478	1726.126465	1456.407593	48.481411
819.233704	1202.886597	1755.030273	1457.224976	46.063805
819.540161	1203.183960	1780.813354	1467.998901	45.845131
819.846497	1193.301636	1818.187622	1490.958496	47.633785
820.152832	1187.060181	1853.927246	1510.351563	48.479134
820.458984	1183.419434	1904.378784	1542.301636	49.778423
820.765259	1193.747437	1962.409180	1567.118774	48.574207
821.071350	1196.199585	2045.999634	1602.709839	47.835987
821.377502	1195.679443	2183.905518	1675.303345	48.533825
821.683472	1182.453613	2452.138428	1814.026733	49.742512
821.989441	1182.899292	2901.744141	2065.392578	51.342232
822.295349	1182.750732	3540.895752	2396.336914	51.463593
822.601196	1186.540161	4261.112793	2768.965576	51.468140
822.907043	1189.512329	4872.178223	3082.151367	51.393177
823.212769	1188.472046	5240.347656	3268.130859	51.325829
823.518494	1198.428711	5263.456543	3297.331787	51.633179
823.824097	1195.828003	5055.333984	3191.822021	51.716309
824.129700	1193.227417	4704.179199	3006.956787	51.659195
824.435242	1190.329590	4351.093262	2805.225342	51.091949
824.740723	1191.146973	4012.495117	2623.183350	50.757168
825.046082	1196.570923	3684.894775	2465.141357	50.980923
825.351501	1193.004517	3356.476563	2300.486572	51.190029
825.656799	1197.462646	3051.092529	2159.682861	51.910049
825.962036	1196.125122	2803.961670	2032.328003	52.007954
826.267212	1198.205688	2645.399658	1943.907715	51.527443
826.572449	1190.701050	2581.648193	1894.125000	50.571579
826.877502	1197.536987	2610.774658	1906.607788	50.173500
827.182495	1198.280029	2735.305908	1972.142944	50.348072
827.487488	1200.360474	2882.648438	2044.885254	50.200966
827.792419	1197.982788	3015.427490	2104.698975	49.889618
828.097290	1199.691772	3036.677734	2122.011475	50.208317
828.402100	1194.564819	2971.885986	2096.377197	50.739979
828.706848	1193.153076	2828.481689	2029.430176	51.138168
829.011597	1189.140747	2675.269775	1949.109009	51.137436
829.316223	1198.502808	2529.041748	1871.165405	50.555649
829.620789	1194.193237	2403.841553	1806.001953	50.577404
829.925354	1197.462646	2276.709717	1735.934570	49.893295
830.229797	1201.697876	2160.425781	1672.702759	49.128109
830.534302	1207.121948	2033.293945	1605.978882	48.277710
830.838562	1207.716431	1945.245117	1549.508911	46.342941
831.142944	1200.063354	1860.540039	1506.116211	46.338177
831.447144	1195.159302	1818.038940	1475.726196	45.043518
831.751404	1192.410034	1770.262329	1463.689331	46.946133
832.055542	1193.227417	1756.739258	1452.395386	45.991573
832.359619	1186.168579	1743.587524	1453.063965	47.880573
832.663635	1178.441040	1756.070313	1461.831665	49.060989
832.967651	1174.280151	1775.611938	1478.252563	50.549866
833.271545	1182.602051	1829.778931	1505.298828	49.862225
833.575439	1192.855957	1920.130981	1546.759766	48.661621
833.879211	1193.970337	2041.541626	1608.133789	48.864735
834.183044	1190.626831	2166.370117	1681.916382	50.350288
834.486694	1188.694946	2270.542725	1730.510254	50.082397
834.790344	1193.673096	2300.189209	1754.732910	50.705074
835.093933	1194.861938	2276.040771	1732.442017	49.721661
835.397522	1187.580444	2210.431641	1696.108276	49.716698
835.700928	1186.168579	2148.686279	1654.944702	48.703117
836.004395	1190.478149	2090.061279	1631.019043	48.971672
836.307739	1189.215088	2022.891602	1593.793335	48.529404
836.611023	1186.614502	1952.155396	1561.174438	48.927490
836.914307	1188.397827	1882.385132	1522.388550	48.126347
837.217529	1191.444214	1815.884155	1502.178101	49.762012
837.520691	1195.753784	1760.454468	1460.568726	46.894745
837.823730	1190.106567	1706.510620	1425.200562	45.525204
838.126831	1194.936401	1664.232422	1396.668335	42.986073
838.429749	1189.883667	1630.796021	1385.225586	44.304024
838.732727	1193.821777	1600.406250	1372.594238	43.969330
839.035522	1196.125122	1587.106079	1368.730469	44.146740
839.338379	1200.137573	1579.675781	1368.358887	44.322628
839.641113	1196.645386	1590.003906	1378.612671	46.259907
839.943848	1194.936401	1607.836548	1384.259766	45.852093
840.246460	1189.289429	1633.842651	1391.318359	45.445385
840.549072	1193.375977	1650.709351	1401.200684	45.442715
840.851563	1190.998291	1655.836060	1408.556641	46.803070
841.154053	1197.239746	1658.511108	1414.798218	47.164963
841.456482	1195.902222	1653.681274	1409.151001	46.583340
841.758850	1200.880493	1635.922974	1402.984009	46.456043
842.061157	1201.995117	1610.957397	1392.432983	46.566120
842.363403	1203.183960	1580.121704	1377.721069	46.303963
842.665588	1201.177734	1567.341675	1361.374512	43.750015
842.967712	1193.375977	1549.509155	1353.349731	44.919643
843.269775	1191.518433	1539.626831	1339.529419	42.518650
843.571777	1189.512329	1518.598999	1332.619263	43.486092
843.873840	1192.261475	1503.441406	1321.622559	41.571152
844.175659	1189.958130	1490.884155	1324.297485	44.641987
844.477600	1194.639160	1477.955444	1318.947632	43.876217
844.779297	1196.868164	1466.215698	1307.653687	41.131069
845.081116	1201.252075	1456.853516	1303.121216	39.854683
845.382751	1197.536987	1456.184692	1293.313110	37.029568
845.684387	1194.416260	1453.807007	1295.319458	38.900078
845.985962	1195.084961	1442.884644	1286.848877	37.031490
846.287537	1196.496704	1431.516235	1292.421509	40.815674
846.588989	1202.589478	1427.949707	1292.124268	39.729633
846.890381	1198.428589	1425.423340	1290.786865	40.687405
847.191711	1195.382202	1422.897095	1282.093506	38.112366
847.493042	1190.998169	1417.175781	1277.561035	38.272076
847.794250	1190.180908	1410.414429	1277.412476	39.608669
848.095459	1181.041626	1416.061157	1277.338013	40.973782
848.396606	1184.459839	1410.339844	1276.743652	40.855236
848.697693	1186.911621	1417.101563	1274.068726	37.863125
848.998657	1195.828003	1403.949829	1272.359741	36.772568
849.299622	1192.112793	1403.652710	1276.520630	39.901611
849.600464	1191.666992	1396.222290	1272.285522	39.411606
849.901367	1193.450317	1401.349243	1274.365967	38.920666
850.202087	1195.605103	1396.371094	1270.948120	37.527779
850.502808	1192.558716	1388.643555	1271.393921	40.204639
850.803467	1192.261475	1385.299805	1271.542480	41.070084
851.104065	1189.437988	1387.157349	1272.731323	42.127052
851.404663	1187.134644	1395.702271	1272.954224	41.147125
851.705139	1184.013794	1390.278198	1267.232788	40.345787
852.005615	1181.116089	1394.439087	1269.239014	41.309624
852.306030	1188.769165	1396.222534	1268.867554	38.610310
852.606384	1187.580444	1398.748657	1272.954224	40.429276
852.906616	1196.719604	1396.965454	1264.037842	33.617794
853.206909	1197.165405	1395.999512	1266.787109	35.014969
853.506958	1201.029175	1398.451538	1269.313477	34.587925
853.807129	1194.341919	1394.216187	1275.331909	40.520470
854.107178	1191.518433	1387.231812	1271.393921	40.812481
854.407166	1190.701172	1380.990234	1271.691040	42.561493
854.707092	1191.518433	1382.104858	1265.301147	38.713520
855.007019	1193.004517	1388.792114	1268.644653	38.633774
855.306763	1193.227417	1392.730103	1261.808716	34.376129
855.606567	1193.896118	1386.711792	1268.347534	38.612740
855.906250	1190.255371	1378.612671	1259.208252	36.607491
856.205933	1189.660767	1376.978027	1258.242188	36.612442
856.505493	1179.630005	1382.773560	1252.743774	35.991184
856.805054	1173.611450	1386.860229	1262.477539	41.672497
857.104492	1167.741577	1384.631226	1273.623047	48.818130
857.403931	1174.503174	1385.151367	1280.458740	50.299774
857.703308	1182.825073	1385.819946	1273.325684	44.582706
858.002563	1191.221313	1386.191528	1263.369141	37.004539
858.301819	1197.982788	1389.460938	1255.790161	30.190063
858.601013	1194.193237	1395.702271	1257.202026	31.268469
858.900208	1196.348145	1394.885132	1256.607544	30.351725
859.199219	1194.639160	1389.015137	1256.458984	31.804251
859.498291	1194.416260	1377.646851	1257.053467	34.184906
859.797302	1192.038574	1374.748901	1255.864624	34.932919
860.096191	1196.496704	1372.073853	1254.378540	32.966610
860.395020	1196.050903	1375.566284	1250.366211	30.256632
860.693787	1196.422485	1390.723999	1250.589111	27.877613
860.992554	1195.085083	1394.959351	1248.062744	26.505493
861.291260	1198.205688	1391.169922	1255.121582	29.495567
861.589844	1195.976563	1367.467285	1254.527100	34.142101
861.888428	1187.060303	1357.436523	1255.195923	39.991272
862.186890	1185.276978	1360.408569	1255.715942	40.220592
862.485413	1180.298706	1366.501343	1252.446655	38.747005
862.783813	1192.335815	1369.176270	1251.109253	33.235291
863.082153	1198.428589	1369.101929	1242.638672	25.903332
863.380371	1204.521362	1372.891479	1245.387817	24.271799
863.678589	1195.828003	1373.040039	1249.623169	30.356384
863.976746	1196.050781	1371.182495	1254.601440	33.432358
864.274902	1198.131348	1370.290649	1256.682007	34.009583
864.572937	1201.995117	1369.770874	1253.858398	30.912262
864.870911	1200.657593	1371.405273	1249.251709	28.459606
865.168884	1192.930054	1370.810913	1258.242310	36.716854
865.466736	1194.639038	1367.764526	1261.808716	38.798260
865.764587	1189.437988	1368.359009	1264.112183	41.735844
866.062317	1195.010620	1371.851196	1257.944946	35.588169
866.360107	1191.295532	1367.318726	1250.960693	33.896194
866.657715	1196.942505	1363.157593	1248.731567	31.157860
866.955322	1196.050903	1356.693237	1243.307373	29.417196
867.252808	1190.478149	1365.535278	1244.496216	30.857393
867.550293	1192.558716	1368.136108	1248.954468	32.120167
867.847717	1193.598877	1372.891235	1254.452759	33.941147
868.145081	1197.685547	1371.776733	1254.155518	32.437008
868.442383	1198.279907	1361.374390	1253.412476	33.804066
868.739624	1194.490601	1365.015137	1255.864502	35.991245
869.036804	1194.193237	1370.142090	1257.127686	35.768604
869.333984	1189.586548	1373.411499	1254.601440	35.367828
869.631042	1197.908447	1360.185547	1253.709839	34.386486
869.928101	1204.372681	1361.968872	1266.935791	39.698364
870.224976	1202.589478	1372.668579	1268.941895	39.012680
870.521851	1197.536987	1380.916016	1268.273315	38.573837
870.818726	1186.911743	1380.767578	1263.592163	39.555386
871.115479	1188.917847	1382.402222	1265.821167	39.746529
871.412231	1190.181152	1389.238159	1269.759155	39.977493
871.708862	1193.004517	1388.717773	1263.294922	35.914993
872.005493	1194.564941	1391.392578	1266.489868	36.542088
872.302063	1191.815552	1394.439087	1256.830566	32.086605
872.598572	1195.605103	1398.005737	1264.855225	34.214378
872.895020	1192.930176	1397.931274	1263.146362	34.251614
873.191406	1195.753784	1400.606079	1265.449585	34.022465
873.487671	1186.094360	1403.132446	1264.335083	36.049305
873.783997	1183.345215	1402.612671	1264.260864	36.902718
874.080200	1177.921021	1397.114136	1267.827271	41.016914
874.376343	1186.465820	1398.005737	1270.130737	39.550415
874.672424	1195.084961	1400.531860	1271.393799	37.142853
874.968445	1193.673218	1398.748657	1267.307251	35.905827
875.264465	1193.524658	1399.937500	1265.152466	34.701237
875.560364	1186.688721	1400.680542	1269.907837	38.888924
875.856201	1184.831177	1398.971680	1270.056396	39.798740
876.152039	1190.181030	1394.290649	1258.539429	33.491024
876.447754	1188.026245	1385.522827	1250.812012	31.790812
876.743469	1194.639160	1390.278198	1253.189697	29.927839
877.039063	1192.781616	1393.324585	1259.876953	33.456837
877.334595	1199.914673	1397.262695	1253.635376	27.221302
877.630127	1199.617554	1392.581543	1255.864624	29.148998
877.925537	1191.890015	1385.448608	1258.762451	34.548939
878.221008	1188.992188	1383.293579	1268.273071	40.803043
878.516296	1182.750610	1391.541382	1268.867676	41.245628
878.811646	1185.574219	1395.256470	1275.629150	42.948284
879.106812	1182.973633	1409.745483	1273.400024	39.875492
879.401978	1191.295532	1419.330688	1273.845825	36.200687
879.697083	1193.078735	1441.324219	1279.715820	34.899761
879.992126	1196.125122	1462.203247	1300.966431	39.402454
880.287109	1197.091064	1500.469116	1324.743286	42.076946
880.582031	1196.199585	1559.316895	1356.619141	44.178436
880.876892	1191.741333	1671.588257	1414.277954	46.376587
881.171753	1186.242920	1862.694946	1508.196655	47.594467
881.466492	1187.728882	2151.509521	1646.548218	47.606201
881.761230	1195.010620	2502.441650	1804.292969	46.601490
882.055786	1189.660889	2820.010986	1969.987915	47.862545
882.350403	1189.215088	3014.164307	2083.374023	48.996372
882.644958	1181.636230	3064.615479	2122.680176	49.976330
882.939453	1187.431763	3004.281982	2093.999268	49.897758
883.233826	1185.202637	2906.648193	2034.705688	49.348240
883.528137	1189.214966	2784.940186	1969.913696	48.924385
883.822449	1195.159302	2669.473877	1924.068970	49.440578
884.116577	1197.016846	2550.886719	1870.422485	49.739319
884.410828	1198.205688	2418.033447	1810.757324	50.216240
884.704956	1195.084961	2264.152588	1721.668335	49.256321
884.999023	1200.880615	2093.702148	1625.892090	47.603184
885.292969	1199.765991	1944.948120	1541.930054	45.916836
885.586914	1202.589478	1822.274414	1479.664429	44.712231
885.880798	1193.450317	1735.563110	1435.008423	44.558643
886.174622	1193.970337	1668.616211	1405.584595	44.583607
886.468384	1196.645386	1627.601196	1375.937866	41.603451
886.762085	1196.719604	1588.666504	1364.866699	42.900478
887.055664	1192.707397	1545.868164	1343.467407	42.688778
887.349304	1185.648560	1517.112915	1331.207520	43.913910
887.642822	1185.128540	1498.760132	1315.009644	41.411995
887.936340	1189.289429	1488.357788	1309.585449	40.223587
888.229736	1191.444214	1466.066895	1301.560791	40.097408
888.523071	1192.930176	1450.240601	1293.610352	39.127903
888.816284	1195.902222	1438.872192	1288.483521	38.104008
889.109619	1197.834106	1433.968262	1281.870483	35.588406
889.402710	1201.400757	1420.519531	1274.068726	33.163734
889.695862	1196.570923	1415.318359	1274.886108	35.801647
889.988892	1186.911743	1405.064453	1269.684937	37.942776
890.281921	1172.051025	1397.188477	1258.762329	38.514828
>>>>>End Processed Spectral Data<<<<<
