Jaz Data File
++++++++++++++++++++++++++++++++++++
Date: Fri Jun 04 16:02:03 2021
User: jaz
Dark Spectrum Present: Yes
Reference Spectrum Present: Yes
Processed Spectrum Present: Yes
Spectrometers: JAZA3586
Integration Time (usec): 24600 (JAZA3586)
Spectra Averaged: 10 (JAZA3586)
Boxcar Smoothing: 1 (JAZA3586)
Correct for Electrical Dark: No (JAZA3586)
Strobe/Lamp Enabled: Yes (JAZA3586)
Correct for Detector Non-linearity: No (JAZA3586)
Correct for Stray Light: No (JAZA3586)
Number of Pixels in Processed Spectrum: 2048
>>>>>Begin Processed Spectral Data<<<<<
W	D	R	S	P
191.335022	0.000000	0.000000	0.000000	0.000000
191.713211	387.488678	386.225494	390.460815	-235.289429
192.091385	782.481934	776.240479	784.636719	-34.523762
192.469528	1172.942749	1174.948853	1181.338989	418.534760
192.847641	1184.311157	1189.289429	1190.255249	119.400719
193.225739	1196.571167	1199.320190	1196.571167	0.000000
193.603790	1211.877319	1200.360474	1192.112915	171.612991
193.981842	1215.518188	1204.224121	1200.806274	130.262314
194.359863	1208.905273	1203.852661	1199.617432	183.822571
194.737854	1212.768921	1214.849487	1211.431519	-64.280685
195.115829	1216.855591	1212.694702	1204.372803	300.002930
195.493774	1224.806030	1210.465576	1207.196289	122.797653
195.871704	1219.159058	1204.892944	1205.338745	96.875107
196.249603	1223.468628	1208.533691	1205.487427	120.396904
196.627457	1216.781372	1210.985718	1207.864990	153.845993
197.005310	1218.787598	1215.221069	1212.843262	166.670090
197.383133	1212.026001	1212.248901	1212.917603	400.000000
197.760910	1210.688599	1217.821655	1207.493530	-44.792416
198.138687	1208.013672	1216.707031	1204.001343	-46.153954
198.516449	1204.521484	1217.301392	1202.440918	-16.279980
198.894180	1206.527466	1213.883545	1202.366577	-56.563946
199.271866	1202.069458	1216.038330	1201.029297	-7.446279
199.649536	1199.171753	1215.221069	1202.738159	22.221546
200.027191	1201.846558	1219.901978	1203.406860	8.641742
200.404816	1200.360474	1213.437622	1204.818726	34.091927
200.782410	1202.440918	1226.069214	1209.945557	31.761236
201.159988	1203.183960	1232.756470	1219.679077	55.778549
201.537537	1212.397461	1237.586060	1220.422119	31.858295
201.915070	1209.796875	1236.694458	1218.416016	32.044292
202.292557	1204.149902	1234.911255	1212.768921	28.018984
202.670029	1196.422485	1242.490112	1210.688477	30.967497
203.047485	1196.050903	1249.400269	1208.905396	24.094931
203.424911	1191.592773	1261.734497	1209.945679	26.165461
203.802292	1197.462524	1257.053345	1209.574097	20.324560
204.179688	1197.314087	1248.359985	1201.400757	8.005874
204.557037	1199.691772	1237.957642	1208.459473	22.912586
204.934357	1188.397827	1239.518066	1206.676147	35.755547
205.311661	1187.060181	1244.867798	1211.208618	41.773800
205.688934	1192.038574	1253.858398	1196.868164	7.812364
206.066177	1193.004517	1257.796387	1189.883789	-4.816542
206.443390	1195.902222	1252.743774	1179.778687	-28.365755
206.820587	1191.741333	1246.428101	1176.955200	-27.037863
207.197769	1198.057129	1237.363281	1185.351318	-32.325245
207.574921	1199.914551	1239.517944	1188.026245	-30.018402
207.952042	1195.307739	1233.127930	1195.233521	-0.196241
208.329147	1190.626831	1241.747070	1187.951904	-5.232618
208.706223	1191.444092	1237.586060	1199.468872	17.391500
209.083267	1196.868286	1233.499390	1193.598999	-8.924894
209.460297	1206.378906	1227.109497	1197.834106	-41.218311
209.837280	1203.926880	1224.806030	1197.611328	-30.248127
210.214264	1195.456421	1231.567627	1199.691772	11.728635
210.591217	1186.168579	1228.595581	1202.069458	37.478207
210.968124	1186.094360	1228.223999	1201.252075	35.978745
211.345016	1190.032349	1233.053589	1206.527466	38.341797
211.721893	1193.004517	1244.496216	1208.310913	29.725950
212.098724	1191.592773	1248.657227	1203.035400	20.052111
212.475555	1193.227417	1249.771851	1189.660889	-6.307479
212.852356	1191.369873	1240.929810	1190.923950	-0.899765
213.229126	1188.917847	1246.799683	1194.267578	9.242505
213.605865	1193.598999	1250.663330	1199.988892	11.197700
213.982590	1197.388550	1256.830444	1195.233521	-3.625438
214.359283	1196.645386	1256.681885	1187.431763	-15.346703
214.735931	1192.261475	1249.028687	1190.329590	-3.403170
215.112579	1187.580444	1251.703613	1194.267700	10.428767
215.489197	1193.524536	1248.880249	1197.314087	6.845817
215.865799	1187.431885	1243.381714	1202.738159	27.357141
216.242355	1187.357544	1238.774902	1206.527466	37.282978
216.618896	1182.379272	1232.310547	1209.945557	55.208454
216.995407	1182.230469	1236.545898	1203.481201	39.124668
217.371902	1183.270752	1230.824585	1195.605103	25.937658
217.748367	1195.084961	1229.858521	1193.152954	-5.555965
218.124802	1206.304565	1228.001099	1183.865234	-103.423576
218.501236	1204.001221	1234.168213	1181.041748	-76.107925
218.877609	1188.843384	1244.570557	1183.939453	-8.799891
219.253983	1176.063354	1250.366211	1193.970337	24.099993
219.630295	1180.744507	1244.719238	1191.518433	16.840908
220.006592	1182.453613	1247.096802	1190.180908	11.953765
220.382889	1194.119019	1249.846069	1194.416260	0.533388
220.759140	1195.307861	1256.904785	1199.468872	6.755225
221.135391	1203.852661	1257.499146	1198.205811	-10.526040
221.511581	1203.258301	1251.332153	1195.902466	-15.301114
221.887772	1196.422485	1251.555054	1193.821899	-4.716969
222.263931	1193.227417	1245.833740	1196.571045	6.355943
222.640060	1189.066528	1242.713013	1194.119019	9.418120
223.016159	1190.329590	1241.821411	1195.976563	10.966737
223.392212	1188.843506	1243.381714	1196.570923	14.168814
223.768265	1186.094238	1250.514771	1198.577148	19.377222
224.144302	1185.276978	1253.486938	1199.543091	20.914999
224.520294	1188.249023	1251.183594	1191.369751	4.958686
224.896286	1190.106567	1257.573608	1189.066406	-1.541732
225.272217	1193.598877	1257.127808	1186.168579	-11.695928
225.648148	1188.769409	1260.397095	1193.450317	6.535054
226.024048	1191.964233	1254.452759	1198.799927	10.939117
226.399902	1191.146851	1262.106079	1208.310913	24.188625
226.775772	1198.428589	1261.140015	1214.106567	25.000195
227.151581	1191.592651	1265.152344	1213.363403	29.596035
227.527374	1192.558594	1260.322754	1209.574097	25.109886
227.903137	1188.471924	1273.474243	1204.595703	18.968634
228.278870	1188.992065	1284.248169	1205.264526	17.082853
228.654572	1186.911621	1300.000366	1199.691772	11.300993
229.030273	1183.939575	1312.111816	1196.571045	9.855074
229.405930	1187.729126	1317.461548	1194.639282	5.326468
229.781555	1192.856079	1320.730957	1198.057007	4.067201
230.157181	1197.982910	1324.891846	1200.509033	1.990501
230.532761	1198.279907	1332.024902	1201.474976	2.388926
230.908325	1194.936401	1332.396362	1204.818481	7.189061
231.283859	1189.512207	1324.297363	1206.007446	12.238172
231.659332	1186.020020	1311.442993	1208.830933	18.187189
232.034821	1189.661011	1304.978638	1201.474976	10.244718
232.410263	1187.580444	1303.567017	1200.360474	11.018542
232.785690	1192.855957	1298.588745	1196.793945	3.724472
233.161087	1187.283203	1297.028198	1200.434692	11.983680
233.536469	1194.564819	1292.272827	1202.143677	7.756639
233.911804	1192.930176	1291.009766	1208.608032	15.984831
234.287140	1193.524536	1292.421509	1203.852661	10.443317
234.662430	1192.558594	1291.604248	1195.753784	3.225977
235.037704	1197.091064	1300.223267	1191.369873	-5.547434
235.412933	1202.440918	1307.430786	1197.016724	-5.166398
235.788162	1197.091187	1317.164307	1201.995239	4.084222
236.163345	1193.301758	1320.507935	1194.862183	1.226689
236.538513	1195.233521	1319.244751	1192.484375	-2.216852
236.913635	1197.611206	1312.260376	1196.050903	-1.360937
237.288742	1196.942505	1309.585571	1196.570923	-0.329876
237.663834	1191.444214	1304.012817	1194.787720	2.970194
238.038879	1189.958130	1307.802124	1192.632935	2.269784
238.413910	1192.558716	1315.380981	1194.416138	1.512284
238.788910	1196.868286	1316.644165	1194.490479	-1.985214
239.163879	1202.069458	1317.089966	1191.889771	-8.850324
239.538834	1201.846558	1314.638062	1193.598877	-7.312325
239.913757	1198.800171	1325.857666	1207.196167	6.608029
240.288651	1200.954956	1341.238281	1215.220947	10.169414
240.663528	1200.657715	1351.046387	1218.267456	11.709487
241.038361	1196.793945	1366.798462	1204.149780	4.326847
241.413177	1193.524536	1384.110962	1198.205688	2.456183
241.787979	1199.394531	1414.649536	1204.670044	2.450820
242.162735	1194.490601	1437.163208	1210.837036	6.736003
242.537476	1190.849731	1452.989624	1212.768921	8.361638
242.912170	1187.729004	1465.101074	1205.933105	6.563062
243.286865	1186.837280	1482.042114	1204.892944	6.116317
243.661514	1186.391602	1493.484741	1208.830933	7.307012
244.036148	1187.134644	1488.506470	1206.453247	6.410222
244.410751	1196.422485	1474.908813	1201.252075	1.734229
244.785339	1201.995117	1457.967896	1196.422485	-2.177041
245.159882	1201.252075	1450.091797	1197.982788	-1.313812
245.534378	1201.549194	1447.639771	1201.920776	0.150994
245.908890	1200.806274	1471.639648	1199.023071	-0.658413
246.283356	1200.360474	1503.515625	1197.239746	-1.029416
246.657791	1195.976685	1551.292114	1199.766113	1.066497
247.032196	1191.741333	1598.846069	1204.001343	3.011513
247.406586	1194.787720	1662.300415	1199.543091	1.017164
247.780960	1191.667114	1722.188477	1198.428589	1.274496
248.155289	1189.363647	1747.599976	1200.211792	1.943289
248.529602	1183.047852	1741.878784	1201.475098	3.297463
248.903870	1195.159302	1695.067993	1203.704224	1.709296
249.278122	1198.725830	1649.148804	1199.543213	0.181470
249.652344	1201.995117	1596.096680	1207.270630	1.338618
250.026550	1195.456543	1558.648071	1202.366577	1.902587
250.400711	1199.989136	1534.871460	1207.047729	2.107783
250.774857	1201.400757	1520.456665	1207.047729	1.769901
251.148987	1197.759888	1518.004517	1199.022949	0.394405
251.523071	1190.255249	1513.769165	1198.725708	2.618267
251.897125	1186.837280	1524.766113	1188.471924	0.483724
252.271164	1195.159302	1534.574097	1197.685425	0.744258
252.645187	1201.177856	1558.127930	1189.660767	-3.226527
253.019165	1196.645264	1576.852173	1192.410034	-1.113928
253.393112	1194.787720	1585.099976	1191.815552	-0.761485
253.767044	1195.307983	1572.914429	1194.416138	-0.236184
254.140930	1201.475098	1541.781616	1192.930176	-2.510949
254.514801	1196.942505	1523.131470	1197.759888	0.250586
254.888657	1196.125244	1503.738647	1192.930176	-1.038664
255.262466	1192.855835	1508.642578	1194.119019	0.400012
255.636276	1192.038452	1503.589966	1195.233521	1.025535
256.010010	1192.781616	1508.493774	1201.697876	2.824174
256.383759	1195.159302	1519.861938	1205.413086	3.157900
256.757446	1196.050903	1540.221069	1199.097290	0.885140
257.131134	1190.775269	1566.895874	1200.880737	2.686763
257.504791	1188.546265	1589.409668	1204.372803	3.948112
257.878418	1192.187134	1620.319458	1206.081665	3.245383
258.252014	1190.849731	1657.099243	1210.985718	4.318715
258.625580	1193.821777	1694.027710	1211.059937	3.446213
258.999115	1196.496704	1755.401733	1216.038330	3.496413
259.372650	1199.840332	1837.803345	1216.038330	2.539018
259.746124	1190.478149	1936.105957	1217.450073	3.617344
260.119598	1183.122192	2027.572632	1214.329468	3.695572
260.493042	1179.852905	2101.429443	1213.734985	3.676535
260.866425	1188.620605	2141.181396	1216.261230	2.901718
261.239838	1191.295410	2115.547119	1212.768921	2.323340
261.613159	1198.948608	2026.160767	1199.394531	0.053907
261.986511	1194.639282	1921.914063	1193.747559	-0.122612
262.359802	1194.862061	1844.342163	1193.004517	-0.286005
262.733063	1191.146851	1812.466309	1205.561768	2.320049
263.106293	1197.685425	1800.875000	1206.527710	1.465921
263.479523	1194.564819	1787.277710	1201.326294	1.140767
263.852692	1197.314087	1784.156860	1196.348022	-0.164621
264.225861	1195.010620	1772.862915	1194.639160	-0.064283
264.598969	1203.852661	1773.754517	1201.326538	-0.443256
264.972076	1204.447144	1764.764038	1202.589478	-0.331538
265.345154	1204.372681	1772.045532	1201.697876	-0.471188
265.718201	1201.474976	1786.683105	1203.258179	0.304713
266.091217	1197.091187	1816.329956	1201.400757	0.695946
266.464203	1191.146973	1851.846558	1193.598877	0.371107
266.837158	1188.843628	1894.124878	1194.341919	0.779588
267.210114	1190.255371	1932.836548	1201.103394	1.460853
267.583038	1194.342041	1960.328735	1220.347900	3.395080
267.955902	1189.958130	1966.272949	1220.942383	3.991197
268.328766	1188.174805	1969.913696	1212.100342	3.060554
268.701569	1189.586548	1969.022095	1202.440918	1.649190
269.074371	1193.598877	1982.842407	1194.639160	0.131808
269.447144	1195.679321	1986.185913	1201.252075	0.704960
269.819885	1195.307861	2008.030884	1198.205688	0.356558
270.192596	1201.549316	2029.504395	1202.069458	0.062822
270.565277	1202.218140	2077.132568	1191.072632	-1.273897
270.937927	1208.310791	2138.655273	1190.403931	-1.924756
271.310577	1201.846558	2206.642334	1188.546265	-1.323681
271.683136	1200.731934	2290.901611	1200.286133	-0.040893
272.055725	1192.038452	2350.640869	1203.704102	1.006873
272.428284	1194.341919	2380.659180	1205.190063	0.914439
272.800812	1191.592773	2357.179443	1207.419189	1.357807
273.173279	1188.843384	2322.554443	1201.474976	1.114181
273.545776	1186.242798	2302.789795	1209.648315	2.096241
273.918152	1189.735229	2282.059326	1207.865112	1.659753
274.290558	1196.199585	2252.784180	1214.403687	1.722919
274.662964	1199.691772	2237.403564	1213.586304	1.338959
275.035278	1199.245972	2224.474854	1202.589478	0.326123
275.407593	1191.146851	2239.260986	1204.447144	1.268974
275.779907	1190.106567	2248.400391	1203.629761	1.277830
276.152161	1190.998169	2273.885986	1218.861694	2.573076
276.524384	1191.443970	2305.910889	1215.815308	2.186816
276.896606	1188.769287	2340.981689	1216.038330	2.366668
277.268799	1193.227417	2373.451904	1207.047729	1.170990
277.640930	1202.515259	2388.015137	1204.967285	0.206835
278.013031	1202.812378	2398.863281	1200.657715	-0.180148
278.385162	1199.691772	2404.064697	1201.103516	0.117218
278.757233	1193.970337	2396.411377	1202.366577	0.698266
279.129272	1203.035522	2384.374268	1203.852783	0.069181
279.501282	1201.177856	2381.996582	1204.744385	0.302039
279.873230	1202.069458	2407.185303	1207.716431	0.468583
280.245178	1192.187134	2443.965088	1210.317017	1.448331
280.617126	1189.437988	2506.305176	1218.564575	2.211809
280.988983	1188.323364	2566.193115	1213.809204	1.849655
281.360870	1190.478149	2625.858154	1215.592529	1.749668
281.732697	1191.518433	2684.780273	1203.332397	0.791152
282.104492	1189.809448	2746.376953	1207.344849	1.126543
282.476288	1187.431763	2805.150391	1201.474976	0.868087
282.848053	1190.775391	2847.577393	1197.313965	0.394650
283.219757	1196.125244	2867.639404	1187.803223	-0.497873
283.591461	1195.605103	2852.555908	1178.738281	-1.017943
283.963135	1194.267700	2831.676758	1188.026001	-0.381194
284.334747	1195.159302	2827.441406	1196.050903	0.054623
284.706360	1198.205688	2861.174805	1205.858887	0.460213
285.077942	1198.428589	2914.375732	1201.846436	0.199181
285.449524	1195.530762	2967.427734	1205.561646	0.566110
285.821014	1198.651489	3006.436768	1206.899048	0.456224
286.192535	1197.982788	3066.919189	1202.589600	0.246494
286.563995	1197.388428	3120.863037	1198.057129	0.034765
286.935425	1192.187256	3173.915039	1192.187134	-0.000006
287.306824	1193.078735	3157.642578	1200.731934	0.389562
287.678223	1195.605103	3115.438721	1201.772217	0.321232
288.049561	1202.738159	3054.510498	1206.676147	0.212660
288.420898	1202.663818	3007.105469	1208.162231	0.304715
288.792145	1201.326294	2986.672119	1208.013672	0.374570
289.163452	1192.484253	2991.799072	1207.344849	0.825903
289.534668	1187.431641	3032.294189	1203.183960	0.853848
289.905914	1182.304810	3074.349365	1205.041504	1.201700
290.277039	1188.769165	3150.732422	1200.286133	0.587012
290.648193	1187.060181	3225.183594	1202.143677	0.740068
291.019318	1189.214966	3303.127197	1199.543091	0.488579
291.390381	1181.859131	3336.786377	1201.474976	0.910279
291.761475	1183.865356	3328.687500	1201.697876	0.831422
292.132507	1182.825073	3301.418701	1200.360474	0.827691
292.503510	1179.852905	3267.462158	1204.521362	1.181661
292.874481	1183.493652	3247.177734	1202.515259	0.921731
293.245422	1187.134644	3249.332275	1202.440918	0.742231
293.616364	1188.992188	3284.106201	1208.756714	0.943363
293.987213	1188.620605	3327.870361	1210.539917	1.024626
294.358093	1190.106689	3409.305908	1209.202515	0.860483
294.728943	1195.902344	3496.983154	1200.806274	0.213114
295.099731	1198.800049	3603.384521	1205.041504	0.259565
295.470490	1194.416138	3661.860596	1206.007446	0.469770
295.841248	1192.112793	3702.355713	1210.911499	0.748880
296.211975	1192.261475	3742.330811	1201.029175	0.343822
296.582642	1197.313965	3815.890625	1201.400757	0.156069
296.953308	1196.348145	3898.218018	1201.474976	0.189751
297.323883	1190.552612	3972.149170	1213.734863	0.833415
297.694519	1186.391602	4024.384033	1215.146606	1.013216
298.065063	1191.147095	4035.455078	1212.546143	0.752346
298.435608	1195.382202	3997.709229	1206.453247	0.395066
298.806122	1196.719604	3882.242920	1211.728882	0.558896
299.176575	1197.165405	3752.212891	1214.998169	0.697943
299.547028	1196.942505	3644.473877	1219.381958	0.916820
299.917450	1197.091187	3595.657227	1217.227173	0.839501
300.287872	1197.239746	3577.899170	1211.282837	0.589882
300.658234	1196.719604	3559.768799	1207.344849	0.449641
301.028564	1198.577271	3535.249023	1207.344971	0.375222
301.398865	1196.125244	3521.800049	1213.066284	0.728435
301.769135	1195.605103	3506.642578	1215.146729	0.845578
302.139374	1193.524536	3519.571289	1214.329468	0.894433
302.509583	1190.923950	3534.283203	1216.930054	1.109779
302.879791	1192.038452	3539.707764	1211.357300	0.822895
303.249939	1189.958008	3516.822266	1217.227173	1.171928
303.620087	1197.982788	3488.364014	1213.363403	0.671531
303.990173	1195.605103	3468.005127	1214.255005	0.820714
304.360260	1195.456421	3454.110352	1212.100220	0.736890
304.730286	1186.243042	3436.054932	1204.372681	0.805829
305.100281	1186.763062	3434.494385	1205.635986	0.839643
305.470276	1183.939575	3457.008057	1197.239868	0.585125
305.840179	1185.648560	3471.051514	1203.258301	0.770531
306.210144	1186.614502	3482.791260	1209.202515	0.983723
306.579987	1194.193359	3489.404297	1215.518188	0.929101
306.949890	1200.211914	3510.134766	1221.536743	0.923184
307.319702	1197.759766	3546.765869	1216.409790	0.793954
307.689484	1193.375977	3583.545898	1218.341675	1.044516
308.059265	1188.843628	3633.922852	1213.883667	1.024099
308.429016	1189.215088	3703.395752	1222.354004	1.318080
308.798737	1191.444092	3776.807373	1215.964111	0.948417
309.168396	1191.221191	3856.682861	1222.205566	1.162439
309.538055	1188.546265	3903.790771	1217.450073	1.064501
309.907684	1185.648560	3950.378174	1220.793701	1.271196
310.277313	1187.803345	3985.821045	1217.152832	1.048939
310.646851	1196.496704	4020.371826	1209.945435	0.476251
311.016388	1207.493530	4042.662842	1207.270508	-0.007866
311.385895	1204.372681	4044.520264	1204.149780	-0.007848
311.755371	1200.732056	4044.891602	1208.979614	0.289982
312.124817	1194.044800	4049.498291	1211.134399	0.598490
312.494232	1196.125244	4037.386963	1202.292358	0.217055
312.863617	1191.890015	4016.136719	1204.149902	0.434094
313.232971	1184.236694	3975.195557	1199.245972	0.537782
313.602295	1190.032349	3947.629150	1203.704102	0.495785
313.971619	1188.694946	3945.325928	1191.295532	0.094339
314.340820	1193.450317	3949.709717	1192.484375	-0.035045
314.710083	1188.174927	3985.226563	1197.016846	0.316116
315.079285	1191.444214	4022.452148	1202.886719	0.404185
315.448486	1189.809570	4070.451904	1197.388306	0.263092
315.817596	1184.608276	4078.922607	1199.468872	0.513441
316.186707	1186.094360	4034.637939	1198.057129	0.419961
316.555786	1189.140747	3955.728516	1206.527710	0.628462
316.924866	1192.187134	3873.326904	1207.121948	0.557032
317.293884	1192.261353	3826.218750	1219.530396	1.035288
317.662872	1194.193359	3804.670898	1225.400513	1.195458
318.031830	1193.970459	3821.017334	1223.691528	1.131349
318.400757	1194.119019	3837.884033	1222.651245	1.079227
318.769684	1192.855957	3864.929932	1223.542847	1.148430
319.138550	1193.153076	3899.555420	1217.821533	0.911485
319.507416	1197.388306	3934.106201	1211.357300	0.510429
319.876190	1200.954834	3954.836670	1201.846558	0.032381
320.244995	1201.400757	3922.886475	1208.013672	0.242989
320.613770	1196.645264	3884.843018	1215.369629	0.696540
320.982483	1194.787720	3855.122314	1222.279663	1.033402
321.351166	1192.707275	3828.299072	1226.366455	1.277101
321.719818	1193.153198	3812.398438	1231.864868	1.477970
322.088440	1187.803345	3818.045166	1230.304565	1.615867
322.457062	1188.397705	3847.840820	1225.326050	1.388574
322.825623	1184.534058	3889.821533	1218.861694	1.268909
323.194183	1192.112793	3945.325928	1217.524292	0.922976
323.562653	1190.701050	4032.928955	1217.375732	0.938513
323.931183	1193.673218	4123.280762	1218.787476	0.857257
324.299591	1194.193359	4205.236816	1218.564575	0.809394
324.668060	1196.273804	4273.669922	1216.707153	0.663982
325.036407	1195.679321	4330.511230	1210.465698	0.471680
325.404755	1190.180908	4361.644043	1208.459473	0.576345
325.773102	1189.512329	4375.092773	1211.282959	0.683412
326.141388	1191.295532	4375.315918	1212.843384	0.676750
326.509674	1188.174805	4364.541992	1213.586426	0.800022
326.877899	1184.385376	4358.226074	1210.317017	0.817043
327.246124	1184.682617	4361.644043	1207.790771	0.727367
327.614288	1186.317261	4356.739746	1203.332642	0.536691
327.982422	1184.608276	4339.130371	1202.069458	0.553529
328.350525	1186.911743	4295.291504	1201.920898	0.482861
328.718628	1191.072632	4291.948242	1204.075684	0.419335
329.086700	1196.719604	4292.319336	1197.611328	0.028806
329.454712	1191.146973	4322.709473	1204.372925	0.422344
329.822693	1185.277100	4337.272461	1214.700928	0.933498
330.190674	1184.459717	4347.377441	1227.555176	1.362522
330.558563	1186.317261	4365.358887	1221.462402	1.105526
330.926483	1186.020142	4387.204102	1214.923828	0.902906
331.294312	1186.540283	4444.342773	1204.447144	0.549661
331.662231	1185.871460	4502.373535	1203.778442	0.539936
332.029999	1187.506226	4567.313965	1203.258301	0.466064
332.397766	1196.125122	4611.672363	1212.694702	0.485122
332.765503	1203.183960	4672.452637	1209.499634	0.182046
333.133240	1197.982910	4735.312500	1209.945557	0.338183
333.500916	1192.707275	4830.270996	1211.580200	0.518834
333.868561	1183.122192	4884.957520	1216.558472	0.903235
334.236176	1194.416138	4910.815430	1218.713257	0.653781
334.603790	1189.363647	4893.800293	1214.775146	0.685975
334.971344	1193.152954	4881.391602	1213.809204	0.560057
335.338867	1185.128418	4869.057129	1213.809204	0.778538
335.706360	1189.512207	4856.797363	1212.397461	0.624038
336.073853	1193.004517	4856.054199	1212.100220	0.521306
336.441284	1195.456543	4863.930176	1212.174438	0.455718
336.808655	1199.765991	4865.937012	1216.929932	0.468171
337.176086	1198.279907	4828.190918	1214.626587	0.450333
337.543396	1195.753784	4732.562988	1212.843262	0.483189
337.910706	1185.574219	4648.452637	1207.344971	0.628689
338.277954	1181.859131	4632.774414	1209.871216	0.811729
338.645264	1189.958130	4711.460938	1215.072510	0.713172
339.012421	1190.181030	4855.459961	1217.821655	0.754121
339.379669	1191.072632	4989.056152	1218.490356	0.721902
339.746796	1187.357422	5102.070801	1215.443970	0.717461
340.113953	1194.341919	5172.138184	1210.019775	0.394134
340.481018	1196.348022	5222.738281	1210.688477	0.356162
340.848114	1197.388428	5239.233887	1204.892944	0.185671
341.215118	1197.314087	5258.849609	1207.493408	0.250627
341.582153	1189.660889	5275.419434	1202.812378	0.321886
341.949066	1190.998291	5323.418457	1207.642090	0.402762
342.316010	1189.958130	5341.474121	1209.499756	0.470711
342.682922	1189.437866	5372.160645	1209.574097	0.481414
343.049835	1188.249023	5410.055176	1208.905273	0.489275
343.416656	1184.533936	5475.292969	1208.087891	0.548946
343.783478	1189.140747	5579.539551	1215.963989	0.610952
344.150269	1180.893066	5725.173340	1215.815308	0.768488
344.516998	1180.150024	5925.716309	1216.781372	0.771907
344.883728	1186.391479	6071.052246	1215.443848	0.594767
345.250427	1191.146973	6155.608887	1221.239624	0.606161
345.617065	1190.552490	6166.828125	1221.239502	0.616666
345.983704	1188.694946	6142.828613	1223.617188	0.704911
346.350281	1185.797241	6125.738770	1223.468506	0.762585
346.716827	1189.363647	6042.817871	1221.759644	0.667483
347.083405	1189.735229	5984.638184	1220.719360	0.646189
347.449860	1195.456421	5891.982910	1220.199219	0.526832
347.816376	1192.187134	5832.392090	1223.171387	0.667735
348.182770	1184.311035	5772.652832	1217.227173	0.717386
348.549194	1184.831177	5738.474121	1215.963989	0.683690
348.915558	1178.663940	5744.640625	1215.146729	0.799014
349.281921	1184.088135	5762.622559	1223.691528	0.864980
349.648193	1178.143921	5816.491699	1219.159058	0.884262
350.014526	1176.806519	5864.564941	1215.221069	0.819465
350.380737	1170.787964	5933.517578	1203.778320	0.692677
350.746948	1172.348267	6002.544922	1202.515259	0.624550
351.113159	1182.156372	6058.494629	1200.434692	0.374837
351.479309	1187.431763	6116.748535	1204.075562	0.337649
351.845428	1184.534058	6154.494629	1201.326538	0.337880
352.211517	1182.007690	6219.063965	1208.979614	0.535470
352.577576	1180.447388	6262.455566	1208.236694	0.546817
352.943604	1185.499878	6307.260254	1217.524414	0.625264
353.309601	1188.174683	6379.854004	1214.180786	0.500919
353.675537	1190.626831	6505.797363	1209.796875	0.360667
354.041473	1197.759888	6654.923340	1207.716309	0.182447
354.407379	1202.143677	6771.875488	1211.877319	0.174760
354.773254	1201.549194	6897.298828	1219.604858	0.317002
355.139038	1199.022949	7009.050293	1225.697632	0.459115
355.504913	1197.239746	7163.822266	1226.069214	0.483182
355.870636	1194.787720	7271.933105	1228.149780	0.548976
356.236389	1198.948730	7444.463379	1221.833862	0.366425
356.602081	1194.713501	7622.791016	1223.394165	0.446178
356.967804	1198.948730	7803.420410	1224.880249	0.392636
357.333405	1193.598877	7960.571777	1230.675903	0.547912
357.699036	1196.273804	8122.476563	1230.973145	0.500987
358.064606	1194.044678	8320.418945	1225.177612	0.436869
358.430176	1186.688721	8475.934570	1218.713257	0.439339
358.795654	1184.608276	8576.020508	1215.146729	0.413161
359.161163	1183.047974	8578.546875	1215.592651	0.440061
359.526581	1183.642334	8559.748047	1219.976440	0.492592
359.892029	1186.020020	8585.753906	1222.205566	0.489011
360.257416	1189.512207	8702.186523	1230.081543	0.540012
360.622772	1200.063354	8933.491211	1222.651245	0.292081
360.988098	1201.400757	9239.989258	1223.691406	0.277296
361.353394	1191.815674	9581.633789	1221.313843	0.351595
361.718658	1180.744507	9879.364258	1226.069214	0.521056
362.083893	1173.537231	10100.191406	1223.691528	0.561849
362.449097	1185.797119	10221.454102	1215.815430	0.332221
362.814209	1193.078857	10226.135742	1216.707031	0.261575
363.179382	1198.948730	10020.463867	1220.719360	0.246790
363.544434	1195.307861	9638.399414	1220.868042	0.302735
363.909546	1200.880493	9166.280273	1212.323242	0.143656
364.274536	1200.063110	8747.881836	1207.270630	0.095491
364.639587	1208.831055	8448.368164	1210.539917	0.023605
365.004517	1199.468872	8269.075195	1218.193237	0.264857
365.369507	1197.759888	8148.854004	1222.354004	0.353816
365.734344	1192.335815	8075.813965	1217.078491	0.359450
366.099274	1192.261475	8009.981934	1218.193115	0.380356
366.464081	1192.038452	7972.681641	1211.134399	0.281624
366.828918	1181.784668	7951.134277	1213.883667	0.474181
367.193665	1182.825073	7922.750488	1211.208618	0.421126
367.558411	1180.818848	7910.564941	1218.787598	0.564193
367.923126	1185.797241	7919.927246	1224.063110	0.568238
368.287781	1187.952026	7916.880859	1221.388062	0.496900
368.652435	1190.552612	7875.791504	1208.310913	0.265635
369.017059	1194.787720	7814.491699	1210.168457	0.232348
369.381653	1193.153076	7748.881348	1215.146606	0.335486
369.746185	1191.890015	7745.835449	1227.258179	0.539647
370.110687	1184.311035	7768.200684	1224.137329	0.604905
370.475220	1184.236816	7837.005371	1229.932983	0.686874
370.839661	1193.227539	7891.766113	1236.174438	0.641138
371.204041	1201.772339	7976.322754	1241.226929	0.582394
371.568451	1198.874390	8024.990723	1230.453003	0.462615
371.932770	1189.214966	8086.885254	1224.062988	0.505214
372.297150	1192.558594	8093.052246	1215.889771	0.338109
372.661377	1197.759766	8144.173340	1217.970215	0.290948
373.025696	1197.834106	8192.098633	1217.895874	0.286832
373.389862	1179.109863	8199.379883	1220.125000	0.584239
373.754059	1176.360718	8182.067871	1224.583130	0.688330
374.118225	1181.561890	8168.395996	1220.050659	0.550876
374.482361	1190.626831	8240.394531	1225.028809	0.487987
374.846436	1193.375977	8334.090820	1221.685303	0.396449
375.210510	1187.951904	8466.497070	1228.669678	0.559422
375.574524	1189.289429	8599.871094	1222.056763	0.442170
375.938538	1188.472046	8767.944336	1224.806030	0.479374
376.302460	1188.323364	8935.645508	1223.542969	0.454604
376.666412	1186.168579	9118.950195	1228.075439	0.528274
377.030304	1190.701050	9306.043945	1222.279907	0.389125
377.394196	1195.753662	9470.030273	1220.719360	0.301727
377.757996	1206.527588	9612.765625	1218.193115	0.138772
378.121796	1201.177734	9673.470703	1223.468628	0.263103
378.485565	1194.936401	9663.440430	1223.468628	0.336922
378.849304	1189.512329	9580.815430	1227.035156	0.447163
379.212982	1187.877563	9428.791992	1227.035156	0.475161
379.576630	1189.735229	9223.048828	1231.047485	0.514262
379.940277	1188.397705	9053.637695	1228.892700	0.514860
380.303864	1188.026123	8909.342773	1232.162109	0.571612
380.667450	1188.694824	8842.692383	1226.960938	0.499949
381.030945	1187.951782	8805.169922	1227.035034	0.513091
381.394501	1187.951782	8832.141602	1219.604858	0.414080
381.757935	1191.889893	8875.459961	1226.515015	0.450638
382.121399	1195.382202	8899.980469	1227.629517	0.418546
382.484741	1197.982910	8974.505859	1234.539673	0.470091
382.848145	1193.599121	9036.028320	1228.446899	0.444349
383.211487	1186.094360	9134.776367	1226.812134	0.512258
383.574768	1184.385376	9203.135742	1224.508911	0.500371
383.938019	1187.654663	9289.028320	1225.846313	0.471422
384.301270	1198.354370	9399.517578	1221.908325	0.287203
384.664459	1197.462769	9508.371094	1218.490356	0.253012
385.027649	1192.484375	9596.271484	1223.022827	0.363389
385.390778	1181.859009	9648.357422	1226.515015	0.527444
385.753876	1186.837280	9694.870117	1234.911255	0.565042
386.116943	1190.626831	9712.554688	1237.586060	0.551040
386.479980	1198.205688	9737.074219	1250.812012	0.616081
386.842987	1194.787720	9771.700195	1255.344482	0.706044
387.205994	1193.078735	9857.073242	1249.177368	0.647492
387.568909	1191.221313	9908.192383	1233.871094	0.489273
387.931793	1193.227417	9943.933594	1238.254883	0.514558
388.294678	1189.809448	10001.591797	1247.468384	0.654339
388.657471	1189.215088	10035.918945	1258.688110	0.785298
389.020294	1190.701172	10033.987305	1249.028687	0.659568
389.383057	1198.874390	10029.306641	1246.873901	0.543569
389.745819	1197.982788	10065.416992	1249.028687	0.575656
390.108521	1198.279907	10107.696289	1245.016357	0.524574
390.471191	1195.605103	10199.163086	1238.477661	0.476174
390.833801	1193.524536	10306.084961	1231.196045	0.413402
391.196442	1189.958008	10504.993164	1233.202271	0.464242
391.558960	1190.255371	10664.372070	1235.134155	0.473699
391.921509	1194.639160	10865.584961	1242.267212	0.492486
392.284027	1190.106812	11050.671875	1247.245483	0.579466
392.646484	1188.546265	11194.968750	1245.907959	0.573249
393.008911	1185.499878	11215.699219	1242.787231	0.571149
393.371307	1189.066406	11170.597656	1246.873901	0.579145
393.733673	1188.249146	11094.808594	1256.087524	0.684782
394.096008	1191.369873	11033.583008	1263.517700	0.733045
394.458344	1188.843628	11014.932617	1264.780884	0.772813
394.820587	1188.546265	11007.206055	1272.582642	0.855884
395.182831	1186.614380	11037.000000	1280.458740	0.952697
395.545013	1192.855957	10994.351563	1289.003540	0.980948
395.907196	1199.023071	10902.364258	1294.724976	0.986278
396.269287	1196.794067	10754.798828	1308.768066	1.171521
396.631409	1195.159302	10609.537109	1325.634888	1.385918
396.993469	1195.010742	10431.507813	1349.634644	1.674053
397.355530	1194.936401	10301.106445	1369.845093	1.920771
397.717499	1194.341919	10248.424805	1398.005737	2.249414
398.079468	1192.112793	10239.955078	1421.931152	2.540035
398.441376	1185.945679	10246.493164	1450.240356	2.916983
398.803284	1188.100464	10236.833984	1486.203003	3.294412
399.165131	1191.964233	10271.161133	1519.564941	3.608256
399.526978	1202.738159	10269.601563	1564.369507	3.988495
399.888763	1201.549194	10272.946289	1614.003784	4.546759
400.250519	1199.468750	10283.050781	1672.257202	5.204868
400.612244	1201.252075	10300.215820	1741.953003	5.942445
400.973938	1197.016724	10277.478516	1798.497437	6.623900
401.335602	1193.376099	10284.684570	1866.038574	7.398962
401.697205	1185.054199	10340.709961	1926.000854	8.092775
402.058807	1186.242798	10426.899414	2017.690308	8.997710
402.420349	1189.958130	10573.499023	2115.472656	9.863169
402.781860	1194.044800	10686.663086	2222.914307	10.838627
403.143341	1192.187256	10848.494141	2327.607178	11.758325
403.504822	1187.431763	10988.703125	2440.621338	12.785990
403.866241	1188.472046	11187.909180	2561.586182	13.731914
404.227631	1191.666992	11357.468750	2678.984375	14.630596
404.588959	1195.976563	11535.942383	2807.082275	15.581345
404.950287	1191.890015	11699.706055	2934.437256	16.583344
405.311554	1195.010742	11819.631836	3064.615479	17.596907
405.672821	1192.633057	11872.460938	3201.555664	18.810440
406.034027	1193.896118	11839.618164	3324.452393	20.013262
406.395203	1188.100464	11738.343750	3429.962158	21.249386
406.756348	1187.060303	11666.492188	3516.376221	22.227503
407.117493	1186.985962	11611.063477	3611.706787	23.260771
407.478516	1193.078857	11608.610352	3738.244141	24.436251
407.839600	1197.536987	11581.268555	3862.330078	25.663155
408.200592	1196.050903	11564.996094	3982.403076	26.872087
408.561554	1195.233521	11554.593750	4104.630859	28.084721
408.922485	1191.666870	11549.465820	4230.202637	29.335728
409.283417	1191.592651	11541.515625	4365.953613	30.670382
409.644257	1192.632935	11609.799805	4488.998535	31.643591
410.005096	1203.332520	11742.429688	4631.585449	32.528904
410.365906	1208.682373	11899.358398	4780.785645	33.413261
410.726715	1210.465698	12006.278320	4930.431641	34.457489
411.087433	1208.831055	12067.281250	5061.724609	35.482906
411.448120	1208.162231	12140.247070	5187.296387	36.398678
411.808807	1200.732056	12182.301758	5293.994629	37.273933
412.169434	1184.311035	12140.469727	5372.160645	38.223705
412.530029	1181.338989	12081.399414	5445.349121	39.119144
412.890564	1184.162476	12054.799805	5528.345215	39.962536
413.251099	1192.558716	12071.887695	5625.607422	40.747448
413.611572	1192.558716	12107.479492	5723.240723	41.509071
413.972076	1194.564819	12149.833008	5837.742188	42.383053
414.332489	1200.137573	12209.200195	5940.799316	43.061447
414.692871	1201.920776	12337.893555	6083.609375	43.837109
415.053223	1198.948608	12465.247070	6188.599121	44.288284
415.413574	1198.725708	12683.473633	6365.811035	44.990849
415.773834	1197.685547	12865.292969	6498.888184	45.435215
416.134094	1192.335815	13081.588867	6662.799316	46.011833
416.494263	1188.472046	13239.926758	6803.603027	46.592972
416.854462	1188.174927	13507.268555	7014.696777	47.296677
417.214630	1195.605103	13818.596680	7229.357422	47.799706
417.574738	1190.403809	14173.762695	7455.832520	48.257378
417.934784	1189.363525	14516.002930	7677.403809	48.684742
418.294861	1185.054077	14929.497070	7928.472656	49.062870
418.654846	1188.174805	15428.960938	8201.459961	49.247879
419.014832	1190.255371	15937.636719	8473.110352	49.384056
419.374756	1188.472046	16431.822266	8798.409180	49.922993
419.734680	1188.694946	16990.283203	9116.572266	50.171398
420.094543	1183.419434	17514.341797	9449.894531	50.618542
420.454376	1187.729004	18040.255859	9736.628906	50.727707
420.814148	1188.323486	18518.912109	10034.062500	51.041195
421.173920	1204.595703	19014.585938	10341.155273	51.300194
421.533691	1204.744263	19527.572266	10639.407227	51.491302
421.893341	1200.360474	19903.619141	10886.315430	51.787529
422.253021	1187.729004	20212.568359	11056.022461	51.870571
422.612640	1196.422485	20301.064453	11141.618164	52.056431
422.972260	1201.252075	20285.236328	11184.639648	52.312912
423.331757	1200.063232	20210.414063	11185.011719	52.523743
423.691315	1196.645386	20206.548828	11226.843750	52.763012
424.050781	1201.549316	20305.669922	11285.989258	52.786724
424.410248	1207.270630	20346.462891	11355.239258	53.021931
424.769653	1198.948730	20416.531250	11401.678711	53.090603
425.128998	1195.605103	20401.224609	11437.268555	53.326389
425.488373	1191.072632	20334.798828	11420.625977	53.435539
425.847656	1194.639160	20130.244141	11354.644531	53.655563
426.206940	1187.506104	19901.242188	11260.354492	53.825962
426.566193	1189.512207	19540.873047	11100.008789	54.004147
426.925385	1199.988892	19176.195313	10924.581055	54.097015
427.284576	1203.852661	18657.115234	10657.313477	54.164436
427.643677	1202.515259	18250.234375	10464.497070	54.329742
428.002777	1193.152954	17832.429688	10267.670898	54.536728
428.361847	1188.992188	17443.232422	10065.121094	54.608082
428.720856	1184.979858	17095.494141	9871.711914	54.597431
429.079865	1183.716675	16822.656250	9725.037109	54.615726
429.438812	1191.815552	16654.509766	9654.747070	54.731289
429.797760	1191.518433	16509.173828	9597.384766	54.876976
430.156616	1190.329590	16319.776367	9484.370117	54.820515
430.515503	1182.527832	16159.207031	9445.807617	55.174309
430.874268	1183.567993	16085.350586	9435.776367	55.377323
431.233093	1183.419434	16079.703125	9491.949219	55.775856
431.591827	1187.729004	16148.433594	9508.593750	55.618137
431.950562	1188.917847	16167.975586	9523.082031	55.638775
432.309204	1186.168579	16250.823242	9575.391602	55.688118
432.667877	1187.357422	16371.192383	9634.239258	55.630753
433.026459	1193.227417	16552.640625	9697.768555	55.370220
433.385010	1203.852661	16651.685547	9754.907227	55.354397
433.743561	1203.704102	16776.513672	9857.519531	55.570034
434.102051	1198.354370	16928.685547	9943.487305	55.594078
434.460510	1192.038574	17123.431641	10060.737305	55.668072
434.818939	1188.100586	17222.255859	10097.071289	55.562458
435.177338	1192.781616	17219.804688	10144.328125	55.852833
435.535675	1188.694824	17169.054688	10117.727539	55.875046
435.894012	1190.181030	17084.052734	10104.426758	56.086056
436.252289	1190.998169	17089.253906	10118.916992	56.156593
436.610535	1192.855835	17046.603516	10116.613281	56.288002
436.968719	1195.010742	17179.531250	10180.141602	56.211452
437.326935	1196.273926	17294.255859	10252.735352	56.258362
437.685028	1198.948730	17493.611328	10331.421875	56.045792
438.043152	1199.691772	17632.035156	10442.801758	56.249496
438.401215	1194.639160	17856.056641	10582.044922	56.342182
438.759277	1190.106689	18091.375000	10742.985352	56.521671
439.117249	1190.106689	18508.064453	10948.655273	56.349308
439.475250	1195.382202	18822.884766	11107.885742	56.233173
439.833130	1197.239746	19234.820313	11340.824219	56.235836
440.191071	1198.354248	19455.275391	11485.268555	56.345284
440.548889	1201.326294	19750.035156	11651.260742	56.337799
440.906708	1204.595703	20056.533203	11816.434570	56.290443
441.264496	1197.834106	20304.259766	11962.960938	56.342964
441.622223	1184.756836	20479.093750	12096.481445	56.554031
441.979950	1186.168579	20496.033203	12138.241211	56.717499
442.337616	1188.620605	20552.876953	12164.543945	56.681362
442.695251	1194.564941	20461.855469	12077.460938	56.483791
443.052887	1194.341919	20345.498047	11985.028320	56.344830
443.410461	1194.119019	20174.898438	11905.823242	56.434479
443.768005	1192.707153	20045.314453	11869.785156	56.634491
444.125458	1192.707275	19934.529297	11858.120117	56.907024
444.482941	1198.948608	19915.431641	11856.484375	56.941982
444.840393	1205.635986	19999.246094	11896.832031	56.887402
445.197754	1202.589478	20241.400391	12017.276367	56.803371
445.555084	1202.515259	20518.919922	12175.987305	56.809082
445.912415	1202.589478	20900.537109	12407.811523	56.885223
446.269714	1200.954956	21174.640625	12598.323242	57.061920
446.626953	1195.085083	21490.650391	12790.618164	57.133335
446.984161	1198.057007	21761.630859	12957.875000	57.187618
447.341309	1198.354370	22002.224609	13084.116211	57.132454
447.698456	1195.456421	22144.365234	13206.045898	57.332771
448.055542	1187.134521	22287.546875	13266.379883	57.246490
448.412598	1185.871460	22262.431641	13267.046875	57.320435
448.769653	1188.100464	22143.474609	13194.083008	57.293091
449.126617	1188.472046	21778.425781	13013.527344	57.431194
449.483582	1195.902222	21506.253906	12881.342773	57.534409
449.840515	1197.462646	21158.515625	12687.709961	57.563332
450.197388	1192.335693	20900.759766	12567.785156	57.718716
450.554230	1194.119019	20661.876953	12427.426758	57.702114
450.911041	1196.348145	20464.232422	12340.640625	57.838696
451.267822	1201.846436	20283.304688	12257.421875	57.938835
451.624573	1195.307739	20069.164063	12154.364258	58.064747
451.981262	1194.861938	19927.025391	12046.922852	57.932766
452.337921	1188.694946	19749.365234	11930.120117	57.871967
452.694580	1186.985962	19615.027344	11865.328125	57.946159
453.051147	1184.756958	19566.656250	11843.706055	57.986118
453.407715	1181.561890	19469.689453	11769.105469	57.892994
453.764221	1179.035522	19502.904297	11782.851563	57.868874
454.120728	1182.899292	19252.427734	11661.886719	57.992584
454.477142	1186.465942	19210.894531	11686.406250	58.253944
454.833557	1187.134521	19020.753906	11586.989258	58.316006
455.189911	1184.682495	18877.126953	11525.094727	58.445354
455.546265	1185.425659	18629.697266	11388.303711	58.488415
455.902557	1190.701050	18450.779297	11288.960938	58.506454
456.258820	1192.038452	18419.498047	11258.793945	58.434364
456.615051	1198.577271	18497.513672	11304.266602	58.417984
456.971252	1197.314087	18513.041016	11306.049805	58.378925
457.327393	1197.239746	18744.939453	11456.885742	58.467190
457.683502	1197.314087	18999.947266	11627.484375	58.587795
458.039612	1199.468750	19491.087891	11913.104492	58.571281
458.395630	1192.038452	19929.253906	12199.987305	58.749123
458.751648	1187.431763	20402.785156	12481.816406	58.777920
459.107605	1184.756836	21065.044922	12867.893555	58.767437
459.463562	1181.710449	21724.853516	13238.441406	58.689804
459.819458	1187.431763	22339.039063	13576.370117	58.572090
460.175323	1186.688843	22813.833984	13851.512695	58.559853
460.531158	1194.267578	23304.009766	14119.449219	58.459213
460.886932	1187.951904	23619.498047	14314.938477	58.520203
461.242676	1183.939575	23773.601563	14432.559570	58.649040
461.598419	1186.020020	23607.091797	14360.784180	58.760632
461.954102	1188.917847	23261.359375	14165.590820	58.791290
462.309723	1195.456543	22688.708984	13836.356445	58.813343
462.665344	1201.177734	22049.775391	13472.346680	58.858486
463.020905	1204.447144	21456.396484	13143.854492	58.954361
463.376373	1201.623657	20965.033203	12886.469727	59.123631
463.731873	1192.484253	20546.187500	12668.464844	59.296043
464.087341	1183.270752	20269.412109	12491.031250	59.245926
464.442749	1184.162476	20066.416016	12359.812500	59.185997
464.798126	1187.060181	19931.109375	12260.171875	59.075344
465.153503	1189.363647	19974.279297	12323.328125	59.270771
465.508820	1185.351196	20038.849609	12367.614258	59.311340
465.864105	1184.311157	20240.431641	12461.680664	59.179771
466.219330	1187.283203	20501.087891	12603.375977	59.108459
466.574524	1193.078857	20703.708984	12737.121094	59.167957
466.929657	1191.072632	20853.578125	12853.034180	59.310661
467.284790	1191.221191	20993.492188	12939.596680	59.328423
467.639893	1192.187134	21143.509766	13021.328125	59.290009
467.994934	1197.834229	21294.865234	13134.195313	59.393654
468.349945	1197.685547	21318.044922	13124.684570	59.278259
468.704926	1198.874390	21277.921875	13126.764648	59.404667
469.059875	1200.880493	21083.470703	13011.891602	59.403786
469.414764	1200.731812	20864.724609	12903.707031	59.514748
469.769653	1194.044556	20672.429688	12777.616211	59.468849
470.124451	1189.289185	20564.466797	12678.867188	59.300503
470.479248	1186.837280	20408.431641	12589.555664	59.322441
470.834015	1187.431763	20284.123047	12541.926758	59.457916
471.188721	1192.632935	20325.955078	12594.459961	59.591465
471.543365	1196.050903	20419.949219	12636.588867	59.512062
471.898010	1204.670044	20584.455078	12707.325195	59.353886
472.252625	1196.273804	20746.210938	12806.520508	59.387642
472.607178	1196.199585	21004.337891	13004.760742	59.614697
472.961700	1190.255249	21198.267578	13141.328125	59.731438
473.316193	1200.360474	21427.419922	13313.338867	59.885021
473.670654	1204.372681	21546.673828	13373.449219	59.821533
474.025055	1206.007446	21781.841797	13490.178711	59.701935
474.379456	1196.496704	21943.154297	13582.612305	59.701736
474.733795	1189.066528	22133.888672	13711.377930	59.787148
475.088104	1184.236694	22259.681641	13820.379883	59.956711
475.442383	1191.592773	22292.154297	13857.085938	60.024433
475.796570	1193.375977	22403.533203	13934.434570	60.070557
476.150787	1197.834106	22598.650391	14041.801758	60.016251
476.504944	1189.809448	22869.857422	14172.203125	59.881756
476.859070	1186.391602	23143.068359	14347.929688	59.943218
477.213135	1183.939575	23397.851563	14506.863281	59.975586
477.567200	1187.357544	23878.367188	14756.149414	59.798096
477.921173	1194.044800	24267.937500	14956.320313	59.644360
478.275146	1197.982788	24781.220703	15251.526367	59.591240
478.629089	1201.177856	25065.281250	15467.151367	59.780052
478.983002	1198.800171	25522.615234	15768.300781	59.898094
479.336823	1199.914673	25902.375000	16003.988281	59.929546
479.690643	1198.131348	26434.603516	16295.477539	59.823517
480.044403	1201.029175	26999.603516	16592.837891	59.661469
480.398163	1199.989014	27726.062500	17028.103516	59.670021
480.751862	1200.434814	28640.357422	17624.828125	59.855827
481.105499	1198.205688	29801.708984	18360.052734	59.999111
481.459137	1191.666992	31363.029297	19324.873047	60.100723
481.812744	1182.453369	33313.847656	20503.835938	60.132412
482.166290	1185.722778	35658.246094	21960.541016	60.264862
482.519806	1196.645386	38424.316406	23669.947266	60.367199
482.873291	1201.920898	41492.273438	25618.611328	60.601833
483.226715	1197.239746	44907.968750	27712.685547	60.661182
483.580139	1193.673218	48077.050781	29764.927734	60.941116
483.933502	1194.490601	50999.972656	31723.396484	61.296280
484.286804	1197.239746	53370.605469	33606.078125	62.117588
484.640106	1193.896118	55267.406250	35273.207031	63.024040
484.993347	1198.354370	56492.355469	36544.230469	63.923527
485.346558	1200.211792	56989.519531	37148.906250	64.436531
485.699738	1200.583374	56829.097656	37054.171875	64.451820
486.052887	1196.199463	56130.207031	36451.875000	64.178230
486.405975	1193.004517	55109.812500	35478.285156	63.589226
486.759064	1187.877563	53815.156250	34370.359375	63.051865
487.112061	1194.416138	52516.050781	33197.343750	62.357578
487.464996	1192.410034	51351.128906	32258.453125	61.935478
487.817963	1194.861938	50636.113281	31674.656250	61.648514
488.170868	1187.877563	50270.546875	31309.900391	61.369980
488.523743	1191.666992	50230.718750	31182.250000	61.156532
488.876587	1194.936401	50122.832031	31048.880859	61.016209
489.229401	1200.434692	49862.031250	30921.968750	61.078007
489.582153	1198.800171	49301.718750	30628.546875	61.180790
489.934845	1198.651489	48574.667969	30154.794922	61.119835
490.287537	1201.623657	47780.738281	29640.916016	61.055893
490.640198	1201.029175	47069.582031	29135.955078	60.902126
490.992798	1200.360474	46402.125000	28648.083984	60.722679
491.345337	1192.261353	45962.769531	28322.486328	60.598431
491.697876	1193.301758	45570.453125	28038.875000	60.494133
492.050354	1192.632935	45538.277344	28026.093750	60.509800
492.402832	1192.261353	45469.105469	27989.462891	60.521931
492.755219	1189.586548	45234.824219	27847.619141	60.524212
493.107605	1188.694946	44622.203125	27471.275391	60.512222
493.459930	1188.769165	43617.703125	26849.513672	60.479351
493.812225	1191.444214	42237.976563	26031.068359	60.515770
494.164490	1191.221313	40533.246094	25015.572266	60.557007
494.516724	1186.763062	38682.589844	23896.646484	60.566425
494.868896	1185.202637	36854.890625	22774.228516	60.524853
495.221039	1185.425537	35276.035156	21786.078125	60.429111
495.573120	1197.239746	33902.472656	20914.208984	60.286892
495.925201	1201.623657	33037.886719	20372.693359	60.217716
496.277222	1210.614258	32479.724609	19994.341797	60.071190
496.629211	1198.874390	32256.744141	19841.576172	60.025692
496.981140	1195.902344	32131.171875	19703.595703	59.827160
497.333069	1187.134521	32124.187500	19686.134766	59.795612
497.684967	1187.803223	32122.923828	19705.677734	59.860359
498.036804	1193.673218	32135.705078	19748.250000	59.965607
498.388580	1196.868286	32045.203125	19711.619141	60.018639
498.740326	1201.400757	31906.554688	19618.445313	59.980305
499.092072	1199.245972	31611.943359	19465.900391	60.062592
499.443756	1193.598877	31315.845703	19282.001953	60.049980
499.795410	1187.729004	30982.748047	19116.380859	60.173321
500.147003	1179.258423	30663.843750	18877.794922	60.026405
500.498566	1181.636108	30249.455078	18630.812500	60.029190
500.850098	1186.614380	29835.218750	18343.632813	59.887798
501.201599	1186.391602	29451.666016	18140.490234	59.982075
501.553009	1188.323364	29125.328125	17977.914063	60.098034
501.904449	1189.363647	28922.111328	17869.953125	60.147629
502.255859	1198.502808	28717.037109	17730.783203	60.076893
502.607178	1197.611206	28630.322266	17685.681641	60.103687
502.958405	1205.115845	28489.296875	17599.712891	60.088287
503.309692	1200.286133	28425.025391	17567.093750	60.117409
503.660919	1197.611206	28373.830078	17526.226563	60.084206
504.012115	1182.602173	28383.865234	17518.947266	60.057301
504.363251	1181.190308	28437.806641	17536.482422	60.004848
504.714294	1183.865234	28488.630859	17536.482422	59.889240
505.065369	1194.267700	28519.984375	17559.218750	59.888462
505.416443	1195.233521	28518.201172	17573.708984	59.943985
505.767395	1195.084961	28519.759766	17589.533203	59.998695
506.118317	1186.985962	28456.900391	17580.171875	60.114548
506.469238	1189.066406	28489.296875	17599.193359	60.109848
506.820160	1190.106689	28490.486328	17587.007813	60.061073
507.170929	1195.382202	28570.585938	17632.853516	60.045109
507.521729	1183.790894	28589.533203	17656.037109	60.105091
507.872498	1184.905396	28690.880859	17696.455078	60.028954
508.223236	1190.106567	28860.587891	17791.416016	59.996460
508.573883	1201.995117	29079.412109	17877.681641	59.817905
508.924500	1200.731934	29276.609375	18029.035156	59.938656
509.275116	1197.685547	29428.412109	18091.523438	59.842022
509.625702	1192.707153	29622.859375	18263.013672	60.042965
509.976196	1188.397705	29880.990234	18388.437500	59.945923
510.326660	1184.236816	30155.166016	18532.361328	59.881145
510.677124	1185.796997	30384.611328	18650.726563	59.813831
511.027557	1195.159302	30530.244141	18801.115234	60.016720
511.377869	1197.091064	30751.740234	18966.513672	60.123951
511.728180	1198.205688	30929.619141	19049.732422	60.042645
512.078430	1190.701050	31087.142578	19113.929688	59.951042
512.428650	1189.660889	31187.525391	19156.132813	59.892506
512.778931	1183.642456	31262.275391	19171.884766	59.804054
513.129028	1182.676392	31323.724609	19206.361328	59.797806
513.479126	1184.905518	31350.994141	19259.710938	59.917629
513.829285	1195.605103	31277.210938	19294.783203	60.166927
514.179382	1199.543091	31193.992188	19204.875000	60.028881
514.529297	1202.663818	31083.650391	19122.771484	59.971607
514.879272	1198.502930	31123.103516	19142.906250	59.965385
515.229187	1198.800171	31026.658203	19115.861328	60.068211
515.579163	1191.741333	31075.552734	19132.505859	60.035061
515.928955	1193.227417	31058.388672	19091.935547	59.931732
516.278748	1196.645386	31310.794922	19209.185547	59.814209
516.628540	1200.880493	31580.365234	19364.404297	59.788780
516.978333	1204.521362	32052.337891	19635.087891	59.746746
517.327942	1192.038574	32556.851563	19947.603516	59.798107
517.677612	1196.199585	33111.820313	20237.681641	59.661953
518.027222	1189.289429	33628.222656	20537.718750	59.645702
518.376831	1197.239746	34249.613281	20917.107422	59.662483
518.726379	1193.301636	34762.527344	21313.587891	59.936703
519.075867	1192.261475	35272.394531	21621.943359	59.946014
519.425293	1190.626831	35616.785156	21819.958984	59.923420
519.774658	1181.710449	35901.515625	21944.119141	59.799900
520.124084	1182.602051	36011.929688	22033.578125	59.866146
520.473389	1179.555542	35945.429688	22017.755859	59.938663
520.822693	1181.115967	35679.722656	21896.046875	60.045708
521.171997	1186.911621	35323.218750	21693.347656	60.072212
521.521240	1195.902344	34904.964844	21416.792969	59.986511
521.870361	1203.332642	34518.144531	21188.535156	59.988941
522.219482	1195.084839	34135.933594	20941.998047	59.946587
522.568604	1187.877563	33831.371094	20740.861328	59.898563
522.917664	1190.255249	33665.671875	20568.849609	59.671581
523.266724	1198.057129	33716.941406	20543.662109	59.490372
523.615662	1200.657593	33896.085938	20716.195313	59.688889
523.964600	1196.496704	34255.566406	20955.523438	59.768852
524.313538	1199.171631	34748.933594	21250.505859	59.765949
524.662354	1198.279907	35397.152344	21633.236328	59.753307
525.011169	1194.639160	36269.089844	22121.630859	59.664494
525.359985	1184.608276	37217.566406	22747.927734	59.843327
525.708740	1185.351196	38407.000000	23405.505859	59.696857
526.057434	1190.552490	39685.007813	24172.828125	59.702816
526.406067	1196.571045	41259.406250	25086.009766	59.629925
526.754700	1196.868164	43039.777344	26173.281250	59.690910
527.103333	1196.348145	45008.730469	27434.273438	59.887009
527.451782	1191.741333	47108.968750	28795.126953	60.115532
527.800293	1186.020020	49143.449219	30186.521484	60.471344
528.148743	1185.648438	51076.285156	31556.140625	60.874134
528.497131	1183.642456	52769.937500	32792.390625	61.273537
528.845642	1185.425659	54124.480469	33842.734375	61.688499
529.193909	1183.270874	55173.707031	34765.277344	62.199917
529.542175	1185.574219	55840.425781	35460.531250	62.711647
529.890503	1188.026245	56193.957031	35867.707031	63.047165
530.238770	1193.227417	56118.988281	35883.757813	63.158943
530.586914	1200.732056	55699.769531	35534.164063	62.998238
530.934998	1196.868286	54910.300781	34868.558594	62.687653
531.283142	1189.437988	53879.355469	33999.882813	62.270824
531.631226	1186.763184	52532.468750	32905.851563	61.775539
531.979248	1187.208984	50958.511719	31679.708984	61.265221
532.327148	1187.134644	49316.050781	30409.205078	60.716244
532.675110	1184.831177	47841.218750	29328.398438	60.320930
533.023071	1187.357544	46835.386719	28616.726563	60.088837
533.370850	1189.958130	46185.750000	28171.654297	59.964928
533.718689	1194.713501	46025.703125	28078.625000	59.967255
534.066467	1200.360474	46054.015625	27987.158203	59.720432
534.414246	1200.063354	46149.640625	27989.908203	59.599770
534.761963	1198.651489	46113.675781	27890.119141	59.426590
535.109619	1201.920776	45973.843750	27835.431641	59.487087
535.457153	1204.447144	45632.792969	27594.916016	59.400066
535.804749	1205.487183	45094.843750	27240.937500	59.320652
536.152344	1195.010620	44276.027344	26779.814453	59.387653
536.499817	1192.484375	43374.066406	26237.552734	59.374416
536.847229	1185.648560	42300.464844	25654.130859	59.512566
537.194641	1187.952026	41343.593750	25024.708984	59.360920
537.542114	1188.620605	40532.503906	24520.416016	59.302216
537.889404	1189.735229	39933.332031	24063.603516	59.039093
538.236694	1188.992065	39428.292969	23748.710938	58.996159
538.583984	1186.094360	39068.296875	23565.552734	59.076447
538.931213	1179.184204	38948.746094	23529.515625	59.175510
539.278381	1182.825073	38930.687500	23578.927734	59.330784
539.625488	1182.081909	39066.886719	23636.068359	59.269108
539.972595	1193.376099	39317.511719	23789.279297	59.269283
540.319641	1188.992065	39846.621094	24051.343750	59.140594
540.666687	1196.868286	40537.261719	24461.867188	59.137684
541.013611	1189.735229	41506.464844	25068.771484	59.228603
541.360596	1189.437988	42589.425781	25685.929688	59.170288
541.707458	1188.249146	43753.675781	26364.833984	59.147968
542.054260	1199.691772	44811.082031	26946.701172	59.037350
542.401062	1205.710327	45728.425781	27551.078125	59.172867
542.747864	1199.543091	46354.277344	27934.406250	59.207222
543.094666	1192.261353	46542.332031	28078.330078	59.285614
543.441284	1189.066406	46243.859375	27875.187500	59.230370
543.787903	1187.357544	45619.488281	27519.572266	59.263905
544.134460	1189.586548	44665.519531	26940.458984	59.230179
544.481079	1187.580444	43511.230469	26226.478516	59.160538
544.827637	1194.787720	42058.535156	25334.179688	59.072884
545.174072	1190.998413	40494.460938	24363.490234	58.957893
545.520508	1193.078735	38985.968750	23458.857422	58.915260
545.866943	1192.409912	37707.222656	22677.634766	58.839752
546.213318	1193.896118	36684.371094	22074.521484	58.834446
546.559631	1195.679443	35888.066406	21591.478516	58.790417
546.905823	1198.577271	35163.761719	21133.402344	58.691936
547.252136	1196.348145	34579.667969	20728.748047	58.509460
547.598389	1194.713501	34016.003906	20356.343750	58.381714
547.944458	1192.038574	33575.019531	20061.884766	58.270874
548.290588	1192.410156	32968.562500	19753.156250	58.410931
548.636658	1198.428589	32392.642578	19422.507813	58.421345
548.982727	1194.713501	31723.025391	19046.685547	58.476776
549.328735	1198.131348	31159.960938	18699.023438	58.410625
549.674622	1185.202637	30452.970703	18294.443359	58.457619
550.020569	1182.453491	29748.876953	17914.533203	58.572540
550.366455	1180.521606	28950.421875	17440.482422	58.552464
550.712280	1184.905396	28276.271484	17056.931641	58.587029
551.058044	1188.100586	27702.802734	16728.439453	58.610268
551.403748	1184.088257	27268.947266	16451.365234	58.529270
551.749512	1186.985962	26932.880859	16271.479492	58.589897
552.095154	1187.283203	26684.412109	16059.493164	58.328960
552.440735	1191.072632	26570.947266	16003.765625	58.363934
552.786316	1190.923950	26496.273438	15902.492188	58.136200
553.131897	1197.239868	26473.908203	15901.377930	58.172768
553.477417	1195.382202	26453.400391	15867.421875	58.088646
553.822815	1200.806274	26416.919922	15849.141602	58.091167
554.168213	1194.416382	26381.849609	15800.175781	57.988281
554.513672	1187.506104	26271.955078	15720.747070	57.937256
554.859009	1181.116089	26126.250000	15659.223633	58.039803
555.204285	1182.379272	25918.500000	15587.523438	58.235260
555.549500	1196.496704	25726.130859	15453.405273	58.121159
555.894714	1199.766113	25533.460938	15299.375000	57.942738
556.239990	1201.400757	25317.984375	15116.070313	57.697517
556.585022	1208.905396	25047.593750	14971.254883	57.731155
556.930115	1201.623657	24765.615234	14813.063477	57.763725
557.275146	1191.444092	24438.388672	14675.604492	58.004009
557.620178	1181.859009	24240.593750	14553.598633	57.989910
557.965149	1186.317139	24020.507813	14428.175781	57.991360
558.310059	1196.719604	23873.017578	14304.015625	57.801743
558.654968	1191.889771	23698.927734	14236.252930	57.956821
558.999756	1191.815552	23586.208984	14127.175781	57.761604
559.344604	1185.945679	23539.177734	14095.226563	57.751297
559.689331	1188.546265	23461.603516	14036.750000	57.684959
560.033997	1188.917847	23393.990234	14034.446289	57.849522
560.378723	1196.273804	23334.099609	13993.430664	57.806747
560.723389	1196.199585	23307.796875	13945.952148	57.660931
561.067932	1196.570923	23311.068359	13955.090820	57.693008
561.412476	1203.926880	23239.884766	13927.004883	57.737804
561.757019	1199.988892	23193.669922	13926.782227	57.865677
562.101501	1197.314087	23184.009766	13892.750977	57.741447
562.445862	1190.552490	23197.755859	13873.730469	57.631939
562.790222	1199.097290	23224.505859	13835.687500	57.372784
563.134644	1195.233521	23211.054688	13824.245117	57.363350
563.478943	1193.821777	23241.443359	13809.903320	57.221966
563.823181	1181.784668	23236.539063	13834.645508	57.370224
564.167358	1187.060181	23265.814453	13868.007813	57.435066
564.511536	1176.509277	23339.302734	13918.832031	57.494209
564.855774	1180.670288	23410.781250	13926.112305	57.334137
565.199768	1179.630005	23524.912109	13963.710938	57.211548
565.543823	1187.060181	23615.484375	14024.489258	57.237320
565.887817	1195.084961	23824.052734	14130.296875	57.162182
566.231812	1205.710205	24010.328125	14203.336914	56.995594
566.575745	1212.694702	24150.759766	14280.315430	56.969154
566.919617	1207.790771	24251.515625	14360.264648	57.076160
567.263428	1200.806274	24326.859375	14417.922852	57.152496
567.607239	1191.741333	24455.255859	14453.069336	57.004837
567.950989	1197.016846	24462.166016	14456.413086	56.992531
568.294678	1193.598999	24469.818359	14463.098633	57.008831
568.638367	1195.753662	24435.640625	14433.081055	56.959518
568.981995	1192.484375	24397.818359	14378.245117	56.822113
569.325623	1190.701050	24279.900391	14322.815430	56.875572
569.669128	1198.057007	24107.218750	14267.088867	57.047184
570.012573	1197.462646	23969.984375	14205.120117	57.119968
570.356140	1203.629761	23908.384766	14143.745117	56.992973
570.699524	1198.651489	23881.265625	14099.164063	56.874016
571.042908	1195.456543	23911.134766	14112.093750	56.862213
571.386230	1188.620605	23980.757813	14119.002930	56.731770
571.729492	1189.883789	24080.322266	14135.944336	56.556633
572.072815	1195.530762	24155.367188	14179.335938	56.550076
572.416016	1193.152954	24237.398438	14218.493164	56.523178
572.759094	1195.902344	24339.044922	14273.625977	56.507984
573.102234	1186.317261	24462.166016	14297.477539	56.329460
573.445374	1191.667114	24532.751953	14315.237305	56.225197
573.788391	1177.772461	24543.898438	14325.639648	56.268925
574.131409	1179.184204	24545.458984	14344.661133	56.343925
574.474365	1177.846680	24530.375000	14336.116211	56.346233
574.817261	1181.041748	24462.462891	14296.661133	56.335129
575.160156	1187.729004	24293.201172	14192.933594	56.286255
575.502930	1187.951782	24065.537109	14067.065430	56.295769
575.845703	1186.168579	23866.851563	13921.208008	56.149273
576.188477	1193.895996	23668.685547	13777.284180	55.988907
576.531250	1200.954956	23447.708984	13674.895508	56.070835
576.873901	1204.892944	23158.671875	13539.887695	56.186203
577.216431	1192.855835	22908.865234	13399.604492	56.210827
577.559082	1191.072632	22646.353516	13209.835938	56.017738
577.901611	1200.434692	22346.171875	13050.828125	56.041527
578.244080	1202.217896	21991.822266	12851.918945	56.036186
578.586487	1198.131348	21639.181641	12675.301758	56.147652
578.928955	1203.035400	21287.060547	12456.331055	56.031078
579.271301	1211.357300	20994.158203	12289.000000	55.996330
579.613647	1215.443848	20660.019531	12086.600586	55.908424
579.955872	1208.756714	20338.064453	11921.796875	56.003281
580.298157	1203.629761	20019.380859	11741.984375	56.008148
580.640320	1206.081787	19760.361328	11599.992188	56.018936
580.982483	1205.487305	19584.710938	11471.151367	55.854725
581.324524	1207.122070	19360.613281	11357.245117	55.912785
581.666626	1198.800171	19215.427734	11235.387695	55.707363
582.008728	1196.719727	19068.603516	11149.495117	55.689575
582.350647	1194.341919	18970.375000	11064.640625	55.525879
582.692566	1196.719727	18852.755859	11007.948242	55.568695
583.034424	1182.750732	18738.328125	10945.385742	55.609875
583.376343	1178.664185	18652.955078	10894.116211	55.598549
583.718201	1178.218262	18593.289063	10851.616211	55.546135
584.059937	1193.747681	18539.345703	10798.860352	55.374928
584.401611	1190.924194	18410.208984	10746.551758	55.493755
584.743347	1187.803345	18320.970703	10678.266602	55.392342
585.085022	1179.109863	18221.404297	10627.592773	55.441372
585.426514	1182.973633	18183.138672	10580.411133	55.278511
585.768127	1184.979858	18104.302734	10577.215820	55.511894
586.109619	1191.221191	18055.783203	10531.147461	55.381962
586.451172	1190.626831	18032.082031	10493.773438	55.239563
586.792542	1196.199585	17999.240234	10449.190430	55.067360
587.133850	1196.051025	17970.857422	10436.930664	55.087849
587.475220	1200.732056	17912.158203	10445.625000	55.320789
587.816589	1199.914673	17873.369141	10456.622070	55.517628
588.157776	1202.069458	17889.867188	10473.339844	55.557186
588.498962	1203.555542	17941.208984	10463.308594	55.322884
588.840210	1201.103394	17988.093750	10447.258789	55.079292
589.181335	1199.023071	17985.865234	10465.984375	55.203720
589.522400	1196.942505	18006.447266	10487.308594	55.268532
589.863403	1191.221191	18014.398438	10475.791992	55.189159
590.204407	1189.437866	18026.361328	10451.941406	55.013042
590.545410	1183.196533	18042.337891	10442.579102	54.922031
590.886353	1192.410156	18050.509766	10462.492188	54.988892
591.227112	1194.936401	18054.669922	10426.159180	54.753075
591.567932	1198.948730	18029.853516	10398.071289	54.656143
591.908752	1196.942505	17982.150391	10378.306641	54.699142
592.249512	1196.050903	17967.958984	10383.507813	54.778843
592.590149	1188.694946	17911.041016	10337.738281	54.711479
592.930786	1190.329590	17859.103516	10272.648438	54.487022
593.271423	1193.301636	17779.970703	10242.704102	54.558285
593.612000	1195.753662	17704.408203	10218.258789	54.653183
593.952576	1195.382202	17671.119141	10206.742188	54.694736
594.292969	1192.335815	17669.708984	10176.946289	54.526958
594.633484	1191.667114	17713.173828	10198.643555	54.516682
594.973877	1189.512329	17790.966797	10242.629883	54.532070
595.314209	1185.202637	17897.369141	10303.782227	54.562527
595.654480	1190.106689	18043.748047	10352.450195	54.364182
595.994812	1185.871460	18174.816406	10410.703125	54.299026
596.335022	1190.106567	18336.871094	10490.578125	54.240391
596.675171	1194.416138	18503.830078	10602.923828	54.354858
597.015320	1196.719604	18679.183594	10666.527344	54.167461
597.355408	1201.549316	18765.078125	10690.601563	54.027027
597.695496	1195.679321	18803.937500	10687.257813	53.904129
598.035461	1197.388306	18764.482422	10658.279297	53.855755
598.375366	1199.914673	18733.796875	10651.220703	53.903095
598.715271	1198.502930	18659.121094	10597.722656	53.830971
599.055176	1199.320190	18535.408203	10528.250000	53.812195
599.395081	1195.233521	18350.990234	10425.415039	53.802242
599.734802	1200.657715	18136.253906	10304.821289	53.757565
600.074524	1195.828003	17917.134766	10181.625977	53.738609
600.414246	1197.165527	17611.601563	10003.077148	53.647366
600.753906	1191.592773	17274.416016	9807.809570	53.574032
601.093506	1190.106689	16968.291016	9604.146484	53.327049
601.433044	1191.072632	16729.185547	9465.943359	53.255314
601.772583	1197.239746	16577.679688	9379.379883	53.198349
602.112122	1208.756714	16494.908203	9352.260742	53.273735
602.451538	1205.115845	16505.681641	9376.112305	53.403233
602.790894	1199.765991	16597.445313	9424.036133	53.412403
603.130310	1193.524536	16725.023438	9517.955078	53.597084
603.469604	1190.775391	16915.830078	9594.858398	53.443905
603.808838	1193.821777	17115.259766	9690.857422	53.368519
604.148010	1192.112793	17354.291016	9780.987305	53.141819
604.487305	1194.713379	17581.880859	9889.914063	53.061035
604.826416	1193.524536	17785.025391	9978.483398	52.948551
605.165527	1196.942505	17921.890625	10059.102539	52.987671
605.504456	1200.211914	18023.314453	10111.040039	52.967808
605.843445	1199.023071	18096.130859	10154.729492	53.001415
606.182434	1196.645264	18122.804688	10150.569336	52.899914
606.521423	1197.908447	18059.351563	10122.258789	52.927559
606.860229	1194.267578	17919.216797	10044.613281	52.917027
607.199036	1198.502930	17744.529297	9956.936523	52.933754
607.537903	1195.085083	17583.218750	9843.625000	52.773186
607.876648	1203.183960	17370.787109	9747.254883	52.846863
608.215271	1198.725952	17159.841797	9613.286133	52.719124
608.553955	1194.713501	16917.021484	9488.085938	52.749077
608.892578	1190.403809	16675.462891	9360.582031	52.761688
609.231140	1195.902222	16497.507813	9295.864258	52.935371
609.569641	1198.131470	16384.343750	9206.032227	52.731392
609.908081	1204.818726	16353.879883	9132.323242	52.330002
610.246521	1204.669922	16309.745117	9070.281250	52.072639
610.584961	1212.991821	16299.043945	9068.125977	52.068855
610.923340	1207.865112	16269.546875	9045.835938	52.039146
611.261597	1205.561768	16194.426758	9006.604492	52.045586
611.599854	1196.125244	16055.629883	8956.449219	52.224648
611.938110	1196.422485	15928.942383	8907.856445	52.342941
612.276245	1195.753662	15754.925781	8836.302734	52.479282
612.614319	1198.725830	15549.032227	8707.015625	52.321461
612.952393	1198.651489	15299.747070	8560.342773	52.206520
613.290466	1193.673218	15057.965820	8411.959961	52.063866
613.628479	1186.465942	14767.368164	8265.955078	52.128269
613.966370	1184.682739	14472.684570	8119.578125	52.189152
614.304260	1181.116089	14218.715820	7973.276855	52.096710
614.642151	1187.803345	14041.801758	7872.299316	52.003246
614.979980	1193.598877	13915.635742	7784.473145	51.806751
615.317749	1201.474976	13780.627930	7705.117676	51.701752
615.655396	1199.543091	13672.145508	7622.864746	51.499451
615.993164	1195.456543	13586.624023	7595.893066	51.653214
616.330811	1193.450317	13544.270508	7585.861816	51.756981
616.668396	1192.261353	13516.704102	7583.039063	51.854500
617.005859	1196.125122	13456.890625	7557.404785	51.883217
617.343445	1196.570923	13440.543945	7544.326660	51.843925
617.680908	1190.626831	13416.174805	7515.645996	51.736080
618.018311	1182.973633	13451.022461	7515.199707	51.615593
618.355652	1182.453491	13461.499023	7501.454590	51.461662
618.692993	1181.487671	13457.188477	7513.490723	51.581600
619.030273	1187.431885	13447.604492	7515.868652	51.617840
619.367554	1187.654785	13410.453125	7520.623535	51.812756
619.704712	1201.921021	13414.464844	7497.144531	51.547192
620.041870	1199.394653	13394.402344	7466.011719	51.386742
620.379028	1195.530762	13372.781250	7432.575684	51.218830
620.716064	1189.140747	13295.282227	7408.353027	51.372375
621.053040	1189.437988	13253.971680	7381.380371	51.323513
621.389954	1192.112915	13185.835938	7366.222656	51.477844
621.726929	1190.106567	13155.296875	7319.263672	51.224903
622.063843	1190.181030	13065.984375	7273.047363	51.220669
622.400635	1193.078735	13023.855469	7230.248535	51.029366
622.737427	1195.084961	12977.713867	7203.723145	50.995735
623.074219	1198.948730	12942.938477	7176.527832	50.899048
623.410889	1203.406860	12876.437500	7125.556641	50.733612
623.747559	1207.344849	12855.262695	7113.890625	50.709026
624.084167	1209.276733	12812.910156	7110.101563	50.853249
624.420715	1204.372803	12844.859375	7114.113770	50.768852
624.757324	1200.806274	12831.411133	7128.156738	50.963390
625.093750	1190.924072	12877.331055	7127.859863	50.802059
625.430176	1193.524658	12932.686523	7164.863281	50.866825
625.766602	1187.729004	12987.223633	7180.317871	50.786827
626.102905	1187.134521	13049.713867	7208.552734	50.759769
626.439209	1189.734985	13100.757813	7230.546387	50.716145
626.775452	1195.604980	13208.125000	7272.750488	50.590099
627.111694	1199.171509	13281.684570	7299.574219	50.489521
627.447876	1190.180908	13340.532227	7324.465332	50.486473
627.783997	1186.985962	13355.020508	7313.617188	50.350216
628.120056	1187.283203	13384.000000	7335.759277	50.410912
628.456055	1187.357544	13405.473633	7316.143066	50.161461
628.792053	1179.778687	13396.557617	7307.895996	50.161480
629.128052	1182.230591	13329.090820	7268.812500	50.108273
629.463928	1189.437988	13240.448242	7244.664063	50.246628
629.799744	1200.360474	13180.187500	7196.961426	50.055824
630.135559	1191.815552	13096.002930	7149.705566	50.048691
630.471375	1193.821777	12982.765625	7073.916504	49.878048
630.807068	1192.558594	12805.480469	6986.982422	49.896347
631.142700	1201.474976	12674.781250	6915.057129	49.798912
631.478333	1192.261353	12530.411133	6822.773438	49.659885
631.813965	1187.951782	12392.579102	6751.220215	49.651527
632.149475	1186.465820	12242.635742	6675.951172	49.650879
632.484924	1192.112793	12138.539063	6631.221191	49.688442
632.820435	1197.313965	12063.714844	6611.381348	49.823925
633.155884	1200.063354	12009.325195	6548.298828	49.478268
633.491150	1200.434692	11957.686523	6500.893066	49.273350
633.826477	1197.388306	11871.122070	6451.036621	49.220345
634.161804	1196.348022	11807.965820	6405.414551	49.088333
634.497009	1197.165405	11731.285156	6377.253906	49.174381
634.832153	1197.016724	11687.817383	6338.394043	49.008438
635.167297	1201.474976	11617.082031	6323.682129	49.178188
635.502380	1193.153076	11567.002930	6284.227051	49.076038
635.837463	1193.896118	11490.098633	6235.484375	48.965515
636.172424	1178.886963	11435.187500	6188.599121	48.845211
636.507324	1186.168579	11361.554688	6157.541016	48.856846
636.842224	1188.620728	11301.221680	6124.773438	48.811905
637.177124	1199.245972	11181.148438	6085.764160	48.953777
637.511963	1195.085083	11060.109375	6032.786621	49.038921
637.846741	1190.701172	10935.502930	5970.298340	49.047661
638.181396	1184.088257	10805.102539	5908.478027	49.104900
638.516113	1188.992188	10682.280273	5856.243652	49.163696
638.850769	1189.289429	10595.270508	5801.185059	49.031517
639.185303	1193.301758	10533.079102	5741.742676	48.699673
639.519836	1187.283203	10459.668945	5696.566895	48.631321
639.854370	1186.688843	10376.301758	5644.109375	48.504982
640.188843	1187.728882	10286.766602	5604.208496	48.537872
640.523254	1188.026245	10199.237305	5548.927246	48.394173
640.857605	1198.948730	10102.791992	5525.670410	48.593864
641.191895	1202.589478	10032.353516	5496.543457	48.630455
641.526184	1200.137573	9998.025391	5477.299316	48.615780
641.860413	1187.580444	9957.233398	5431.677246	48.395260
642.194580	1184.756836	9901.877930	5398.760742	48.341694
642.528748	1189.363647	9821.111328	5350.241699	48.204350
642.862793	1202.143677	9722.139648	5332.260254	48.475571
643.196838	1200.880615	9656.605469	5296.372559	48.434547
643.530823	1198.651489	9591.589844	5269.697754	48.505615
643.864746	1192.335815	9570.487305	5208.843750	47.940262
644.198669	1194.564819	9555.627930	5182.688965	47.698765
644.532532	1199.097290	9532.073242	5146.355469	47.369133
644.866333	1198.205688	9488.606445	5138.181641	47.524559
645.200073	1194.490601	9442.686523	5108.832031	47.456936
645.533813	1195.010620	9444.543945	5096.794922	47.297031
645.867554	1200.434814	9438.451172	5095.531738	47.281975
646.201172	1202.292358	9443.653320	5115.742188	47.485477
646.534729	1198.280029	9417.053711	5115.370605	47.660282
646.868225	1197.908569	9422.477539	5108.683594	47.549904
647.201782	1200.732056	9420.693359	5086.466797	47.271938
647.535217	1202.292358	9446.846680	5097.538086	47.246284
647.868591	1198.577271	9442.686523	5095.680176	47.271366
648.201965	1195.679443	9434.959961	5093.451660	47.307194
648.535278	1196.868286	9390.081055	5081.637207	47.414478
648.868591	1196.422485	9396.025391	5073.835449	47.287819
649.201782	1197.759888	9361.994141	5063.284668	47.347061
649.534912	1198.131348	9346.836914	5038.170410	47.124527
649.868103	1192.410034	9294.527344	5022.121094	47.268028
650.201172	1188.100464	9269.264648	5006.889160	47.255428
650.534180	1178.589722	9218.589844	4978.431152	47.261707
650.867188	1183.716675	9172.448242	4954.208496	47.197628
651.200134	1187.729004	9160.484375	4928.499512	46.919418
651.533020	1201.623657	9119.395508	4928.499512	47.069756
651.865845	1200.954956	9092.720703	4916.016113	47.075157
652.198608	1199.914673	9027.557617	4896.771973	47.228233
652.531433	1191.146973	9004.300781	4866.456543	47.040028
652.864136	1189.809448	8974.059570	4835.249512	46.830971
653.196777	1234.168213	8993.526367	4850.704590	46.608704
653.529358	1238.923584	8953.477539	4827.373535	46.515327
653.861938	1239.220825	8894.704102	4794.309082	46.438457
654.194519	1196.348145	8775.374023	4721.937988	46.517719
654.526978	1189.214966	8719.795898	4697.046387	46.581154
654.859375	1189.437988	8671.276367	4669.852051	46.518166
655.191833	1193.227417	8631.524414	4641.468262	46.357933
655.524170	1198.948730	8592.960938	4594.657715	45.925121
655.856445	1199.765991	8540.131836	4571.326172	45.931770
656.188660	1194.044556	8502.237305	4548.366699	45.898109
656.520874	1194.341919	8472.368164	4535.586426	45.908665
656.853088	1194.119019	8476.305664	4511.958496	45.561031
657.185181	1193.747559	8462.113281	4509.283691	45.615978
657.517212	1188.546387	8463.749023	4526.447266	45.880520
657.849243	1193.078735	8479.203125	4546.212402	46.020813
658.181274	1191.369751	8546.967773	4563.673340	45.846764
658.513123	1201.474976	8615.771484	4574.521484	45.493816
658.844971	1196.422485	8700.476563	4603.573730	45.404140
659.176819	1191.890015	8788.525391	4625.121582	45.194107
659.508667	1192.855835	8864.833984	4632.849121	44.838413
659.840393	1201.177734	8910.307617	4640.576660	44.614620
660.172058	1213.660645	8963.508789	4650.384277	44.345692
660.503662	1204.967285	8970.715820	4673.120605	44.659615
660.835266	1195.976563	8981.416016	4675.127441	44.687920
661.166931	1189.437988	8940.176758	4667.176758	44.869770
661.498413	1190.552368	8944.487305	4659.449219	44.737247
661.829773	1196.125244	8897.750000	4638.272949	44.693787
662.161194	1199.394531	8808.512695	4595.920410	44.637577
662.492615	1204.372925	8705.677734	4545.171875	44.536236
662.823975	1200.063232	8564.725586	4478.373535	44.514061
663.155212	1199.245850	8425.408203	4417.965332	44.542587
663.486450	1190.923950	8266.400391	4340.987793	44.520874
663.817627	1194.044556	8130.872559	4270.771484	44.353516
664.148743	1190.106689	8024.024902	4206.499512	44.138557
664.479858	1190.626831	7899.121582	4156.642578	44.212833
664.810913	1189.437988	7831.061035	4123.132324	44.171345
665.141907	1189.363647	7762.479004	4096.012207	44.220257
665.472778	1191.146973	7705.786621	4059.826172	44.034351
665.803711	1198.428589	7647.310059	4042.142334	44.096233
666.134583	1201.623657	7571.744141	4015.244873	44.169041
666.465454	1205.412964	7529.688965	3999.864014	44.186104
666.796143	1199.543091	7475.894043	3965.758789	44.073631
667.126831	1203.555298	7473.664063	3959.368896	43.951603
667.457458	1204.967163	7453.974609	3928.236084	43.579227
667.788147	1203.926880	7437.033203	3929.870850	43.733311
668.118774	1192.484253	7406.644043	3904.236328	43.638271
668.449219	1183.642334	7390.594238	3896.286133	43.703316
668.779663	1187.431763	7380.563965	3877.413330	43.434910
669.110107	1194.861938	7356.860840	3864.187500	43.319153
669.440552	1206.156128	7334.792969	3865.524658	43.392498
669.770874	1201.995117	7310.124512	3844.497314	43.262054
670.101135	1199.988892	7273.195313	3821.908936	43.171921
670.431396	1188.769165	7234.781250	3796.051758	43.124008
670.761597	1186.911621	7195.327637	3774.949951	43.073555
671.091797	1188.546265	7174.150879	3762.318359	42.999367
671.421875	1193.153076	7136.702637	3744.485596	42.926071
671.751892	1195.010620	7117.754395	3733.414795	42.858589
672.081909	1198.205688	7104.230957	3726.207764	42.803776
672.411865	1194.193237	7076.813965	3705.328125	42.687347
672.741821	1190.626831	7037.210938	3678.802002	42.557762
673.071716	1182.899414	6976.579590	3647.222900	42.534683
673.401550	1189.066406	6928.580078	3624.263672	42.428635
673.731262	1184.533936	6897.744629	3611.186279	42.474403
674.060974	1189.809448	6848.705078	3595.954346	42.519695
674.390625	1191.146851	6823.441895	3582.505859	42.457985
674.720276	1198.725830	6768.457520	3565.638916	42.495998
675.049927	1198.205688	6755.528809	3547.657471	42.276680
675.379395	1195.679565	6725.585449	3525.886963	42.138287
675.708923	1190.329590	6707.083984	3498.246338	41.834682
676.038330	1188.026245	6681.152344	3477.739014	41.683239
676.367737	1184.459717	6640.880371	3457.379883	41.655880
676.697083	1193.227417	6596.149902	3446.160156	41.698406
677.026428	1193.153076	6553.128906	3428.253174	41.699818
677.355652	1196.273926	6537.302246	3422.680664	41.684982
677.684875	1192.335815	6519.544434	3411.832764	41.663418
678.013977	1193.747559	6537.970703	3402.693359	41.333336
678.343079	1189.437988	6548.967285	3405.739502	41.352539
678.672180	1186.985962	6577.945313	3408.563232	41.209309
679.001221	1184.608276	6594.365723	3418.147705	41.287243
679.330139	1188.249023	6608.186035	3434.123047	41.437271
679.659058	1193.004395	6621.709473	3439.101563	41.374454
679.987976	1202.886841	6643.332031	3460.054688	41.488663
680.316772	1206.304688	6680.482910	3449.949463	40.985966
680.645630	1203.704102	6719.417969	3468.228271	41.055866
680.974304	1195.753784	6741.337402	3467.336670	40.962021
681.302979	1188.992188	6780.197266	3462.655518	40.664997
681.631653	1183.122192	6789.113281	3459.088867	40.598827
681.960266	1183.047852	6806.128906	3456.636719	40.433151
682.288757	1186.242798	6801.894531	3476.030029	40.775089
682.617249	1197.239868	6812.147949	3481.602539	40.683884
682.945679	1199.023071	6793.349121	3479.224854	40.759182
683.274109	1207.419312	6772.767090	3457.677002	40.433372
683.602478	1201.326416	6708.718262	3428.996338	40.448730
683.930725	1197.314087	6645.857910	3399.498291	40.417847
684.259033	1188.323364	6565.091309	3369.331299	40.563545
684.587280	1191.146973	6510.627441	3329.133545	40.191643
684.915344	1194.639160	6446.801270	3300.155518	40.088562
685.243469	1199.691772	6385.427246	3276.527344	40.049007
685.571533	1199.171509	6335.495605	3261.963867	40.160870
685.899536	1196.868286	6284.375488	3232.762939	40.017529
686.227539	1196.496704	6218.988770	3217.753662	40.244102
686.555420	1190.923950	6164.079590	3208.465576	40.568638
686.883301	1191.890015	6159.992188	3195.239990	40.324253
687.211121	1188.397583	6161.181641	3182.905518	40.108475
687.538940	1189.586548	6164.228027	3177.927490	39.969532
687.866638	1187.877563	6135.621094	3175.995361	40.182312
688.194336	1185.945801	6136.958984	3169.457031	40.062733
688.521973	1187.283203	6125.664551	3146.348633	39.670193
688.849609	1190.478149	6112.810547	3148.280518	39.773876
689.177063	1190.998291	6071.498535	3134.385742	39.819435
689.504578	1192.484497	6021.195313	3122.348877	39.966450
689.832031	1196.496826	5973.046875	3086.980713	39.578442
690.159485	1201.252075	5909.146484	3061.718018	39.518005
690.486816	1201.549316	5858.323730	3035.414795	39.380596
690.814087	1198.800171	5792.343262	3017.433594	39.591084
691.141296	1191.592773	5738.027832	2979.241943	39.319801
691.468506	1189.363770	5675.613281	2942.016357	39.067211
691.795715	1181.636108	5593.434082	2901.892822	38.992191
692.122803	1184.459595	5526.042480	2878.190186	39.011822
692.449829	1196.125244	5466.674316	2860.951904	38.983906
692.776855	1199.765991	5404.111328	2833.831299	38.866108
693.103821	1196.199341	5352.842285	2801.063721	38.609627
693.430664	1186.985840	5297.338379	2773.646240	38.601566
693.757568	1185.351318	5272.372559	2760.643311	38.543770
694.084351	1191.369751	5222.292480	2750.909424	38.689396
694.411133	1195.530884	5191.679199	2742.810791	38.719280
694.737854	1193.376099	5148.435059	2720.222656	38.604900
695.064575	1190.403809	5141.673828	2706.402344	38.367374
695.391174	1191.815674	5114.181641	2691.318848	38.229557
695.717773	1198.725830	5106.603027	2686.563721	38.072792
696.044250	1200.211792	5089.067871	2682.179688	38.108070
696.370789	1189.214966	5099.470215	2673.114990	37.948929
696.697205	1185.202637	5115.593750	2678.018799	37.981365
697.023621	1180.967529	5169.314453	2689.015625	37.811356
697.349915	1188.323364	5212.410156	2704.544922	37.678650
697.676208	1192.187256	5277.201660	2721.708740	37.442253
698.002380	1200.211914	5347.492188	2744.147705	37.227669
698.328674	1198.577271	5428.928223	2768.519531	37.111393
698.654724	1197.685547	5519.726074	2792.816406	36.906891
698.980896	1198.502808	5588.158691	2815.255859	36.830975
699.306946	1197.982788	5652.207520	2827.441650	36.582325
699.632935	1197.833984	5676.728027	2841.856201	36.705986
699.958862	1199.840210	5686.684082	2833.534180	36.410763
700.284729	1200.880615	5678.511230	2833.311523	36.457470
700.610596	1201.400757	5653.545410	2809.608643	36.122097
700.936340	1191.889893	5608.295410	2786.872070	36.114941
701.262146	1194.193237	5517.051270	2753.510498	36.071445
701.587830	1191.964233	5429.300293	2718.588135	36.027916
701.913513	1195.530762	5318.068848	2692.061768	36.301205
702.239075	1190.255371	5215.679688	2657.807861	36.457088
702.564697	1187.134521	5095.160156	2613.895264	36.508480
702.890137	1186.317139	4972.783691	2571.097168	36.571827
703.215698	1191.295532	4867.273926	2520.348389	36.155075
703.541016	1195.902344	4792.599609	2499.394775	36.241371
703.866455	1196.719604	4716.662109	2470.491211	36.187286
704.191711	1188.546265	4653.355957	2455.630615	36.570099
704.517029	1188.992188	4583.957520	2431.110840	36.587078
704.842163	1180.001587	4534.992188	2398.269043	36.312096
705.167419	1183.568115	4497.617676	2372.857666	35.886295
705.492493	1183.791016	4454.225098	2347.966064	35.596958
705.817566	1192.855957	4418.262207	2331.768311	35.310665
706.142578	1193.673218	4377.470215	2320.251221	35.384731
706.467590	1198.131348	4355.253906	2312.969482	35.311844
706.792480	1191.518433	4350.499023	2318.468018	35.674473
707.117371	1191.295532	4345.817871	2312.597900	35.545868
707.442200	1186.540039	4357.111816	2303.904541	35.241734
707.766907	1197.536987	4354.659668	2288.449463	34.554012
708.091675	1200.434692	4357.780273	2287.334961	34.424492
708.416321	1205.635986	4338.684570	2292.313477	34.684349
708.741028	1193.450317	4348.715332	2302.269775	35.141880
709.065552	1188.992188	4359.415039	2314.009766	35.484779
709.390137	1185.425659	4383.117676	2313.563721	35.279762
709.714600	1194.862183	4390.547852	2318.096191	35.148453
710.039063	1200.509155	4416.256348	2316.015869	34.688881
710.363403	1196.942505	4443.822754	2326.492432	34.788776
710.687744	1190.849731	4480.082520	2333.476807	34.738407
711.012085	1190.106689	4524.961426	2342.616211	34.559513
711.336304	1195.010742	4558.917480	2344.250732	34.163849
711.660461	1197.165527	4586.483887	2351.012451	34.043629
711.984619	1198.800171	4588.193359	2354.133057	34.086720
712.308716	1190.626831	4593.542480	2354.727539	34.208923
712.632751	1183.791016	4590.124512	2347.222900	34.154961
712.956726	1179.332886	4582.843262	2335.408936	33.967167
713.280701	1180.373047	4557.729004	2332.510742	34.113602
713.604553	1187.431763	4516.268066	2318.616211	33.981377
713.928467	1194.713501	4463.661621	2304.350098	33.944759
714.252258	1199.691772	4426.733887	2277.824219	33.409309
714.575989	1203.555542	4383.415039	2249.143311	32.881573
714.899719	1202.440918	4343.588867	2231.310791	32.754581
715.223267	1203.183960	4294.399902	2215.855713	32.759659
715.546936	1198.577148	4258.734863	2212.957764	33.147984
715.870422	1200.731934	4230.202637	2200.400635	32.998131
716.193970	1205.784546	4207.392090	2188.586426	32.742519
716.517395	1211.654419	4192.976563	2165.998779	32.010777
716.840820	1208.013550	4160.506348	2157.676758	32.164795
717.164124	1193.450195	4122.091797	2143.336182	32.434353
717.487488	1192.484375	4081.671143	2138.952393	32.758976
717.810730	1186.837402	4061.535156	2123.794678	32.593246
718.133972	1191.444214	4028.098877	2116.438477	32.608631
718.457092	1188.917969	3989.461670	2101.726807	32.593987
718.780212	1194.119019	3933.808838	2082.482178	32.425682
719.103210	1196.570923	3890.565186	2070.147949	32.426834
719.426208	1199.988892	3846.875000	2058.854004	32.448132
719.749207	1196.645386	3808.163330	2045.702515	32.512012
720.072083	1199.023071	3758.974609	2024.749390	32.255543
720.394958	1195.828003	3722.417725	2003.498657	31.966829
720.717773	1190.849731	3686.677734	1985.740356	31.848772
721.040527	1192.781616	3669.737061	1972.663086	31.485485
721.363281	1192.633057	3652.721436	1961.443359	31.251329
721.685913	1195.902344	3628.424561	1956.687866	31.275583
722.008545	1199.989014	3603.161865	1945.765259	31.032984
722.331055	1199.394531	3555.607666	1934.174194	31.184771
722.653503	1205.115845	3531.087891	1921.319824	30.791597
722.976013	1194.936401	3499.137939	1913.963867	31.205057
723.298401	1192.112915	3494.382568	1906.756470	31.040829
723.620789	1187.060181	3481.008057	1906.904907	31.380171
723.943115	1184.459595	3480.636719	1895.536743	30.967869
724.265381	1190.626831	3466.073242	1897.840210	31.080206
724.587585	1194.341919	3460.054688	1887.660645	30.600468
724.909790	1197.759888	3462.878174	1888.626587	30.500250
725.231873	1198.057007	3469.416992	1882.607910	30.138372
725.553894	1196.793945	3475.881592	1882.459351	30.085083
725.875916	1217.672974	3490.072998	1903.338501	30.173630
726.197937	1208.905273	3494.977295	1907.127930	30.542461
726.519775	1212.026001	3493.936768	1908.539673	30.523266
726.841675	1188.843628	3491.930664	1896.131226	30.710417
727.163513	1195.382202	3504.264893	1890.781372	30.118427
727.485291	1180.595825	3535.100342	1890.855591	30.165998
727.806946	1188.472046	3538.518311	1889.295288	29.821676
728.128662	1189.363770	3550.852539	1892.713257	29.784155
728.450256	1202.663940	3545.576904	1892.044434	29.424074
728.771790	1199.914673	3544.833984	1887.586426	29.326029
729.093323	1196.273804	3547.211914	1886.323242	29.352091
729.414795	1192.112915	3542.976563	1882.756714	29.378300
729.736145	1190.775391	3550.852783	1876.589478	29.058966
730.057495	1205.115845	3541.936523	1876.366577	28.724955
730.378845	1209.053833	3545.577393	1874.806152	28.493286
730.700134	1205.784546	3543.942627	1887.066040	29.137527
731.021301	1189.140747	3559.546143	1886.323120	29.411949
731.342468	1184.682617	3562.815674	1880.081665	29.241385
731.663574	1189.066528	3555.310791	1860.094360	28.358351
731.984680	1194.193359	3551.744141	1860.465820	28.261213
732.305664	1193.673218	3557.390869	1868.787720	28.561552
732.626648	1196.348145	3572.029053	1876.738159	28.639790
732.947571	1194.862061	3582.134033	1869.828125	28.273531
733.268433	1202.589478	3565.639404	1867.004517	28.116844
733.589233	1196.942505	3559.249023	1867.078735	28.367876
733.909973	1193.227417	3533.688721	1868.044556	28.832653
734.230713	1185.276978	3508.128906	1863.883789	29.214380
734.551331	1182.899292	3469.491455	1850.509277	29.196722
734.871948	1186.465820	3435.832031	1831.785034	28.688934
735.192505	1185.871460	3407.448242	1810.905884	28.134722
735.513062	1188.397827	3388.872314	1802.955444	27.928411
735.833435	1185.574219	3346.148438	1789.135132	27.935209
736.153931	1190.255249	3313.604248	1774.497437	27.515125
736.474304	1191.741333	3258.917236	1758.002319	27.392977
736.794617	1194.490479	3247.028564	1750.349243	27.081532
737.114807	1190.701050	3227.115479	1748.565918	27.394466
737.434998	1186.317261	3218.793701	1741.655762	27.323244
737.755188	1185.128418	3189.889893	1739.426636	27.649086
738.075256	1187.134521	3191.599365	1744.256348	27.794043
738.395325	1195.902344	3202.893311	1752.652710	27.740551
738.715271	1202.961060	3233.505859	1759.562866	27.411451
739.035278	1202.961060	3250.075439	1766.918579	27.548901
739.355164	1190.626831	3269.765625	1754.956055	27.142452
739.675049	1182.453491	3275.041016	1753.321289	27.280476
739.994873	1185.054077	3275.115234	1736.306030	26.374922
740.314636	1197.834106	3271.028564	1739.129395	26.109240
740.634277	1201.326294	3247.772217	1728.801392	25.775179
740.953979	1204.372681	3227.710205	1729.024292	25.930010
741.273499	1199.691772	3200.069580	1712.677734	25.644453
741.593140	1196.868286	3176.441406	1710.894409	25.966513
741.912598	1195.010742	3145.234375	1702.423828	26.018200
742.232117	1191.072632	3098.274658	1704.132813	26.901197
742.551453	1196.422363	3067.290283	1696.925415	26.752453
742.870850	1192.335815	3034.077148	1677.978394	26.368664
743.190063	1202.292358	3023.452148	1670.399536	25.703794
743.509338	1196.719727	2986.746338	1659.179810	25.835375
743.828552	1193.227417	2963.638428	1652.641113	25.949551
744.147705	1183.790894	2930.425049	1646.102539	26.468718
744.466797	1183.939575	2915.787354	1637.409180	26.184149
744.785828	1189.735229	2896.988525	1640.083984	26.378555
745.104858	1194.861938	2878.264404	1624.554688	25.525253
745.423706	1195.976685	2866.598877	1613.855103	25.013340
745.742615	1193.673218	2855.304932	1601.297852	24.531588
746.061401	1196.422363	2841.484619	1595.873901	24.281849
746.380249	1197.759888	2828.407227	1591.341431	24.136522
746.698975	1199.320190	2815.404297	1597.359863	24.629887
747.017639	1197.314087	2805.670654	1604.418579	25.311831
747.336304	1199.543091	2794.896729	1606.870605	25.532114
747.654907	1199.766113	2794.599609	1598.548828	25.004662
747.973389	1196.793823	2794.451172	1598.548706	25.146498
748.291931	1196.199585	2798.760742	1592.381714	24.721809
748.610352	1194.490601	2799.503662	1591.044312	24.707195
748.928711	1197.685547	2798.314697	1585.917358	24.254951
749.247070	1202.218018	2788.581299	1587.849243	24.309137
749.565308	1199.988892	2783.825439	1581.607788	24.094589
749.883545	1197.091064	2781.968018	1574.623413	23.820925
750.201782	1191.072632	2776.915771	1567.713257	23.750181
750.519836	1190.923950	2762.649414	1574.103149	24.379524
750.837952	1192.632935	2757.522705	1572.542969	24.277111
751.155884	1190.329468	2752.247070	1577.446777	24.784746
751.473877	1191.295532	2748.531982	1562.957642	23.866774
751.791809	1193.896118	2733.077148	1560.802856	23.837790
752.109619	1191.890015	2716.135986	1556.864868	23.944616
752.427490	1199.320190	2706.104736	1561.249023	24.019945
752.745300	1195.828003	2697.783203	1553.744263	23.830023
753.062988	1199.765991	2701.349854	1548.765991	23.242125
753.380615	1187.505981	2696.742920	1546.239624	23.769207
753.698303	1186.837402	2694.959717	1556.864868	24.535641
754.015808	1185.871460	2682.922607	1548.840210	24.245581
754.333374	1189.066406	2679.356201	1550.994995	24.285786
754.650757	1184.385376	2693.324951	1543.193237	23.778809
754.968262	1184.162476	2705.213623	1546.016724	23.789749
755.285583	1184.682617	2710.191650	1536.357422	23.052948
755.602905	1186.985962	2683.368408	1520.605103	22.295046
755.920105	1180.893188	2667.541748	1514.140747	22.416029
756.237305	1184.534058	2643.988037	1509.534180	22.268610
756.554443	1193.598877	2645.399658	1512.208984	21.945856
756.871582	1197.388306	2650.378174	1511.317383	21.605730
757.188599	1195.084961	2661.895020	1519.044800	22.086012
757.505615	1190.181030	2669.548096	1522.537109	22.466099
757.822510	1197.016846	2672.297363	1527.292358	22.387302
758.139465	1201.103516	2683.888428	1516.964233	21.301857
758.456238	1196.719604	2698.229004	1520.233521	21.545914
758.773010	1194.193359	2706.030762	1521.348267	21.639557
759.089783	1189.512207	2716.878906	1527.366699	22.120064
759.406433	1192.261597	2725.944092	1532.122070	22.159767
759.723145	1186.688843	2741.918945	1529.892944	22.067738
760.039673	1192.484375	2747.566162	1531.304688	21.787941
760.356201	1192.558594	2750.389648	1522.834106	21.200985
760.672668	1193.598877	2746.005859	1520.976563	21.088392
760.989136	1189.215088	2736.792236	1520.307739	21.394258
761.305481	1186.094360	2738.872803	1518.896118	21.432663
761.621826	1189.140747	2735.454834	1517.781738	21.253185
761.938049	1191.072632	2738.055420	1513.917969	20.869356
762.254333	1187.803223	2746.897461	1523.874512	21.555548
762.570496	1185.425537	2781.447998	1544.679321	22.509319
762.886597	1177.921021	2858.574219	1563.032104	22.914370
763.202637	1183.419434	2950.560791	1579.824585	22.431999
763.518677	1181.561890	3089.655518	1598.623047	21.857479
763.834656	1192.187134	3205.865234	1626.635132	21.574848
764.150574	1189.883667	3314.495850	1646.102539	21.473042
764.466370	1195.976563	3361.975342	1650.114868	20.966692
764.782288	1188.620605	3390.359131	1652.269531	21.058310
765.097961	1195.902222	3366.582031	1643.873413	20.637369
765.413696	1194.564819	3316.501953	1635.700073	20.789272
765.729309	1199.394531	3231.127930	1619.130737	20.659019
766.044861	1193.450317	3127.772705	1603.155640	21.180819
766.360474	1200.509155	3022.560547	1582.350952	20.956697
766.675903	1203.258301	2910.214844	1549.731812	20.297735
766.991394	1199.840454	2824.023682	1519.936401	19.708118
767.306763	1185.351318	2746.228516	1501.137817	20.231348
767.622131	1175.097534	2686.637695	1496.753906	21.280041
767.937378	1181.710571	2638.563721	1496.605469	21.614731
768.252625	1187.431885	2594.948242	1483.082397	21.005121
768.567810	1194.416260	2557.277100	1468.593262	20.117754
768.882996	1190.255249	2510.986328	1457.299194	20.219404
769.197998	1195.679321	2461.500732	1459.825562	20.867575
769.513062	1198.279907	2437.574951	1458.710938	21.014450
769.828064	1200.880737	2410.974609	1445.931030	20.250519
770.142944	1198.057129	2397.080078	1431.367676	19.458389
770.457825	1190.923950	2360.448730	1420.296509	19.612457
770.772705	1188.174805	2335.780273	1420.222168	20.220135
771.087402	1192.261597	2310.888916	1421.485352	20.491522
771.402100	1192.112915	2293.353516	1414.426636	20.187571
771.716736	1191.890015	2288.598145	1409.968384	19.884813
772.031372	1192.112915	2271.359863	1398.823120	19.153189
772.345947	1194.342041	2262.889404	1403.355469	19.560520
772.660461	1194.490601	2237.180420	1401.275024	19.831825
772.974854	1189.883789	2235.248779	1399.863281	20.086716
773.289246	1195.233521	2220.313721	1393.473145	19.338938
773.603638	1200.657715	2211.174561	1390.872681	18.823532
773.917908	1197.834229	2192.524658	1382.327759	18.547834
774.232178	1195.902344	2182.642334	1376.755005	18.328300
774.546265	1190.255249	2174.320557	1370.736694	18.340393
774.860474	1195.605103	2165.329834	1373.857422	18.381744
775.174561	1192.707153	2156.339111	1380.990356	19.538912
775.488586	1195.679321	2147.571533	1381.659180	19.537912
775.802551	1186.094360	2136.426270	1370.885254	19.444880
776.116516	1185.871460	2129.962158	1357.733521	18.203978
776.430359	1187.357544	2133.379883	1355.133057	17.734837
776.744202	1197.759888	2132.190918	1359.813965	17.342541
777.057922	1199.023071	2112.946533	1358.699585	17.471540
777.371704	1196.793945	2096.079834	1360.928589	18.251665
777.685303	1194.341919	2092.736084	1365.758301	19.080309
777.998962	1197.388306	2091.770264	1366.129883	18.866837
778.312500	1201.177856	2082.408203	1362.043091	18.254618
778.626038	1202.663818	2074.234619	1358.922485	17.928396
778.939453	1195.902222	2080.401855	1358.699585	18.405588
779.252869	1195.084839	2085.528809	1363.380737	18.900223
779.566223	1192.781494	2076.389648	1360.631348	18.995960
779.879578	1195.530762	2073.937744	1360.111206	18.736240
780.192749	1196.570923	2064.426758	1356.916138	18.476019
780.505920	1195.530884	2067.621826	1358.402344	18.675972
780.819031	1195.902344	2060.042969	1348.000000	17.601030
781.132141	1195.456543	2062.940674	1338.637817	16.505348
781.445190	1195.976563	2062.420654	1332.173462	15.719064
781.758118	1201.920776	2055.659180	1341.238403	16.318539
782.071045	1193.524658	2040.798462	1340.495483	17.346319
782.383911	1190.701050	2019.027832	1343.021606	18.388945
782.696838	1184.831177	2009.814331	1343.987671	19.292089
783.009583	1188.174805	1996.959961	1342.650146	19.099676
783.322266	1189.809570	1989.901245	1332.024902	17.774879
783.634888	1189.363647	1973.554565	1325.783447	17.396248
783.947510	1193.747559	1967.907593	1325.560547	17.026581
784.260132	1194.936401	1955.647461	1329.275757	17.659708
784.572571	1202.812622	1949.554688	1325.263428	16.398006
784.885010	1200.211914	1948.886108	1322.216919	16.296141
785.197449	1204.447144	1948.068726	1324.371704	16.127094
785.509766	1203.704102	1943.833618	1321.473877	15.912049
785.822083	1206.081787	1936.477539	1325.634888	16.368263
786.134277	1200.509155	1932.167969	1320.359253	16.380600
786.446533	1193.078735	1927.189575	1314.712280	16.568825
786.758606	1190.552368	1929.195923	1299.777466	14.787254
787.070740	1186.763062	1935.883179	1300.892090	15.235077
787.382690	1184.459839	1952.229858	1304.161255	15.590791
787.694641	1183.642334	1961.889038	1317.610229	17.214066
788.006653	1192.112793	1983.511230	1325.857788	16.899830
788.318481	1200.657715	2004.984497	1335.962891	16.822165
788.630310	1204.298462	2023.634399	1340.495361	16.622839
788.942017	1204.818726	2038.049194	1333.733887	15.471729
789.253784	1199.543091	2049.194580	1336.408691	16.108440
789.565430	1203.555420	2046.445679	1328.755493	14.853662
789.877014	1191.592773	2034.854126	1332.767700	16.741539
790.188538	1191.444214	2020.365234	1325.857788	16.215487
790.500061	1190.329468	1997.925781	1323.479980	16.487261
790.811462	1198.577148	1981.430664	1313.374878	14.664012
791.122925	1198.057007	1959.213989	1304.532837	13.988682
791.434204	1198.279907	1950.892212	1304.607178	14.127762
791.745483	1198.577148	1936.551758	1304.087036	14.297225
792.056702	1200.434692	1916.935913	1307.579224	14.953852
792.367920	1196.868286	1906.087769	1301.560913	14.761668
792.678955	1191.295532	1893.084595	1295.170776	14.801491
792.990112	1189.363647	1883.796875	1291.901367	14.765670
793.301086	1184.013794	1881.270630	1293.907593	15.760878
793.612122	1183.865234	1868.861938	1297.919800	16.650381
793.922974	1183.642456	1856.304810	1297.028320	16.856281
794.233826	1182.156372	1838.249390	1293.536011	16.976196
794.544556	1182.973633	1834.831421	1289.300781	16.311403
794.855286	1186.317261	1853.332642	1288.334961	15.294655
795.166016	1186.985962	1858.905396	1290.712646	15.437369
795.476624	1187.729004	1872.131348	1297.548462	16.046038
795.787292	1186.540161	1871.239868	1302.823853	16.983166
796.097778	1188.992065	1885.431641	1306.093262	16.814264
796.408264	1195.828003	1895.313843	1301.040527	15.041409
796.718689	1191.221069	1915.970093	1303.789917	15.532114
797.029053	1193.153076	1917.307251	1301.412109	14.949721
797.339355	1187.580444	1919.016235	1307.876465	16.446560
797.649658	1187.580444	1907.202148	1302.452271	15.962808
797.959839	1186.911621	1912.031860	1306.018921	16.425869
798.270020	1192.781616	1908.167969	1298.217163	14.738266
798.580078	1199.320190	1893.827637	1297.919922	14.197073
798.890137	1195.976685	1868.936401	1295.319214	14.762033
799.200195	1193.004517	1846.793945	1292.272827	15.183530
799.510071	1193.301758	1834.385620	1291.975708	15.391738
799.820007	1198.057129	1831.636353	1282.836548	13.381029
800.129883	1202.440918	1831.562134	1279.790161	12.294807
800.439575	1192.112915	1829.109985	1276.520752	13.250898
800.749329	1189.586548	1825.543457	1283.356567	14.744713
801.058960	1189.289307	1811.946167	1291.529785	16.420036
801.368591	1201.103394	1810.088501	1287.294556	14.153246
801.678162	1205.858887	1797.605835	1277.338013	12.079340
801.987671	1201.846558	1800.949341	1272.731323	11.831820
802.297119	1193.673218	1790.918579	1283.653809	15.065934
802.606506	1183.122192	1785.271484	1286.403076	17.152039
802.915894	1181.338989	1776.801147	1286.700195	17.694021
803.225159	1179.109863	1773.160156	1274.960327	16.135077
803.534424	1187.208862	1768.478882	1271.839722	14.559647
803.843628	1183.493652	1762.757446	1271.319702	15.161668
804.152771	1186.614380	1758.893921	1274.737427	15.398602
804.461792	1189.512207	1765.061157	1276.520752	15.117488
804.770874	1192.632935	1777.841187	1263.146240	12.049267
805.079773	1190.998291	1782.893921	1260.694214	11.775036
805.388733	1186.763062	1787.203491	1262.403198	12.597443
805.697571	1187.803345	1792.999023	1271.393921	13.812157
806.006470	1198.948730	1801.543579	1272.954224	12.281137
806.315125	1199.988892	1809.717163	1271.839722	11.784074
806.623901	1195.530762	1811.500366	1276.817871	13.196610
806.932495	1191.815552	1810.683105	1276.817871	13.735139
807.241150	1197.908569	1805.481934	1276.297852	12.902027
807.549622	1202.143677	1792.033203	1275.852051	12.495284
807.858154	1200.657593	1785.197144	1278.675537	13.346906
808.166565	1192.261475	1769.370728	1275.034668	14.342725
808.474915	1190.181030	1767.513184	1273.548706	14.440158
808.783264	1186.688843	1753.172729	1271.988281	15.057699
809.091492	1188.100464	1754.881836	1272.285522	14.853180
809.399719	1189.809448	1748.268677	1271.542480	14.635452
809.707825	1196.496704	1753.544312	1265.078125	12.311590
810.015930	1198.131348	1741.729980	1268.644653	12.971575
810.323975	1197.759766	1728.058228	1269.536255	13.535111
810.632080	1186.317261	1717.581665	1269.016235	15.566443
810.939880	1186.317261	1720.405273	1263.443481	14.440732
811.247864	1184.682495	1718.770508	1252.521118	12.701769
811.555664	1189.289307	1716.095581	1261.808838	13.765882
811.863464	1191.221191	1710.151367	1267.084229	14.619123
812.171143	1194.936401	1705.098633	1269.090454	14.535387
812.478882	1199.766113	1702.423828	1261.288696	12.239459
812.786438	1202.143677	1692.244507	1262.848999	12.386292
813.094055	1203.926880	1682.807983	1266.192749	13.002365
813.401489	1196.050903	1672.405640	1264.335083	14.334733
813.708984	1190.106689	1664.009399	1265.746826	15.961111
814.016357	1186.763062	1665.421265	1263.889282	16.113005
814.323730	1183.865356	1667.873169	1261.585938	16.057713
814.630981	1181.636230	1675.823608	1251.926636	14.223432
814.938232	1184.756958	1675.154785	1256.161743	14.560583
815.245361	1186.911743	1670.250977	1255.641602	14.219797
815.552490	1194.044800	1667.576172	1264.112183	14.796778
815.859619	1197.091187	1670.770996	1253.561157	11.921549
816.166565	1203.035400	1680.281860	1257.202026	11.349822
816.473572	1200.063354	1682.659546	1250.291870	10.407980
816.780457	1195.605103	1681.470581	1255.344360	12.295432
817.087341	1193.450317	1681.396118	1253.338257	12.273482
817.394043	1191.815674	1683.699585	1250.143311	11.858008
817.700806	1195.530762	1688.380737	1250.068970	11.065885
818.007507	1195.753784	1691.055664	1247.468384	10.441027
818.314209	1197.908569	1699.080444	1252.075195	10.807994
818.620667	1196.645386	1713.495117	1256.013184	11.486471
818.927246	1202.589478	1726.126465	1254.601563	9.934749
819.233704	1202.886597	1755.030273	1259.728394	10.294747
819.540161	1203.183960	1780.813354	1267.901611	11.204009
819.846497	1193.301636	1818.187622	1277.560913	13.483944
820.152832	1187.060181	1853.927246	1281.573364	14.172717
820.458984	1183.419434	1904.378784	1280.755981	13.500976
820.765259	1193.747437	1962.409180	1289.895142	12.508454
821.071350	1196.199585	2045.999634	1296.433960	11.795054
821.377502	1195.679443	2183.905518	1315.455322	12.120292
821.683472	1182.453613	2452.138428	1357.287842	13.769892
821.989441	1182.899292	2901.744141	1412.866211	13.379155
822.295349	1182.750732	3540.895752	1485.088501	12.821000
822.601196	1186.540161	4261.112793	1559.391235	12.126924
822.907043	1189.512329	4872.178223	1632.728027	12.035186
823.212769	1188.472046	5240.347656	1680.356079	12.139663
823.518494	1198.428711	5263.456543	1684.219727	11.950497
823.824097	1195.828003	5055.333984	1657.470825	11.961190
824.129700	1193.227417	4704.179199	1617.644531	12.088378
824.435242	1190.329590	4351.093262	1578.858521	12.292249
824.740723	1191.146973	4012.495117	1542.524414	12.454239
825.046082	1196.570923	3684.894775	1503.069702	12.317480
825.351501	1193.004517	3356.476563	1465.992676	12.618057
825.656799	1197.462646	3051.092529	1429.361328	12.510517
825.962036	1196.125122	2803.961670	1398.525879	12.588391
826.267212	1198.205688	2645.399658	1365.906860	11.588023
826.572449	1190.701050	2581.648193	1351.120728	11.533125
826.877502	1197.536987	2610.774658	1349.337524	10.741331
827.182495	1198.280029	2735.305908	1366.724243	10.959101
827.487488	1200.360474	2882.648438	1391.838501	11.382001
827.792419	1197.982788	3015.427490	1413.535034	11.860182
828.097290	1199.691772	3036.677734	1417.918823	11.879625
828.402100	1194.564819	2971.885986	1408.556641	12.040133
828.706848	1193.153076	2828.481689	1386.414551	11.817899
829.011597	1189.140747	2675.269775	1371.554077	12.274394
829.316223	1198.502808	2529.041748	1352.978149	11.609982
829.620789	1194.193237	2403.841553	1341.312622	12.162162
829.925354	1197.462646	2276.709717	1326.452148	11.951805
830.229797	1201.697876	2160.425781	1314.786621	11.795708
830.534302	1207.121948	2033.293945	1301.040649	11.367936
830.838562	1207.716431	1945.245117	1284.248169	10.376781
831.142944	1200.063354	1860.540039	1271.691040	10.844847
831.447144	1195.159302	1818.038940	1261.437256	10.640572
831.751404	1192.410034	1770.262329	1256.087524	11.019683
832.055542	1193.227417	1756.739258	1247.096802	9.559584
832.359619	1186.168579	1743.587524	1242.192993	10.050684
832.663635	1178.441040	1756.070313	1247.022583	11.872934
832.967651	1174.280151	1775.611938	1256.533325	13.678501
833.271545	1182.602051	1829.778931	1264.706543	12.686562
833.575439	1192.855957	1920.130981	1266.266968	10.093982
833.879211	1193.970337	2041.541626	1277.263794	9.827310
834.183044	1190.626831	2166.370117	1291.752808	10.363994
834.486694	1188.694946	2270.542725	1308.099487	11.037092
834.790344	1193.673096	2300.189209	1306.093140	10.159820
835.093933	1194.861938	2276.040771	1309.808350	10.631581
835.397522	1187.580444	2210.431641	1302.229492	11.208771
835.700928	1186.168579	2148.686279	1298.960205	11.718395
836.004395	1190.478149	2090.061279	1286.997559	10.729348
836.307739	1189.215088	2022.891602	1285.065552	11.497321
836.611023	1186.614502	1952.155396	1276.743774	11.773280
836.914307	1188.397827	1882.385132	1269.833496	11.734461
837.217529	1191.444214	1815.884155	1262.254639	11.339829
837.520691	1195.753784	1760.454468	1251.406494	9.855258
837.823730	1190.106567	1706.510620	1244.719238	10.575570
838.126831	1194.936401	1664.232422	1244.124878	10.481333
838.429749	1189.883667	1630.796021	1244.050415	12.285151
838.732727	1193.821777	1600.406250	1240.409668	11.458355
839.035522	1196.125122	1587.106079	1235.357056	10.034231
839.338379	1200.137573	1579.675781	1238.997925	10.238851
839.641113	1196.645386	1590.003906	1248.137085	13.090272
839.943848	1194.936401	1607.836548	1248.657104	13.010580
840.246460	1189.289429	1633.842651	1252.446655	14.206899
840.549072	1193.375977	1650.709351	1248.359985	12.022741
840.851563	1190.998291	1655.836060	1244.570679	11.524964
841.154053	1197.239746	1658.511108	1245.833862	10.534822
841.456482	1195.902222	1653.681274	1242.044312	10.079555
841.758850	1200.880493	1635.922974	1244.793579	10.093977
842.061157	1201.995117	1610.957397	1239.963745	9.284140
842.363403	1203.183960	1580.121704	1234.093872	8.200270
842.665588	1201.177734	1567.341675	1222.428223	5.803545
842.967712	1193.375977	1549.509155	1211.654419	5.132474
843.269775	1191.518433	1539.626831	1212.100220	5.912465
843.571777	1189.512329	1518.598999	1214.552246	7.608912
843.873840	1192.261475	1503.441406	1218.936035	8.572070
844.175659	1189.958130	1490.884155	1226.737915	12.222201
844.477600	1194.639160	1477.955444	1227.481079	11.591963
844.779297	1196.868164	1466.215698	1228.446899	11.724160
845.081116	1201.252075	1456.853516	1219.827759	7.267441
845.382751	1197.536987	1456.184692	1219.159058	8.359660
845.684387	1194.416260	1453.807007	1214.403687	7.705528
845.985962	1195.084961	1442.884644	1212.843262	7.166394
846.287537	1196.496704	1431.516235	1215.815308	8.219999
846.588989	1202.589478	1427.949707	1216.112671	6.000701
846.890381	1198.428589	1425.423340	1214.849487	7.234043
847.191711	1195.382202	1422.897095	1206.007446	4.670131
847.493042	1190.998169	1417.175781	1202.812500	5.223475
847.794250	1190.180908	1410.414429	1206.601929	7.456186
848.095459	1181.041626	1416.061157	1207.716431	11.350038
848.396606	1184.459839	1410.339844	1210.242676	11.414395
848.697693	1186.911621	1417.101563	1211.431519	10.652028
848.998657	1195.828003	1403.949829	1214.477905	8.961051
849.299622	1192.112793	1403.652710	1214.998047	10.818409
849.600464	1191.666992	1396.222290	1210.985718	9.444256
849.901367	1193.450317	1401.349243	1213.437866	9.614070
850.202087	1195.605103	1396.371094	1214.923828	9.622509
850.502808	1192.558716	1388.643555	1213.363403	10.610044
850.803467	1192.261475	1385.299805	1209.648315	9.006937
851.104065	1189.437988	1387.157349	1212.991943	11.912822
851.404663	1187.134644	1395.702271	1215.295410	13.501984
851.705139	1184.013794	1390.278198	1216.038208	15.525905
852.005615	1181.116089	1394.439087	1214.180786	15.499827
852.306030	1188.769165	1396.222534	1216.409790	13.323777
852.606384	1187.580444	1398.748657	1217.598755	14.215355
852.906616	1196.719604	1396.965454	1218.713257	10.983325
853.206909	1197.165405	1395.999512	1214.329468	8.632353
853.506958	1201.029175	1398.451538	1214.403687	6.774568
853.807129	1194.341919	1394.216187	1216.409790	11.040876
854.107178	1191.518433	1387.231812	1217.078735	13.060069
854.407166	1190.701172	1380.990234	1219.976440	15.384630
854.707092	1191.518433	1382.104858	1212.100342	10.799253
855.007019	1193.004517	1388.792114	1208.533813	7.931706
855.306763	1193.227417	1392.730103	1197.536987	2.160156
855.606567	1193.896118	1386.711792	1194.044800	0.077111
855.906250	1190.255371	1378.612671	1199.394409	4.851969
856.205933	1189.660767	1376.978027	1201.549316	6.346745
856.505493	1179.630005	1382.773560	1204.595581	12.289622
856.805054	1173.611450	1386.860229	1206.824707	15.574887
857.104492	1167.741577	1384.631226	1212.843262	20.794762
857.403931	1174.503174	1385.151367	1214.998169	19.223993
857.703308	1182.825073	1385.819946	1207.567749	12.188818
858.002563	1191.221313	1386.191528	1201.103516	5.068570
858.301819	1197.982788	1389.460938	1201.772339	1.979104
858.601013	1194.193237	1395.702271	1212.843384	9.255240
858.900208	1196.348145	1394.885132	1216.186890	9.992468
859.199219	1194.639160	1389.015137	1216.855591	11.429618
859.498291	1194.416260	1377.646851	1210.019775	8.515780
859.797302	1192.038574	1374.748901	1208.459473	8.987394
860.096191	1196.496704	1372.073853	1211.282959	8.421515
860.395020	1196.050903	1375.566284	1211.728882	8.733501
860.693787	1196.422485	1390.723999	1215.221069	9.674955
860.992554	1195.085083	1394.959351	1212.323242	8.624501
861.291260	1198.205688	1391.169922	1213.809326	8.086285
861.589844	1195.976563	1367.467285	1213.066284	9.965391
861.888428	1187.060303	1357.436523	1204.224243	10.074141
862.186890	1185.276978	1360.408569	1201.772095	9.418699
862.485413	1180.298706	1366.501343	1195.902222	8.379857
862.783813	1192.335815	1369.176270	1212.620483	11.470604
863.082153	1198.428589	1369.101929	1212.471802	8.228124
863.380371	1204.521362	1372.891479	1214.552246	5.957639
863.678589	1195.828003	1373.040039	1199.394409	2.012508
863.976746	1196.050781	1371.182495	1192.632935	-1.951586
864.274902	1198.131348	1370.290649	1201.623535	2.028463
864.572937	1201.995117	1369.770874	1208.385132	3.808664
864.870911	1200.657593	1371.405273	1213.660645	7.615361
865.168884	1192.930054	1370.810913	1212.323120	10.902278
865.466736	1194.639038	1367.764526	1212.546143	10.343425
865.764587	1189.437988	1368.359009	1216.855713	15.323926
866.062317	1195.010620	1371.851196	1215.963989	11.848734
866.360107	1191.295532	1367.318726	1216.112671	14.098789
866.657715	1196.942505	1363.157593	1213.363403	9.879307
866.955322	1196.050903	1356.693237	1209.276733	8.233091
867.252808	1190.478149	1365.535278	1201.995117	6.578977
867.550293	1192.558716	1368.136108	1205.338745	7.278858
867.847717	1193.598877	1372.891235	1202.143677	4.765847
868.145081	1197.685547	1371.776733	1204.892822	4.139943
868.442383	1198.279907	1361.374390	1199.097290	0.501171
868.739624	1194.490601	1365.015137	1203.183960	5.098011
869.036804	1194.193237	1370.142090	1202.143677	4.518608
869.333984	1189.586548	1373.411499	1211.728760	12.045270
869.631042	1197.908447	1360.185547	1210.465698	7.738153
869.928101	1204.372681	1361.968872	1216.112549	7.449335
870.224976	1202.589478	1372.668579	1210.094116	4.412440
870.521851	1197.536987	1380.916016	1214.403687	9.197725
870.818726	1186.911743	1380.767578	1212.917603	13.415051
871.115479	1188.917847	1382.402222	1213.066162	12.480758
871.412231	1190.181152	1389.238159	1208.236572	9.070477
871.708862	1193.004517	1388.717773	1213.289185	10.364484
872.005493	1194.564941	1391.392578	1212.100342	8.909014
872.302063	1191.815552	1394.439087	1211.060059	9.497666
872.598572	1195.605103	1398.005737	1206.379028	5.323069
872.895020	1192.930176	1397.931274	1209.871216	8.263878
873.191406	1195.753784	1400.606079	1215.295288	9.539314
873.487671	1186.094360	1403.132446	1226.217773	18.486807
873.783997	1183.345215	1402.612671	1221.536743	17.417782
874.080200	1177.921021	1397.114136	1221.982544	20.101692
874.376343	1186.465820	1398.005737	1211.357300	11.766800
874.672424	1195.084961	1400.531860	1204.744263	4.701605
874.968445	1193.673218	1398.748657	1206.156128	6.086985
875.264465	1193.524658	1399.937500	1208.013672	7.019434
875.560364	1186.688721	1400.680542	1216.855835	14.097322
875.856201	1184.831177	1398.971680	1211.134399	12.283161
876.152039	1190.181030	1394.290649	1205.190186	7.353477
876.447754	1188.026245	1385.522827	1210.837158	11.550030
876.743469	1194.639160	1390.278198	1216.484009	11.165895
877.039063	1192.781616	1393.324585	1223.171387	15.153746
877.334595	1199.914673	1397.262695	1218.713257	9.525600
877.630127	1199.617554	1392.581543	1207.790771	4.235618
877.925537	1191.890015	1385.448608	1205.635864	7.101648
878.221008	1188.992188	1383.293579	1209.722656	10.669233
878.516296	1182.750610	1391.541382	1220.868042	18.256281
878.811646	1185.574219	1395.256470	1221.165283	16.973808
879.106812	1182.973633	1409.745483	1214.106445	13.728694
879.401978	1191.295532	1419.330688	1208.756714	7.657232
879.697083	1193.078735	1441.324219	1208.162231	6.076040
879.992126	1196.125122	1462.203247	1210.019897	5.222066
880.287109	1197.091064	1500.469116	1213.734985	5.486198
880.582031	1196.199585	1559.316895	1219.753418	6.486563
880.876892	1191.741333	1671.588257	1228.372559	7.633940
881.171753	1186.242920	1862.694946	1244.496338	8.611611
881.466492	1187.728882	2151.509521	1265.672485	8.087276
881.761230	1195.010620	2502.441650	1296.136597	7.734708
882.055786	1189.660889	2820.010986	1324.668823	8.280917
882.350403	1189.215088	3014.164307	1345.845215	8.582711
882.644958	1181.636230	3064.615479	1356.321899	9.277089
882.939453	1187.431763	3004.281982	1365.758301	9.815148
883.233826	1185.202637	2906.648193	1351.937988	9.685776
883.528137	1189.214966	2784.940186	1338.860718	9.377914
883.822449	1195.159302	2669.473877	1312.483276	7.957866
884.116577	1197.016846	2550.886719	1303.641235	7.875527
884.410828	1198.205688	2418.033447	1286.477173	7.236389
884.704956	1195.084961	2264.152588	1279.046997	7.853763
884.999023	1200.880615	2093.702148	1263.814941	7.048926
885.292969	1199.765991	1944.948120	1253.635498	7.229039
885.586914	1202.589478	1822.274414	1243.827515	6.654678
885.880798	1193.450317	1735.563110	1242.267212	9.004933
886.174622	1193.970337	1668.616211	1244.793457	10.707587
886.468384	1196.645386	1627.601196	1236.471558	9.241359
886.762085	1196.719604	1588.666504	1222.725464	6.635046
887.055664	1192.707397	1545.868164	1208.459595	4.460348
887.349304	1185.648560	1517.112915	1205.858887	6.097285
887.642822	1185.128540	1498.760132	1214.032349	9.215847
887.936340	1189.289429	1488.357788	1214.478027	8.422355
888.229736	1191.444214	1466.066895	1209.648315	6.628768
888.523071	1192.930176	1450.240601	1201.995117	3.522959
888.816284	1195.902222	1438.872192	1200.434692	1.865445
889.109619	1197.834106	1433.968262	1205.784546	3.366916
889.402710	1201.400757	1420.519531	1208.756592	3.357008
889.695862	1196.570923	1415.318359	1214.180786	8.050318
889.988892	1186.911743	1405.064453	1209.871094	10.524440
890.281921	1172.051025	1397.188477	1204.149780	14.257403
>>>>>End Processed Spectral Data<<<<<
