Jaz Data File
++++++++++++++++++++++++++++++++++++
Date: Fri Jun 04 16:01:53 2021
User: jaz
Dark Spectrum Present: Yes
Reference Spectrum Present: Yes
Processed Spectrum Present: Yes
Spectrometers: JAZA3586
Integration Time (usec): 24600 (JAZA3586)
Spectra Averaged: 10 (JAZA3586)
Boxcar Smoothing: 1 (JAZA3586)
Correct for Electrical Dark: No (JAZA3586)
Strobe/Lamp Enabled: Yes (JAZA3586)
Correct for Detector Non-linearity: No (JAZA3586)
Correct for Stray Light: No (JAZA3586)
Number of Pixels in Processed Spectrum: 2048
>>>>>Begin Processed Spectral Data<<<<<
W	D	R	S	P
191.335022	0.000000	0.000000	0.000000	0.000000
191.713211	387.488678	386.225494	390.535065	-241.167374
192.091385	782.481934	776.240479	782.630554	-2.381185
192.469528	1172.942749	1174.948853	1174.428833	74.078133
192.847641	1184.311157	1189.289429	1179.258423	-101.495758
193.225739	1196.571167	1199.320190	1187.431763	-332.460022
193.603790	1211.877319	1200.360474	1194.193237	153.549698
193.981842	1215.518188	1204.224121	1197.685669	157.892807
194.359863	1208.905273	1203.852661	1203.258301	111.763428
194.737854	1212.768921	1214.849487	1206.676147	-292.842041
195.115829	1216.855591	1212.694702	1205.933228	262.500732
195.493774	1224.806030	1210.465576	1205.413086	135.232422
195.871704	1219.159058	1204.892944	1206.379028	89.583122
196.249603	1223.468628	1208.533691	1209.722534	92.039856
196.627457	1216.781372	1210.985718	1211.431641	92.305908
197.005310	1218.787598	1215.221069	1218.267456	14.583975
197.383133	1212.026001	1212.248901	1213.957886	866.703186
197.760910	1210.688599	1217.821655	1207.493530	-44.792416
198.138687	1208.013672	1216.707031	1199.691772	-95.727081
198.516449	1204.521484	1217.301392	1204.892944	2.906594
198.894180	1206.527466	1213.883545	1202.069458	-60.603043
199.271866	1202.069458	1216.038330	1204.892944	20.212702
199.649536	1199.171753	1215.221069	1198.651489	-3.241656
200.027191	1201.846558	1219.901978	1198.577148	-18.107634
200.404816	1200.360474	1213.437622	1188.323486	-92.045967
200.782410	1202.440918	1226.069214	1190.552490	-50.314369
201.159988	1203.183960	1232.756470	1190.626709	-42.462582
201.537537	1212.397461	1237.586060	1196.199463	-64.306862
201.915070	1209.796875	1236.694458	1197.834106	-44.475254
202.292557	1204.149902	1234.911255	1204.818726	2.174232
202.670029	1196.422485	1242.490112	1207.196167	23.386665
203.047485	1196.050903	1249.400269	1206.824707	20.194811
203.424911	1191.592773	1261.734497	1209.648315	25.741514
203.802292	1197.462524	1257.053345	1208.236572	18.080046
204.179688	1197.314087	1248.359985	1213.660767	32.023495
204.557037	1199.691772	1237.957642	1216.707153	44.466209
204.934357	1188.397827	1239.518066	1225.920776	73.401360
205.311661	1187.060181	1244.867798	1226.589233	68.380356
205.688934	1192.038574	1253.858398	1217.227051	40.744984
206.066177	1193.004517	1257.796387	1206.601929	20.986294
206.443390	1195.902222	1252.743774	1203.332642	13.072162
206.820587	1191.741333	1246.428101	1208.310913	30.299067
207.197769	1198.057129	1237.363281	1210.762817	32.324936
207.574921	1199.914551	1239.517944	1205.933228	15.197376
207.952042	1195.307739	1233.127930	1202.515259	19.057333
208.329147	1190.626831	1241.747070	1205.115723	28.342770
208.706223	1191.444092	1237.586060	1213.214844	47.182106
209.083267	1196.868286	1233.499390	1209.722534	35.091076
209.460297	1206.378906	1227.109497	1201.177734	-25.089357
209.837280	1203.926880	1224.806030	1201.994995	-9.252698
210.214264	1195.456421	1231.567627	1200.063110	12.756952
210.591217	1186.168579	1228.595581	1209.722656	55.516712
210.968124	1186.094360	1228.223999	1204.818604	44.444347
211.345016	1190.032349	1233.053589	1210.317017	47.150356
211.721893	1193.004517	1244.496216	1200.211914	13.997203
212.098724	1191.592773	1248.657227	1195.530762	6.900948
212.475555	1193.227417	1249.771851	1194.119019	1.576816
212.852356	1191.369873	1240.929810	1194.044800	5.397357
213.229126	1188.917847	1246.799683	1196.496704	13.093672
213.605865	1193.598999	1250.663330	1192.038452	-2.734715
213.982590	1197.388550	1256.830444	1193.450195	-6.625554
214.359283	1196.645386	1256.681885	1189.289429	-12.252475
214.735931	1192.261475	1249.028687	1193.970459	3.010513
215.112579	1187.580444	1251.703613	1195.159302	11.819219
215.489197	1193.524536	1248.880249	1205.115845	20.939678
215.865799	1187.431885	1243.381714	1197.165527	17.397091
216.242355	1187.357544	1238.774902	1190.106567	5.346489
216.618896	1182.379272	1232.310547	1185.797119	6.845102
216.995407	1182.230469	1236.545898	1191.815674	17.647297
217.371902	1183.270752	1230.824585	1193.004517	20.468939
217.748367	1195.084961	1229.858521	1189.809448	-15.171046
218.124802	1206.304565	1228.001099	1185.648438	-95.204742
218.501236	1204.001221	1234.168213	1193.524536	-34.728966
218.877609	1188.843384	1244.570557	1200.657715	21.200306
219.253983	1176.063354	1250.366211	1203.406860	36.800072
219.630295	1180.744507	1244.719238	1205.710327	39.024502
220.006592	1182.453613	1247.096802	1196.125122	21.149187
220.382889	1194.119019	1249.846069	1195.753662	2.933304
220.759140	1195.307861	1256.904785	1196.125244	1.326986
221.135391	1203.852661	1257.499146	1199.691772	-7.756125
221.511581	1203.258301	1251.332153	1197.685547	-11.592069
221.887772	1196.422485	1251.555054	1196.496704	0.134619
222.263931	1193.227417	1245.833740	1197.016846	7.203371
222.640060	1189.066528	1242.713013	1205.041504	29.778234
223.016159	1190.329590	1241.821411	1209.053833	36.363529
223.392212	1188.843506	1243.381714	1216.038208	49.863579
223.768265	1186.094238	1250.514771	1212.917603	41.637913
224.144302	1185.276978	1253.486938	1212.249023	39.542679
224.520294	1188.249023	1251.183594	1205.858887	27.981224
224.896286	1190.106567	1257.573608	1203.852661	20.374533
225.272217	1193.598877	1257.127808	1202.515259	14.035151
225.648148	1188.769409	1260.397095	1208.385132	27.385672
226.024048	1191.964233	1254.452759	1209.128174	27.467348
226.399902	1191.146851	1262.106079	1198.948730	10.994877
226.775772	1198.428589	1261.140015	1196.793823	-2.606807
227.151581	1191.592651	1265.152344	1193.524536	2.626282
227.527374	1192.558594	1260.322754	1199.543091	10.307067
227.903137	1188.471924	1273.474243	1195.530762	8.304289
228.278870	1188.992065	1284.248169	1199.320190	10.842481
228.654572	1186.911621	1300.000366	1198.057129	9.855541
229.030273	1183.939575	1312.111816	1202.961060	14.840565
229.405930	1187.729126	1317.461548	1206.379028	14.375669
229.781555	1192.856079	1320.730957	1206.230469	10.458965
230.157181	1197.982910	1324.891846	1203.332642	4.215410
230.532761	1198.279907	1332.024902	1197.611206	-0.499982
230.908325	1194.936401	1332.396362	1189.809448	-3.729779
231.283859	1189.512207	1324.297363	1186.391602	-2.315244
231.659332	1186.020020	1311.442993	1191.518433	4.383896
232.034821	1189.661011	1304.978638	1199.691772	8.698377
232.410263	1187.580444	1303.567017	1201.177856	11.723264
232.785690	1192.855957	1298.588745	1197.388428	4.286722
233.161087	1187.283203	1297.028198	1199.171631	10.832774
233.536469	1194.564819	1292.272827	1202.663818	8.288981
233.911804	1192.930176	1291.009766	1199.245972	6.439460
234.287140	1193.524536	1292.421509	1197.091064	3.606307
234.662430	1192.558594	1291.604248	1192.335571	-0.225171
235.037704	1197.091064	1300.223267	1197.016846	-0.071965
235.412933	1202.440918	1307.430786	1191.369873	-10.544869
235.788162	1197.091187	1317.164307	1192.335815	-3.960396
236.163345	1193.301758	1320.507935	1193.153076	-0.116882
236.538513	1195.233521	1319.244751	1201.029175	4.673491
236.913635	1197.611206	1312.260376	1207.716431	8.814041
237.288742	1196.942505	1309.585571	1206.230347	8.245374
237.663834	1191.444214	1304.012817	1206.453247	13.333232
238.038879	1189.958130	1307.802124	1197.982666	6.809457
238.413910	1192.558716	1315.380981	1195.084839	2.056731
238.788910	1196.868286	1316.644165	1195.233521	-1.364854
239.163879	1202.069458	1317.089966	1201.029175	-0.904433
239.538834	1201.846558	1314.638062	1207.196411	4.743135
239.913757	1198.800171	1325.857666	1213.140625	11.286587
240.288651	1200.954956	1341.238281	1217.152954	11.546631
240.663528	1200.657715	1351.046387	1212.026001	7.559270
241.038361	1196.793945	1366.798462	1207.196289	6.118863
241.413177	1193.524536	1384.110962	1204.372681	5.691982
241.787979	1199.394531	1414.649536	1210.094116	4.970655
242.162735	1194.490601	1437.163208	1207.493530	5.358219
242.537476	1190.849731	1452.989624	1207.716431	6.434236
242.912170	1187.729004	1465.101074	1208.162231	7.366721
243.286865	1186.837280	1482.042114	1208.756714	7.425161
243.661514	1186.391602	1493.484741	1210.094116	7.718347
244.036148	1187.134644	1488.506470	1207.567871	6.780072
244.410751	1196.422485	1474.908813	1203.852661	2.668058
244.785339	1201.995117	1457.967896	1200.063232	-0.754723
245.159882	1201.252075	1450.091797	1197.462524	-1.522888
245.534378	1201.549194	1447.639771	1196.570923	-2.022943
245.908890	1200.806274	1471.639648	1190.478149	-3.813461
246.283356	1200.360474	1503.515625	1188.843628	-3.798994
246.657791	1195.976685	1551.292114	1186.837280	-2.572195
247.032196	1191.741333	1598.846069	1185.648438	-1.496641
247.406586	1194.787720	1662.300415	1183.791016	-2.352172
247.780960	1191.667114	1722.188477	1194.787720	0.588215
248.155289	1189.363647	1747.599976	1197.462646	1.450819
248.529602	1183.047852	1741.878784	1200.434814	3.111310
248.903870	1195.159302	1695.067993	1203.183960	1.605225
249.278122	1198.725830	1649.148804	1200.583496	0.412427
249.652344	1201.995117	1596.096680	1200.063354	-0.490169
250.026550	1195.456543	1558.648071	1200.657715	1.432074
250.400711	1199.989136	1534.871460	1207.344849	2.196507
250.774857	1201.400757	1520.456665	1212.100220	3.353476
251.148987	1197.759888	1518.004517	1200.434692	0.835238
251.523071	1190.255249	1513.769165	1198.354248	2.503447
251.897125	1186.837280	1524.766113	1196.942505	2.990341
252.271164	1195.159302	1534.574097	1202.663696	2.210980
252.645187	1201.177856	1558.127930	1200.434692	-0.208198
253.019165	1196.645264	1576.852173	1198.800049	0.566740
253.393112	1194.787720	1585.099976	1203.629761	2.265376
253.767044	1195.307983	1572.914429	1207.419189	3.207362
254.140930	1201.475098	1541.781616	1210.911499	2.772912
254.514801	1196.942505	1523.131470	1201.103516	1.275644
254.888657	1196.125244	1503.738647	1203.109741	2.270544
255.262466	1192.855835	1508.642578	1202.589600	3.082386
255.636276	1192.038452	1503.589966	1211.357300	6.200852
256.010010	1192.781616	1508.493774	1208.385132	4.942323
256.383759	1195.159302	1519.861938	1212.323120	5.286011
256.757446	1196.050903	1540.221069	1208.162231	3.518994
257.131134	1190.775269	1566.895874	1202.515259	3.121337
257.504791	1188.546265	1589.409668	1205.190063	4.151988
257.878418	1192.187134	1620.319458	1207.939331	3.679282
258.252014	1190.849731	1657.099243	1220.645020	6.390417
258.625580	1193.821777	1694.027710	1215.592407	4.352334
258.999115	1196.496704	1755.401733	1216.707031	3.616057
259.372650	1199.840332	1837.803345	1211.803101	1.875151
259.746124	1190.478149	1936.105957	1207.121948	2.232186
260.119598	1183.122192	2027.572632	1205.412964	2.639678
260.493042	1179.852905	2101.429443	1207.047729	2.950902
260.866425	1188.620605	2141.181396	1205.636108	1.786291
261.239838	1191.295410	2115.547119	1204.372803	1.414917
261.613159	1198.948608	2026.160767	1205.635864	0.808409
261.986511	1194.639282	1921.914063	1204.818726	1.399670
262.359802	1194.862061	1844.342163	1209.276733	2.219417
262.733063	1191.146851	1812.466309	1208.162231	2.738588
263.106293	1197.685425	1800.875000	1217.524414	3.289014
263.479523	1194.564819	1787.277710	1211.505859	2.858220
263.852692	1197.314087	1784.156860	1215.072388	3.026075
264.225861	1195.010620	1772.862915	1210.762695	2.725969
264.598969	1203.852661	1773.754517	1208.533813	0.821396
264.972076	1204.447144	1764.764038	1198.948730	-0.981304
265.345154	1204.372681	1772.045532	1199.245972	-0.903110
265.718201	1201.474976	1786.683105	1203.555542	0.355526
266.091217	1197.091187	1816.329956	1201.103516	0.647945
266.464203	1191.146973	1851.846558	1205.635986	2.192981
266.837158	1188.843628	1894.124878	1203.109741	2.022755
267.210114	1190.255371	1932.836548	1207.196167	2.281339
267.583038	1194.342041	1960.328735	1199.914551	0.727494
267.955902	1189.958130	1966.272949	1195.010620	0.650830
268.328766	1188.174805	1969.913696	1191.815674	0.465740
268.701569	1189.586548	1969.022095	1192.632935	0.390845
269.074371	1193.598877	1982.842407	1198.205688	0.583700
269.447144	1195.679321	1986.185913	1204.372803	1.099735
269.819885	1195.307861	2008.030884	1208.459595	1.618231
270.192596	1201.549316	2029.504395	1213.809326	1.480758
270.565277	1202.218140	2077.132568	1212.694702	1.197438
270.937927	1208.310791	2138.655273	1205.784546	-0.271539
271.310577	1201.846558	2206.642334	1198.725830	-0.310583
271.683136	1200.731934	2290.901611	1198.205688	-0.231730
272.055725	1192.038452	2350.640869	1198.279907	0.538706
272.428284	1194.341919	2380.659180	1205.413086	0.933238
272.800812	1191.592773	2357.179443	1201.103516	0.815962
273.173279	1188.843384	2322.554443	1201.697876	1.133842
273.545776	1186.242798	2302.789795	1200.434692	1.271052
273.918152	1189.735229	2282.059326	1204.595703	1.360445
274.290558	1196.199585	2252.784180	1208.756592	1.188453
274.662964	1199.691772	2237.403564	1210.539917	1.045391
275.035278	1199.245972	2224.474854	1213.363403	1.377003
275.407593	1191.146851	2239.260986	1217.524292	2.516657
275.779907	1190.106567	2248.400391	1213.363403	2.197578
276.152161	1190.998169	2273.885986	1212.471680	1.982986
276.524384	1191.443970	2305.910889	1208.162231	1.500113
276.896606	1188.769287	2340.981689	1203.704102	1.296186
277.268799	1193.227417	2373.451904	1203.852661	0.900273
277.640930	1202.515259	2388.015137	1204.818481	0.194283
278.013031	1202.812378	2398.863281	1211.208740	0.702007
278.385162	1199.691772	2404.064697	1209.945679	0.851390
278.757233	1193.970337	2396.411377	1208.013672	1.167902
279.129272	1203.035522	2384.374268	1199.691772	-0.283048
279.501282	1201.177856	2381.996582	1193.598999	-0.641831
279.873230	1202.069458	2407.185303	1195.828003	-0.517913
280.245178	1192.187134	2443.965088	1198.057129	0.468933
280.617126	1189.437988	2506.305176	1201.474976	0.914062
280.988983	1188.323364	2566.193115	1195.530884	0.523091
281.360870	1190.478149	2625.858154	1200.583374	0.704010
281.732697	1191.518433	2684.780273	1194.564819	0.204009
282.104492	1189.809448	2746.376953	1198.948608	0.587135
282.476288	1187.431763	2805.150391	1199.245972	0.730301
282.848053	1190.775391	2847.577393	1203.406860	0.762401
283.219757	1196.125244	2867.639404	1202.143677	0.360059
283.591461	1195.605103	2852.555908	1199.543091	0.237665
283.963135	1194.267700	2831.676758	1201.623657	0.449244
284.334747	1195.159302	2827.441406	1205.710205	0.646390
284.706360	1198.205688	2861.174805	1202.292358	0.245745
285.077942	1198.428589	2914.375732	1211.283081	0.749119
285.449524	1195.530762	2967.427734	1217.004272	1.211894
285.821014	1198.651489	3006.436768	1219.381958	1.146733
286.192535	1197.982788	3066.919189	1213.586182	0.834881
286.563995	1197.388428	3120.863037	1198.428589	0.054077
286.935425	1192.187256	3173.915039	1209.202515	0.858607
287.306824	1193.078735	3157.642578	1215.889771	1.161125
287.678223	1195.605103	3115.438721	1221.759644	1.362334
288.049561	1202.738159	3054.510498	1215.518188	0.690151
288.420898	1202.663818	3007.105469	1211.580200	0.494135
288.792145	1201.326294	2986.672119	1214.180786	0.720000
289.163452	1192.484253	2991.799072	1214.032227	1.197566
289.534668	1187.431641	3032.294189	1213.809326	1.429791
289.905914	1182.304810	3074.349365	1208.682495	1.394137
290.277039	1188.769165	3150.732422	1210.614258	1.113430
290.648193	1187.060181	3225.183594	1212.769043	1.261399
291.019318	1189.214966	3303.127197	1215.963989	1.265380
291.390381	1181.859131	3336.786377	1215.963989	1.582645
291.761475	1183.865356	3328.687500	1225.474731	1.939992
292.132507	1182.825073	3301.418701	1235.208496	2.472556
292.503510	1179.852905	3267.462158	1238.849243	2.826024
292.874481	1183.493652	3247.177734	1230.081543	2.257511
293.245422	1187.134644	3249.332275	1220.570679	1.621379
293.616364	1188.992188	3284.106201	1213.140503	1.152601
293.987213	1188.620605	3327.870361	1206.156006	0.819699
294.358093	1190.106689	3409.305908	1209.871216	0.890615
294.728943	1195.902344	3496.983154	1202.886719	0.303526
295.099731	1198.800049	3603.384521	1207.270630	0.352268
295.470490	1194.416138	3661.860596	1208.310913	0.563124
295.841248	1192.112793	3702.355713	1213.363403	0.846556
296.211975	1192.261475	3742.330811	1210.911499	0.731354
296.582642	1197.313965	3815.890625	1204.670044	0.280919
296.953308	1196.348145	3898.218018	1200.434814	0.151253
297.323883	1190.552612	3972.149170	1200.211914	0.347257
297.694519	1186.391602	4024.384033	1196.050903	0.340357
298.065063	1191.147095	4035.455078	1200.731934	0.336983
298.435608	1195.382202	3997.709229	1205.115845	0.347341
298.806122	1196.719604	3882.242920	1209.499634	0.475886
299.176575	1197.165405	3752.212891	1208.087891	0.427487
299.547028	1196.942505	3644.473877	1203.852661	0.282332
299.917450	1197.091187	3595.657227	1198.279907	0.049560
300.287872	1197.239746	3577.899170	1201.252075	0.168539
300.658234	1196.719604	3559.768799	1205.041504	0.352168
301.028564	1198.577271	3535.249023	1213.363403	0.632786
301.398865	1196.125244	3521.800049	1215.741089	0.843447
301.769135	1195.605103	3506.642578	1213.066162	0.755551
302.139374	1193.524536	3519.571289	1207.790771	0.613325
302.509583	1190.923950	3534.283203	1203.258179	0.526348
302.879791	1192.038452	3539.707764	1206.973267	0.636155
303.249939	1189.958008	3516.822266	1208.162231	0.782350
303.620087	1197.982788	3488.364014	1208.608032	0.463907
303.990173	1195.605103	3468.005127	1201.177734	0.245231
304.360260	1195.456421	3454.110352	1205.115723	0.427657
304.730286	1186.243042	3436.054932	1210.614258	1.083256
305.100281	1186.763062	3434.494385	1214.849487	1.249545
305.470276	1183.939575	3457.008057	1211.877441	1.229082
305.840179	1185.648560	3471.051514	1211.877441	1.147670
306.210144	1186.614502	3482.791260	1211.877441	1.100218
306.579987	1194.193359	3489.404297	1216.781372	0.984137
306.949890	1200.211914	3510.134766	1213.660645	0.582216
307.319702	1197.759766	3546.765869	1217.227173	0.828751
307.689484	1193.375977	3583.545898	1219.381958	1.088039
308.059265	1188.843628	3633.922852	1225.771973	1.510313
308.429016	1189.215088	3703.395752	1221.908203	1.300349
308.798737	1191.444092	3776.807373	1215.741089	0.939790
309.168396	1191.221191	3856.682861	1208.682373	0.655090
309.538055	1188.546265	3903.790771	1203.183960	0.539093
309.907684	1185.648560	3950.378174	1206.601929	0.757881
310.277313	1187.803345	3985.821045	1205.561646	0.634674
310.646851	1196.496704	4020.371826	1215.221069	0.663073
311.016388	1207.493530	4042.662842	1219.233276	0.414076
311.385895	1204.372681	4044.520264	1219.456177	0.531081
311.755371	1200.732056	4044.891602	1216.335571	0.548616
312.124817	1194.044800	4049.498291	1211.877441	0.624512
312.494232	1196.125244	4037.386963	1206.081909	0.350431
312.863617	1191.890015	4016.136719	1205.561646	0.484081
313.232971	1184.236694	3975.195557	1202.663696	0.660239
313.602295	1190.032349	3947.629150	1207.419312	0.630511
313.971619	1188.694946	3945.325928	1209.276855	0.746633
314.340820	1193.450317	3949.709717	1213.140503	0.714381
314.710083	1188.174927	3985.226563	1210.614258	0.802249
315.079285	1191.444214	4022.452148	1209.053833	0.622027
315.448486	1189.809570	4070.451904	1207.047729	0.598414
315.817596	1184.608276	4078.922607	1202.961060	0.634098
316.186707	1186.094360	4034.637939	1204.149902	0.633852
316.555786	1189.140747	3955.728516	1199.171631	0.362572
316.924866	1192.187134	3873.326904	1214.998169	0.850796
317.293884	1192.261353	3826.218750	1208.979614	0.634720
317.662872	1194.193359	3804.670898	1213.437866	0.737203
318.031830	1193.970459	3821.017334	1212.694824	0.712753
318.400757	1194.119019	3837.884033	1217.672974	0.890925
318.769684	1192.855957	3864.929932	1221.982422	1.090032
319.138550	1193.153076	3899.555420	1210.985718	0.658906
319.507416	1197.388306	3934.106201	1212.917725	0.567447
319.876190	1200.954834	3954.836670	1213.140625	0.442495
320.244995	1201.400757	3922.886475	1216.632690	0.559692
320.613770	1196.645264	3884.843018	1220.867920	0.901074
320.982483	1194.787720	3855.122314	1221.165161	0.991508
321.351166	1192.707275	3828.299072	1224.211548	1.195340
321.719818	1193.153198	3812.398438	1215.963989	0.870892
322.088440	1187.803345	3818.045166	1211.431519	0.898327
322.457062	1188.397705	3847.840820	1216.261230	1.047720
322.825623	1184.534058	3889.821533	1219.976440	1.310115
323.194183	1192.112793	3945.325928	1225.177612	1.200954
323.562653	1190.701050	4032.928955	1223.617310	1.158115
323.931183	1193.673218	4123.280762	1218.416016	0.844577
324.299591	1194.193359	4205.236816	1218.787476	0.816797
324.668060	1196.273804	4273.669922	1221.610962	0.823331
325.036407	1195.679321	4330.511230	1231.047485	1.128232
325.404755	1190.180908	4361.644043	1229.189941	1.230001
325.773102	1189.512329	4375.092773	1220.348022	0.967977
326.141388	1191.295532	4375.315918	1217.004272	0.807430
326.509674	1188.174805	4364.541992	1219.159058	0.975462
326.877899	1184.385376	4358.226074	1220.347778	1.133088
327.246124	1184.682617	4361.644043	1215.146606	0.958903
327.614288	1186.317261	4356.739746	1214.998047	0.904636
327.982422	1184.608276	4339.130371	1212.397461	0.880932
328.350525	1186.911743	4295.291504	1214.552246	0.889225
328.718628	1191.072632	4291.948242	1210.242798	0.618218
329.086700	1196.719604	4292.319336	1214.478027	0.573667
329.454712	1191.146973	4322.709473	1217.301636	0.835195
329.822693	1185.277100	4337.272461	1217.078491	1.008929
330.190674	1184.459717	4347.377441	1216.261230	1.005449
330.558563	1186.317261	4365.358887	1210.539917	0.761948
330.926483	1186.020142	4387.204102	1206.379028	0.635980
331.294312	1186.540283	4444.342773	1200.806274	0.437902
331.662231	1185.871460	4502.373535	1206.230469	0.613870
332.029999	1187.506226	4567.313965	1213.289185	0.762853
332.397766	1196.125122	4611.672363	1219.233398	0.676561
332.765503	1203.183960	4672.452637	1215.369629	0.351246
333.133240	1197.982910	4735.312500	1212.026001	0.396997
333.500916	1192.707275	4830.270996	1215.964111	0.639352
333.868561	1183.122192	4884.957520	1216.781372	0.909257
334.236176	1194.416138	4910.815430	1217.598755	0.623792
334.603790	1189.363647	4893.800293	1212.991943	0.637838
334.971344	1193.152954	4881.391602	1215.518188	0.606393
335.338867	1185.128418	4869.057129	1212.174561	0.734166
335.706360	1189.512207	4856.797363	1219.827759	0.826648
336.073853	1193.004517	4856.054199	1215.072388	0.602445
336.441284	1195.456543	4863.930176	1223.245728	0.757514
336.808655	1199.765991	4865.937012	1215.295288	0.423584
337.176086	1198.279907	4828.190918	1219.159058	0.575197
337.543396	1195.753784	4732.562988	1214.477905	0.529407
337.910706	1185.574219	4648.452637	1222.205444	1.057826
338.277954	1181.859131	4632.774414	1223.245728	1.199293
338.645264	1189.958130	4711.460938	1224.137329	0.970586
339.012421	1190.181030	4855.459961	1216.261230	0.711547
339.379669	1191.072632	4989.056152	1213.660645	0.594737
339.746796	1187.357422	5102.070801	1215.889648	0.728846
340.113953	1194.341919	5172.138184	1220.124878	0.648172
340.481018	1196.348022	5222.738281	1224.583008	0.701248
340.848114	1197.388428	5239.233887	1219.827637	0.555172
341.215118	1197.314087	5258.849609	1216.706909	0.477475
341.582153	1189.660889	5275.419434	1217.004272	0.669236
341.949066	1190.998291	5323.418457	1217.524414	0.641903
342.316010	1189.958130	5341.474121	1223.542969	0.808978
342.682922	1189.437866	5372.160645	1222.502808	0.790512
343.049835	1188.249023	5410.055176	1219.679199	0.744472
343.416656	1184.533936	5475.292969	1215.146606	0.713456
343.783478	1189.140747	5579.539551	1217.301392	0.641414
344.150269	1180.893066	5725.173340	1222.725464	0.920551
344.516998	1180.150024	5925.716309	1228.000977	1.008330
344.883728	1186.391479	6071.052246	1228.446899	0.860969
345.250427	1191.146973	6155.608887	1227.629517	0.734874
345.617065	1190.552490	6166.828125	1225.623413	0.704763
345.983704	1188.694946	6142.828613	1221.462402	0.661416
346.350281	1185.797241	6125.738770	1220.496582	0.702424
346.716827	1189.363647	6042.817871	1212.471802	0.476118
347.083405	1189.735229	5984.638184	1209.499756	0.412199
347.449860	1195.456421	5891.982910	1211.283081	0.336987
347.816376	1192.187134	5832.392090	1209.945435	0.382705
348.182770	1184.311035	5772.652832	1215.072388	0.670424
348.549194	1184.831177	5738.474121	1218.638794	0.742430
348.915558	1178.663940	5744.640625	1224.508789	1.004053
349.281921	1184.088135	5762.622559	1223.245605	0.855240
349.648193	1178.143921	5816.491699	1222.576904	0.957949
350.014526	1176.806519	5864.564941	1225.251831	1.033443
350.380737	1170.787964	5933.517578	1231.344604	1.271469
350.746948	1172.348267	6002.544922	1230.007202	1.193718
351.113159	1182.156372	6058.494629	1232.459229	1.031570
351.479309	1187.431763	6116.748535	1224.954712	0.761220
351.845428	1184.534058	6154.494629	1225.549072	0.825258
352.211517	1182.007690	6219.063965	1218.416016	0.722810
352.577576	1180.447388	6262.455566	1219.307617	0.764663
352.943604	1185.499878	6307.260254	1218.787476	0.649925
353.309601	1188.174683	6379.854004	1221.165161	0.635449
353.675537	1190.626831	6505.797363	1219.827759	0.549388
354.041473	1197.759888	6654.923340	1219.753540	0.403024
354.407379	1202.143677	6771.875488	1220.942383	0.337515
354.773254	1201.549194	6897.298828	1225.920532	0.427886
355.139038	1199.022949	7009.050293	1226.960815	0.480856
355.504913	1197.239746	7163.822266	1231.716187	0.577826
355.870636	1194.787720	7271.933105	1230.824585	0.592990
356.236389	1198.948730	7444.463379	1227.183716	0.452084
356.602081	1194.713501	7622.791016	1225.549072	0.479701
356.967804	1198.948730	7803.420410	1219.902100	0.317260
357.333405	1193.598877	7960.571777	1220.273560	0.394189
357.699036	1196.273804	8122.476563	1212.843384	0.239230
358.064606	1194.044678	8320.418945	1224.360229	0.425399
358.430176	1186.688721	8475.934570	1225.771973	0.536177
358.795654	1184.608276	8576.020508	1226.366333	0.564954
359.161163	1183.047974	8578.546875	1224.286011	0.557610
359.526581	1183.642334	8559.748047	1227.852417	0.599369
359.892029	1186.020020	8585.753906	1237.288818	0.692847
360.257416	1189.512207	8702.186523	1235.877075	0.617155
360.622772	1200.063354	8933.491211	1237.511841	0.484242
360.988098	1201.400757	9239.989258	1231.493286	0.374351
361.353394	1191.815674	9581.633789	1231.493286	0.472926
361.718658	1180.744507	9879.364258	1226.960815	0.531306
362.083893	1173.537231	10100.191406	1227.332397	0.602635
362.449097	1185.797119	10221.454102	1222.354126	0.404586
362.814209	1193.078857	10226.135742	1223.468628	0.336428
363.179382	1198.948730	10020.463867	1226.960815	0.317543
363.544434	1195.307861	9638.399414	1222.577026	0.322976
363.909546	1200.880493	9166.280273	1219.679199	0.236005
364.274536	1200.063110	8747.881836	1217.524292	0.231341
364.639587	1208.831055	8448.368164	1219.084595	0.141633
365.004517	1199.468872	8269.075195	1217.747192	0.258548
365.369507	1197.759888	8148.854004	1219.084839	0.306786
365.734344	1192.335815	8075.813965	1223.320068	0.450125
366.099274	1192.261475	8009.981934	1235.208496	0.629932
366.464081	1192.038452	7972.681641	1235.579956	0.642144
366.828918	1181.784668	7951.134277	1234.539673	0.779322
367.193665	1182.825073	7922.750488	1232.904907	0.743032
367.558411	1180.818848	7910.564941	1228.075317	0.702203
367.923126	1185.797241	7919.927246	1225.177612	0.584788
368.287781	1187.952026	7916.880859	1222.131226	0.507944
368.652435	1190.552612	7875.791504	1221.090942	0.456802
369.017059	1194.787720	7814.491699	1219.976196	0.380508
369.381653	1193.153076	7748.881348	1219.604858	0.403491
369.746185	1191.890015	7745.835449	1227.035278	0.536246
370.110687	1184.311035	7768.200684	1228.744141	0.674876
370.475220	1184.236816	7837.005371	1235.951538	0.777341
370.839661	1193.227539	7891.766113	1237.511719	0.661102
371.204041	1201.772339	7976.322754	1240.483887	0.571426
371.568451	1198.874390	8024.990723	1226.217773	0.400570
371.932770	1189.214966	8086.885254	1214.106445	0.360868
372.297150	1192.558594	8093.052246	1213.809204	0.307958
372.661377	1197.759766	8144.173340	1229.189941	0.452466
373.025696	1197.834106	8192.098633	1231.641968	0.483365
373.389862	1179.109863	8199.379883	1239.072144	0.854131
373.754059	1176.360718	8182.067871	1226.663696	0.718029
374.118225	1181.561890	8168.395996	1232.533569	0.729539
374.482361	1190.626831	8240.394531	1227.035156	0.516447
374.846436	1193.375977	8334.090820	1229.487183	0.505709
375.210510	1187.951904	8466.497070	1227.406616	0.542069
375.574524	1189.289429	8599.871094	1230.081543	0.550458
375.938538	1188.472046	8767.944336	1223.617188	0.463689
376.302460	1188.323364	8935.645508	1223.097168	0.448849
376.666412	1186.168579	9118.950195	1222.948608	0.463646
377.030304	1190.701050	9306.043945	1229.487183	0.477936
377.394196	1195.753662	9470.030273	1235.877197	0.484919
377.757996	1206.527588	9612.765625	1232.979370	0.314668
378.121796	1201.177734	9673.470703	1233.722412	0.384131
378.485565	1194.936401	9663.440430	1225.474731	0.360611
378.849304	1189.512329	9580.815430	1226.440674	0.440079
379.212982	1187.877563	9428.791992	1224.508789	0.444504
379.576630	1189.735229	9223.048828	1232.904907	0.537383
379.940277	1188.397705	9053.637695	1235.877075	0.603661
380.303864	1188.026123	8909.342773	1235.059814	0.609141
380.667450	1188.694824	8842.692383	1229.784302	0.536837
381.030945	1187.951782	8805.169922	1230.378784	0.556988
381.394501	1187.951782	8832.141602	1235.059937	0.616261
381.757935	1191.889893	8875.459961	1239.592285	0.620836
382.121399	1195.382202	8899.980469	1236.025757	0.527523
382.484741	1197.982910	8974.505859	1230.527344	0.418496
382.848145	1193.599121	9036.028320	1230.453003	0.469929
383.211487	1186.094360	9134.776367	1237.214600	0.643129
383.574768	1184.385376	9203.135742	1241.226929	0.708858
383.938019	1187.654663	9289.028320	1239.295044	0.637427
384.301270	1198.354370	9399.517578	1238.031982	0.483805
384.664459	1197.462769	9508.371094	1244.644897	0.567713
385.027649	1192.484375	9596.271484	1245.908081	0.635710
385.390778	1181.859009	9648.357422	1239.295044	0.678392
385.753876	1186.837280	9694.870117	1232.533569	0.537096
386.116943	1190.626831	9712.554688	1236.768921	0.541451
386.479980	1198.205688	9737.074219	1237.066040	0.455100
386.842987	1194.787720	9771.700195	1237.809082	0.501595
387.205994	1193.078735	9857.073242	1229.635864	0.421943
387.568909	1191.221313	9908.192383	1232.533569	0.473929
387.931793	1193.227417	9943.933594	1234.093872	0.467008
388.294678	1189.809448	10001.591797	1238.552124	0.553153
388.657471	1189.215088	10035.918945	1240.558228	0.580365
389.020294	1190.701172	10033.987305	1238.849243	0.544459
389.383057	1198.874390	10029.306641	1244.199097	0.513278
389.745819	1197.982788	10065.416992	1243.307495	0.511137
390.108521	1198.279907	10107.696289	1241.301270	0.482875
390.471191	1195.605103	10199.163086	1230.230103	0.384570
390.833801	1193.524536	10306.084961	1226.440796	0.361219
391.196442	1189.958008	10504.993164	1228.075317	0.409202
391.558960	1190.255371	10664.372070	1233.722534	0.458799
391.921509	1194.639160	10865.584961	1244.496338	0.515536
392.284027	1190.106812	11050.671875	1252.372314	0.631460
392.646484	1188.546265	11194.968750	1260.545532	0.719531
393.008911	1185.499878	11215.699219	1262.923218	0.771902
393.371307	1189.066406	11170.597656	1267.530151	0.786089
393.733673	1188.249146	11094.808594	1272.211060	0.847539
394.096008	1191.369873	11033.583008	1270.947998	0.808539
394.458344	1188.843628	11014.932617	1273.994507	0.866580
394.820587	1188.546265	11007.206055	1281.053223	0.942155
395.182831	1186.614380	11037.000000	1290.638306	1.056039
395.545013	1192.855957	10994.351563	1307.802246	1.172742
395.907196	1199.023071	10902.364258	1317.758789	1.223658
396.269287	1196.794067	10754.798828	1323.108643	1.321558
396.631409	1195.159302	10609.537109	1327.566772	1.406439
396.993469	1195.010742	10431.507813	1340.495239	1.575105
397.355530	1194.936401	10301.106445	1368.730469	1.908531
397.717499	1194.341919	10248.424805	1400.977661	2.282238
398.079468	1192.112793	10239.955078	1433.968140	2.673072
398.441376	1185.945679	10246.493164	1463.837891	3.067058
398.803284	1188.100464	10236.833984	1488.878052	3.323974
399.165131	1191.964233	10271.161133	1529.744507	3.720376
399.526978	1202.738159	10269.601563	1570.685181	4.058151
399.888763	1201.549194	10272.946289	1614.598145	4.553311
400.250519	1199.468750	10283.050781	1660.814453	5.078896
400.612244	1201.252075	10300.215820	1728.355591	5.793006
400.973938	1197.016724	10277.478516	1802.881226	6.672177
401.335602	1193.376099	10284.684570	1873.617310	7.482325
401.697205	1185.054199	10340.709961	1947.102905	8.323256
402.058807	1186.242798	10426.899414	2031.584961	9.148075
402.420349	1189.958130	10573.499023	2124.388916	9.958189
402.781860	1194.044800	10686.663086	2224.549072	10.855848
403.143341	1192.187256	10848.494141	2329.984619	11.782946
403.504822	1187.431763	10988.703125	2455.630615	12.939126
403.866241	1188.472046	11187.909180	2571.840088	13.834458
404.227631	1191.666992	11357.468750	2702.241211	14.859371
404.588959	1195.976563	11535.942383	2829.150391	15.794770
404.950287	1191.890015	11699.706055	2968.690674	16.909323
405.311554	1195.010742	11819.631836	3091.736084	17.852169
405.672821	1192.633057	11872.460938	3218.199463	18.966282
406.034027	1193.896118	11839.618164	3341.393311	20.172396
406.395203	1188.100464	11738.343750	3456.265625	21.498699
406.756348	1187.060303	11666.492188	3565.341797	22.694756
407.117493	1186.985962	11611.063477	3671.222900	23.831720
407.478516	1193.078857	11608.610352	3789.736084	24.930626
407.839600	1197.536987	11581.268555	3916.719482	26.186951
408.200592	1196.050903	11564.996094	4050.166992	27.525618
408.561554	1195.233521	11554.593750	4164.221680	28.659958
408.922485	1191.666870	11549.465820	4278.796875	29.804884
409.283417	1191.592651	11541.515625	4402.733398	31.025745
409.644257	1192.632935	11609.799805	4561.815430	32.342598
410.005096	1203.332520	11742.429688	4723.424316	33.400314
410.365906	1208.682373	11899.358398	4871.732422	34.263969
410.726715	1210.465698	12006.278320	5011.569824	35.209061
411.087433	1208.831055	12067.281250	5136.026855	36.167187
411.448120	1208.162231	12140.247070	5268.137207	37.138161
411.808807	1200.732056	12182.301758	5369.337891	37.960022
412.169434	1184.311035	12140.469727	5457.163086	38.999546
412.530029	1181.338989	12081.399414	5526.784668	39.866253
412.890564	1184.162476	12054.799805	5612.679199	40.738335
413.251099	1192.558716	12071.887695	5709.644043	41.519890
413.611572	1192.558716	12107.479492	5803.414063	42.243599
413.972076	1194.564819	12149.833008	5907.660156	43.021267
414.332489	1200.137573	12209.200195	6004.402344	43.639179
414.692871	1201.920776	12337.893555	6151.521973	44.446957
415.053223	1198.948608	12465.247070	6280.511719	45.104103
415.413574	1198.725708	12683.473633	6450.367676	45.727100
415.773834	1197.685547	12865.292969	6615.914063	46.438213
416.134094	1192.335815	13081.588867	6772.841309	46.937393
416.494263	1188.472046	13239.926758	6919.292480	47.552933
416.854462	1188.174927	13507.268555	7099.625000	47.986080
417.214630	1195.605103	13818.596680	7330.632813	48.602013
417.574738	1190.403809	14173.762695	7565.800293	49.104366
417.934784	1189.363525	14516.002930	7795.990234	49.574589
418.294861	1185.054077	14929.497070	8041.040527	49.881878
418.654846	1188.174805	15428.960938	8315.960938	50.051914
419.014832	1190.255371	15937.636719	8606.929688	50.291470
419.374756	1188.472046	16431.822266	8914.839844	50.686806
419.734680	1188.694946	16990.283203	9245.784180	50.989113
420.094543	1183.419434	17514.341797	9609.793945	51.597668
420.454376	1187.729004	18040.255859	9920.750977	51.820248
420.814148	1188.323486	18518.912109	10241.217773	52.236511
421.173920	1204.595703	19014.585938	10525.649414	52.336098
421.533691	1204.744263	19527.572266	10836.902344	52.569168
421.893341	1200.360474	19903.619141	11069.171875	52.765202
422.253021	1187.729004	20212.568359	11245.641602	52.867264
422.612640	1196.422485	20301.064453	11340.377930	53.096806
422.972260	1201.252075	20285.236328	11378.942383	53.331055
423.331757	1200.063232	20210.414063	11386.893555	53.585701
423.691315	1196.645386	20206.548828	11390.012695	53.621349
424.050781	1201.549316	20305.669922	11478.730469	53.795628
424.410248	1207.270630	20346.462891	11531.261719	53.941628
424.769653	1198.948730	20416.531250	11653.563477	54.401302
425.128998	1195.605103	20401.224609	11673.774414	54.557831
425.488373	1191.072632	20334.798828	11652.524414	54.646896
425.847656	1194.639160	20130.244141	11522.272461	54.540810
426.206940	1187.506104	19901.242188	11399.820313	54.571220
426.566193	1189.512207	19540.873047	11255.747070	54.852795
426.925385	1199.988892	19176.195313	11096.442383	55.053066
427.284576	1203.852661	18657.115234	10828.283203	55.144024
427.643677	1202.515259	18250.234375	10625.882813	55.276413
428.002777	1193.152954	17832.429688	10429.277344	55.507965
428.361847	1188.992188	17443.232422	10249.243164	55.740845
428.720856	1184.979858	17095.494141	10039.635742	55.652859
429.079865	1183.716675	16822.656250	9917.927734	55.849125
429.438812	1191.815552	16654.509766	9852.764648	56.011902
429.797760	1191.518433	16509.173828	9793.469727	56.157101
430.156616	1190.329590	16319.776367	9665.520508	56.017853
430.515503	1182.527832	16159.207031	9573.385742	56.026154
430.874268	1183.567993	16085.350586	9553.843750	56.169628
431.233093	1183.419434	16079.703125	9590.177734	56.435272
431.591827	1187.729004	16148.433594	9654.079102	56.590580
431.950562	1188.917847	16167.975586	9673.620117	56.643764
432.309204	1186.168579	16250.823242	9713.668945	56.606010
432.667877	1187.357422	16371.192383	9780.168945	56.591839
433.026459	1193.227417	16552.640625	9866.583984	56.469322
433.385010	1203.852661	16651.685547	9936.949219	56.532825
433.743561	1203.704102	16776.513672	10038.965820	56.735180
434.102051	1198.354370	16928.685547	10144.773438	56.873684
434.460510	1192.038574	17123.431641	10242.555664	56.809330
434.818939	1188.100586	17222.255859	10285.056641	56.734863
435.177338	1192.781616	17219.804688	10307.421875	56.870453
435.535675	1188.694824	17169.054688	10280.672852	56.894707
435.894012	1190.181030	17084.052734	10244.561523	56.967747
436.252289	1190.998169	17089.253906	10235.868164	56.892216
436.610535	1192.855835	17046.603516	10261.577148	57.202381
436.968719	1195.010742	17179.531250	10345.835938	57.248043
437.326935	1196.273926	17294.255859	10448.077148	57.471817
437.685028	1198.948730	17493.611328	10554.180664	57.412865
438.043152	1199.691772	17632.035156	10628.929688	57.382187
438.401215	1194.639160	17856.056641	10760.074219	57.410694
438.759277	1190.106689	18091.375000	10902.883789	57.467747
439.117249	1190.106689	18508.064453	11134.559570	57.422783
439.475250	1195.382202	18822.884766	11318.534180	57.428173
439.833130	1197.239746	19234.820313	11545.528320	57.370716
440.191071	1198.354248	19455.275391	11698.889648	57.515366
440.548889	1201.326294	19750.035156	11852.472656	57.422577
440.906708	1204.595703	20056.533203	12032.656250	57.437389
441.264496	1197.834106	20304.259766	12167.442383	57.413189
441.622223	1184.756836	20479.093750	12275.702148	57.482906
441.979950	1186.168579	20496.033203	12333.434570	57.728344
442.337616	1188.620605	20552.876953	12357.804688	57.679386
442.695251	1194.564941	20461.855469	12325.707031	57.772224
443.052887	1194.341919	20345.498047	12248.504883	57.720604
443.410461	1194.119019	20174.898438	12165.659180	57.803421
443.768005	1192.707153	20045.314453	12072.854492	57.711632
444.125458	1192.707275	19934.529297	12003.307617	57.681694
444.482941	1198.948608	19915.431641	12033.401367	57.887230
444.840393	1205.635986	19999.246094	12097.895508	57.957253
445.197754	1202.589478	20241.400391	12235.281250	57.948429
445.555084	1202.515259	20518.919922	12398.895508	57.963066
445.912415	1202.589478	20900.537109	12673.071289	58.231861
446.269714	1200.954956	21174.640625	12826.507813	58.204346
446.626953	1195.085083	21490.650391	12995.843750	58.144520
446.984161	1198.057007	21761.630859	13150.616211	58.124912
447.341309	1198.354370	22002.224609	13327.010742	58.299995
447.698456	1195.456421	22144.365234	13453.547852	58.514229
448.055542	1187.134521	22287.546875	13494.191406	58.326145
448.412598	1185.871460	22262.431641	13491.515625	58.385448
448.769653	1188.100464	22143.474609	13433.411133	58.435177
449.126617	1188.472046	21778.425781	13303.159180	58.837860
449.483582	1195.902222	21506.253906	13146.083008	58.837883
449.840515	1197.462646	21158.515625	12921.762695	58.735878
450.197388	1192.335693	20900.759766	12745.368164	58.619766
450.554230	1194.119019	20661.876953	12617.270508	58.677284
450.911041	1196.348145	20464.232422	12501.208008	58.672031
451.267822	1201.846436	20283.304688	12398.226563	58.676750
451.624573	1195.307739	20069.164063	12300.370117	58.838337
451.981262	1194.861938	19927.025391	12269.608398	59.121552
452.337921	1188.694946	19749.365234	12192.926758	59.287899
452.694580	1186.985962	19615.027344	12130.885742	59.387211
453.051147	1184.756958	19566.656250	12102.575195	59.394402
453.407715	1181.561890	19469.689453	12015.492188	59.240242
453.764221	1179.035522	19502.904297	12019.133789	59.158348
454.120728	1182.899292	19252.427734	11888.288086	59.245533
454.477142	1186.465942	19210.894531	11868.374023	59.263508
454.833557	1187.134521	19020.753906	11766.653320	59.323452
455.189911	1184.682495	18877.126953	11669.836914	59.263454
455.546265	1185.425659	18629.697266	11574.059570	59.553268
455.902557	1190.701050	18450.779297	11484.598633	59.639923
456.258820	1192.038452	18419.498047	11496.191406	59.812382
456.615051	1198.577271	18497.513672	11527.695313	59.709560
456.971252	1197.314087	18513.041016	11523.312500	59.633640
457.327393	1197.239746	18744.939453	11634.915039	59.481735
457.683502	1197.314087	18999.947266	11805.811523	59.589485
458.039612	1199.468750	19491.087891	12123.008789	59.718826
458.395630	1192.038452	19929.253906	12404.987305	59.843201
458.751648	1187.431763	20402.785156	12707.102539	59.950344
459.107605	1184.756836	21065.044922	13090.578125	59.887566
459.463562	1181.710449	21724.853516	13463.058594	59.783199
459.819458	1187.431763	22339.039063	13823.203125	59.739059
460.175323	1186.688843	22813.833984	14106.519531	59.738960
460.531158	1194.267578	23304.009766	14405.440430	59.752724
460.886932	1187.951904	23619.498047	14605.090820	59.813702
461.242676	1183.939575	23773.601563	14726.575195	59.950588
461.598419	1186.020020	23607.091797	14656.954102	60.081577
461.954102	1188.917847	23261.359375	14442.887695	60.047592
462.309723	1195.456543	22688.708984	14109.789063	60.085518
462.665344	1201.177734	22049.775391	13750.386719	60.192101
463.020905	1204.447144	21456.396484	13411.269531	60.274803
463.376373	1201.623657	20965.033203	13120.671875	60.308659
463.731873	1192.484253	20546.187500	12857.492188	60.272743
464.087341	1183.270752	20269.412109	12676.936523	60.219959
464.442749	1184.162476	20066.416016	12560.800781	60.250427
464.798126	1187.060181	19931.109375	12505.073242	60.381901
465.153503	1189.363647	19974.279297	12547.946289	60.466511
465.508820	1185.351196	20038.849609	12579.895508	60.437294
465.864105	1184.311157	20240.431641	12666.459961	60.254383
466.219330	1187.283203	20501.087891	12837.950195	60.323002
466.574524	1193.078857	20703.708984	12966.641602	60.344345
466.929657	1191.072632	20853.578125	13075.421875	60.441685
467.284790	1191.221191	20993.492188	13169.414063	60.488987
467.639893	1192.187134	21143.509766	13284.360352	60.608379
467.994934	1197.834229	21294.865234	13422.415039	60.827797
468.349945	1197.685547	21318.044922	13450.057617	60.895393
468.704926	1198.874390	21277.921875	13416.842773	60.849346
469.059875	1200.880493	21083.470703	13267.569336	60.689720
469.414764	1200.731812	20864.724609	13118.442383	60.606773
469.769653	1194.044556	20672.429688	13025.489258	60.741405
470.124451	1189.289185	20564.466797	12963.448242	60.769295
470.479248	1186.837280	20408.431641	12880.079102	60.833885
470.834015	1187.431763	20284.123047	12811.348633	60.868748
471.188721	1192.632935	20325.955078	12834.753906	60.847359
471.543365	1196.050903	20419.949219	12864.401367	60.697109
471.898010	1204.670044	20584.455078	12922.356445	60.463448
472.252625	1196.273804	20746.210938	13031.359375	60.537716
472.607178	1196.199585	21004.337891	13228.335938	60.743401
472.961700	1190.255249	21198.267578	13386.006836	60.954342
473.316193	1200.360474	21427.419922	13547.020508	61.040314
473.670654	1204.372681	21546.673828	13620.581055	61.036400
474.025055	1206.007446	21781.841797	13747.934570	60.954647
474.379456	1196.496704	21943.154297	13853.965820	61.009674
474.733795	1189.066528	22133.888672	13979.166992	61.065693
475.088104	1184.236694	22259.681641	14089.579102	61.234020
475.442383	1191.592773	22292.154297	14119.151367	61.266418
475.796570	1193.375977	22403.533203	14152.067383	61.096634
476.150787	1197.834106	22598.650391	14211.065430	60.807175
476.504944	1189.809448	22869.857422	14380.995117	60.844814
476.859070	1186.391602	23143.068359	14566.750977	60.939823
477.213135	1183.939575	23397.851563	14755.183594	61.093445
477.567200	1187.357544	23878.367188	14981.286133	60.790283
477.921173	1194.044800	24267.937500	15253.531250	60.932442
478.275146	1197.982788	24781.220703	15564.117188	60.916718
478.629089	1201.177856	25065.281250	15744.002930	60.940170
478.983002	1198.800171	25522.615234	16032.446289	60.984047
479.336823	1199.914673	25902.375000	16282.401367	61.056614
479.690643	1198.131348	26434.603516	16587.414063	60.980324
480.044403	1201.029175	26999.603516	16884.476563	60.791916
480.398163	1199.989014	27726.062500	17351.542969	60.889347
480.751862	1200.434814	28640.357422	17987.205078	61.176449
481.105499	1198.205688	29801.708984	18722.949219	61.267822
481.459137	1191.666992	31363.029297	19658.048828	61.204998
481.812744	1182.453369	33313.847656	20854.841797	61.224819
482.166290	1185.722778	35658.246094	22384.365234	61.494316
482.519806	1196.645386	38424.316406	24184.646484	61.749771
482.873291	1201.920898	41492.273438	26173.056641	61.977959
483.226715	1197.239746	44907.968750	28277.384766	61.953083
483.580139	1193.673218	48077.050781	30323.460938	62.132439
483.933502	1194.490601	50999.972656	32338.771484	62.531837
484.286804	1197.239746	53370.605469	34250.359375	63.352478
484.640106	1193.896118	55267.406250	35973.515625	64.319145
484.993347	1198.354370	56492.355469	37288.968750	65.270393
485.346558	1200.211792	56989.519531	37909.250000	65.799416
485.699738	1200.583374	56829.097656	37802.328125	65.796730
486.052887	1196.199463	56130.207031	37133.902344	65.419769
486.405975	1193.004517	55109.812500	36161.945313	64.857216
486.759064	1187.877563	53815.156250	34973.324219	64.197594
487.112061	1194.416138	52516.050781	33838.648438	63.607159
487.464996	1192.410034	51351.128906	32827.242188	63.069458
487.817963	1194.861938	50636.113281	32267.666016	62.847935
488.170868	1187.877563	50270.546875	31869.181641	62.509449
488.523743	1191.666992	50230.718750	31781.281250	62.378071
488.876587	1194.936401	50122.832031	31621.900391	62.187359
489.229401	1200.434692	49862.031250	31513.416016	62.293434
489.582153	1198.800171	49301.718750	31191.093750	62.350258
489.934845	1198.651489	48574.667969	30779.828125	62.439137
490.287537	1201.623657	47780.738281	30243.140625	62.348797
490.640198	1201.029175	47069.582031	29725.398438	62.187199
490.992798	1200.360474	46402.125000	29246.740234	62.047089
491.345337	1192.261353	45962.769531	28901.380859	61.891457
491.697876	1193.301758	45570.453125	28619.849609	61.803307
492.050354	1192.632935	45538.277344	28537.818359	61.663746
492.402832	1192.261353	45469.105469	28493.458984	61.660217
492.755219	1189.586548	45234.824219	28398.796875	61.775600
493.107605	1188.694946	44622.203125	28035.976563	61.812370
493.459930	1188.769165	43617.703125	27422.904297	61.830765
493.812225	1191.444214	42237.976563	26518.119141	61.702354
494.164490	1191.221313	40533.246094	25475.654297	61.726448
494.516724	1186.763062	38682.589844	24322.849609	61.703094
494.868896	1185.202637	36854.890625	23200.951172	61.721169
495.221039	1185.425537	35276.035156	22201.281250	61.647053
495.573120	1197.239746	33902.472656	21310.093750	61.497356
495.925201	1201.623657	33037.886719	20738.632813	61.367157
496.277222	1210.614258	32479.724609	20356.791016	61.230320
496.629211	1198.874390	32256.744141	20213.537109	61.223331
496.981140	1195.902344	32131.171875	20098.736328	61.104473
497.333069	1187.134521	32124.187500	20103.716797	61.145393
497.684967	1187.803223	32122.923828	20088.037109	61.096363
498.036804	1193.673218	32135.705078	20155.505859	61.281796
498.388580	1196.868286	32045.203125	20126.675781	61.364113
498.740326	1201.400757	31906.554688	20089.152344	61.513294
499.092072	1199.245972	31611.943359	19924.050781	61.569038
499.443756	1193.598877	31315.845703	19722.466797	61.512238
499.795410	1187.729004	30982.748047	19482.173828	61.401016
500.147003	1179.258423	30663.843750	19258.671875	61.318188
500.498566	1181.636108	30249.455078	19016.591797	61.356358
500.850098	1186.614380	29835.218750	18801.337891	61.485451
501.201599	1186.391602	29451.666016	18581.400391	61.541977
501.553009	1188.323364	29125.328125	18393.638672	61.586113
501.904449	1189.363647	28922.111328	18248.005859	61.510826
502.255859	1198.502808	28717.037109	18118.718750	61.486618
502.607178	1197.611206	28630.322266	18060.984375	61.471771
502.958405	1205.115845	28489.296875	17953.693359	61.385670
503.309692	1200.286133	28425.025391	17889.494141	61.301624
503.660919	1197.611206	28373.830078	17862.449219	61.321400
504.012115	1182.602173	28383.865234	17874.560547	61.364647
504.363251	1181.190308	28437.806641	17869.806641	61.227764
504.714294	1183.865234	28488.630859	17895.439453	61.203873
505.065369	1194.267700	28519.984375	17901.607422	61.141453
505.416443	1195.233521	28518.201172	17915.203125	61.193825
505.767395	1195.084961	28519.759766	17903.017578	61.145954
506.118317	1186.985962	28456.900391	17919.365234	61.358387
506.469238	1189.066406	28489.296875	17949.828125	61.394215
506.820160	1190.106689	28490.486328	17933.111328	61.328835
507.170929	1195.382202	28570.585938	17932.962891	61.141392
507.521729	1183.790894	28589.533203	17981.185547	61.291515
507.872498	1184.905396	28690.880859	18063.660156	61.363956
508.223236	1190.106567	28860.587891	18175.412109	61.384205
508.573883	1201.995117	29079.412109	18247.412109	61.144176
508.924500	1200.731934	29276.609375	18347.570313	61.073204
509.275116	1197.685547	29428.412109	18432.349609	61.049313
509.625702	1192.707153	29622.859375	18601.015625	61.231850
509.976196	1188.397705	29880.990234	18767.605469	61.267406
510.326660	1184.236816	30155.166016	18937.757813	61.280468
510.677124	1185.796997	30384.611328	19082.500000	61.292568
511.027557	1195.159302	30530.244141	19184.517578	61.323696
511.377869	1197.091064	30751.740234	19296.564453	61.240696
511.728180	1198.205688	30929.619141	19382.310547	61.161255
512.078430	1190.701050	31087.142578	19442.494141	61.050053
512.428650	1189.660889	31187.525391	19501.490234	61.043777
512.778931	1183.642456	31262.275391	19533.960938	61.007820
513.129028	1182.676392	31323.724609	19575.646484	61.022995
513.479126	1184.905518	31350.994141	19600.908203	61.048691
513.829285	1195.605103	31277.210938	19596.302734	61.169266
514.179382	1199.543091	31193.992188	19570.740234	61.248657
514.529297	1202.663818	31083.650391	19541.986328	61.374554
514.879272	1198.502930	31123.103516	19523.560547	61.237434
515.229187	1198.800171	31026.658203	19463.525391	61.233780
515.579163	1191.741333	31075.552734	19460.849609	61.133797
515.928955	1193.227417	31058.388672	19471.101563	61.201324
516.278748	1196.645386	31310.794922	19608.562500	61.140419
516.628540	1200.880493	31580.365234	19751.593750	61.063290
516.978333	1204.521362	32052.337891	20019.009766	60.991314
517.327942	1192.038574	32556.851563	20347.650391	61.073570
517.677612	1196.199585	33111.820313	20725.109375	61.189190
518.027222	1189.289429	33628.222656	21062.369141	61.263050
518.376831	1197.239746	34249.613281	21380.310547	61.063904
518.726379	1193.301636	34762.527344	21709.917969	61.117336
519.075867	1192.261475	35272.394531	21986.697266	61.016300
519.425293	1190.626831	35616.785156	22220.304688	61.086330
519.774658	1181.710449	35901.515625	22389.490234	61.082657
520.124084	1182.602051	36011.929688	22473.525391	61.129299
520.473389	1179.555542	35945.429688	22437.638672	61.146408
520.822693	1181.115967	35679.722656	22275.064453	61.144352
521.171997	1186.911621	35323.218750	22054.906250	61.131374
521.521240	1195.902344	34904.964844	21838.166016	61.236542
521.870361	1203.332642	34518.144531	21558.117188	61.098305
522.219482	1195.084839	34135.933594	21360.769531	61.217873
522.568604	1187.877563	33831.371094	21155.544922	61.168903
522.917664	1190.255249	33665.671875	21044.685547	61.136799
523.266724	1198.057129	33716.941406	21019.273438	60.952942
523.615662	1200.657593	33896.085938	21119.285156	60.921749
523.964600	1196.496704	34255.566406	21382.167969	61.059406
524.313538	1199.171631	34748.933594	21695.947266	61.093655
524.662354	1198.279907	35397.152344	22091.982422	61.094715
525.011169	1194.639160	36269.089844	22556.595703	60.904610
525.359985	1184.608276	37217.566406	23155.031250	60.973137
525.708740	1185.351196	38407.000000	23837.279297	60.856865
526.057434	1190.552490	39685.007813	24660.406250	60.969437
526.406067	1196.571045	41259.406250	25631.912109	60.992542
526.754700	1196.868164	43039.777344	26755.294922	61.081856
527.103333	1196.348145	45008.730469	28010.193359	61.201523
527.451782	1191.741333	47108.968750	29397.945313	61.428368
527.800293	1186.020020	49143.449219	30800.408203	61.751408
528.148743	1185.648438	51076.285156	32172.484375	62.109524
528.497131	1183.642456	52769.937500	33390.082031	62.432159
528.845642	1185.425659	54124.480469	34505.812500	62.941032
529.193909	1183.270874	55173.707031	35493.964844	63.549580
529.542175	1185.574219	55840.425781	36171.679688	64.012810
529.890503	1188.026245	56193.957031	36610.957031	64.398384
530.238770	1193.227417	56118.988281	36564.738281	64.398766
530.586914	1200.732056	55699.769531	36257.425781	64.325348
530.934998	1196.868286	54910.300781	35521.011719	63.902348
531.283142	1189.437988	53879.355469	34659.171875	63.522083
531.631226	1186.763184	52532.468750	33510.300781	62.952755
531.979248	1187.208984	50958.511719	32326.810547	62.565372
532.327148	1187.134644	49316.050781	31051.257813	62.050270
532.675110	1184.831177	47841.218750	29984.046875	61.726200
533.023071	1187.357544	46835.386719	29227.865234	61.427643
533.370850	1189.958130	46185.750000	28783.240234	61.324135
533.718689	1194.713501	46025.703125	28631.216797	61.199863
534.066467	1200.360474	46054.015625	28544.953125	60.964020
534.414246	1200.063354	46149.640625	28520.505859	60.780201
534.761963	1198.651489	46113.675781	28498.287109	60.780632
535.109619	1201.920776	45973.843750	28382.451172	60.708878
535.457153	1204.447144	45632.792969	28134.875000	60.615417
535.804749	1205.487183	45094.843750	27759.794922	60.502846
536.152344	1195.010620	44276.027344	27327.054688	60.657913
536.499817	1192.484375	43374.066406	26797.126953	60.701000
536.847229	1185.648560	42300.464844	26167.859375	60.762062
537.194641	1187.952026	41343.593750	25503.740234	60.553856
537.542114	1188.620605	40532.503906	24941.343750	60.372086
537.889404	1189.735229	39933.332031	24472.343750	60.094082
538.236694	1188.992065	39428.292969	24164.580078	60.083702
538.583984	1186.094360	39068.296875	23996.212891	60.213287
538.931213	1179.184204	38948.746094	23970.353516	60.342690
539.278381	1182.825073	38930.687500	23973.994141	60.377377
539.625488	1182.081909	39066.886719	24069.994141	60.414490
539.972595	1193.376099	39317.511719	24226.179688	60.415276
540.319641	1188.992065	39846.621094	24586.250000	60.524296
540.666687	1196.868286	40537.261719	24968.984375	60.426735
541.013611	1189.735229	41506.464844	25569.125000	60.469662
541.360596	1189.437988	42589.425781	26129.890625	60.242657
541.707458	1188.249146	43753.675781	26847.060547	60.280872
542.054260	1199.691772	44811.082031	27453.593750	60.199646
542.401062	1205.710327	45728.425781	28055.517578	60.305862
542.747864	1199.543091	46354.277344	28471.093750	60.395771
543.094666	1192.261353	46542.332031	28610.039063	60.458069
543.441284	1189.066406	46243.859375	28439.070313	60.481918
543.787903	1187.357544	45619.488281	28032.115234	60.417446
544.134460	1189.586548	44665.519531	27440.367188	60.380028
544.481079	1187.580444	43511.230469	26728.990234	60.347847
544.827637	1194.787720	42058.535156	25830.447266	60.287327
545.174072	1190.998413	40494.460938	24814.507813	60.105419
545.520508	1193.078735	38985.968750	23891.445313	60.059887
545.866943	1192.409912	37707.222656	23068.765625	59.910908
546.213318	1193.896118	36684.371094	22474.195313	59.960590
546.559631	1195.679443	35888.066406	21933.494141	59.776268
546.905823	1198.577271	35163.761719	21480.767578	59.714645
547.252136	1196.348145	34579.667969	21124.634766	59.695343
547.598389	1194.713501	34016.003906	20789.828125	59.702454
547.944458	1192.038574	33575.019531	20523.898438	59.697590
548.290588	1192.410156	32968.562500	20172.521484	59.730679
548.636658	1198.428589	32392.642578	19844.769531	59.774998
548.982727	1194.713501	31723.025391	19450.521484	59.799599
549.328735	1198.131348	31159.960938	19104.716797	59.764660
549.674622	1185.202637	30452.970703	18677.919922	59.767853
550.020569	1182.453491	29748.876953	18282.779297	59.861626
550.366455	1180.521606	28950.421875	17801.744141	59.853374
550.712280	1184.905396	28276.271484	17382.898438	59.790245
551.058044	1188.100586	27702.802734	17048.240234	59.816395
551.403748	1184.088257	27268.947266	16797.689453	59.856953
551.749512	1186.985962	26932.880859	16583.847656	59.803169
552.095154	1187.283203	26684.412109	16392.146484	59.633629
552.440735	1191.072632	26570.947266	16276.531250	59.438667
552.786316	1190.923950	26496.273438	16252.679688	59.520046
553.131897	1197.239868	26473.908203	16224.296875	59.450306
553.477417	1195.382202	26453.400391	16207.354492	59.434486
553.822815	1200.806274	26416.919922	16146.054688	59.268642
554.168213	1194.416382	26381.849609	16114.921875	59.237896
554.513672	1187.506104	26271.955078	16060.161133	59.290340
554.859009	1181.116089	26126.250000	15983.481445	59.339687
555.204285	1182.379272	25918.500000	15864.002930	59.352978
555.549500	1196.496704	25726.130859	15738.653320	59.284031
555.894714	1199.766113	25533.460938	15598.667969	59.172691
556.239990	1201.400757	25317.984375	15451.696289	59.089199
556.585022	1208.905396	25047.593750	15294.843750	59.088566
556.930115	1201.623657	24765.615234	15158.721680	59.230618
557.275146	1191.444092	24438.388672	14974.450195	59.289536
557.620178	1181.859009	24240.593750	14829.487305	59.186371
557.965149	1186.317139	24020.507813	14694.924805	59.159561
558.310059	1196.719604	23873.017578	14613.338867	59.165825
558.654968	1191.889771	23698.927734	14498.020508	59.119869
558.999756	1191.815552	23586.208984	14433.153320	59.127918
559.344604	1185.945679	23539.177734	14395.854492	59.096191
559.689331	1188.546265	23461.603516	14383.297852	59.240868
560.033997	1188.917847	23393.990234	14325.491211	59.160236
560.378723	1196.273804	23334.099609	14287.670898	59.135876
560.723389	1196.199585	23307.796875	14271.843750	59.134781
561.067932	1196.570923	23311.068359	14248.809570	59.021183
561.412476	1203.926880	23239.884766	14228.971680	59.108143
561.757019	1199.988892	23193.669922	14182.829102	59.029861
562.101501	1197.314087	23184.009766	14164.031250	58.975288
562.445862	1190.552490	23197.755859	14102.136719	58.669807
562.790222	1199.097290	23224.505859	14086.534180	58.511681
563.134644	1195.233521	23211.054688	14073.382813	58.494980
563.478943	1193.821777	23241.443359	14075.610352	58.427116
563.823181	1181.784668	23236.539063	14084.378906	58.502552
564.167358	1187.060181	23265.814453	14099.757813	58.484718
564.511536	1176.509277	23339.302734	14171.460938	58.634087
564.855774	1180.670288	23410.781250	14189.516602	58.519035
565.199768	1179.630005	23524.912109	14245.690430	58.473465
565.543823	1187.060181	23615.484375	14304.389648	58.485291
565.887817	1195.084961	23824.052734	14420.226563	58.443413
566.231812	1205.710205	24010.328125	14516.374023	58.368286
566.575745	1212.694702	24150.759766	14578.120117	58.267452
566.919617	1207.790771	24251.515625	14621.809570	58.211155
567.263428	1200.806274	24326.859375	14672.558594	58.253574
567.607239	1191.741333	24455.255859	14729.698242	58.193947
567.950989	1197.016846	24462.166016	14756.594727	58.282791
568.294678	1193.598999	24469.818359	14777.547852	58.359776
568.638367	1195.753662	24435.640625	14753.918945	58.340065
568.981995	1192.484375	24397.818359	14711.567383	58.258514
569.325623	1190.701050	24279.900391	14619.356445	58.159901
569.669128	1198.057007	24107.218750	14533.612305	58.210579
570.012573	1197.462646	23969.984375	14468.448242	58.276310
570.356140	1203.629761	23908.384766	14445.934570	58.323925
570.699524	1198.651489	23881.265625	14390.281250	58.157452
571.042908	1195.456543	23911.134766	14394.219727	58.104202
571.386230	1188.620605	23980.757813	14417.179688	58.040012
571.729492	1189.883789	24080.322266	14494.752930	58.124138
572.072815	1195.530762	24155.367188	14567.196289	58.239380
572.416016	1193.152954	24237.398438	14574.627930	58.068615
572.759094	1195.902344	24339.044922	14605.387695	57.941505
573.102234	1186.317261	24462.166016	14591.047852	57.590725
573.445374	1191.667114	24532.751953	14597.883789	57.436134
573.788391	1177.772461	24543.898438	14618.020508	57.520226
574.131409	1179.184204	24545.458984	14624.707031	57.542431
574.474365	1177.846680	24530.375000	14611.629883	57.526035
574.817261	1181.041748	24462.462891	14540.075195	57.380657
575.160156	1187.729004	24293.201172	14421.637695	57.276077
575.502930	1187.951782	24065.537109	14304.387695	57.333126
575.845703	1186.168579	23866.851563	14185.206055	57.313251
576.188477	1193.895996	23668.685547	14054.805664	57.223721
576.531250	1200.954956	23447.708984	13954.868164	57.329323
576.873901	1204.892944	23158.671875	13783.229492	57.294632
577.216431	1192.855835	22908.865234	13658.399414	57.402554
577.559082	1191.072632	22646.353516	13466.104492	57.212170
577.901611	1200.434692	22346.171875	13320.174805	57.315292
578.244080	1202.217896	21991.822266	13118.963867	57.320698
578.586487	1198.131348	21639.181641	12919.682617	57.343189
578.928955	1203.035400	21287.060547	12711.040039	57.299294
579.271301	1211.357300	20994.158203	12539.104492	57.260582
579.613647	1215.443848	20660.019531	12345.323242	57.238991
579.955872	1208.756714	20338.064453	12165.139648	57.275372
580.298157	1203.629761	20019.380859	11982.278320	57.285240
580.640320	1206.081787	19760.361328	11830.034180	57.258770
580.982483	1205.487305	19584.710938	11708.101563	57.143951
581.324524	1207.122070	19360.613281	11591.000977	57.200447
581.666626	1198.800171	19215.427734	11504.737305	57.202370
582.008728	1196.719727	19068.603516	11408.663086	57.139717
582.350647	1194.341919	18970.375000	11317.122070	56.946228
582.692566	1196.719727	18852.755859	11234.497070	56.851822
583.034424	1182.750732	18738.328125	11177.507813	56.932087
583.376343	1178.664185	18652.955078	11127.278320	56.932865
583.718201	1178.218262	18593.289063	11080.394531	56.859810
584.059937	1193.747681	18539.345703	11005.719727	56.567505
584.401611	1190.924194	18410.208984	10958.315430	56.723560
584.743347	1187.803345	18320.970703	10915.739258	56.778381
585.085022	1179.109863	18221.404297	10889.732422	56.979549
585.426514	1182.973633	18183.138672	10833.708008	56.768478
585.768127	1184.979858	18104.302734	10771.813477	56.662045
586.109619	1191.221191	18055.783203	10718.613281	56.493565
586.451172	1190.626831	18032.082031	10693.053711	56.422836
586.792542	1196.199585	17999.240234	10692.830078	56.517334
587.133850	1196.051025	17970.857422	10652.038086	56.370171
587.475220	1200.732056	17912.158203	10640.297852	56.485699
587.816589	1199.914673	17873.369141	10626.997070	56.539463
588.157776	1202.069458	17889.867188	10636.434570	56.534515
588.498962	1203.555542	17941.208984	10655.233398	56.469547
588.840210	1201.103394	17988.093750	10669.722656	56.404507
589.181335	1199.023071	17985.865234	10683.541992	56.499722
589.522400	1196.942505	18006.447266	10666.303711	56.333378
589.863403	1191.221191	18014.398438	10643.641602	56.186886
590.204407	1189.437866	18026.361328	10623.729492	56.033348
590.545410	1183.196533	18042.337891	10642.304688	56.106705
590.886353	1192.410156	18050.509766	10619.567383	55.920639
591.227112	1194.936401	18054.669922	10630.936523	55.967667
591.567932	1198.948730	18029.853516	10598.243164	55.845455
591.908752	1196.942505	17982.150391	10592.892578	55.977566
592.249512	1196.050903	17967.958984	10581.450195	55.959045
592.590149	1188.694946	17911.041016	10537.834961	55.908062
592.930786	1190.329590	17859.103516	10517.549805	55.956249
593.271423	1193.301636	17779.970703	10461.897461	55.879787
593.612000	1195.753662	17704.408203	10408.176758	55.803596
593.952576	1195.382202	17671.119141	10333.129883	55.461849
594.292969	1192.335815	17669.708984	10332.611328	55.471680
594.633484	1191.667114	17713.173828	10361.069336	55.499798
594.973877	1189.512329	17790.966797	10413.600586	55.561924
595.314209	1185.202637	17897.369141	10433.959961	55.341465
595.654480	1190.106689	18043.748047	10530.702148	55.421829
595.994812	1185.871460	18174.816406	10637.624023	55.634724
596.335022	1190.106567	18336.871094	10777.239258	55.912201
596.675171	1194.416138	18503.830078	10850.575195	55.785591
597.015320	1196.719604	18679.183594	10914.178711	55.584034
597.355408	1201.549316	18765.078125	10900.060547	55.219604
597.695496	1195.679321	18803.937500	10879.776367	54.997471
598.035461	1197.388306	18764.482422	10833.856445	54.855221
598.375366	1199.914673	18733.796875	10826.278320	54.901493
598.715271	1198.502930	18659.121094	10805.770508	55.022495
599.055176	1199.320190	18535.408203	10744.767578	55.061138
599.395081	1195.233521	18350.990234	10642.972656	55.070377
599.734802	1200.657715	18136.253906	10507.222656	54.952682
600.074524	1195.828003	17917.134766	10384.028320	54.949055
600.414246	1197.165527	17611.601563	10195.596680	54.820232
600.753906	1191.592773	17274.416016	10019.498047	54.890270
601.093506	1190.106689	16968.291016	9820.218750	54.696484
601.433044	1191.072632	16729.185547	9686.844727	54.676991
601.772583	1197.239746	16577.679688	9582.227539	54.517223
602.112122	1208.756714	16494.908203	9557.708008	54.617744
602.451538	1205.115845	16505.681641	9554.364258	54.568233
602.790894	1199.765991	16597.445313	9592.777344	54.508289
603.130310	1193.524536	16725.023438	9657.049805	54.492649
603.469604	1190.775391	16915.830078	9753.124023	54.450359
603.808838	1193.821777	17115.259766	9861.606445	54.440971
604.148010	1192.112793	17354.291016	9967.858398	54.298042
604.487305	1194.713379	17581.880859	10074.854492	54.189598
604.826416	1193.524536	17785.025391	10168.178711	54.091881
605.165527	1196.942505	17921.890625	10238.247070	54.058792
605.504456	1200.211914	18023.314453	10308.387695	54.140884
605.843445	1199.023071	18096.130859	10336.252930	54.075703
606.182434	1196.645264	18122.804688	10363.520508	54.158031
606.521423	1197.908447	18059.351563	10326.072266	54.136314
606.860229	1194.267578	17919.216797	10260.091797	54.205391
607.199036	1198.502930	17744.529297	10147.522461	54.085609
607.537903	1195.085083	17583.218750	10019.127930	53.844101
607.876648	1203.183960	17370.787109	9861.606445	53.554150
608.215271	1198.725952	17159.841797	9736.628906	53.491894
608.553955	1194.713501	16917.021484	9633.497070	53.673946
608.892578	1190.403809	16675.462891	9539.950195	53.920021
609.231140	1195.902222	16497.507813	9436.296875	53.853138
609.569641	1198.131470	16384.343750	9354.415039	53.708481
609.908081	1204.818726	16353.879883	9316.594727	53.546391
610.246521	1204.669922	16309.745117	9289.846680	53.526226
610.584961	1212.991821	16299.043945	9274.688477	53.438084
610.923340	1207.865112	16269.546875	9238.577148	53.318825
611.261597	1205.561768	16194.426758	9188.125977	53.256630
611.599854	1196.125244	16055.629883	9100.745117	53.195717
611.938110	1196.422485	15928.942383	9028.969727	53.165024
612.276245	1195.753662	15754.925781	8950.506836	53.263695
612.614319	1198.725830	15549.032227	8852.352539	53.334240
612.952393	1198.651489	15299.747070	8710.582031	53.271965
613.290466	1193.673218	15057.965820	8566.731445	53.180195
613.628479	1186.465942	14767.368164	8415.452148	53.229057
613.966370	1184.682739	14472.684570	8293.745117	53.499859
614.304260	1181.116089	14218.715820	8161.559082	53.540859
614.642151	1187.803345	14041.801758	8071.950684	53.556469
614.979980	1193.598877	13915.635742	7970.155762	53.266285
615.317749	1201.474976	13780.627930	7861.228027	52.942776
615.655396	1199.543091	13672.145508	7793.983887	52.871410
615.993164	1195.456543	13586.624023	7758.764160	52.967628
616.330811	1193.450317	13544.270508	7758.986816	53.158710
616.668396	1192.261353	13516.704102	7727.185547	53.024097
617.005859	1196.125122	13456.890625	7691.371582	52.975864
617.343445	1196.570923	13440.543945	7667.520996	52.850086
617.680908	1190.626831	13416.174805	7652.437500	52.854977
618.018311	1182.973633	13451.022461	7671.087402	52.886272
618.355652	1182.453491	13461.499023	7675.247559	52.877022
618.692993	1181.487671	13457.188477	7658.975098	52.766739
619.030273	1187.431885	13447.604492	7647.310547	52.689949
619.367554	1187.654785	13410.453125	7642.332031	52.808506
619.704712	1201.921021	13414.464844	7647.755859	52.780445
620.041870	1199.394653	13394.402344	7631.111816	52.740574
620.379028	1195.530762	13372.781250	7599.013184	52.585621
620.716064	1189.140747	13295.282227	7553.317871	52.569824
621.053040	1189.437988	13253.971680	7514.308594	52.425323
621.389954	1192.112915	13185.835938	7480.054688	52.426941
621.726929	1190.106567	13155.296875	7452.637207	52.339584
622.063843	1190.181030	13065.984375	7409.839355	52.372524
622.400635	1193.078735	13023.855469	7370.681152	52.216373
622.737427	1195.084961	12977.713867	7339.399902	52.147232
623.074219	1198.948730	12942.938477	7319.486328	52.116337
623.410889	1203.406860	12876.437500	7291.400391	52.154354
623.747559	1207.344849	12855.262695	7277.356934	52.112423
624.084167	1209.276733	12812.910156	7244.366699	52.010345
624.420715	1204.372803	12844.859375	7241.617676	51.864201
624.757324	1200.806274	12831.411133	7217.320313	51.730022
625.093750	1190.924072	12877.331055	7253.060059	51.873390
625.430176	1193.524658	12932.686523	7269.703613	51.759903
625.766602	1187.729004	12987.223633	7306.408691	51.855442
626.102905	1187.134521	13049.713867	7315.251465	51.659233
626.439209	1189.734985	13100.757813	7341.033691	51.643753
626.775452	1195.604980	13208.125000	7394.160645	51.600796
627.111694	1199.171509	13281.684570	7440.080078	51.652409
627.447876	1190.180908	13340.532227	7453.677246	51.549915
627.783997	1186.985962	13355.020508	7452.562988	51.492107
628.120056	1187.283203	13384.000000	7462.667969	51.451427
628.456055	1187.357544	13405.473633	7433.318848	51.120495
628.792053	1179.778687	13396.557617	7399.585449	50.911999
629.128052	1182.230591	13329.090820	7356.192871	50.827641
629.463928	1189.437988	13240.448242	7336.205078	51.006241
629.799744	1200.360474	13180.187500	7297.716309	50.896862
630.135559	1191.815552	13096.002930	7231.587402	50.736534
630.471375	1193.821777	12982.765625	7180.540527	50.782490
630.807068	1192.558594	12805.480469	7122.732910	51.065308
631.142700	1201.474976	12674.781250	7066.263672	51.116814
631.478333	1192.261353	12530.411133	6988.022949	51.117352
631.813965	1187.951782	12392.579102	6899.454590	50.974503
632.149475	1186.465820	12242.635742	6832.357910	51.065533
632.484924	1192.112793	12138.539063	6757.386719	50.841015
632.820435	1197.313965	12063.714844	6718.748535	50.811993
633.155884	1200.063354	12009.325195	6667.703125	50.582916
633.491150	1200.434692	11957.686523	6644.224121	50.605762
633.826477	1197.388306	11871.122070	6599.642090	50.612598
634.161804	1196.348022	11807.965820	6570.664063	50.645584
634.497009	1197.165405	11731.285156	6532.101074	50.644341
634.832153	1197.016724	11687.817383	6480.460938	50.362640
635.167297	1201.474976	11617.082031	6423.841797	50.139820
635.502380	1193.153076	11567.002930	6383.346191	50.031509
635.837463	1193.896118	11490.098633	6352.585449	50.102837
636.172424	1178.886963	11435.187500	6310.604004	50.034771
636.507324	1186.168579	11361.554688	6274.121582	50.002556
636.842224	1188.620728	11301.221680	6231.397949	49.866276
637.177124	1199.245972	11181.148438	6207.398438	50.172325
637.511963	1195.085083	11060.109375	6149.516113	50.222187
637.846741	1190.701172	10935.502930	6109.466797	50.475788
638.181396	1184.088257	10805.102539	6016.291504	50.225506
638.516113	1188.992188	10682.280273	5966.508301	50.325199
638.850769	1189.289429	10595.270508	5905.357422	50.139030
639.185303	1193.301758	10533.079102	5883.140625	50.213604
639.519836	1187.283203	10459.668945	5834.472656	50.118595
639.854370	1186.688843	10376.301758	5774.138672	49.919945
640.188843	1187.728882	10286.766602	5714.919434	49.754604
640.523254	1188.026245	10199.237305	5676.431152	49.809120
640.857605	1198.948730	10102.791992	5632.443359	49.793041
641.191895	1202.589478	10032.353516	5597.372559	49.772377
641.526184	1200.137573	9998.025391	5544.246582	49.376724
641.860413	1187.580444	9957.233398	5515.416504	49.350136
642.194580	1184.756836	9901.877930	5486.587402	49.349213
642.528748	1189.363647	9821.111328	5458.872559	49.462852
642.862793	1202.143677	9722.139648	5432.123535	49.647675
643.196838	1200.880615	9656.605469	5389.696777	49.538231
643.530823	1198.651489	9591.589844	5360.495605	49.587452
643.864746	1192.335815	9570.487305	5315.765137	49.216457
644.198669	1194.564819	9555.627930	5300.682129	49.109985
644.532532	1199.097290	9532.073242	5274.304688	48.904591
644.866333	1198.205688	9488.606445	5257.734863	48.966625
645.200073	1194.490601	9442.686523	5231.356934	48.942413
645.533813	1195.010620	9444.543945	5209.883301	48.667877
645.867554	1200.434814	9438.451172	5204.385254	48.603329
646.201172	1202.292358	9443.653320	5199.406738	48.500656
646.534729	1198.280029	9417.053711	5211.741699	48.832855
646.868225	1197.908569	9422.477539	5217.834473	48.877037
647.201782	1200.732056	9420.693359	5211.295410	48.790543
647.535217	1202.292358	9446.846680	5206.763184	48.571098
647.868591	1198.577271	9442.686523	5193.462891	48.457458
648.201965	1195.679443	9434.959961	5180.014160	48.357800
648.535278	1196.868286	9390.081055	5162.181641	48.397541
648.868591	1196.422485	9396.025391	5166.862793	48.422352
649.201782	1197.759888	9361.994141	5154.380371	48.462849
649.534912	1198.131348	9346.836914	5126.367676	48.206875
649.868103	1192.410034	9294.527344	5086.912598	48.067715
650.201172	1188.100464	9269.264648	5066.925293	47.998341
650.534180	1178.589722	9218.589844	5051.544922	48.171082
650.867188	1183.716675	9172.448242	5025.464355	48.089581
651.200134	1187.729004	9160.484375	5008.300781	47.920345
651.533020	1201.623657	9119.395508	4997.006836	47.934990
651.865845	1200.954956	9092.720703	4976.425293	47.840630
652.198608	1199.914673	9027.557617	4951.681641	47.929714
652.531433	1191.146973	9004.300781	4926.121582	47.803673
652.864136	1189.809448	8974.059570	4908.214844	47.768318
653.196777	1234.168213	8993.526367	4929.762695	47.627579
653.529358	1238.923584	8953.477539	4890.753418	47.336891
653.861938	1239.220825	8894.704102	4862.146973	47.324593
654.194519	1196.348145	8775.374023	4792.450684	47.448082
654.526978	1189.214966	8719.795898	4788.438477	47.794765
654.859375	1189.437988	8671.276367	4765.999512	47.803246
655.191833	1193.227417	8631.524414	4727.436523	47.513687
655.524170	1198.948730	8592.960938	4694.520020	47.275703
655.856445	1199.765991	8540.131836	4665.690918	47.217331
656.188660	1194.044556	8502.237305	4650.310059	47.293026
656.520874	1194.341919	8472.368164	4628.242188	47.181751
656.853088	1194.119019	8476.305664	4622.298340	47.076233
657.185181	1193.747559	8462.113281	4606.396973	46.952087
657.517212	1188.546387	8463.749023	4607.437012	46.993752
657.849243	1193.078735	8479.203125	4602.310547	46.790745
658.181274	1191.369751	8546.967773	4628.093262	46.722557
658.513123	1201.474976	8615.771484	4641.913574	46.402763
658.844971	1196.422485	8700.476563	4677.802246	46.393318
659.176819	1191.890015	8788.525391	4703.511230	46.226006
659.508667	1192.855835	8864.833984	4727.213379	46.068398
659.840393	1201.177734	8910.307617	4756.562988	46.119152
660.172058	1213.660645	8963.508789	4777.367676	45.984219
660.503662	1204.967285	8970.715820	4798.247070	46.270874
660.835266	1195.976563	8981.416016	4775.807129	45.981098
661.166931	1189.437988	8940.176758	4751.139160	45.953053
661.498413	1190.552368	8944.487305	4734.346191	45.703167
661.829773	1196.125244	8897.750000	4711.461426	45.644085
662.161194	1199.394531	8808.512695	4681.294434	45.759571
662.492615	1204.372925	8705.677734	4621.777832	45.557472
662.823975	1200.063232	8564.725586	4557.505371	45.588543
663.155212	1199.245850	8425.408203	4479.190918	45.389862
663.486450	1190.923950	8266.400391	4398.720703	45.336830
663.817627	1194.044556	8130.872559	4322.189453	45.094746
664.148743	1190.106689	8024.024902	4270.846191	45.080135
664.479858	1190.626831	7899.121582	4227.453125	45.268372
664.810913	1189.437988	7831.061035	4203.527832	45.381828
665.141907	1189.363647	7762.479004	4170.166016	45.348396
665.472778	1191.146973	7705.786621	4130.934082	45.125858
665.803711	1198.428589	7647.310059	4113.027344	45.195415
666.134583	1201.623657	7571.744141	4084.272217	45.252651
666.465454	1205.412964	7529.688965	4075.950195	45.389183
666.796143	1199.543091	7475.894043	4043.182617	45.307213
667.126831	1203.555298	7473.664063	4015.616455	44.848679
667.457458	1204.967163	7453.974609	3983.814697	44.468624
667.788147	1203.926880	7437.033203	3969.623047	44.371075
668.118774	1192.484253	7406.644043	3954.762451	44.451359
668.449219	1183.642334	7390.594238	3944.285889	44.476635
668.779663	1187.431763	7380.563965	3936.484131	44.388721
669.110107	1194.861938	7356.860840	3928.681885	44.365795
669.440552	1206.156128	7334.792969	3919.096924	44.266628
669.770874	1201.995117	7310.124512	3895.914795	44.103840
670.101135	1199.988892	7273.195313	3884.769531	44.206974
670.431396	1188.769165	7234.781250	3867.531250	44.306267
670.761597	1186.911621	7195.327637	3837.958252	44.122223
671.091797	1188.546265	7174.150879	3813.736084	43.858395
671.421875	1193.153076	7136.702637	3784.088867	43.592396
671.751892	1195.010620	7117.754395	3776.064209	43.578682
672.081909	1198.205688	7104.230957	3760.385986	43.382477
672.411865	1194.193237	7076.813965	3754.442139	43.522251
672.741821	1190.626831	7037.210938	3730.368164	43.439747
673.071716	1182.899414	6976.579590	3708.448975	43.591457
673.401550	1189.066406	6928.580078	3689.204346	43.560101
673.731262	1184.533936	6897.744629	3671.371826	43.527851
674.060974	1189.809448	6848.705078	3662.306641	43.692219
674.390625	1191.146851	6823.441895	3634.814453	43.386711
674.720276	1198.725830	6768.457520	3614.455811	43.372467
675.049927	1198.205688	6755.528809	3588.227295	43.006702
675.379395	1195.679565	6725.585449	3571.583252	42.964634
675.708923	1190.329590	6707.083984	3552.635986	42.820583
676.038330	1188.026245	6681.152344	3535.323486	42.731541
676.367737	1184.459717	6640.880371	3519.125732	42.787498
676.697083	1193.227417	6596.149902	3509.540283	42.871483
677.026428	1193.153076	6553.128906	3490.518799	42.861496
677.355652	1196.273926	6537.302246	3480.116455	42.760353
677.684875	1192.335815	6519.544434	3471.869141	42.790390
678.013977	1193.747559	6537.970703	3474.841064	42.683350
678.343079	1189.437988	6548.967285	3471.051514	42.571156
678.672180	1186.985962	6577.945313	3464.810303	42.252666
679.001221	1184.608276	6594.365723	3452.847412	41.928669
679.330139	1188.249023	6608.186035	3458.494385	41.886932
679.659058	1193.004395	6621.709473	3465.701904	41.864449
679.987976	1202.886841	6643.332031	3484.946045	41.946182
680.316772	1206.304688	6680.482910	3494.828369	41.805794
680.645630	1203.704102	6719.417969	3504.562256	41.714603
680.974304	1195.753784	6741.337402	3512.289795	41.772633
681.302979	1188.992188	6780.197266	3521.354492	41.714840
681.631653	1183.122192	6789.113281	3525.441162	41.782421
681.960266	1183.047852	6806.128906	3531.831299	41.770401
682.288757	1186.242798	6801.894531	3531.013672	41.754208
682.617249	1197.239868	6812.147949	3532.648438	41.592999
682.945679	1199.023071	6793.349121	3517.342041	41.440536
683.274109	1207.419312	6772.767090	3507.237061	41.323887
683.602478	1201.326416	6708.718262	3482.048584	41.412022
683.930725	1197.314087	6645.857910	3454.407959	41.425632
684.259033	1188.323364	6565.091309	3430.036377	41.692574
684.587280	1191.146973	6510.627441	3403.138672	41.582851
684.915344	1194.639160	6446.801270	3385.974854	41.722546
685.243469	1199.691772	6385.427246	3342.061768	41.312756
685.571533	1199.171509	6335.495605	3314.867188	41.190853
685.899536	1196.868286	6284.375488	3273.480713	40.817875
686.227539	1196.496704	6218.988770	3256.019531	41.005997
686.555420	1190.923950	6164.079590	3239.227295	41.187191
686.883301	1191.890015	6159.992188	3232.168213	41.067558
687.211121	1188.397583	6161.181641	3213.444092	40.722591
687.538940	1189.586548	6164.228027	3212.849609	40.671535
687.866638	1187.877563	6135.621094	3223.549072	41.143433
688.194336	1185.945801	6136.958984	3229.419189	41.273842
688.521973	1187.283203	6125.664551	3220.577148	41.173286
688.849609	1190.478149	6112.810547	3196.280273	40.749016
689.177063	1190.998291	6071.498535	3190.781982	40.974976
689.504578	1192.484497	6021.195313	3161.877930	40.785076
689.832031	1196.496826	5973.046875	3147.909424	40.854019
690.159485	1201.252075	5909.146484	3113.061279	40.608582
690.486816	1201.549316	5858.323730	3084.157471	40.427299
690.814087	1198.800171	5792.343262	3048.937744	40.276920
691.141296	1191.592773	5738.027832	3017.433594	40.159836
691.468506	1189.363770	5675.613281	2988.306885	40.099041
691.795715	1181.636108	5593.434082	2954.425049	40.182915
692.122803	1184.459595	5526.042480	2921.805908	40.016426
692.449829	1196.125244	5466.674316	2893.571045	39.747719
692.776855	1199.765991	5404.111328	2866.450195	39.641945
693.103821	1196.199341	5352.842285	2836.952393	39.473034
693.430664	1186.985840	5297.338379	2810.054688	39.487339
693.757568	1185.351318	5272.372559	2788.729736	39.230980
694.084351	1191.369751	5222.292480	2775.132080	39.290318
694.411133	1195.530884	5191.679199	2769.262451	39.381210
694.737854	1193.376099	5148.435059	2752.098389	39.410847
695.064575	1190.403809	5141.673828	2744.073486	39.320766
695.391174	1191.815674	5114.181641	2722.228760	39.017601
695.717773	1198.725830	5106.603027	2710.340088	38.681213
696.044250	1200.211792	5089.067871	2700.606689	38.581909
696.370789	1189.214966	5099.470215	2700.978271	38.661499
696.697205	1185.202637	5115.593750	2708.482910	38.756454
697.023621	1180.967529	5169.314453	2719.479736	38.575184
697.349915	1188.323364	5212.410156	2729.436279	38.297207
697.676208	1192.187256	5277.201660	2761.683594	38.420826
698.002380	1200.211914	5347.492188	2782.042236	38.141388
698.328674	1198.577271	5428.928223	2820.828857	38.347919
698.654724	1197.685547	5519.726074	2831.899658	37.811169
698.980896	1198.502808	5588.158691	2849.286377	37.606220
699.306946	1197.982788	5652.207520	2864.147217	37.406387
699.632935	1197.833984	5676.728027	2889.781250	37.776005
699.958862	1199.840210	5686.684082	2894.833984	37.776974
700.284729	1200.880615	5678.511230	2887.849609	37.675480
700.610596	1201.400757	5653.545410	2867.119141	37.413845
700.936340	1191.889893	5608.295410	2842.970703	37.385174
701.262146	1194.193237	5517.051270	2820.010986	37.609791
701.587830	1191.964233	5429.300293	2782.191162	37.528931
701.913513	1195.530762	5318.068848	2741.398682	37.497967
702.239075	1190.255371	5215.679688	2683.219727	37.088371
702.564697	1187.134521	5095.160156	2639.604248	37.166332
702.890137	1186.317139	4972.783691	2594.056641	37.178185
703.215698	1191.295532	4867.273926	2565.895996	37.394138
703.541016	1195.902344	4792.599609	2523.171875	36.902454
703.866455	1196.719604	4716.662109	2496.571533	36.928215
704.191711	1188.546265	4653.355957	2463.803955	36.805996
704.517029	1188.992188	4583.957520	2446.045654	37.026989
704.842163	1180.001587	4534.992188	2426.429688	37.151463
705.167419	1183.568115	4497.617676	2403.395752	36.807766
705.492493	1183.791016	4454.225098	2384.002686	36.698849
705.817566	1192.855957	4418.262207	2365.055420	36.342693
706.142578	1193.673218	4377.470215	2363.197998	36.733650
706.467590	1198.131348	4355.253906	2346.405518	36.370911
706.792480	1191.518433	4350.499023	2340.907227	36.384804
707.117371	1191.295532	4345.817871	2326.864014	35.998112
707.442200	1186.540039	4357.111816	2330.207764	36.071339
707.766907	1197.536987	4354.659668	2330.802002	35.895504
708.091675	1200.434692	4357.780273	2325.898193	35.645874
708.416321	1205.635986	4338.684570	2317.204834	35.478825
708.741028	1193.450317	4348.715332	2316.610107	35.596367
709.065552	1188.992188	4359.415039	2317.130615	35.583218
709.390137	1185.425659	4383.117676	2325.452393	35.651550
709.714600	1194.862183	4390.547852	2325.823975	35.390270
710.039063	1200.509155	4416.256348	2338.157959	35.377434
710.363403	1196.942505	4443.822754	2342.764893	35.289948
710.687744	1190.849731	4480.082520	2360.597412	35.562931
711.012085	1190.106689	4524.961426	2371.742920	35.432915
711.336304	1195.010742	4558.917480	2388.906738	35.491352
711.660461	1197.165527	4586.483887	2395.222412	35.348019
711.984619	1198.800171	4588.193359	2405.104736	35.590576
712.308716	1190.626831	4593.542480	2404.435791	35.669678
712.632751	1183.791016	4590.124512	2397.451416	35.629524
712.956726	1179.332886	4582.843262	2380.584961	35.294506
713.280701	1180.373047	4557.729004	2368.473633	35.178425
713.604553	1187.431763	4516.268066	2350.195068	34.930023
713.928467	1194.713501	4463.661621	2337.637939	34.963062
714.252258	1199.691772	4426.733887	2315.049805	34.562862
714.575989	1203.555542	4383.415039	2291.867432	34.225159
714.899719	1202.440918	4343.588867	2263.112305	33.766998
715.223267	1203.183960	4294.399902	2246.691406	33.757187
715.546936	1198.577148	4258.734863	2235.620361	33.888554
715.870422	1200.731934	4230.202637	2231.087891	34.011089
716.193970	1205.784546	4207.392090	2208.276855	33.398514
716.517395	1211.654419	4192.976563	2190.295654	32.825745
716.840820	1208.013550	4160.506348	2175.583740	32.771297
717.164124	1193.450195	4122.091797	2166.295898	33.218327
717.487488	1192.484375	4081.671143	2160.648682	33.509926
717.810730	1186.837402	4061.535156	2141.181396	33.198063
718.133972	1191.444214	4028.098877	2130.481689	33.103691
718.457092	1188.917969	3989.461670	2125.280762	33.435036
718.780212	1194.119019	3933.808838	2119.187988	33.765461
719.103210	1196.570923	3890.565186	2100.314941	33.546623
719.426208	1199.988892	3846.875000	2067.770508	32.785000
719.749207	1196.645386	3808.163330	2050.531982	32.696945
720.072083	1199.023071	3758.974609	2031.584961	32.522564
720.394958	1195.828003	3722.417725	2025.492188	32.837311
720.717773	1190.849731	3686.677734	2008.551147	32.762730
721.040527	1192.781616	3669.737061	2003.349976	32.724380
721.363281	1192.633057	3652.721436	1989.901001	32.408100
721.685913	1195.902344	3628.424561	1975.337891	32.042278
722.008545	1199.989014	3603.161865	1966.198608	31.883249
722.331055	1199.394531	3555.607666	1954.161621	32.033058
722.653503	1205.115845	3531.087891	1938.112183	31.513548
722.976013	1194.936401	3499.137939	1932.242188	31.998318
723.298401	1192.112915	3494.382568	1925.629272	31.860577
723.620789	1187.060181	3481.008057	1931.425171	32.449081
723.943115	1184.459595	3480.636719	1921.988647	32.119865
724.265381	1190.626831	3466.073242	1920.948242	32.095745
724.587585	1194.341919	3460.054688	1915.672852	31.836821
724.909790	1197.759888	3462.878174	1921.617065	31.956707
725.231873	1198.057007	3469.416992	1919.462280	31.760941
725.553894	1196.793945	3475.881592	1911.586060	31.363081
725.875916	1217.672974	3490.072998	1920.874023	30.945303
726.197937	1208.905273	3494.977295	1916.861694	30.968246
726.519775	1212.026001	3493.936768	1924.737793	31.233116
726.841675	1188.843628	3491.930664	1906.310669	31.152409
727.163513	1195.382202	3504.264893	1906.310913	30.791027
727.485291	1180.595825	3535.100342	1904.899048	30.762449
727.806946	1188.472046	3538.518311	1908.762695	30.650061
728.128662	1189.363770	3550.852539	1921.394043	30.998676
728.450256	1202.663940	3545.576904	1926.223755	30.882914
728.771790	1199.914673	3544.833984	1924.886353	30.916698
729.093323	1196.273804	3547.211914	1915.449829	30.591024
729.414795	1192.112915	3542.976563	1908.168335	30.459248
729.736145	1190.775391	3550.852783	1903.709961	30.208101
730.057495	1205.115845	3541.936523	1896.205444	29.573923
730.378845	1209.053833	3545.577393	1894.570801	29.339186
730.700134	1205.784546	3543.942627	1893.084595	29.394934
731.021301	1189.140747	3559.546143	1893.084595	29.697193
731.342468	1184.682617	3562.815674	1895.982422	29.910009
731.663574	1189.066528	3555.310791	1893.753418	29.780819
731.984680	1194.193359	3551.744141	1902.744019	30.054523
732.305664	1193.673218	3557.390869	1894.645142	29.655483
732.626648	1196.348145	3572.029053	1901.183594	29.668776
732.947571	1194.862061	3582.134033	1895.090942	29.331760
733.268433	1202.589478	3565.639404	1895.462402	29.321131
733.589233	1196.942505	3559.249023	1884.242798	29.094458
733.909973	1193.227417	3533.688721	1879.859009	29.337446
734.230713	1185.276978	3508.128906	1870.942505	29.518261
734.551331	1182.899292	3469.491455	1859.128296	29.573660
734.871948	1186.465820	3435.832031	1847.016968	29.366100
735.192505	1185.871460	3407.448242	1838.620728	29.382252
735.513062	1188.397827	3388.872314	1822.720093	28.826611
735.833435	1185.574219	3346.148438	1801.618042	28.512968
736.153931	1190.255249	3313.604248	1783.711060	27.949045
736.474304	1191.741333	3258.917236	1782.819336	28.593504
736.794617	1194.490479	3247.028564	1779.550171	28.504206
737.114807	1190.701050	3227.115479	1782.745117	29.072868
737.434998	1186.317261	3218.793701	1775.389282	28.982969
737.755188	1185.128418	3189.889893	1772.268555	29.287281
738.075256	1187.134521	3191.599365	1760.974609	28.628094
738.395325	1195.902344	3202.893311	1760.900391	28.151499
738.715271	1202.961060	3233.505859	1764.615356	27.660276
739.035278	1202.961060	3250.075439	1771.822632	27.788460
739.355164	1190.626831	3269.765625	1769.370728	27.835752
739.675049	1182.453491	3275.041016	1769.147827	28.036791
739.994873	1185.054077	3275.115234	1766.695801	27.828936
740.314636	1197.834106	3271.028564	1771.525391	27.671852
740.634277	1201.326294	3247.772217	1759.339844	27.267447
740.953979	1204.372681	3227.710205	1746.262573	26.781982
741.273499	1199.691772	3200.069580	1733.482422	26.684492
741.593140	1196.868286	3176.441406	1728.132690	26.837322
741.912598	1195.010742	3145.234375	1720.553711	26.947830
742.232117	1191.072632	3098.274658	1703.241211	26.854448
742.551453	1196.422363	3067.290283	1694.696289	26.633303
742.870850	1192.335815	3034.077148	1691.650024	27.110985
743.190063	1202.292358	3023.452148	1688.529297	26.699301
743.509338	1196.719727	2986.746338	1677.755371	26.873100
743.828552	1193.227417	2963.638428	1664.901001	26.642038
744.147705	1183.790894	2930.425049	1651.303711	26.766499
744.466797	1183.939575	2915.787354	1649.223145	26.866308
744.785828	1189.735229	2896.988525	1643.130249	26.556986
745.104858	1194.861938	2878.264404	1643.947632	26.677263
745.423706	1195.976685	2866.598877	1627.972534	25.858381
745.742615	1193.673218	2855.304932	1626.040649	26.020653
746.061401	1196.422363	2841.484619	1618.610352	25.663952
746.380249	1197.759888	2828.407227	1619.353516	25.854372
746.698975	1199.320190	2815.404297	1606.276245	25.181614
747.017639	1197.314087	2805.670654	1608.728149	25.579779
747.336304	1199.543091	2794.896729	1605.607422	25.452936
747.654907	1199.766113	2794.599609	1609.471191	25.689520
747.973389	1196.793823	2794.451172	1606.573364	25.648775
748.291931	1196.199585	2798.760742	1598.400024	25.097353
748.610352	1194.490601	2799.503662	1595.502319	24.984951
748.928711	1197.685547	2798.314697	1590.375366	24.533466
749.247070	1202.218018	2788.581299	1602.263794	25.217791
749.565308	1199.988892	2783.825439	1605.533203	25.605186
749.883545	1197.091064	2781.968018	1594.759277	25.091425
750.201782	1191.072632	2776.915771	1602.189575	25.924187
750.519836	1190.923950	2762.649414	1592.604492	25.556660
750.837952	1192.632935	2757.522705	1595.799438	25.763252
751.155884	1190.329468	2752.247070	1580.270142	24.965509
751.473877	1191.295532	2748.531982	1583.762573	25.202791
751.791809	1193.896118	2733.077148	1588.592163	25.643250
752.109619	1191.890015	2716.135986	1585.620117	25.831139
752.427490	1199.320190	2706.104736	1577.000977	25.065348
752.745300	1195.828003	2697.783203	1567.490234	24.745228
753.062988	1199.765991	2701.349854	1564.815430	24.310959
753.380615	1187.505981	2696.742920	1562.140259	24.822762
753.698303	1186.837402	2694.959717	1563.106323	24.949497
754.015808	1185.871460	2682.922607	1558.350952	24.880880
754.333374	1189.066406	2679.356201	1552.629517	24.395464
754.650757	1184.385376	2693.324951	1545.496460	23.931448
754.968262	1184.162476	2705.213623	1537.397461	23.223083
755.285583	1184.682617	2710.191650	1541.855835	23.413380
755.602905	1186.985962	2683.368408	1538.066406	23.461946
755.920105	1180.893188	2667.541748	1534.722656	23.800478
756.237305	1184.534058	2643.988037	1529.967285	23.668661
756.554443	1193.598877	2645.399658	1530.190308	23.184408
756.871582	1197.388306	2650.378174	1534.202515	23.180767
757.188599	1195.084961	2661.895020	1529.075684	22.769869
757.505615	1190.181030	2669.548096	1535.762817	23.360111
757.822510	1197.016846	2672.297363	1534.945679	22.906073
758.139465	1201.103516	2683.888428	1542.152954	23.000601
758.456238	1196.719604	2698.229004	1535.763062	22.580175
758.773010	1194.193359	2706.030762	1535.168579	22.553696
759.089783	1189.512207	2716.878906	1536.728882	22.733027
759.406433	1192.261597	2725.944092	1541.261353	22.755672
759.723145	1186.688843	2741.918945	1540.221069	22.731827
760.039673	1192.484375	2747.566162	1541.410034	22.437769
760.356201	1192.558594	2750.389648	1543.267578	22.512646
760.672668	1193.598877	2746.005859	1551.886719	23.079504
760.989136	1189.215088	2736.792236	1546.759766	23.103512
761.305481	1186.094360	2738.872803	1550.474731	23.466347
761.621826	1189.140747	2735.454834	1544.159058	22.959003
761.938049	1191.072632	2738.055420	1545.868164	22.934679
762.254333	1187.803223	2746.897461	1546.313965	22.994808
762.570496	1185.425537	2781.447998	1560.059937	23.473003
762.886597	1177.921021	2858.574219	1563.849243	22.962990
763.202637	1183.419434	2950.560791	1577.000977	22.272217
763.518677	1181.561890	3089.655518	1596.170898	21.728966
763.834656	1192.187134	3205.865234	1632.505005	21.866348
764.150574	1189.883667	3314.495850	1651.006348	21.703850
764.466370	1195.976563	3361.975342	1654.424438	21.165657
764.782288	1188.620605	3390.359131	1651.080688	21.004314
765.097961	1195.902222	3366.582031	1645.433594	20.709246
765.413696	1194.564819	3316.501953	1641.569946	21.065901
765.729309	1199.394531	3231.127930	1628.269897	21.108841
766.044861	1193.450317	3127.772705	1608.208008	21.442015
766.360474	1200.509155	3022.560547	1585.694336	21.140194
766.675903	1203.258301	2910.214844	1561.471680	20.985500
766.991394	1199.840454	2824.023682	1546.759766	21.359617
767.306763	1185.351318	2746.228516	1530.115845	22.087870
767.622131	1175.097534	2686.637695	1517.707397	22.666275
767.937378	1181.710571	2638.563721	1495.490845	21.538223
768.252625	1187.431885	2594.948242	1483.750977	21.052622
768.567810	1194.416260	2557.277100	1465.769897	19.910591
768.882996	1190.255249	2510.986328	1462.946289	20.646976
769.197998	1195.679321	2461.500732	1451.875366	20.239510
769.513062	1198.279907	2437.574951	1451.503784	20.432898
769.828064	1200.880737	2410.974609	1440.209595	19.777710
770.142944	1198.057129	2397.080078	1433.671021	19.650490
770.457825	1190.923950	2360.448730	1429.881470	20.432018
770.772705	1188.174805	2335.780273	1422.451538	20.414396
771.087402	1192.261597	2310.888916	1420.593750	20.411816
771.402100	1192.112915	2293.353516	1413.386353	20.093105
771.716736	1191.890015	2288.598145	1417.101563	20.535231
772.031372	1192.112915	2271.359863	1411.231567	20.302921
772.345947	1194.342041	2262.889404	1405.435913	19.755219
772.660461	1194.490601	2237.180420	1398.600098	19.575285
772.974854	1189.883789	2235.248779	1391.095581	19.247993
773.289246	1195.233521	2220.313721	1392.730347	19.266476
773.603638	1200.657715	2211.174561	1390.946899	18.830877
773.917908	1197.834229	2192.524658	1389.832397	19.302303
774.232178	1195.902344	2182.642334	1389.683960	19.638569
774.546265	1190.255249	2174.320557	1388.643555	20.160074
774.860474	1195.605103	2165.329834	1389.906616	20.036770
775.174561	1192.707153	2156.339111	1379.875854	19.423256
775.488586	1195.679321	2147.571533	1375.194702	18.858793
775.802551	1186.094360	2136.426270	1371.033813	19.460512
776.116516	1185.871460	2129.962158	1370.736694	19.581301
776.430359	1187.357544	2133.379883	1369.473267	19.250679
776.744202	1197.759888	2132.190918	1364.643677	17.859402
777.057922	1199.023071	2112.946533	1364.495117	18.105679
777.371704	1196.793945	2096.079834	1360.111328	18.160786
777.685303	1194.341919	2092.736084	1368.284546	19.361504
777.998962	1197.388306	2091.770264	1367.244507	18.991461
778.312500	1201.177856	2082.408203	1364.049316	18.482281
778.626038	1202.663818	2074.234619	1356.321899	17.630016
778.939453	1195.902222	2080.401855	1357.510742	18.271179
779.252869	1195.084839	2085.528809	1360.482910	18.574787
779.566223	1192.781494	2076.389648	1359.293945	18.844603
779.879578	1195.530762	2073.937744	1363.974976	19.176102
780.192749	1196.570923	2064.426758	1362.637573	19.135281
780.505920	1195.530884	2067.621826	1366.798462	19.638729
780.819031	1195.902344	2060.042969	1350.749146	17.919167
781.132141	1195.456543	2062.940674	1357.436401	18.672371
781.445190	1195.976563	2062.420654	1350.229126	17.802944
781.758118	1201.920776	2055.659180	1360.482788	18.572670
782.071045	1193.524658	2040.798462	1350.972168	18.582836
782.383911	1190.701050	2019.027832	1345.919556	18.738800
782.696838	1184.831177	2009.814331	1337.151733	18.463474
783.009583	1188.174805	1996.959961	1332.767944	17.877819
783.322266	1189.809570	1989.901245	1333.585205	17.969894
783.634888	1189.363647	1973.554565	1335.145508	18.590097
783.947510	1193.747559	1967.907593	1337.226074	18.533443
784.260132	1194.936401	1955.647461	1329.572754	17.698751
784.572571	1202.812622	1949.554688	1322.588379	16.039776
784.885010	1200.211914	1948.886108	1323.554321	16.474777
785.197449	1204.447144	1948.068726	1323.777222	16.047152
785.509766	1203.704102	1943.833618	1322.811401	16.092764
785.822083	1206.081787	1936.477539	1318.130249	15.340788
786.134277	1200.509155	1932.167969	1325.783447	17.121954
786.446533	1193.078735	1927.189575	1326.823730	18.218637
786.758606	1190.552368	1929.195923	1327.789673	18.579639
787.070740	1186.763062	1935.883179	1330.761719	19.222372
787.382690	1184.459839	1952.229858	1338.860718	20.110304
787.694641	1183.642334	1961.889038	1342.650024	20.431528
788.006653	1192.112793	1983.511230	1352.235107	20.232832
788.318481	1200.657715	2004.984497	1346.959595	18.189358
788.630310	1204.298462	2023.634399	1351.863647	18.010340
788.942017	1204.818726	2038.049194	1341.461304	16.399134
789.253784	1199.543091	2049.194580	1350.674805	17.787495
789.565430	1203.555420	2046.445679	1349.411743	17.304308
789.877014	1191.592773	2034.854126	1347.702759	18.512646
790.188538	1191.444214	2020.365234	1339.901001	17.909641
790.500061	1190.329468	1997.925781	1336.928833	18.152555
790.811462	1198.577148	1981.430664	1333.956665	17.293083
791.122925	1198.057007	1959.213989	1326.972290	16.936754
791.434204	1198.279907	1950.892212	1322.068237	16.447823
791.745483	1198.577148	1936.551758	1314.192139	15.666527
792.056702	1200.434692	1916.935913	1318.353149	16.457537
792.367920	1196.868286	1906.087769	1308.990967	15.809306
792.678955	1191.295532	1893.084595	1313.374878	17.395447
792.990112	1189.363647	1883.796875	1308.545166	17.162416
793.301086	1184.013794	1881.270630	1310.105591	18.083981
793.612122	1183.865234	1868.861938	1308.545288	18.201555
793.922974	1183.642456	1856.304810	1305.573120	18.126577
794.233826	1182.156372	1838.249390	1308.768066	19.297827
794.544556	1182.973633	1834.831421	1307.356323	19.081263
794.855286	1186.317261	1853.332642	1309.734009	18.502834
795.166016	1186.985962	1858.905396	1312.334595	18.655308
795.476624	1187.729004	1872.131348	1312.706177	18.260775
795.787292	1186.540161	1871.239868	1305.647339	17.395535
796.097778	1188.992065	1885.431641	1302.972534	16.366167
796.408264	1195.828003	1895.313843	1300.074707	14.903333
796.718689	1191.221069	1915.970093	1305.944580	15.829412
797.029053	1193.153076	1917.307251	1303.269653	15.206234
797.339355	1187.580444	1919.016235	1302.526611	15.715141
797.649658	1187.580444	1907.202148	1308.545166	16.809488
797.959839	1186.911621	1912.031860	1305.944702	16.415634
798.270020	1192.781616	1908.167969	1310.774292	16.493559
798.580078	1199.320190	1893.827637	1303.344116	14.978086
798.890137	1195.976685	1868.936401	1307.133423	16.517591
799.200195	1193.004517	1846.793945	1296.136597	15.774510
799.510071	1193.301758	1834.385620	1294.576294	15.797393
799.820007	1198.057129	1831.636353	1285.065552	13.732841
800.129883	1202.440918	1831.562134	1287.591919	13.534912
800.439575	1192.112915	1829.109985	1286.625854	14.837264
800.749329	1189.586548	1825.543457	1289.375122	15.691091
801.058960	1189.289307	1811.946167	1291.455566	16.408115
801.368591	1201.103394	1810.088501	1288.557739	14.360671
801.678162	1205.858887	1797.605835	1287.294556	13.761908
801.987671	1201.846558	1800.949341	1286.923218	14.200679
802.297119	1193.673218	1790.918579	1290.340942	16.185596
802.606506	1183.122192	1785.271484	1291.752808	18.040480
802.915894	1181.338989	1776.801147	1294.353394	18.979275
803.225159	1179.109863	1773.160156	1293.536011	19.262030
803.534424	1187.208862	1768.478882	1291.529907	17.947088
803.843628	1183.493652	1762.757446	1278.526978	16.405880
804.152771	1186.614380	1758.893921	1277.040894	15.801109
804.461792	1189.512207	1765.061157	1273.474243	14.588166
804.770874	1192.632935	1777.841187	1277.263794	14.461665
805.079773	1190.998291	1782.893921	1277.784058	14.662343
805.388733	1186.763062	1787.203491	1283.059448	16.037626
805.697571	1187.803345	1792.999023	1285.437134	16.132599
806.006470	1198.948730	1801.543579	1289.226563	14.981514
806.315125	1199.988892	1809.717163	1288.111938	14.452839
806.623901	1195.530762	1811.500366	1287.071777	14.861288
806.932495	1191.815552	1810.683105	1281.350464	14.467540
807.241150	1197.908569	1805.481934	1282.762207	13.965990
807.549622	1202.143677	1792.033203	1285.734253	14.170547
807.858154	1200.657593	1785.197144	1284.619751	14.363811
808.166565	1192.261475	1769.370728	1280.904663	15.359862
808.474915	1190.181030	1767.513184	1276.074951	14.877730
808.783264	1186.688843	1753.172729	1263.369263	13.536205
809.091492	1188.100464	1754.881836	1261.883179	13.017844
809.399719	1189.809448	1748.268677	1264.335083	13.344866
809.707825	1196.496704	1753.544312	1280.310303	15.046039
810.015930	1198.131348	1741.729980	1278.304077	14.748516
810.323975	1197.759766	1728.058228	1274.737671	14.515959
810.632080	1186.317261	1717.581665	1268.570435	15.482531
810.939880	1186.317261	1720.405273	1272.805786	16.193684
811.247864	1184.682495	1718.770508	1267.678711	15.539802
811.555664	1189.289307	1716.095581	1260.397095	13.497901
811.863464	1191.221191	1710.151367	1255.567383	12.399778
812.171143	1194.936401	1705.098633	1262.626099	13.268269
812.478882	1199.766113	1702.423828	1266.861328	13.348092
812.786438	1202.143677	1692.244507	1269.387695	13.720446
813.094055	1203.926880	1682.807983	1263.294800	12.397215
813.401489	1196.050903	1672.405640	1265.895386	14.662284
813.708984	1190.106689	1664.009399	1264.186401	15.631840
814.016357	1186.763062	1665.421265	1269.090454	17.199619
814.323730	1183.865356	1667.873169	1263.146362	16.380108
814.630981	1181.636230	1675.823608	1258.688110	15.591633
814.938232	1184.756958	1675.154785	1259.951294	15.333334
815.245361	1186.911743	1670.250977	1268.718994	16.925432
815.552490	1194.044800	1667.576172	1269.610718	15.957953
815.859619	1197.091187	1670.770996	1268.942017	15.168650
816.166565	1203.035400	1680.281860	1265.598267	13.109132
816.473572	1200.063354	1682.659546	1269.090454	14.303283
816.780457	1195.605103	1681.470581	1266.638306	14.619932
817.087341	1193.450317	1681.396118	1266.044067	14.877420
817.394043	1191.815674	1683.699585	1262.180298	14.305128
817.700806	1195.530762	1688.380737	1259.728394	13.025796
818.007507	1195.753784	1691.055664	1264.409546	13.861398
818.314209	1197.908569	1699.080444	1268.198853	14.025186
818.620667	1196.645386	1713.495117	1265.078247	13.240378
818.927246	1202.589478	1726.126465	1259.951294	10.956593
819.233704	1202.886597	1755.030273	1261.288696	10.577337
819.540161	1203.183960	1780.813354	1272.062500	11.924348
819.846497	1193.301636	1818.187622	1276.520752	13.317488
820.152832	1187.060181	1853.927246	1273.994507	13.036230
820.458984	1183.419434	1904.378784	1282.613647	13.758641
820.765259	1193.747437	1962.409180	1291.009766	12.653463
821.071350	1196.199585	2045.999634	1305.275879	12.835525
821.377502	1195.679443	2183.905518	1320.805176	12.661651
821.683472	1182.453613	2452.138428	1352.012329	13.354394
821.989441	1182.899292	2901.744141	1412.940552	13.383480
822.295349	1182.750732	3540.895752	1488.803711	12.978548
822.601196	1186.540161	4261.112793	1574.326050	12.612676
822.907043	1189.512329	4872.178223	1646.473999	12.408447
823.212769	1188.472046	5240.347656	1690.609741	12.392723
823.518494	1198.428711	5263.456543	1704.207031	12.442186
823.824097	1195.828003	5055.333984	1681.693359	12.588797
824.129700	1193.227417	4704.179199	1641.792969	12.776181
824.435242	1190.329590	4351.093262	1589.855347	12.640165
824.740723	1191.146973	4012.495117	1548.840210	12.678097
825.046082	1196.570923	3684.894775	1501.955444	12.272700
825.351501	1193.004517	3356.476563	1457.002075	12.202494
825.656799	1197.462646	3051.092529	1411.454468	11.544474
825.962036	1196.125122	2803.961670	1385.597168	11.784286
826.267212	1198.205688	2645.399658	1369.250488	11.819065
826.572449	1190.701050	2581.648193	1354.166992	11.752131
826.877502	1197.536987	2610.774658	1358.328125	11.377501
827.182495	1198.280029	2735.305908	1375.789063	11.548864
827.487488	1200.360474	2882.648438	1408.408081	12.366943
827.792419	1197.982788	3015.427490	1422.748413	12.367124
828.097290	1199.691772	3036.677734	1421.708374	12.085917
828.402100	1194.564819	2971.885986	1415.912720	12.454019
828.706848	1193.153076	2828.481689	1402.389648	12.794772
829.011597	1189.140747	2675.269775	1380.395996	12.869357
829.316223	1198.502808	2529.041748	1353.721191	11.665828
829.620789	1194.193237	2403.841553	1332.767944	11.455785
829.925354	1197.462646	2276.709717	1325.783569	11.889856
830.229797	1201.697876	2160.425781	1314.860962	11.803462
830.534302	1207.121948	2033.293945	1300.297485	11.277983
830.838562	1207.716431	1945.245117	1282.687866	10.165223
831.142944	1200.063354	1860.540039	1273.400024	11.103597
831.447144	1195.159302	1818.038940	1264.929565	11.201243
831.751404	1192.410034	1770.262329	1264.780884	12.524109
832.055542	1193.227417	1756.739258	1255.121460	10.983627
832.359619	1186.168579	1743.587524	1260.991455	13.423096
832.663635	1178.441040	1756.070313	1253.412598	12.979182
832.967651	1174.280151	1775.611938	1256.756226	13.715569
833.271545	1182.602051	1829.778931	1257.796387	11.618823
833.575439	1192.855957	1920.130981	1278.378296	11.759284
833.879211	1193.970337	2041.541626	1302.080811	12.755325
834.183044	1190.626831	2166.370117	1319.690674	13.227234
834.486694	1188.694946	2270.542725	1323.331421	12.445048
834.790344	1193.673096	2300.189209	1325.560547	11.919163
835.093933	1194.861938	2276.040771	1322.291382	11.786158
835.397522	1187.580444	2210.431641	1321.994019	13.141068
835.700928	1186.168579	2148.686279	1312.631836	13.138798
836.004395	1190.478149	2090.061279	1306.390381	12.885105
836.307739	1189.215088	2022.891602	1287.443237	11.782526
836.611023	1186.614502	1952.155396	1277.932495	11.928558
836.914307	1188.397827	1882.385132	1262.477539	10.674505
837.217529	1191.444214	1815.884155	1259.802612	10.947153
837.520691	1195.753784	1760.454468	1254.824341	10.460507
837.823730	1190.106567	1706.510620	1249.400269	11.482037
838.126831	1194.936401	1664.232422	1248.582886	11.431268
838.429749	1189.883667	1630.796021	1240.929688	11.577362
838.732727	1193.821777	1600.406250	1243.233032	12.152765
839.035522	1196.125122	1587.106079	1239.220703	11.022425
839.338379	1200.137573	1579.675781	1229.041260	7.615488
839.641113	1196.645386	1590.003906	1229.635620	8.386810
839.943848	1194.936401	1607.836548	1228.966919	8.241827
840.246460	1189.289429	1633.842651	1239.815308	11.365541
840.549072	1193.375977	1650.709351	1240.038086	10.203084
840.851563	1190.998291	1655.836060	1247.691284	12.196297
841.154053	1197.239746	1658.511108	1248.954590	11.211371
841.456482	1195.902222	1653.681274	1245.387817	10.809930
841.758850	1200.880493	1635.922974	1243.084595	9.701145
842.061157	1201.995117	1610.957397	1238.106323	8.829960
842.363403	1203.183960	1580.121704	1242.787476	10.506646
842.665588	1201.177734	1567.341675	1236.174438	9.557660
842.967712	1193.375977	1549.509155	1242.118530	13.686608
843.269775	1191.518433	1539.626831	1234.539673	12.358576
843.571777	1189.512329	1518.598999	1233.648071	13.411586
843.873840	1192.261475	1503.441406	1222.948364	9.861462
844.175659	1189.958130	1490.884155	1224.806030	11.580221
844.477600	1194.639160	1477.955444	1216.558472	7.736693
844.779297	1196.868164	1466.215698	1211.951660	5.600013
845.081116	1201.252075	1456.853516	1208.459473	2.819780
845.382751	1197.536987	1456.184692	1208.682251	4.309052
845.684387	1194.416260	1453.807007	1216.261230	8.421646
845.985962	1195.084961	1442.884644	1213.660645	7.496250
846.287537	1196.496704	1431.516235	1223.840210	11.634567
846.588989	1202.589478	1427.949707	1225.177612	10.023124
846.890381	1198.428589	1425.423340	1226.069214	12.176768
847.191711	1195.382202	1422.897095	1220.347900	10.973215
847.493042	1190.998169	1417.175781	1216.112671	11.103885
847.794250	1190.180908	1410.414429	1214.626465	11.099834
848.095459	1181.041626	1416.061157	1205.858765	10.559607
848.396606	1184.459839	1410.339844	1200.211792	6.973593
848.697693	1186.911621	1417.101563	1204.149902	7.488720
848.998657	1195.828003	1403.949829	1219.381958	11.317389
849.299622	1192.112793	1403.652710	1231.716187	18.721476
849.600464	1191.666992	1396.222290	1221.462524	14.566004
849.901367	1193.450317	1401.349243	1216.186890	10.936358
850.202087	1195.605103	1396.371094	1210.168335	7.253834
850.502808	1192.558716	1388.643555	1219.084717	13.527819
850.803467	1192.261475	1385.299805	1219.010376	13.856782
851.104065	1189.437988	1387.157349	1222.131226	16.535173
851.404663	1187.134644	1395.702271	1215.666870	13.680084
851.705139	1184.013794	1390.278198	1211.431519	13.292514
852.005615	1181.116089	1394.439087	1204.075562	10.762774
852.306030	1188.769165	1396.222534	1212.100220	11.246409
852.606384	1187.580444	1398.748657	1224.360229	17.417292
852.906616	1196.719604	1396.965454	1227.257935	15.250419
853.206909	1197.165405	1395.999512	1230.750366	16.890945
853.506958	1201.029175	1398.451538	1220.125000	9.672574
853.807129	1194.341919	1394.216187	1216.930054	11.301172
854.107178	1191.518433	1387.231812	1206.304810	7.555118
854.407166	1190.701172	1380.990234	1203.778442	6.872319
854.707092	1191.518433	1382.104858	1199.245972	4.054612
855.007019	1193.004517	1388.792114	1201.549316	4.364321
855.306763	1193.227417	1392.730103	1206.899048	6.852856
855.606567	1193.896118	1386.711792	1214.032227	10.443191
855.906250	1190.255371	1378.612671	1215.741211	13.530582
856.205933	1189.660767	1376.978027	1210.911499	11.344781
856.505493	1179.630005	1382.773560	1213.957886	16.898336
856.805054	1173.611450	1386.860229	1215.295288	19.547047
857.104492	1167.741577	1384.631226	1217.821655	23.090118
857.403931	1174.503174	1385.151367	1212.323242	17.954138
857.703308	1182.825073	1385.819946	1209.128296	12.957580
858.002563	1191.221313	1386.191528	1204.298462	6.707254
858.301819	1197.982788	1389.460938	1205.412964	3.880430
858.601013	1194.193237	1395.702271	1203.778442	4.756712
858.900208	1196.348145	1394.885132	1205.412964	4.565809
859.199219	1194.639160	1389.015137	1203.481079	4.548874
859.498291	1194.416260	1377.646851	1201.029175	3.609067
859.797302	1192.038574	1374.748901	1196.050903	2.196006
860.096191	1196.496704	1372.073853	1204.744263	4.697399
860.395020	1196.050903	1375.566284	1212.694702	9.271517
860.693787	1196.422485	1390.723999	1218.267334	11.242758
860.992554	1195.085083	1394.959351	1210.316895	7.620697
861.291260	1198.205688	1391.169922	1206.007446	4.043111
861.589844	1195.976563	1367.467285	1204.447144	4.939382
861.888428	1187.060303	1357.436523	1208.756714	12.734413
862.186890	1185.276978	1360.408569	1206.824829	12.303806
862.485413	1180.298706	1366.501343	1207.270630	14.485253
862.783813	1192.335815	1369.176270	1205.041504	7.184832
863.082153	1198.428589	1369.101929	1201.846558	2.002638
863.380371	1204.521362	1372.891479	1202.069458	-1.456259
863.678589	1195.828003	1373.040039	1199.097290	1.844845
863.976746	1196.050781	1371.182495	1201.029175	2.842657
864.274902	1198.131348	1370.290649	1202.440918	2.503246
864.572937	1201.995117	1369.770874	1211.728638	5.801506
864.870911	1200.657593	1371.405273	1213.883423	7.745833
865.168884	1192.930054	1370.810913	1210.837036	10.066840
865.466736	1194.639038	1367.764526	1205.561646	6.309070
865.764587	1189.437988	1368.359009	1202.440918	7.267413
866.062317	1195.010620	1371.851196	1202.812378	4.411747
866.360107	1191.295532	1367.318726	1195.456421	2.363830
866.657715	1196.942505	1363.157593	1201.623535	2.816249
866.955322	1196.050903	1356.693237	1206.156128	6.290512
867.252808	1190.478149	1365.535278	1215.443970	14.261527
867.550293	1192.558716	1368.136108	1218.936157	15.023256
867.847717	1193.598877	1372.891235	1210.911499	9.656085
868.145081	1197.685547	1371.776733	1205.635864	4.566755
868.442383	1198.279907	1361.374390	1198.205566	-0.045581
868.739624	1194.490601	1365.015137	1200.583374	3.572960
869.036804	1194.193237	1370.142090	1203.183960	5.109850
869.333984	1189.586548	1373.411499	1205.264526	8.528754
869.631042	1197.908447	1360.185547	1209.350952	7.051214
869.928101	1204.372681	1361.968872	1206.081665	1.084407
870.224976	1202.589478	1372.668579	1202.143799	-0.262042
870.521851	1197.536987	1380.916016	1194.787842	-1.499160
870.818726	1186.911743	1380.767578	1197.536987	5.481003
871.115479	1188.917847	1382.402222	1206.601929	9.139798
871.412231	1190.181152	1389.238159	1217.301392	13.624358
871.708862	1193.004517	1388.717773	1218.787476	13.173844
872.005493	1194.564941	1391.392578	1216.484131	11.136235
872.302063	1191.815552	1394.439087	1208.310913	8.140891
872.598572	1195.605103	1398.005737	1204.001343	4.148327
872.895020	1192.930176	1397.931274	1204.075562	5.436744
873.191406	1195.753784	1400.606079	1212.471802	8.161011
873.487671	1186.094360	1403.132446	1204.744263	8.592916
873.783997	1183.345215	1402.612671	1207.493530	11.013178
874.080200	1177.921021	1397.114136	1212.620483	15.830544
874.376343	1186.465820	1398.005737	1222.725586	17.140862
874.672424	1195.084961	1400.531860	1217.821655	11.066944
874.968445	1193.673218	1398.748657	1206.156128	6.086985
875.264465	1193.524658	1399.937500	1207.567871	6.803459
875.560364	1186.688721	1400.680542	1207.122070	9.548659
875.856201	1184.831177	1398.971680	1207.790771	10.721744
876.152039	1190.181030	1394.290649	1208.756714	9.100837
876.447754	1188.026245	1385.522827	1211.654419	11.963840
876.743469	1194.639160	1390.278198	1217.301514	11.583758
877.039063	1192.781616	1393.324585	1224.137329	15.635408
877.334595	1199.914673	1397.262695	1219.381958	9.864444
877.630127	1199.617554	1392.581543	1215.963989	8.471236
877.925537	1191.890015	1385.448608	1208.756714	8.714002
878.221008	1188.992188	1383.293579	1207.865112	9.713222
878.516296	1182.750610	1391.541382	1203.109619	9.750915
878.811646	1185.574219	1395.256470	1199.171509	6.484712
879.106812	1182.973633	1409.745483	1200.806274	7.863693
879.401978	1191.295532	1419.330688	1205.710327	6.321304
879.697083	1193.078735	1441.324219	1207.716431	5.896460
879.992126	1196.125122	1462.203247	1213.214722	6.422775
880.287109	1197.091064	1500.469116	1217.598633	6.759740
880.582031	1196.199585	1559.316895	1224.434570	7.775720
880.876892	1191.741333	1671.588257	1236.471558	9.321770
881.171753	1186.242920	1862.694946	1258.613892	10.698611
881.466492	1187.728882	2151.509521	1282.910767	9.875887
881.761230	1195.010620	2502.441650	1315.678345	9.229376
882.055786	1189.660889	2820.010986	1337.969116	9.096710
882.350403	1189.215088	3014.164307	1354.612915	9.063147
882.644958	1181.636230	3064.615479	1356.247559	9.273142
882.939453	1187.431763	3004.281982	1353.646973	9.148537
883.233826	1185.202637	2906.648193	1343.616089	9.202351
883.528137	1189.214966	2784.940186	1330.687378	8.865712
883.822449	1195.159302	2669.473877	1324.223145	8.754159
884.116577	1197.016846	2550.886719	1314.340820	8.665824
884.410828	1198.205688	2418.033447	1299.257324	8.284091
884.704956	1195.084961	2264.152588	1284.099609	8.326382
884.999023	1200.880615	2093.702148	1276.892212	8.513638
885.292969	1199.765991	1944.948120	1261.808960	8.325880
885.586914	1202.589478	1822.274414	1247.394165	7.230237
885.880798	1193.450317	1735.563110	1240.409546	8.662262
886.174622	1193.970337	1668.616211	1244.273315	10.598001
886.468384	1196.645386	1627.601196	1244.719116	11.155142
886.762085	1196.719604	1588.666504	1236.248657	10.085308
887.055664	1192.707397	1545.868164	1231.418945	10.961452
887.349304	1185.648560	1517.112915	1225.548950	12.037611
887.642822	1185.128540	1498.760132	1230.007202	14.309357
887.936340	1189.289429	1488.357788	1220.793579	10.534097
888.229736	1191.444214	1466.066895	1219.233398	10.119042
888.523071	1192.930176	1450.240601	1209.351074	6.381746
888.816284	1195.902222	1438.872192	1207.270630	4.678936
889.109619	1197.834106	1433.968262	1201.549438	1.573399
889.402710	1201.400757	1420.519531	1203.481201	0.949460
889.695862	1196.570923	1415.318359	1203.183960	3.023138
889.988892	1186.911743	1405.064453	1206.899048	9.162070
890.281921	1172.051025	1397.188477	1213.289063	18.316828
>>>>>End Processed Spectral Data<<<<<
