Jaz Data File
++++++++++++++++++++++++++++++++++++
Date: Fri Jun 04 16:58:17 2021
User: jaz
Dark Spectrum Present: Yes
Reference Spectrum Present: Yes
Processed Spectrum Present: Yes
Spectrometers: JAZA3586
Integration Time (usec): 24100 (JAZA3586)
Spectra Averaged: 10 (JAZA3586)
Boxcar Smoothing: 1 (JAZA3586)
Correct for Electrical Dark: No (JAZA3586)
Strobe/Lamp Enabled: Yes (JAZA3586)
Correct for Detector Non-linearity: No (JAZA3586)
Correct for Stray Light: No (JAZA3586)
Number of Pixels in Processed Spectrum: 2048
>>>>>Begin Processed Spectral Data<<<<<
W	D	R	S	P
191.335022	0.000000	0.000000	0.000000	0.000000
191.713211	231.750168	230.487076	231.230103	41.173985
192.091385	464.689209	467.364166	469.221710	169.442001
192.469528	703.795410	704.909973	705.950195	193.330048
192.847641	708.996582	712.340149	716.724060	231.114807
193.225739	713.974854	721.850891	721.702332	98.113777
193.603790	717.392822	729.429871	728.835388	95.061226
193.981842	725.045959	740.055176	729.875671	32.178307
194.359863	737.974609	736.934387	732.327637	542.862183
194.737854	747.708252	733.293640	732.624817	104.639900
195.115829	752.315125	732.699219	736.117004	82.576454
195.493774	749.788757	734.259521	736.711426	84.211044
195.871704	748.377014	739.906494	746.742371	19.298031
196.249603	748.005554	740.203674	749.640137	-20.951138
196.627457	749.714417	744.290344	752.686523	-54.794750
197.005310	746.816711	745.924988	745.553467	141.663239
197.383133	747.931213	747.782532	744.736145	2148.932617
197.760910	747.039551	745.850769	741.763977	443.779846
198.138687	748.674255	741.764099	742.804260	84.947357
198.516449	749.268616	737.603088	737.454590	101.272972
198.894180	746.965149	734.482422	739.906555	56.546890
199.271866	744.884766	737.900391	739.089172	82.979408
199.649536	743.250183	736.934387	736.340027	109.410698
200.027191	745.627747	734.482422	736.785828	79.332985
200.404816	744.884766	732.179016	728.909668	125.731247
200.782410	740.872375	747.708313	736.191345	-68.476784
201.159988	739.312073	758.333557	732.996338	-33.203167
201.537537	734.556702	767.621399	738.420410	11.685298
201.915070	731.213074	765.095032	743.398743	35.965069
202.292557	724.005676	764.723572	749.714417	63.138676
202.670029	717.987305	765.466614	753.058105	73.865440
203.047485	717.021301	764.426331	745.033386	59.090958
203.424911	717.169922	765.243713	740.203674	47.913326
203.802292	721.628113	761.157043	748.748535	68.609047
204.179688	721.256531	755.510071	748.079773	78.307945
204.557037	730.915833	760.414063	750.308838	65.742943
204.934357	729.875671	756.847473	742.507080	46.831905
205.311661	731.584656	763.609131	741.689758	31.554312
205.688934	719.770447	756.104492	739.683594	54.805752
206.066177	718.210144	767.027039	732.550598	29.376007
206.443390	713.083191	763.311829	733.813721	41.272331
206.820587	712.414490	766.506836	732.624817	37.362637
207.197769	702.606445	753.206726	742.507080	78.854568
207.574921	699.634338	752.092102	741.169617	79.178513
207.952042	708.327820	747.039551	739.683594	80.998116
208.329147	725.120300	753.801086	738.791992	47.668468
208.706223	742.061218	765.318054	748.154114	26.198299
209.083267	738.271790	769.256042	746.222229	25.659613
209.460297	734.853943	770.221985	737.603088	7.772965
209.837280	722.891174	754.692688	728.761047	18.457842
210.214264	717.764343	755.064209	726.383362	23.107372
210.591217	715.906738	754.841309	725.417480	24.427500
210.968124	721.107971	762.345886	720.587708	-1.261615
211.345016	727.126465	763.386169	721.033630	-16.803320
211.721893	730.395813	762.866028	724.971680	-16.704950
212.098724	733.293640	761.751465	734.408203	3.916543
212.475555	730.098572	760.488342	737.157410	23.227678
212.852356	726.457764	758.927917	741.615479	46.681992
213.229126	720.439270	756.327332	738.866211	51.345600
213.605865	718.730225	755.658691	738.717590	54.124550
213.982590	713.677734	755.212891	729.058289	37.030205
214.359283	703.349609	758.482178	724.377197	38.140049
214.735931	709.219482	760.859863	727.126465	34.676319
215.112579	717.095642	763.014648	732.030457	32.524254
215.489197	729.504150	757.441895	731.510315	7.180840
215.865799	719.398926	755.658691	728.389587	24.795145
216.242355	716.649719	748.377014	724.823059	25.761225
216.618896	712.414490	747.485413	719.473328	20.127323
216.995407	712.637390	749.343018	720.141907	20.445139
217.371902	708.030579	760.934143	728.463867	38.623653
217.748367	712.860352	761.677246	739.683594	54.946636
218.124802	720.067688	753.726807	740.129456	59.602772
218.501236	725.937561	750.160339	730.247131	17.791395
218.877609	718.432922	755.064270	724.228699	15.821903
219.253983	714.866455	758.779358	720.959290	13.874816
219.630295	714.940735	752.537903	722.445496	19.960974
220.006592	717.095520	750.754700	726.309082	27.373104
220.382889	718.804504	749.194336	730.990173	40.097851
220.759140	718.804443	749.120056	730.395752	38.235443
221.135391	717.838562	749.565857	725.045898	22.716516
221.511581	716.352539	755.584412	728.983948	32.196804
221.887772	714.643555	763.237549	732.401855	36.544231
222.263931	712.117371	765.318054	741.838318	55.865723
222.640060	713.603333	763.460449	737.083008	47.093929
223.016159	716.352539	762.123047	737.231628	45.616905
223.392212	728.166687	756.104492	728.538147	1.329596
223.768265	733.590759	757.070374	726.754883	-29.114092
224.144302	737.083008	764.500732	730.098572	-25.474163
224.520294	731.807434	773.491394	729.132568	-6.417015
224.896286	724.154297	774.531555	725.937500	3.539699
225.272217	719.250305	768.810242	720.142029	1.799283
225.648148	726.160461	761.528564	722.371033	-10.714255
226.024048	731.064453	761.082703	723.188416	-26.237497
226.399902	727.349304	765.986633	722.816895	-11.730650
226.775772	717.987244	770.444885	718.655945	1.274745
227.151581	712.340149	774.382996	718.433044	9.820464
227.527374	722.593933	763.757629	718.507324	-9.927702
227.903137	726.309082	763.534729	723.039795	-8.782351
228.278870	730.321350	758.853699	729.578430	-2.603781
228.654572	725.714661	757.887695	731.213135	17.090319
229.030273	726.011902	751.869202	735.745605	37.643929
229.405930	724.600159	751.794922	731.287354	24.590010
229.781555	717.838623	758.482239	735.522644	43.509960
230.157181	715.683838	760.934265	736.191345	45.320030
230.532761	711.745789	758.630798	740.278015	60.855755
230.908325	714.420654	756.996094	739.312073	58.464268
231.283859	719.844727	756.104492	736.562805	46.106415
231.659332	719.993347	760.562683	741.764099	53.663071
232.034821	723.336975	754.246887	739.757874	53.125023
232.410263	723.262695	752.686584	745.181946	74.494743
232.785690	731.436035	751.572021	745.256165	68.633980
233.161087	722.593994	756.401672	744.141663	63.736019
233.536469	711.745789	762.494446	730.098450	36.163837
233.911804	709.591003	764.426453	717.987122	15.311479
234.287140	719.324646	765.020813	724.525818	11.382074
234.662430	719.473206	764.575012	727.423645	17.627762
235.037704	719.324707	756.698914	735.894226	44.334103
235.412933	715.683777	756.624573	722.742615	17.241575
235.788162	717.541321	749.565918	724.154297	20.649677
236.163345	715.312317	757.887756	714.643555	-1.570770
236.538513	708.550781	757.739075	718.953125	21.148006
236.913635	710.556946	759.596680	721.925293	23.181910
237.288742	709.888184	755.658630	722.668274	27.922144
237.663834	714.272034	758.407898	734.185120	45.117699
238.038879	710.408264	758.036377	735.745605	53.198288
238.413910	712.265869	758.185059	736.265686	52.265331
238.788910	713.083191	757.813477	731.956055	42.192585
239.163879	715.609558	762.568848	737.305847	46.202335
239.538834	711.522766	772.302551	745.702148	56.234787
239.913757	714.049133	779.435547	735.671204	33.068138
240.288651	719.547546	785.751282	733.070740	20.426632
240.663528	728.018066	783.967957	717.392822	-18.990643
241.038361	719.919128	778.841125	724.080078	7.061793
241.413177	719.547546	769.330383	716.575500	-5.970021
241.787979	716.129639	769.553284	724.674377	15.994302
242.162735	723.559875	775.720398	718.953125	-8.831872
242.537476	715.535156	791.472595	714.420715	-1.467578
242.912170	713.529053	799.274353	717.689941	4.852614
243.286865	709.739563	791.621155	725.714661	19.509998
243.661514	720.067627	781.664612	738.717590	30.277397
244.036148	723.708496	778.098145	732.476257	16.120275
244.410751	735.522644	779.361267	724.080078	-26.101563
244.785339	730.841553	774.605896	713.231750	-40.237785
245.159882	726.680664	777.057861	715.312256	-22.566576
245.534378	718.284424	779.881348	718.655945	0.603149
245.908890	720.290527	791.249695	724.080017	5.340381
246.283356	725.491760	786.865784	732.847717	11.985456
246.657791	728.092285	798.011230	737.825989	13.921411
247.032196	725.268860	804.326965	739.757874	18.327044
247.406586	724.897278	802.246399	740.946777	20.749428
247.780960	718.953125	801.280457	744.364685	30.866493
248.155289	713.974792	809.750977	740.352295	27.540773
248.529602	708.253479	819.484680	731.213074	20.641325
248.903870	720.885010	811.608643	724.228699	3.685577
249.278122	721.776672	802.692322	727.349365	6.887040
249.652344	723.485657	791.695496	726.680664	4.684086
250.026550	714.420715	798.977234	727.200684	15.114114
250.400711	718.210144	790.581055	726.457703	11.396235
250.774857	720.885010	795.559265	725.937561	6.766122
251.148987	720.513428	790.209473	724.080017	5.117348
251.523071	725.268860	802.989502	728.240967	3.824090
251.897125	726.606262	804.549866	730.990051	5.624309
252.271164	726.457703	817.478577	731.361633	5.387699
252.645187	715.535217	809.230957	725.714600	10.864296
253.019165	706.767517	813.094727	720.364929	12.788271
253.393112	711.745789	808.636536	721.553711	10.122662
253.767044	718.953125	809.825378	726.086182	7.849543
254.140930	723.114075	807.373352	736.637207	16.049429
254.514801	716.352539	796.227966	739.312073	28.744177
254.888657	714.792175	799.348694	738.940613	28.558931
255.262466	719.993408	802.989563	731.361633	13.697291
255.636276	719.398987	809.453857	731.733215	13.696348
256.010010	724.897278	819.559082	733.293457	8.869659
256.383759	723.336975	817.181335	726.086121	2.929473
256.757446	732.401917	832.339111	727.795105	-4.609707
257.131134	731.138733	826.320557	728.612488	-2.654125
257.504791	722.222473	834.939697	739.089172	14.963728
257.878418	715.832458	836.945801	735.522705	16.257702
258.252014	711.448547	849.280090	729.578430	13.153653
258.625580	718.730225	855.075684	725.789063	5.177171
258.999115	718.284424	861.317139	721.925293	2.545480
259.372650	718.507324	866.964172	715.386658	-2.102070
259.746124	718.507324	891.558350	717.912903	-0.343495
260.119598	715.535156	914.443542	720.587830	2.540201
260.493042	714.123474	934.208008	728.983948	6.752166
260.866425	711.076965	933.465027	732.327637	9.555671
261.239838	716.129639	921.130859	728.984070	6.270417
261.613159	719.696228	905.452942	730.321472	5.719978
261.986511	724.302917	895.942322	721.628113	-1.558386
262.359802	720.439209	886.728699	722.371094	1.161760
262.733063	719.919006	877.589417	722.593994	1.696569
263.106293	710.705505	875.806152	726.829163	9.765957
263.479523	710.705566	876.177673	732.847717	13.381198
263.852692	715.832458	882.121887	734.928223	11.483451
264.225861	721.999573	877.960938	741.838379	12.720334
264.598969	722.073792	878.332458	739.832214	11.364760
264.972076	712.785950	875.806152	741.764099	17.775803
265.345154	714.643555	880.041443	742.209961	16.666721
265.718201	715.386536	886.059998	745.479187	17.631710
266.091217	719.101746	898.394226	751.423523	18.027403
266.464203	719.027405	909.911133	752.686584	17.633341
266.837158	720.959290	918.678772	748.822815	14.092453
267.210114	721.330811	930.047119	739.163391	8.543933
267.583038	722.371094	933.167786	726.977844	2.185400
267.955902	723.114075	934.876892	727.869446	2.245612
268.328766	719.250305	925.589050	728.018066	4.249207
268.701569	713.826172	931.607605	738.271790	11.224840
269.074371	717.318420	934.208069	736.191345	8.701626
269.447144	720.290588	953.378235	728.984070	3.729705
269.819885	725.789001	954.567078	722.445313	-1.461543
270.192596	725.417480	978.566833	724.823059	-0.234811
270.565277	728.538147	986.071289	725.491760	-1.182911
270.937927	733.590759	1010.814148	728.018066	-2.010181
271.310577	725.863281	1025.451782	725.268860	-0.198413
271.683136	723.411316	1054.801392	732.773438	2.825106
272.055725	712.711731	1071.148071	732.104736	5.410446
272.428284	717.244202	1079.915649	734.408142	4.732642
272.800812	713.603333	1073.154175	734.853943	5.910321
273.173279	713.826172	1068.621704	739.832214	7.329867
273.545776	714.494934	1064.980835	745.181946	8.755563
273.918152	716.055237	1064.163452	749.120056	9.498431
274.290558	716.352539	1056.659058	741.020996	7.248893
274.662964	715.015137	1049.154419	737.528809	6.737811
275.035278	721.999512	1049.674561	733.962341	3.650821
275.407593	723.337097	1056.881958	737.528809	4.254813
275.779907	723.188477	1070.702271	736.562805	3.848575
276.152161	720.290588	1076.497803	730.841614	2.962047
276.524384	725.937561	1088.683472	727.497986	0.430170
276.896606	727.126465	1102.429321	730.321472	0.851314
277.268799	723.411316	1116.918335	730.692871	1.850426
277.640930	712.860291	1125.463257	729.058289	3.925807
278.013031	711.671387	1130.590210	727.052185	3.671546
278.385162	710.036804	1136.757324	734.779602	5.798361
278.757233	708.402161	1138.837891	738.791931	7.060234
279.129272	709.516663	1138.317749	728.166565	4.349313
279.501282	710.556946	1136.831665	724.302917	3.224674
279.873230	713.231873	1147.531250	725.045898	2.720249
280.245178	710.854187	1163.060547	731.510254	4.567841
280.617126	720.810730	1195.753784	733.144958	2.596991
280.988983	728.612488	1225.400513	729.504089	0.179473
281.360870	729.429871	1246.279541	731.361633	0.373757
281.732697	717.095520	1260.174194	722.445313	0.985086
282.104492	715.609558	1279.938599	727.795105	2.159298
282.476288	721.925293	1306.539063	726.829285	0.838843
282.848053	721.999573	1327.938232	733.962219	1.974234
283.219757	718.804504	1330.687500	737.825989	3.108680
283.591461	708.699402	1322.885620	741.021057	5.262517
283.963135	710.259766	1312.111694	742.135559	5.296285
284.334747	712.637390	1313.151978	739.163574	4.417242
284.706360	716.946960	1336.334351	737.305908	3.286949
285.077942	720.439209	1372.817017	733.144958	1.947606
285.449524	719.696228	1415.689819	730.915833	1.612027
285.821014	720.439148	1436.494507	732.847656	1.732898
286.192535	721.776611	1461.757324	735.671204	1.877697
286.563995	716.278137	1475.429077	740.054993	3.132033
286.935425	716.278137	1499.577515	738.569031	2.845769
287.306824	714.272034	1509.534180	739.832214	3.214057
287.678223	721.330811	1499.429077	735.745605	1.852567
288.049561	719.176025	1473.422974	730.470032	1.497388
288.420898	719.027405	1444.519165	728.686768	1.331423
288.792145	724.377136	1444.593628	730.544373	0.856303
289.163452	729.504089	1457.373535	737.157288	1.051452
289.534668	728.983948	1481.967773	735.671204	0.888101
289.905914	722.073792	1509.756958	736.117004	1.782851
290.277039	721.107910	1545.199341	735.299805	1.722126
290.648193	726.754883	1577.223755	747.336731	2.420059
291.019318	729.355469	1602.040894	744.959167	1.788010
291.390381	728.538269	1614.077759	745.925049	1.963411
291.761475	723.262695	1609.619751	739.832214	1.869395
292.132507	724.154297	1597.137085	742.432800	2.093799
292.503510	722.965515	1580.344604	740.203674	2.010565
292.874481	730.618652	1574.251587	743.398743	1.514888
293.245422	724.005676	1578.486938	747.113831	2.704349
293.616364	722.445374	1605.310181	739.237793	1.902038
293.987213	711.002747	1643.799194	728.538147	1.879874
294.358093	721.107910	1689.718140	720.959290	-0.015344
294.728943	721.850891	1737.197632	734.705322	1.266014
295.099731	729.949951	1782.373657	739.832214	0.939000
295.470490	722.816895	1808.602539	742.507080	1.813451
295.841248	721.479431	1826.880859	729.058350	0.685626
296.211975	712.191589	1846.125366	725.640381	1.186030
296.582642	713.454773	1891.078613	724.377258	0.927502
296.953308	708.327820	1955.870483	728.909729	1.649796
297.323883	710.705566	2002.383911	731.287354	1.593414
297.694519	707.138977	2029.430176	733.367859	1.983593
298.065063	708.847961	2017.096069	738.346130	2.254784
298.435608	715.312317	2000.377930	735.968445	1.607399
298.806122	729.504150	1950.817993	733.962219	0.365022
299.176575	737.603088	1900.737915	727.497986	-0.868782
299.547028	736.637207	1858.831177	727.126404	-0.847519
299.917450	725.789001	1840.478516	734.333801	0.766563
300.287872	727.423645	1834.236938	749.640137	2.007248
300.658234	723.262695	1829.333008	753.875427	2.767702
301.028564	724.748779	1830.076172	749.417236	2.231778
301.398865	721.850891	1829.407349	741.243958	1.750978
301.769135	725.491760	1826.435181	737.380188	1.079840
302.139374	723.411316	1837.877930	736.785828	1.200082
302.509583	719.473206	1846.348267	729.949951	0.929717
302.879791	721.702332	1837.654907	736.042786	1.285041
303.249939	719.101746	1816.701538	732.401917	1.211750
303.620087	718.804504	1795.450806	726.977844	0.759148
303.990173	711.820068	1799.686157	715.238037	0.314190
304.360260	716.575500	1806.299194	717.318542	0.068186
304.730286	717.764343	1815.141235	724.897400	0.650010
305.100281	719.324707	1814.546509	732.922058	1.241516
305.470276	715.312256	1821.902710	725.863281	0.953472
305.840179	709.516785	1836.688965	729.058289	1.733675
306.210144	710.482666	1848.503296	728.538269	1.586580
306.579987	714.940857	1857.716797	739.089172	2.113128
306.949890	723.559875	1866.187134	738.494812	1.307070
307.319702	727.795166	1883.945679	735.522644	0.668380
307.689484	725.566101	1911.660278	738.643372	1.102549
308.059265	718.358704	1950.297729	741.838379	1.905912
308.429016	710.705505	1994.805054	752.166504	3.228799
308.798737	707.956299	2037.603516	750.383240	3.190842
309.168396	713.751953	2069.033691	750.383118	2.702845
309.538055	718.804504	2103.881592	746.668030	2.011695
309.907684	712.934570	2123.869141	741.987000	2.059091
310.277313	706.693176	2158.642822	737.603027	2.128851
310.646851	699.634460	2176.252441	731.584534	2.163733
311.016388	706.544617	2189.552490	729.132568	1.523118
311.385895	709.962585	2191.781738	729.058289	1.288666
311.755371	711.374268	2193.639404	733.516418	1.493805
312.124817	714.049133	2208.722900	735.225403	1.416782
312.494232	717.318542	2197.354492	736.265625	1.280177
312.863617	720.736389	2195.719971	734.036621	0.901721
313.232971	716.724060	2169.490967	733.293518	1.140545
313.602295	715.683777	2162.803711	736.265625	1.422263
313.971619	715.980957	2159.979980	733.813660	1.234953
314.340820	715.163635	2174.692139	732.922058	1.216723
314.710083	719.101746	2200.326416	734.110840	1.013290
315.079285	717.541321	2236.883545	738.048828	1.349762
315.448486	718.581604	2265.564209	742.952881	1.575407
315.817596	716.501160	2266.530029	743.250183	1.725711
316.186707	716.724121	2231.682373	746.742371	1.981457
316.555786	716.724060	2196.982910	742.209900	1.721715
316.924866	711.820068	2163.695313	743.175842	2.159674
317.293884	716.352539	2145.713867	737.454529	1.476323
317.662872	716.278137	2137.466553	744.216064	1.965814
318.031830	719.844727	2150.097900	738.271790	1.288378
318.400757	717.987122	2167.781982	738.123291	1.388898
318.769684	722.742493	2176.921143	736.191406	0.924846
319.138550	723.485535	2190.369873	736.042786	0.856049
319.507416	722.296692	2205.453369	736.785828	0.976912
319.876190	722.742493	2226.035156	731.510315	0.583241
320.244995	724.748718	2237.403564	734.556702	0.648395
320.613770	724.154297	2217.638916	731.287415	0.477616
320.982483	724.823059	2204.413086	739.386414	0.984283
321.351166	725.714661	2166.667236	736.860107	0.773478
321.719818	720.364929	2159.534424	742.432800	1.533376
322.088440	715.683777	2157.825195	738.940613	1.612660
322.457062	705.429993	2177.961182	733.293518	1.892220
322.825623	714.643555	2211.917725	731.584534	1.131455
323.194183	719.398926	2252.709961	733.442200	0.915879
323.562653	722.742493	2309.328369	744.810547	1.390915
323.931183	720.587830	2376.275391	745.850769	1.525828
324.299591	714.569336	2445.451172	741.689758	1.566856
324.668060	719.844788	2502.218506	737.677429	1.000500
325.036407	720.513489	2542.862305	740.352295	1.088639
325.404755	723.857117	2558.391357	745.033386	1.154313
325.773102	720.364929	2563.815186	746.296570	1.406691
326.141388	717.764343	2565.524170	744.587585	1.451663
326.509674	719.621887	2564.632568	743.472961	1.292734
326.877899	725.045898	2583.728516	742.729980	0.951431
327.246124	729.875671	2601.561279	741.243958	0.607382
327.614288	730.395813	2613.301025	737.528809	0.378829
327.982422	725.714661	2600.149414	733.739441	0.428117
328.350525	726.234863	2584.025635	733.962219	0.415943
328.718628	724.302917	2566.415771	737.380188	0.709906
329.086700	726.383484	2572.137207	742.061279	0.849398
329.454712	722.891174	2569.387939	738.049011	0.820897
329.822693	721.479492	2588.855225	739.163391	0.946992
330.190674	725.343079	2595.245361	736.562927	0.600023
330.558563	725.714600	2609.065674	741.987000	0.864013
330.926483	723.485596	2630.093506	745.850769	1.173035
331.294312	725.714661	2651.715576	747.039551	1.107211
331.662231	721.553711	2693.919678	748.599915	1.371257
332.029999	721.033630	2737.683838	744.364563	1.156915
332.397766	716.278259	2787.987061	745.999329	1.434616
332.765503	718.210144	2833.608643	748.005554	1.408501
333.133240	721.479431	2875.515381	749.788757	1.314246
333.500916	723.039856	2929.236328	751.794922	1.303377
333.868561	722.742676	2968.839844	752.017883	1.303381
334.236176	723.857117	2996.926025	751.572083	1.219275
334.603790	715.163757	3004.133545	752.537903	1.632793
334.971344	717.912903	2992.096436	745.404846	1.208871
335.338867	716.129578	2988.975586	740.426575	1.069012
335.706360	713.231750	2990.090088	736.488586	1.021444
336.073853	715.609558	2992.393555	737.825989	0.975781
336.441284	714.940735	2990.981689	739.832214	1.093631
336.808655	715.535156	2985.483398	733.367859	0.785600
337.176086	713.974854	2968.170654	737.305908	1.035006
337.543396	707.659119	2907.614014	734.705322	1.229398
337.910706	716.203918	2831.528076	741.764099	1.208334
338.277954	711.225647	2833.608398	744.587585	1.571910
338.645264	721.479492	2911.626221	746.965332	1.163659
339.012421	720.662109	3064.318359	750.754700	1.284002
339.379669	723.039795	3175.252197	739.534973	0.672665
339.746796	720.587830	3257.431396	737.603088	0.670726
340.113953	719.101746	3306.768311	733.516541	0.557058
340.481018	715.386536	3343.250977	737.380188	0.836940
340.848114	712.191589	3358.854492	747.856934	1.347559
341.215118	714.940735	3355.436279	747.856934	1.246592
341.582153	721.776611	3363.089600	751.126221	1.111175
341.949066	725.491760	3385.900391	751.274841	0.969140
342.316010	723.634216	3414.135742	750.383118	0.994198
342.682922	718.061523	3433.305908	748.599915	1.124701
343.049835	715.981018	3449.057861	740.426575	0.894434
343.416656	709.368103	3486.358154	742.878601	1.206720
343.783478	710.928406	3544.611328	742.061279	1.098672
344.150269	714.866455	3654.207764	740.203674	0.862003
344.516998	716.278137	3776.435547	739.014832	0.742991
344.883728	713.677673	3878.304688	743.918884	0.955601
345.250427	705.355774	3951.344482	746.073669	1.254407
345.617065	706.024475	3984.854736	742.952881	1.126268
345.983704	716.649719	4004.990967	736.414246	0.601049
346.350281	716.575500	3975.864502	732.773438	0.496978
346.716827	722.222473	3930.317139	736.414246	0.442374
347.083405	715.163757	3876.819092	743.027161	0.881292
347.449860	725.937683	3839.221436	745.702087	0.634841
347.816376	725.045959	3794.862549	738.494690	0.438096
348.182770	719.919128	3760.460693	737.603088	0.581606
348.549194	716.575439	3748.200439	735.522644	0.624985
348.915558	716.798340	3765.810547	737.231628	0.670161
349.281921	720.216309	3792.336182	732.253357	0.391816
349.648193	715.832458	3822.428955	732.030457	0.521407
350.014526	708.699402	3845.240234	735.968445	0.869399
350.380737	703.126648	3902.304688	736.934387	1.056763
350.746948	704.389832	3950.899170	742.804260	1.183253
351.113159	713.603333	4015.690674	747.708313	1.032831
351.479309	726.532043	4044.891602	756.698914	0.909090
351.845428	727.497864	4077.881836	751.869202	0.727419
352.211517	725.863281	4109.683594	748.599915	0.671922
352.577576	724.971680	4151.441406	741.095398	0.470564
352.943604	724.228699	4211.998535	740.054993	0.453765
353.309601	724.823059	4272.628906	740.129395	0.431431
353.675537	721.330811	4368.628418	736.785828	0.423739
354.041473	717.021240	4484.169434	738.791992	0.577911
354.407379	714.866455	4581.580078	741.764099	0.695620
354.773254	709.591003	4677.355957	744.810364	0.887637
355.139038	714.420654	4736.352539	746.742249	0.803634
355.504913	718.804504	4845.428711	743.621582	0.601389
355.870636	726.457703	4933.031738	748.079773	0.514007
356.236389	725.417480	5049.018066	751.943542	0.613518
356.602081	723.857117	5165.524902	748.451355	0.553716
356.967804	720.587830	5316.953613	744.513367	0.520532
357.333405	718.804504	5465.039063	738.494812	0.414862
357.699036	717.467041	5620.183594	736.785828	0.394042
358.064606	715.015137	5757.271973	736.340027	0.422924
358.430176	721.628113	5856.837891	744.959045	0.454333
358.795654	720.290527	5906.546875	751.943542	0.610325
359.161163	720.587830	5874.818848	755.732971	0.681870
359.526581	721.850891	5857.803223	747.336731	0.496224
359.892029	726.011902	5894.360840	739.386414	0.258777
360.257416	727.126465	6017.926270	736.339905	0.174141
360.622772	721.256531	6233.552734	742.135559	0.378772
360.988098	716.798340	6466.863281	740.500916	0.412214
361.353394	723.336975	6759.467285	733.367859	0.166181
361.718658	727.052185	7029.928223	720.810730	-0.099026
362.083893	726.457703	7252.168457	726.680664	0.003417
362.449097	718.581604	7397.727051	734.482422	0.238067
362.814209	713.974792	7414.371094	748.079773	0.508999
363.179382	710.779785	7242.657715	748.971436	0.584696
363.544434	715.312256	6888.084473	743.101501	0.450191
363.909546	713.751953	6462.701660	740.129395	0.458822
364.274536	726.309082	6141.045410	742.432800	0.297775
364.639587	729.058350	5928.093750	751.051941	0.423032
365.004517	726.309082	5806.386230	748.599854	0.438788
365.369507	724.600098	5741.147949	747.411072	0.454715
365.734344	721.850891	5707.414551	741.986877	0.403886
366.099274	730.915833	5686.535645	748.897156	0.362847
366.464081	720.290588	5649.681641	752.760803	0.658706
366.828918	717.467102	5651.762207	752.537903	0.710756
367.193665	713.083191	5651.613770	746.370789	0.674038
367.558411	720.587830	5687.204590	745.999329	0.511646
367.923126	724.674500	5660.455566	750.977539	0.532905
368.287781	732.922058	5647.601563	758.853699	0.527636
368.652435	731.956116	5591.948730	754.989929	0.473947
369.017059	725.417480	5574.264160	748.302734	0.471973
369.381653	716.129639	5539.342285	742.581360	0.548425
369.746185	712.934570	5536.741699	743.621643	0.636159
370.110687	713.008972	5545.880859	746.370850	0.690312
370.475220	716.724060	5601.013184	740.649475	0.489844
370.839661	718.358704	5672.046875	747.188171	0.581980
371.204041	723.114075	5751.996582	754.767090	0.629424
371.568451	723.782776	5808.688965	750.903320	0.533354
371.932770	718.804504	5855.128906	734.705322	0.309576
372.297150	721.850891	5889.232910	731.287415	0.182617
372.661377	717.021301	5922.892578	734.185242	0.329704
373.025696	721.776550	5951.648438	750.085938	0.541302
373.389862	719.993347	5960.044434	749.937317	0.571444
373.754059	720.810608	5948.898926	752.092102	0.598335
374.118225	724.377258	5930.100098	752.315125	0.536676
374.482361	728.166687	5965.988281	752.835144	0.470968
374.846436	725.566101	6032.563965	758.110657	0.613239
375.210510	715.906677	6144.537598	749.342957	0.615925
375.574524	705.950195	6255.917969	755.435730	0.891636
375.938538	708.030579	6415.593750	768.215820	1.054482
376.302460	712.042969	6574.007813	775.646179	1.085015
376.666412	723.782776	6759.838379	773.194153	0.818604
377.030304	731.807556	6908.221191	761.454346	0.480000
377.394196	737.380188	7053.186035	761.454285	0.381172
377.757996	730.544434	7153.717285	760.636963	0.468499
378.121796	723.262695	7210.410156	763.088928	0.613925
378.485565	718.210144	7233.072754	770.147705	0.797216
378.849304	713.157471	7161.222168	776.834961	0.987544
379.212982	722.445313	7046.499512	786.048523	1.005735
379.576630	723.336914	6840.085938	788.500488	1.065330
379.940277	730.247131	6690.736816	791.026794	1.019709
380.303864	722.668274	6579.505859	792.141296	1.186187
380.667450	723.336975	6564.570801	800.166016	1.315288
381.030945	724.525818	6583.295410	812.946045	1.509194
381.394501	722.816895	6633.747559	824.388733	1.718373
381.757935	719.993408	6671.567871	830.407227	1.855204
382.121399	718.953125	6691.257813	835.905579	1.958247
382.484741	717.912903	6711.839355	851.063293	2.221422
382.848145	719.993347	6733.238281	865.329407	2.416932
383.211487	719.027405	6806.128906	878.109558	2.613430
383.574768	716.055359	6894.326172	885.762695	2.746842
383.938019	715.683777	7005.408691	898.542786	2.907265
384.301270	713.751953	7089.742676	917.935852	3.202387
384.664459	714.123535	7169.097656	940.152344	3.501622
385.027649	715.683838	7213.828125	963.409119	3.812246
385.390778	721.033630	7267.994629	985.105469	4.033503
385.753876	732.476257	7300.391113	1006.207458	4.167703
386.116943	734.779602	7362.805176	1030.652954	4.463974
386.479980	730.618652	7402.854980	1057.625000	4.901000
386.842987	717.318542	7467.795410	1090.466675	5.527730
387.205994	717.764343	7523.447754	1111.643066	5.787497
387.568909	717.467102	7561.787598	1144.187622	6.234666
387.931793	730.172852	7616.029297	1169.450562	6.379420
388.294678	729.949890	7664.771484	1216.855713	7.021173
388.657471	729.652649	7712.548340	1237.809082	7.277159
389.020294	723.411316	7691.371582	1274.737427	7.912302
389.383057	716.946960	7688.102051	1311.517334	8.529008
389.745819	716.575378	7675.322266	1361.374512	9.266024
390.108521	711.745789	7687.210938	1405.733032	9.948975
390.471191	712.191589	7767.903809	1450.314819	10.461356
390.833801	709.516663	7892.658203	1506.264771	11.091917
391.196442	719.993347	8083.244141	1564.443848	11.468447
391.558960	723.708496	8242.029297	1627.080933	12.015615
391.921509	725.194580	8421.172852	1687.489136	12.503862
392.284027	724.377258	8620.675781	1755.699097	13.060826
392.646484	721.256531	8737.851563	1809.494141	13.574810
393.008911	727.275085	8759.696289	1861.134766	14.116037
393.371307	719.250305	8684.427734	1904.155884	14.876072
393.733673	725.566101	8617.852539	1948.886108	15.500198
394.096008	716.649719	8560.268555	1998.817383	16.346636
394.458344	723.559875	8574.756836	2046.519897	16.850424
394.820587	717.690002	8591.624023	2093.181885	17.468929
395.182831	723.114075	8674.545898	2125.949463	17.642551
395.545013	725.343201	8628.626953	2159.682861	18.148653
395.907196	721.405090	8538.719727	2189.255615	18.776917
396.269287	714.940735	8378.449219	2216.375732	19.592007
396.631409	705.875793	8263.577148	2243.942139	20.350983
396.993469	711.745789	8141.349121	2266.753174	20.929884
397.355530	719.398926	8053.152344	2297.514404	21.518524
397.717499	728.092285	8025.957031	2319.879639	21.811686
398.079468	733.887939	8032.198730	2354.058838	22.199259
398.441376	728.018066	8052.111816	2380.064697	22.556328
398.803284	725.343201	8032.421875	2420.559814	23.199648
399.165131	723.708496	8076.557129	2462.838135	23.652460
399.526978	725.640320	8089.560059	2499.097656	24.083061
399.888763	724.302917	8111.330566	2542.267822	24.610233
400.250519	723.708496	8095.429688	2571.245850	25.062496
400.612244	724.971680	8135.775879	2618.799561	25.554958
400.973938	729.801331	8145.138672	2644.136719	25.815891
401.335602	723.411316	8163.714355	2670.737061	26.172667
401.697205	722.593933	8170.773438	2704.098877	26.603882
402.058807	716.055359	8242.475586	2751.058350	27.038124
402.420349	714.272034	8352.963867	2823.280518	27.609550
402.781860	716.872620	8461.891602	2884.283203	27.984575
403.143341	716.129639	8591.030273	2947.365967	28.333519
403.504822	715.535156	8717.493164	3007.402588	28.641333
403.866241	709.367981	8914.618164	3090.250000	29.016569
404.227631	710.036804	9094.058594	3151.624268	29.121912
404.588959	718.358704	9291.851563	3235.363281	29.357983
404.950287	718.284424	9400.111328	3289.678711	29.618124
405.311554	715.460938	9515.875977	3361.900635	30.071760
405.672821	718.432922	9563.131836	3411.386475	30.447090
406.034027	722.222473	9556.147461	3440.810303	30.774406
406.395203	724.674500	9462.377930	3430.036377	30.961933
406.756348	722.296692	9361.770508	3410.123291	31.111000
407.117493	723.708496	9310.725586	3409.231689	31.274225
407.478516	731.287354	9301.585938	3426.544189	31.448809
407.839600	720.885010	9290.441406	3445.119873	31.789682
408.200592	718.284363	9303.666992	3471.125732	32.064281
408.561554	708.253601	9285.983398	3500.698486	32.554592
408.922485	709.665283	9316.669922	3521.280273	32.666592
409.283417	709.665283	9306.639648	3533.614258	32.848171
409.644257	718.878845	9382.130859	3570.096924	32.911636
410.005096	727.349304	9516.766602	3633.848877	33.068172
410.365906	721.702332	9664.332031	3701.315674	33.319206
410.726715	718.953125	9790.944336	3751.618896	33.428886
411.087433	725.343079	9859.377930	3790.553467	33.558121
411.448120	734.036621	9939.030273	3830.008057	33.633606
411.808807	733.293640	9942.151367	3851.035889	33.855907
412.169434	726.309082	9857.147461	3839.667725	34.097183
412.530029	724.971680	9772.740234	3837.958740	34.406132
412.890564	722.593994	9736.108398	3847.246338	34.666302
413.251099	720.364929	9761.222656	3865.302002	34.785828
413.611572	721.033630	9826.980469	3885.660889	34.753410
413.972076	707.733398	9886.942383	3925.041260	35.049946
414.332489	708.922302	9927.735352	3962.564209	35.293499
414.692871	704.687012	10056.130859	4017.102295	35.421432
415.053223	715.237976	10167.881836	4071.789063	35.509125
415.413574	713.231873	10401.934570	4150.847168	35.480656
415.773834	718.507324	10537.091797	4221.360840	35.675751
416.134094	721.999512	10716.532227	4286.895020	35.668453
416.494263	721.553711	10835.416992	4361.124023	35.985954
416.854462	717.912903	11094.436523	4450.584473	35.972275
417.214630	708.699402	11394.620117	4567.760254	36.113506
417.574738	708.773621	11744.065430	4696.972656	36.140404
417.934784	711.374207	12035.554688	4824.029785	36.317467
418.294861	717.912903	12409.372070	4967.953613	36.351669
418.654846	717.318420	12828.959961	5112.621582	36.289906
419.014832	714.197754	13301.450195	5288.421387	36.340130
419.374756	721.182190	13768.590820	5459.466309	36.315903
419.734680	722.073914	14268.278320	5654.214355	36.409763
420.094543	726.531982	14747.010742	5831.723145	36.412392
420.454376	722.668274	15195.278320	6015.177246	36.569138
420.814148	726.383362	15637.601563	6186.815918	36.619629
421.173920	716.724060	16116.928711	6380.300293	36.775978
421.533691	720.662109	16609.257813	6552.607910	36.705231
421.893341	717.541321	17000.240234	6714.365234	36.829422
422.253021	722.073792	17223.445313	6817.571777	36.939342
422.612640	721.776611	17283.927734	6867.132324	37.104816
422.972260	720.810730	17212.447266	6860.221191	37.227417
423.331757	722.148132	17126.775391	6844.543457	37.321152
423.691315	722.073914	17133.390625	6843.131348	37.297787
424.050781	722.816895	17249.005859	6889.645996	37.315495
424.410248	721.925232	17380.000000	6949.979004	37.387596
424.769653	715.460876	17502.748047	7016.703125	37.535797
425.128998	713.603271	17556.544922	7046.201172	37.597931
425.488373	714.123352	17462.179688	7008.455566	37.582462
425.847656	715.758118	17216.462891	6936.529785	37.700035
426.206940	721.850891	16952.314453	6855.614746	37.791672
426.566193	718.507324	16649.755859	6754.489746	37.887695
426.925385	715.312256	16353.434570	6662.725098	38.031506
427.284576	712.785950	15913.191406	6508.992676	38.131920
427.643677	717.244141	15553.789063	6386.987793	38.214718
428.002777	718.061523	15200.627930	6261.267578	38.275024
428.361847	717.987122	14856.085938	6163.335938	38.515423
428.720856	718.284424	14535.172852	6050.693359	38.593414
429.079865	722.742615	14282.840820	5963.982910	38.651932
429.438812	723.708496	14129.479492	5892.132324	38.553722
429.797760	727.720886	14022.706055	5868.354980	38.665966
430.156616	724.971680	13865.184570	5818.794922	38.765148
430.515503	717.541443	13771.414063	5791.302734	38.867863
430.874268	715.758118	13713.161133	5782.609375	38.983562
431.233093	715.312256	13744.963867	5788.107910	38.932705
431.591827	717.689941	13807.377930	5810.919434	38.910244
431.950562	717.392761	13872.391602	5820.652344	38.793312
432.309204	721.850891	13946.621094	5875.487793	38.969574
432.667877	722.965515	14066.026367	5915.462402	38.915337
433.026459	718.507324	14193.752930	5983.003906	39.067905
433.385010	717.169861	14320.364258	6031.374512	39.065857
433.743561	715.683777	14476.028320	6130.123047	39.348137
434.102051	718.953125	14642.317383	6196.698730	39.342113
434.460510	716.575378	14810.092773	6263.794434	39.360077
434.818939	723.931396	14865.077148	6284.598145	39.322605
435.177338	724.525879	14866.414063	6288.313965	39.342609
435.535675	725.417480	14802.140625	6281.031738	39.466675
435.894012	718.804504	14755.777344	6261.044434	39.483154
436.252289	719.324646	14782.749023	6282.443848	39.557358
436.610535	717.541321	14796.198242	6274.939453	39.473919
436.968719	717.392761	14907.578125	6323.607422	39.507690
437.326935	719.324646	15001.421875	6392.560059	39.722702
437.685028	719.027405	15138.510742	6450.070313	39.745132
438.043152	719.398926	15249.148438	6503.345215	39.807610
438.401215	712.191589	15450.804688	6583.814941	39.838371
438.759277	715.163757	15670.739258	6701.436035	40.027031
439.117249	719.250305	16068.928711	6849.818848	39.939392
439.475250	721.405090	16383.229492	6969.743652	39.895344
439.833130	722.965393	16786.396484	7104.603516	39.727741
440.191071	716.203857	17035.164063	7238.942871	39.970314
440.548889	717.764343	17339.134766	7348.613281	39.893517
440.906708	715.758118	17644.890625	7495.287109	40.046520
441.264496	726.606262	17870.103516	7565.131348	39.889904
441.622223	732.550537	18043.525391	7644.412598	39.927631
441.979950	736.637207	18073.689453	7643.298340	39.837574
442.337616	731.584534	18071.015625	7658.604004	39.949520
442.695251	726.160461	17908.589844	7606.369629	40.042118
443.052887	726.234802	17718.449219	7564.686035	40.244614
443.410461	724.377258	17514.859375	7508.661621	40.405533
443.768005	719.621826	17381.115234	7466.978027	40.496708
444.125458	711.820068	17314.837891	7432.128906	40.476429
444.482941	709.888184	17371.679688	7447.955566	40.440235
444.840393	719.398926	17504.607422	7501.305176	40.404060
445.197754	721.256531	17770.460938	7611.570801	40.414288
445.555084	720.662109	18035.126953	7734.318848	40.507500
445.912415	712.563049	18414.369141	7894.887207	40.573963
446.269714	719.027405	18710.169922	8028.186035	40.626427
446.626953	725.714661	19033.162109	8168.544434	40.654655
446.984161	720.290527	19343.154297	8294.338867	40.670696
447.341309	717.169861	19577.205078	8382.536133	40.643436
447.698456	716.426819	19755.830078	8455.278320	40.646503
448.055542	724.302979	19804.869141	8497.555664	40.739109
448.412598	720.067688	19771.732422	8490.868164	40.788040
448.769653	716.055359	19616.585938	8425.705078	40.790653
449.126617	716.426819	19345.826172	8315.811523	40.792431
449.483582	721.107910	19072.394531	8235.416992	40.947041
449.840515	723.708496	18748.732422	8123.665527	41.053799
450.197388	727.200684	18481.169922	8030.638184	41.136929
450.554230	728.761047	18263.980469	7950.391113	41.183575
450.911041	721.850891	18099.326172	7874.156738	41.158485
451.267822	713.974854	17962.755859	7825.117188	41.226929
451.624573	708.104919	17785.990234	7758.467285	41.283581
451.981262	717.467041	17658.636719	7714.777344	41.303585
452.337921	720.067627	17508.248047	7658.901855	41.331665
452.694580	725.343201	17427.705078	7618.035156	41.267769
453.051147	720.959290	17428.001953	7621.007324	41.300236
453.407715	719.770508	17347.902344	7597.007813	41.359047
453.764221	717.244141	17350.279297	7594.332520	41.345963
454.120728	719.176086	17095.199219	7533.701660	41.612820
454.477142	725.714661	17043.781250	7496.401855	41.491970
454.833557	732.476257	16860.998047	7445.727051	41.623474
455.189911	733.888000	16746.794922	7354.037598	41.342583
455.546265	731.138855	16554.349609	7290.137207	41.451756
455.902557	725.640381	16431.453125	7238.050781	41.464970
456.258820	721.702332	16419.191406	7254.248535	41.615231
456.615051	724.674500	16481.755859	7283.300781	41.623360
456.971252	722.148132	16470.683594	7286.050781	41.679451
457.327393	720.587708	16649.751953	7363.548340	41.703133
457.683502	715.906738	16893.615234	7477.900391	41.798214
458.039612	715.163635	17359.271484	7673.464844	41.806396
458.395630	724.674500	17832.056641	7856.844238	41.690598
458.751648	725.343201	18313.466797	8046.242188	41.624107
459.107605	726.160461	18933.373047	8315.588867	41.683636
459.463562	715.980957	19578.914063	8611.684570	41.858303
459.819458	718.507324	20188.197266	8889.354492	41.967014
460.175323	714.569153	20708.685547	9092.573242	41.902344
460.531158	723.262634	21203.023438	9272.237305	41.743526
460.886932	721.553711	21506.548828	9380.570313	41.659939
461.242676	727.126465	21627.367188	9442.092773	41.697926
461.598419	726.234863	21398.365234	9391.567383	41.917942
461.954102	727.646545	20939.250000	9222.007813	42.027153
462.309723	729.949951	20299.353516	8978.219727	42.148804
462.665344	724.154297	19616.810547	8684.947266	42.136971
463.020905	724.228577	19101.521484	8457.506836	42.080616
463.376373	714.717957	18661.126953	8252.655273	42.002487
463.731873	722.073914	18329.292969	8125.225098	42.046116
464.087341	718.061523	18063.437500	8030.638184	42.158653
464.442749	727.126465	17929.693359	8004.854980	42.306061
464.798126	721.850891	17851.750000	7966.439941	42.292072
465.153503	730.247070	17911.638672	7987.839844	42.241009
465.508820	729.578369	17990.919922	8004.037598	42.143066
465.864105	729.058289	18159.585938	8071.132813	42.121929
466.219330	728.909668	18449.218750	8185.410156	42.078842
466.574524	726.606262	18664.845703	8271.378906	42.059715
466.929657	721.999512	18820.583984	8351.922852	42.157570
467.284790	715.163635	18923.416016	8421.247070	42.321930
467.639893	719.770325	19049.062500	8487.600586	42.379322
467.994934	723.931335	19205.099609	8558.558594	42.392490
468.349945	726.234802	19257.482422	8588.651367	42.427883
468.704926	719.621826	19236.751953	8599.575195	42.554935
469.059875	721.107910	19028.185547	8519.922852	42.599998
469.414764	725.491699	18776.521484	8419.688477	42.624699
469.769653	728.984070	18574.119141	8324.506836	42.563549
470.124451	727.869446	18489.263672	8300.952148	42.637882
470.479248	725.566101	18367.853516	8250.426758	42.652412
470.834015	716.575439	18265.615234	8224.940430	42.785049
471.188721	715.832336	18331.521484	8226.574219	42.636662
471.543365	712.637390	18439.556641	8274.127930	42.655411
471.898010	714.420715	18596.929688	8320.790039	42.535244
472.252625	712.340149	18742.638672	8408.245117	42.683178
472.607178	712.934570	19037.916016	8514.274414	42.572159
472.961700	712.414490	19267.365234	8619.264648	42.613155
473.316193	716.426758	19568.140625	8758.656250	42.660465
473.670654	714.643555	19707.535156	8818.692383	42.668854
474.025055	725.120300	19939.880859	8923.088867	42.664955
474.379456	722.296692	20045.462891	8971.607422	42.691299
474.733795	726.234863	20154.912109	9050.814453	42.846870
475.088104	722.965515	20241.845703	9115.382813	42.996403
475.442383	722.296814	20262.501953	9121.030273	42.981808
475.796570	717.838562	20389.857422	9157.735352	42.903049
476.150787	720.216248	20590.250000	9226.020508	42.807198
476.504944	719.101746	20877.505859	9317.487305	42.654099
476.859070	724.674500	21174.416016	9426.786133	42.553650
477.213135	720.959290	21424.445313	9528.655273	42.542091
477.567200	725.343201	21871.525391	9720.059570	42.535892
477.921173	722.519714	22263.474609	9910.793945	42.654907
478.275146	723.857117	22774.970703	10132.810547	42.668835
478.629089	723.559875	23043.501953	10270.122070	42.771450
478.983002	724.674500	23492.439453	10450.380859	42.716999
479.336823	727.423645	23849.390625	10578.999023	42.606995
479.690643	726.680664	24328.642578	10769.659180	42.551456
480.044403	726.754883	24786.273438	10976.666992	42.602314
480.398163	728.166687	25468.447266	11296.317383	42.716370
480.751862	731.584656	26357.775391	11668.054688	42.676922
481.105499	729.504089	27484.130859	12168.854492	42.756531
481.459137	719.621887	28937.271484	12785.121094	42.758694
481.812744	704.835632	30762.291016	13615.676758	42.953873
482.166290	695.027588	33048.066406	14594.094727	42.960625
482.519806	695.696350	35777.128906	15764.511719	42.953819
482.873291	711.894348	38943.839844	17117.265625	42.910114
483.226715	713.677673	42492.238281	18666.923828	42.972389
483.580139	710.705566	45999.105469	20346.759766	43.357803
483.933502	703.498108	49325.191406	22041.679688	43.886135
484.286804	704.761292	51985.156250	23626.853516	44.699524
484.640106	715.312317	53994.375000	24962.818359	45.510384
484.993347	716.947021	55089.519531	25826.958984	46.181393
485.346558	718.953125	55306.410156	26113.468750	46.520790
485.699738	714.717957	54642.890625	25729.322266	46.385040
486.052887	717.838623	53351.957031	24916.453125	45.975151
486.405975	722.668274	51792.488281	23903.185547	45.389854
486.759064	726.383362	50172.765625	22946.314453	44.937428
487.112061	728.092285	48879.750000	22179.513672	44.549706
487.464996	722.816833	48139.917969	21694.166016	44.227398
487.817963	720.959290	48048.968750	21542.291016	43.993679
488.170868	712.563049	48146.230469	21546.080078	43.921371
488.523743	716.129578	48238.886719	21617.335938	43.981468
488.876587	711.968567	47979.722656	21560.345703	44.106976
489.229401	720.884949	47494.894531	21377.189453	44.161930
489.582153	722.371094	46603.187500	20982.417969	44.157990
489.934845	723.039795	45557.152344	20478.349609	44.063122
490.287537	717.467102	44477.312500	19966.179688	43.987160
490.640198	719.250305	43648.394531	19566.654297	43.903519
490.992798	726.457703	43073.957031	19244.626953	43.729076
491.345337	726.680664	42903.503906	19144.394531	43.667854
491.697876	726.383362	43012.359375	19152.345703	43.574642
492.050354	721.850891	43422.214844	19320.343750	43.555817
492.402832	722.148132	43659.015625	19437.517578	43.588112
492.755219	717.615723	43507.960938	19416.712891	43.699341
493.107605	715.015137	42725.996094	19154.349609	43.891701
493.459930	724.080078	41458.835938	18665.958984	44.045624
493.812225	724.154297	39694.144531	17918.771484	44.122711
494.164490	720.810730	37727.351563	17060.574219	44.153721
494.516724	711.002686	35707.433594	16119.975586	44.030128
494.868896	716.278320	33879.511719	15300.268555	43.976379
495.221039	724.674500	32440.716797	14618.465820	43.806824
495.573120	719.993408	31324.986328	14102.358398	43.726086
495.925201	718.061523	30721.427734	13815.402344	43.652905
496.277222	714.643555	30370.125000	13695.551758	43.772377
496.629211	717.244141	30299.458984	13683.812500	43.832310
496.981140	714.940735	30308.154297	13667.019531	43.767059
497.333069	716.352539	30398.429688	13683.812500	43.687843
497.684967	724.748779	30480.982422	13688.715820	43.567230
498.036804	723.114075	30526.529297	13700.679688	43.543884
498.388580	727.349304	30456.833984	13643.242188	43.444725
498.740326	724.971680	30315.880859	13597.098633	43.500275
499.092072	728.240967	29990.289063	13495.676758	43.631378
499.443756	721.850891	29621.150391	13397.671875	43.862038
499.795410	720.216309	29238.197266	13228.485352	43.860992
500.147003	718.284424	28881.837891	13065.464844	43.840992
500.498566	715.015137	28535.736328	12882.680664	43.735985
500.850098	709.962463	28125.140625	12765.355469	43.973423
501.201599	707.733398	27787.064453	12627.821289	44.019135
501.553009	716.278320	27452.107422	12501.581055	44.080559
501.904449	718.655945	27254.087891	12370.139648	43.909153
502.255859	718.358704	27041.953125	12271.688477	43.889637
502.607178	713.677551	26957.916016	12242.117188	43.927505
502.958405	711.448547	26838.958984	12185.721680	43.916447
503.309692	716.129639	26785.537109	12152.878906	43.870380
503.660919	719.176086	26786.724609	12134.081055	43.789715
504.012115	728.092346	26825.734375	12150.426758	43.767685
504.363251	724.971680	26928.271484	12203.702148	43.806431
504.714294	723.634216	26979.689453	12242.041992	43.869530
505.065369	717.095642	27057.857422	12265.223633	43.841282
505.416443	719.547546	27091.068359	12285.657227	43.858334
505.767395	718.730164	27116.851563	12294.796875	43.851856
506.118317	719.993347	27069.369141	12293.606445	43.923672
506.469238	716.352539	27089.134766	12305.867188	43.944984
506.820160	714.197754	27066.994141	12278.450195	43.882446
507.170929	720.810730	27116.333984	12305.570313	43.889107
507.521729	723.634216	27141.298828	12329.273438	43.931362
507.872498	724.822998	27225.259766	12383.960938	43.996021
508.223236	714.049133	27367.177734	12449.346680	44.029720
508.573883	719.696106	27543.275391	12511.387695	43.960171
508.924500	724.005676	27766.109375	12595.053711	43.898388
509.275116	732.624817	27994.218750	12690.085938	43.861931
509.625702	727.646545	28241.796875	12785.863281	43.825512
509.976196	726.531982	28505.791016	12906.605469	43.845924
510.326660	726.086182	28775.810547	12996.660156	43.745792
510.677124	727.200684	28998.718750	13109.526367	43.797882
511.027557	726.531982	29241.837891	13196.534180	43.730907
511.377869	718.953125	29425.365234	13317.424805	43.887310
511.728180	715.832336	29602.130859	13414.687500	43.961517
512.078430	713.603333	29719.156250	13477.101563	44.003635
512.428650	714.494934	29836.478516	13523.168945	43.982834
512.778931	717.318420	29939.240234	13530.227539	43.846909
513.129028	721.925293	29973.865234	13561.731445	43.893864
513.479126	724.525879	30036.281250	13580.679688	43.860062
513.829285	727.720886	29989.023438	13562.476563	43.862556
514.179382	723.188416	29958.263672	13568.346680	43.937489
514.529297	725.343079	29836.109375	13545.609375	44.039608
514.879272	712.860352	29840.343750	13578.895508	44.171459
515.229187	713.454773	29757.943359	13532.902344	44.137280
515.579163	712.191589	29796.505859	13534.463867	44.086555
515.928955	717.021240	29839.156250	13547.764648	44.058388
516.278748	716.203918	30043.265625	13639.750000	44.066963
516.628540	714.272034	30336.687500	13783.452148	44.119225
516.978333	712.711731	30742.306641	13963.190430	44.124733
517.327942	712.340149	31271.490234	14165.143555	44.022179
517.677612	711.968689	31867.771484	14423.346680	44.009068
518.027222	710.779846	32504.320313	14680.582031	43.939117
518.376831	713.826172	33246.675781	15024.679688	43.988934
518.726379	714.866516	33939.921875	15279.909180	43.837528
519.075867	721.479431	34470.964844	15534.097656	43.889908
519.425293	720.587830	34812.089844	15706.109375	43.956764
519.774658	725.045898	34991.082031	15839.557617	44.109310
520.124084	725.268860	35069.394531	15898.182617	44.179066
520.473389	724.674377	34824.347656	15817.786133	44.261749
520.822693	720.141907	34426.386719	15660.784180	44.326035
521.171997	726.383362	33926.847656	15444.340820	44.330574
521.521240	722.148132	33491.132813	15251.749023	44.339489
521.870361	722.073914	33091.238281	15078.325195	44.351627
522.219482	710.928406	32745.429688	14933.210938	44.396763
522.568604	717.318542	32470.437500	14784.085938	44.300426
522.917664	714.049133	32310.240234	14704.507813	44.278942
523.266724	721.033691	32394.423828	14719.887695	44.197521
523.615662	721.107910	32661.693359	14852.816406	44.243736
523.964600	727.200745	33072.214844	15060.864258	44.314907
524.313538	733.962219	33625.917969	15298.632813	44.280342
524.662354	732.253418	34301.925781	15595.770508	44.276623
525.011169	732.996338	35192.816406	15961.636719	44.192455
525.359985	724.005676	36236.988281	16426.771484	44.216969
525.708740	725.045898	37490.699219	16928.908203	44.073372
526.057434	726.011902	38903.269531	17537.150391	44.034431
526.406067	727.572266	40454.488281	18254.171875	44.117699
526.754700	723.857117	42167.238281	19088.146484	44.311752
527.103333	725.714661	44103.046875	20007.345703	44.450939
527.451782	719.770508	46256.562500	21021.947266	44.584114
527.800293	719.473328	48438.167969	22121.775391	44.850979
528.148743	714.346375	50503.406250	23269.085938	45.300594
528.497131	713.008972	52298.488281	24370.328125	45.860420
528.845642	717.021240	53800.519531	25396.447266	46.491707
529.193909	709.591003	54985.281250	26291.052734	47.132446
529.542175	715.980957	55786.035156	26983.927734	47.699150
529.890503	718.804504	56085.253906	27320.812500	48.047161
530.238770	725.937561	55833.812500	27242.052734	48.116745
530.586914	725.566101	55044.050781	26702.169922	47.822769
530.934998	728.092346	53805.796875	25833.498047	47.299347
531.283142	728.909668	52237.332031	24796.603516	46.725742
531.631226	730.841553	50423.753906	23702.718750	46.227673
531.979248	721.107910	48612.628906	22683.283203	45.858173
532.327148	719.547546	47023.441406	21758.289063	45.436226
532.675110	714.792175	45940.332031	21094.914063	45.063301
533.023071	717.392822	45422.292969	20752.974609	44.817421
533.370850	716.426819	45284.832031	20659.351563	44.746773
533.718689	717.467102	45485.597656	20769.320313	44.790466
534.066467	719.696106	45714.300781	20876.611328	44.798515
534.414246	717.467102	45870.488281	20960.425781	44.831905
534.761963	717.244141	45707.765625	20884.263672	44.825039
535.109619	718.358704	45300.292969	20754.162109	44.941528
535.457153	716.352539	44562.832031	20468.912109	45.049358
535.804749	713.306152	43701.964844	20126.451172	45.158756
536.152344	714.494934	42860.261719	19713.552734	45.079399
536.499817	719.993408	41971.675781	19255.548828	44.932842
536.847229	722.519592	41067.707031	18807.578125	44.825813
537.194641	717.318420	40214.343750	18356.560547	44.659676
537.542114	714.494934	39630.699219	18067.599609	44.590954
537.889404	721.479431	39154.562500	17862.669922	44.600098
538.236694	723.188416	38688.312500	17686.126953	44.680321
538.583984	729.281250	38272.511719	17528.234375	44.745625
538.931213	725.491760	38038.609375	17383.121094	44.642822
539.278381	729.504150	37927.457031	17312.757813	44.581093
539.625488	723.188416	37974.859375	17299.457031	44.498055
539.972595	724.451599	38247.250000	17425.101563	44.508011
540.319641	721.256531	38922.734375	17703.070313	44.453293
540.666687	718.358704	39924.562500	18086.470703	44.299397
541.013611	714.494934	41226.640625	18671.308594	44.324524
541.360596	716.649719	42587.273438	19296.937500	44.375473
541.707458	722.891174	44017.968750	19995.306641	44.514103
542.054260	722.371033	45207.261719	20547.005859	44.564873
542.401062	719.919128	46204.406250	21053.007813	44.703346
542.747864	721.628113	46628.824219	21336.845703	44.906288
543.094666	726.754883	46562.691406	21412.560547	45.130100
543.441284	724.005676	45912.027344	21182.740234	45.274685
543.787903	719.993408	44954.707031	20773.406250	45.334106
544.134460	713.529053	43706.199219	20168.507813	45.251846
544.481079	711.671448	42255.582031	19476.005859	45.167473
544.827637	709.888184	40646.039063	18686.390625	45.013103
545.174072	713.306091	39026.609375	17912.826172	44.891766
545.520508	714.792175	37640.199219	17261.339844	44.810738
545.866943	716.352539	36511.464844	16722.273438	44.715382
546.213318	714.272034	35676.750000	16328.247070	44.659237
546.559631	715.981018	34937.957031	15976.942383	44.594036
546.905823	717.764343	34331.796875	15724.387695	44.643925
547.252136	716.055359	33821.183594	15494.569336	44.641159
547.598389	718.432922	33373.214844	15322.558594	44.722778
547.944458	715.906677	32975.843750	15126.102539	44.669014
548.290588	725.565979	32491.314453	14901.782227	44.627365
548.636658	725.714661	31895.259766	14619.284180	44.574181
548.982727	729.652649	31157.283203	14291.979492	44.572407
549.328735	720.439148	30419.384766	13991.796875	44.686291
549.674622	724.005676	29666.849609	13686.709961	44.787251
550.020569	714.420654	28964.166016	13392.768555	44.879509
550.366455	717.615723	28204.125000	13034.778320	44.811665
550.712280	712.414551	27559.177734	12711.190430	44.693565
551.058044	719.919128	27041.062500	12464.058594	44.618656
551.403748	719.473328	26659.966797	12286.622070	44.591087
551.749512	717.244141	26367.732422	12165.362305	44.631191
552.095154	722.519714	26185.244141	12062.600586	44.536007
552.440735	731.138855	26124.615234	12020.098633	44.456142
552.786316	729.875671	26134.572266	12006.726563	44.388840
553.131897	726.234680	26174.250000	12010.737305	44.343349
553.477417	714.792175	26172.466797	12046.997070	44.513905
553.822815	714.346375	26154.037109	12038.601563	44.514122
554.168213	715.832336	26072.228516	12038.674805	44.654778
554.513672	719.770508	25970.955078	11964.743164	44.532459
554.859009	725.714661	25778.437500	11897.351563	44.592506
555.204285	724.748779	25621.734375	11803.804688	44.499584
555.549500	717.615662	25383.740234	11714.270508	44.582012
555.894714	712.860291	25163.062500	11592.933594	44.498909
556.239990	710.854065	24770.966797	11481.703125	44.766407
556.585022	724.080017	24475.539063	11339.561523	44.694019
556.930115	721.033630	24144.296875	11216.218750	44.806675
557.275146	727.126465	23927.109375	11081.136719	44.629387
557.620178	714.866516	23706.804688	10995.614258	44.714581
557.965149	715.312256	23555.968750	10898.574219	44.583927
558.310059	714.272034	23387.822266	10837.274414	44.646744
558.654968	723.114075	23228.664063	10775.603516	44.666710
558.999756	730.247131	23125.162109	10746.997070	44.727791
559.344604	724.674500	23091.578125	10710.143555	44.643948
559.689331	719.027405	23065.869141	10659.542969	44.482864
560.033997	711.597168	22970.537109	10633.313477	44.574078
560.378723	711.522888	22944.976563	10629.523438	44.608459
560.723389	717.987122	22947.802734	10676.706055	44.798923
561.067932	725.566101	23043.130859	10685.844727	44.629772
561.412476	725.789001	23012.296875	10693.722656	44.726315
561.757019	723.782898	22966.228516	10658.428711	44.665257
562.101501	722.296692	22967.789063	10683.765625	44.779716
562.445862	720.885010	22956.570313	10668.608398	44.737652
562.790222	717.987122	22950.103516	10674.848633	44.785934
563.134644	719.844727	22901.212891	10636.434570	44.706848
563.478943	720.141907	22927.369141	10622.614258	44.591217
563.823181	711.448547	22964.296875	10626.700195	44.557228
564.167358	709.813904	22989.931641	10636.359375	44.553383
564.511536	721.776611	23039.490234	10681.165039	44.625488
564.855774	731.213074	23037.929688	10692.831055	44.657482
565.199768	729.578369	23140.171875	10756.507813	44.741920
565.543823	719.473206	23285.431641	10791.801758	44.635056
565.887817	718.210144	23590.890625	10886.834961	44.457516
566.231812	718.284424	23835.791016	10957.644531	44.292667
566.575745	718.284485	24025.562500	11035.143555	44.264542
566.919617	720.364929	24171.195313	11101.717773	44.268593
567.263428	715.312256	24288.962891	11146.745117	44.250393
567.607239	716.798340	24437.494141	11240.589844	44.365440
567.950989	717.764343	24480.146484	11250.769531	44.326382
568.294678	719.993408	24484.679688	11243.785156	44.283321
568.638367	722.073792	24344.025391	11148.528320	44.138836
568.981995	718.507324	24137.384766	11083.364258	44.258560
569.325623	715.089355	23886.169922	11003.340820	44.401260
569.669128	707.064758	23709.179688	10920.567383	44.402451
570.012573	717.169861	23608.646484	10849.459961	44.262283
570.356140	720.884949	23621.947266	10819.219727	44.095486
570.699524	728.538147	23613.552734	10819.070313	44.092316
571.042908	721.256531	23741.947266	10876.135742	44.111961
571.386230	717.021301	23833.267578	10939.886719	44.223724
571.729492	715.535156	23987.072266	11019.167969	44.275688
572.072815	717.987122	24096.000000	11048.739258	44.190033
572.416016	725.194580	24221.421875	11080.467773	44.072071
572.759094	725.863281	24365.494141	11133.000000	44.024109
573.102234	721.702393	24454.212891	11174.460938	44.044052
573.445374	722.891174	24482.968750	11194.745117	44.073311
573.788391	719.919128	24460.234375	11198.608398	44.138798
574.131409	718.804504	24429.398438	11182.336914	44.130199
574.474365	713.231750	24412.828125	11163.092773	44.092995
574.817261	715.832520	24280.123047	11095.476563	44.048195
575.160156	719.324707	24082.181641	11018.127930	44.081947
575.502930	716.724060	23862.914063	10935.578125	44.149189
575.845703	715.609436	23659.400391	10832.445313	44.094002
576.188477	714.197754	23430.695313	10745.510742	44.158710
576.531250	724.080078	23128.580078	10655.233398	44.326599
576.873901	723.262695	22859.009766	10546.231445	44.376045
577.216431	720.587830	22594.046875	10436.114258	44.416965
577.559082	714.346375	22339.039063	10296.499023	44.311161
577.901611	717.392822	22031.275391	10168.475586	44.342381
578.244080	718.210144	21675.365234	10045.950195	44.508621
578.586487	722.742615	21352.744141	9905.815430	44.513195
578.928955	743.175781	21031.087891	9780.616211	44.545937
579.271301	741.541199	20736.328125	9606.896484	44.338333
579.613647	730.618652	20382.500000	9429.386719	44.264301
579.955872	711.077087	20063.666016	9258.936523	44.169071
580.298157	708.030701	19785.550781	9138.790039	44.192116
580.640320	716.798340	19539.460938	9049.997070	44.272160
580.982483	712.934570	19302.734375	8957.788086	44.351490
581.324524	716.055359	19058.130859	8874.717773	44.480583
581.666626	719.101746	18901.943359	8815.497070	44.527668
582.008728	709.962463	18816.642578	8766.977539	44.497475
582.350647	705.281433	18773.919922	8694.161133	44.214066
582.692566	699.634460	18666.998047	8637.245117	44.177940
583.034424	708.996582	18552.943359	8588.206055	44.156204
583.376343	711.225586	18431.755859	8553.581055	44.255756
583.718201	711.968689	18360.277344	8514.943359	44.213726
584.059937	715.312256	18276.908203	8478.312500	44.204411
584.401611	715.609558	18189.156250	8475.414063	44.408871
584.743347	720.141907	18112.179688	8433.062500	44.347424
585.085022	718.135742	18037.208984	8404.530273	44.381092
585.426514	722.148132	17968.701172	8348.803711	44.221333
585.768127	720.067688	17918.771484	8339.069336	44.299862
586.109619	719.324646	17840.380859	8303.997070	44.300259
586.451172	719.027405	17785.841797	8273.979492	44.266914
586.792542	717.541321	17730.412109	8246.041992	44.251793
587.133850	714.123535	17681.445313	8215.502930	44.210743
587.475220	716.649719	17677.062500	8219.590820	44.237965
587.816589	724.154297	17658.265625	8216.247070	44.242611
588.157776	724.971680	17713.322266	8240.692383	44.240437
588.498962	724.823059	17751.142578	8240.097656	44.139156
588.840210	723.411316	17846.175781	8250.202148	43.957806
589.181335	727.200745	17911.042969	8272.791016	43.910961
589.522400	726.903564	17964.392578	8302.585938	43.948879
589.863403	722.891174	17970.855469	8330.747070	44.108715
590.204407	723.336975	17989.208984	8312.913086	43.957100
590.545410	723.634216	18028.513672	8310.758789	43.843845
590.886353	718.284424	18038.173828	8301.620117	43.783978
591.227112	715.981018	17982.001953	8321.534180	44.049252
591.567932	716.129700	17917.804688	8304.444336	44.113808
591.908752	726.234802	17840.380859	8274.722656	44.106716
592.249512	726.234802	17833.767578	8255.701172	44.012577
592.590149	719.324646	17742.001953	8207.849609	43.991463
592.930786	716.129639	17678.251953	8176.568359	43.982929
593.271423	714.123352	17577.125000	8105.683594	43.833004
593.612000	718.878723	17515.826172	8081.906250	43.835510
593.952576	711.671448	17512.630859	8056.569824	43.717136
594.292969	714.494934	17557.732422	8063.033691	43.629013
594.633484	711.745789	17620.740234	8093.498535	43.655777
594.973877	723.931396	17717.929688	8129.312500	43.576450
595.314209	722.148132	17844.912109	8163.416504	43.458340
595.654480	728.686768	18069.677734	8234.672852	43.284645
595.994812	722.742493	18242.060547	8315.812500	43.341125
596.335022	720.513489	18444.462891	8439.081055	43.548801
596.675171	714.792175	18583.259766	8499.488281	43.566673
597.015320	721.628113	18790.341797	8571.636719	43.445313
597.355408	729.875671	18904.839844	8601.430664	43.309879
597.695496	734.185242	19025.134766	8631.375977	43.175404
598.035461	724.674377	18966.509766	8607.672852	43.213844
598.375366	719.844727	18942.214844	8596.006836	43.222488
598.715271	720.736389	18792.642578	8564.206055	43.401451
599.055176	725.268860	18621.673828	8504.466797	43.467937
599.395081	728.018066	18327.732422	8390.486328	43.537457
599.734802	722.222412	17998.050781	8265.954102	43.666397
600.074524	714.792175	17685.681641	8129.758301	43.692268
600.414246	712.117188	17337.052734	7983.009766	43.734863
600.753906	717.838562	17031.224609	7806.318359	43.451923
601.093506	722.370911	16723.091797	7656.449219	43.336037
601.433044	720.587708	16555.833984	7562.753906	43.208462
601.772583	719.101746	16416.146484	7506.877441	43.242382
602.112122	715.906738	16406.335938	7503.757324	43.261089
602.451538	721.553711	16408.937500	7505.169434	43.242493
602.790894	724.080017	16506.275391	7540.017090	43.187508
603.130310	728.463867	16674.125000	7594.853027	43.061176
603.469604	715.089355	16910.853516	7700.213379	43.129330
603.808838	710.705566	17200.189453	7821.550293	43.123512
604.148010	705.950195	17500.074219	7965.920410	43.229225
604.487305	716.501160	17769.125000	8052.706543	43.020981
604.826416	716.352539	17997.679688	8135.479004	42.931461
605.165527	716.352539	18172.068359	8178.203125	42.747322
605.504456	714.197754	18294.519531	8259.712891	42.920231
605.843445	717.021301	18344.970703	8301.172852	43.023445
606.182434	723.114075	18304.847656	8306.523438	43.132317
606.521423	720.662109	18188.861328	8255.923828	43.137028
606.860229	725.417480	18008.972656	8180.730469	43.135300
607.199036	721.405090	17779.005859	8081.090332	43.146072
607.537903	720.364929	17542.873047	7965.995605	43.071049
607.876648	716.798340	17279.171875	7842.355469	43.022560
608.215271	714.346375	16991.472656	7717.527344	43.024677
608.553955	718.210144	16772.427734	7598.419922	42.856091
608.892578	713.974854	16583.031250	7506.358887	42.802692
609.231140	713.231873	16503.673828	7464.005859	42.752277
609.569641	711.745789	16416.591797	7436.811035	42.821594
609.908081	710.333984	16442.820313	7442.234375	42.789806
610.246521	717.392761	16428.554688	7417.194824	42.643581
610.584961	716.872620	16453.966797	7420.166504	42.595501
610.923340	719.621887	16370.820313	7400.179688	42.684002
611.261597	711.745789	16274.672852	7379.968750	42.846844
611.599854	715.015137	16125.472656	7318.001465	42.847439
611.938110	715.758118	15982.737305	7264.205566	42.892879
612.276245	723.188416	15775.135742	7187.228516	42.944874
612.614319	716.575439	15468.265625	7095.464355	43.241749
612.952393	713.008972	15147.129883	6950.796875	43.215572
613.290466	710.556946	14845.088867	6828.345703	43.282570
613.628479	716.352539	14573.214844	6679.888672	43.036697
613.966370	721.776611	14324.300781	6576.682129	43.042786
614.304260	716.203918	14128.735352	6449.029785	42.742310
614.642151	710.333984	13960.367188	6374.578613	42.748909
614.979980	709.293762	13801.432617	6300.127441	42.703743
615.317749	713.677673	13634.252930	6245.217285	42.811867
615.655396	713.603333	13540.629883	6202.791016	42.793922
615.993164	706.841797	13489.659180	6179.014160	42.808811
616.330811	714.569336	13438.242188	6172.699219	42.897438
616.668396	722.296692	13433.040039	6167.720703	42.841114
617.005859	735.894226	13388.905273	6159.917969	42.867458
617.343445	728.018066	13402.054688	6146.915527	42.755890
617.680908	730.024231	13384.372070	6136.141113	42.721416
618.018311	723.559998	13429.324219	6136.141113	42.599411
618.355652	726.011902	13456.223633	6136.438965	42.500687
618.692993	726.234863	13430.217773	6142.160156	42.631714
619.030273	726.234863	13398.563477	6131.832031	42.656700
619.367554	724.897400	13355.541992	6121.800781	42.728645
619.704712	721.256531	13351.752930	6099.881348	42.584431
620.041870	716.501160	13327.530273	6082.865723	42.552948
620.379028	720.439148	13296.250000	6060.872559	42.465919
620.716064	716.501160	13251.000000	6042.371582	42.489697
621.053040	715.906677	13186.652344	6000.242188	42.373852
621.389954	714.271973	13120.745117	5969.628906	42.359798
621.726929	713.751953	13059.817383	5922.224121	42.187305
622.063843	709.219421	13017.316406	5923.189941	42.362122
622.400635	699.708679	13004.834961	5903.945313	42.293243
622.737427	701.492004	12953.120117	5903.722656	42.461544
623.074219	714.792175	12885.131836	5852.899902	42.218277
623.410889	724.600159	12809.565430	5817.605957	42.143322
623.747559	731.064453	12778.656250	5808.317871	42.143307
624.084167	726.680603	12763.200195	5797.173340	42.125904
624.420715	719.250427	12761.789063	5818.274902	42.341770
624.757324	714.940735	12776.203125	5812.701660	42.265564
625.093750	715.460876	12847.682617	5845.691895	42.285999
625.430176	724.897400	12907.348633	5857.654785	42.132385
625.766602	719.250305	12953.491211	5857.803223	42.001400
626.102905	712.117371	13035.296875	5875.265137	41.897854
626.439209	705.430115	13125.799805	5889.828125	41.741089
626.775452	711.671448	13263.555664	5950.756348	41.739433
627.111694	720.513489	13339.493164	5977.282715	41.657639
627.447876	721.182190	13394.328125	6021.492188	41.823162
627.783997	725.714661	13411.789063	6046.903809	41.945118
628.120056	723.708496	13447.307617	6065.703125	41.984932
628.456055	724.971680	13449.089844	6054.111328	41.882191
628.792053	718.953125	13431.851563	6034.867188	41.815121
629.128052	717.690002	13339.418945	6016.291016	41.979996
629.463928	720.885010	13256.868164	5998.830078	42.102364
629.799744	723.188416	13144.002930	5946.372559	42.051865
630.135559	729.206848	13013.229492	5870.212402	41.851154
630.471375	724.823059	12866.036133	5808.095215	41.867908
630.807068	723.485596	12701.307617	5734.312500	41.834209
631.142700	714.420654	12556.342773	5684.083984	41.966694
631.478333	719.473328	12417.026367	5623.006348	41.919308
631.813965	720.067688	12320.801758	5584.221191	41.929703
632.149475	718.953125	12221.609375	5532.951660	41.851189
632.484924	712.340149	12128.877930	5472.618652	41.696339
632.820435	711.448486	12030.799805	5422.240723	41.617153
633.155884	717.095520	11936.286133	5386.575684	41.620472
633.491150	719.770508	11861.909180	5376.470703	41.793594
633.826477	719.324646	11824.906250	5353.511230	41.728443
634.161804	725.120300	11769.106445	5319.035156	41.596531
634.497009	720.736328	11732.325195	5282.923828	41.430782
634.832153	721.479431	11640.859375	5248.224121	41.456059
635.167297	710.185364	11608.612305	5224.149902	41.418495
635.502380	719.547607	11553.999023	5190.862793	41.269421
635.837463	717.021301	11491.659180	5156.757813	41.205437
636.172424	717.318542	11395.808594	5106.231445	41.100502
636.507324	712.934631	11283.983398	5054.665527	41.071903
636.842224	717.615723	11161.829102	5025.538574	41.246983
637.177124	718.953125	11046.511719	4987.941895	41.335896
637.511963	719.324646	10933.348633	4940.908203	41.331245
637.846741	717.021301	10837.274414	4869.354004	41.029930
638.181396	720.810730	10715.641602	4820.686035	41.019958
638.516113	719.919128	10598.168945	4776.550293	41.066292
638.850769	716.501160	10493.625000	4743.857910	41.191628
639.185303	716.798340	10385.366211	4724.018555	41.445850
639.519836	716.798340	10309.502930	4706.111816	41.586948
639.854370	724.823059	10254.963867	4682.334473	41.526264
640.188843	722.816895	10206.593750	4634.112305	41.241959
640.523254	724.005676	10135.633789	4587.673340	41.052067
640.857605	714.569275	10009.246094	4555.425781	41.323185
641.191895	715.163757	9918.893555	4516.268066	41.299610
641.526184	715.906738	9848.677734	4480.825684	41.224277
641.860413	722.519714	9838.200195	4435.352051	40.730171
642.194580	718.061523	9795.848633	4421.383301	40.795425
642.528748	709.962463	9714.784180	4398.572266	40.962612
642.862793	709.442383	9636.915039	4381.333984	41.130249
643.196838	716.129578	9569.522461	4345.148926	40.990154
643.530823	722.222473	9535.639648	4324.046875	40.867516
643.864746	721.107910	9463.491211	4296.332031	40.895306
644.198669	719.770447	9430.352539	4286.746582	40.949917
644.532532	717.615723	9375.666016	4272.852051	41.062778
644.866333	715.758118	9354.563477	4264.604492	41.080292
645.200073	712.265930	9342.155273	4256.133789	41.065044
645.533813	714.420715	9347.876953	4226.858887	40.684036
645.867554	717.541321	9342.823242	4206.128906	40.446068
646.201172	722.668152	9316.149414	4186.215332	40.304352
646.534729	719.473145	9311.319336	4200.407715	40.514397
646.868225	713.380371	9335.765625	4200.853027	40.446728
647.201782	706.470276	9335.617188	4200.109863	40.486504
647.535217	717.690002	9360.508789	4190.079102	40.176582
647.868591	722.519714	9335.170898	4196.320801	40.333702
648.201965	728.315247	9329.821289	4196.766602	40.323769
648.535278	718.210144	9294.526367	4191.490723	40.498512
648.868591	716.649719	9292.075195	4180.271484	40.390087
649.201782	714.717773	9275.579102	4169.126465	40.351181
649.534912	720.513489	9246.230469	4155.380371	40.288307
649.868103	724.525879	9197.561523	4137.918945	40.285362
650.201172	723.188416	9168.881836	4112.433105	40.129856
650.534180	717.912903	9138.417969	4087.392578	40.015175
650.867188	718.358704	9122.071289	4067.925049	39.858173
651.200134	727.200745	9105.649414	4068.965576	39.885250
651.533020	729.132568	9070.355469	4059.157471	39.922504
651.865845	717.467041	9024.660156	4043.628174	40.039528
652.198608	711.522766	8977.998047	4004.544922	39.835869
652.531433	710.779785	8957.639648	3992.136719	39.789169
652.864136	713.529053	8928.735352	3969.994385	39.639484
653.196777	834.493896	9023.916992	4091.479492	39.770638
653.529358	837.837463	8986.914063	4076.693115	39.745064
653.861938	842.518555	8939.434570	4057.225586	39.702858
654.194519	717.392761	8739.784180	3910.998047	39.808643
654.526978	712.117249	8681.083984	3888.186768	39.855476
654.859375	708.476379	8625.133789	3864.410156	39.864475
655.191833	710.705566	8585.752930	3848.583740	39.845833
655.524170	709.442383	8528.985352	3819.977295	39.778988
655.856445	709.962463	8474.077148	3803.630859	39.845734
656.188660	714.420654	8459.215820	3791.816650	39.735023
656.520874	716.129639	8410.250977	3771.680420	39.712799
656.853088	719.993347	8432.987305	3767.222412	39.507732
657.185181	714.420654	8421.172852	3760.237549	39.521408
657.517212	716.203918	8487.674805	3761.575195	39.186550
657.849243	711.671570	8502.311523	3766.405029	39.210300
658.181274	710.482605	8567.772461	3782.454346	39.097088
658.513123	708.253601	8626.026367	3805.562256	39.118431
658.844971	711.002747	8735.473633	3848.955078	39.104790
659.176819	719.993347	8824.488281	3874.440674	38.922192
659.508667	716.203918	8891.137695	3897.995117	38.921310
659.840393	716.798340	8950.059570	3908.026123	38.760189
660.172058	713.454773	8971.680664	3909.660400	38.703297
660.503662	720.142029	9018.268555	3927.418945	38.650612
660.835266	723.262695	9026.145508	3931.282471	38.637421
661.166931	718.655945	9003.632813	3923.555420	38.683266
661.498413	721.925232	8933.564453	3913.153076	38.862247
661.829773	720.067688	8812.451172	3871.023438	38.937302
662.161194	727.497986	8705.009766	3820.794678	38.775208
662.492615	723.708557	8575.722656	3771.977539	38.821491
662.823975	732.624817	8426.523438	3717.959717	38.801331
663.155212	724.600098	8280.444336	3654.059326	38.770775
663.486450	725.788879	8118.018066	3582.654297	38.646873
663.817627	712.488770	8006.267090	3531.533936	38.649998
664.148743	717.095520	7878.763184	3492.970703	38.760181
664.479858	713.380371	7792.274902	3457.602783	38.766258
664.810913	715.832336	7698.876465	3415.621826	38.662071
665.141907	715.163757	7629.255371	3378.916260	38.526424
665.472778	717.912903	7537.342285	3338.644287	38.430363
665.803711	727.943787	7496.253418	3333.666016	38.498863
666.134583	725.789063	7470.990234	3328.910889	38.592205
666.465454	726.680664	7473.070313	3314.570313	38.359623
666.796143	720.364929	7431.832520	3270.360107	37.994598
667.126831	718.581604	7406.124512	3255.128174	37.929424
667.457458	723.931396	7360.947754	3246.954346	38.014412
667.788147	719.696106	7328.700684	3248.886475	38.268856
668.118774	717.764343	7298.087402	3245.840088	38.418716
668.449219	708.773682	7302.025391	3237.518311	38.353527
668.779663	711.448547	7297.492676	3228.750732	38.221764
669.110107	709.516663	7287.908203	3213.666992	38.066303
669.440552	704.984192	7263.313965	3203.264648	38.093243
669.770874	707.733398	7258.113281	3201.035400	38.063473
670.101135	711.597168	7235.079590	3189.147217	37.978951
670.431396	724.228577	7216.578125	3185.952148	37.917301
670.761597	720.885010	7157.729980	3158.014404	37.862175
671.091797	725.937500	7116.863281	3146.125977	37.869137
671.421875	719.993347	7071.761719	3124.578125	37.856934
671.751892	721.850891	7053.037109	3113.432617	37.774624
672.081909	717.318420	7017.743652	3080.590820	37.509727
672.411865	711.448547	6968.926270	3053.693359	37.431133
672.741821	711.968689	6928.060059	3039.650146	37.446060
673.071716	711.374268	6889.423340	3026.275391	37.469776
673.401550	716.798340	6852.345703	3016.095947	37.475021
673.731262	709.962463	6807.169434	2986.895264	37.343868
674.060974	711.745789	6763.404785	2974.858154	37.396561
674.390625	714.272034	6733.980957	2959.923096	37.304977
674.720276	722.816895	6675.653809	2936.592529	37.188583
675.049927	722.593933	6628.174316	2911.552490	37.065933
675.379395	717.689941	6595.927246	2884.951904	36.869247
675.708923	714.940735	6578.168457	2881.162109	36.945889
676.038330	715.312256	6549.413574	2869.422607	36.922745
676.367737	715.535156	6501.488281	2860.060547	37.064342
676.697083	713.157532	6474.070313	2834.500244	36.823032
677.026428	714.346375	6473.921875	2816.890625	36.505192
677.355652	719.176086	6472.510254	2819.416748	36.504761
677.684875	715.683838	6492.349121	2831.602295	36.628719
678.013977	716.946960	6462.851074	2839.181641	36.934738
678.343079	713.454773	6471.915527	2827.441406	36.710964
678.672180	714.271973	6458.169922	2827.441406	36.789814
679.001221	713.008850	6489.748535	2825.361084	36.566513
679.330139	708.847961	6516.497559	2837.695313	36.655922
679.659058	711.448547	6554.392090	2843.936768	36.496815
679.987976	717.764343	6609.599121	2850.103760	36.191429
680.316772	726.086121	6660.570313	2852.778564	35.836178
680.645630	733.665039	6702.774902	2846.983154	35.404243
680.974304	721.553711	6744.903809	2866.450439	35.609695
681.302979	722.148132	6786.884766	2876.481445	35.522289
681.631653	714.940735	6816.753906	2900.926758	35.825191
681.960266	726.903503	6817.126465	2895.576904	35.609097
682.288757	729.504089	6814.376953	2899.440674	35.661163
682.617249	732.179016	6811.479004	2895.205322	35.580189
682.945679	727.423645	6788.593750	2896.542969	35.787140
683.274109	721.851013	6745.646973	2883.837158	35.890759
683.602478	717.690002	6675.951172	2856.196533	35.891453
683.930725	718.730225	6604.694824	2824.172119	35.770550
684.259033	716.352539	6522.515625	2784.866211	35.626171
684.587280	719.176086	6449.029785	2752.544678	35.487270
684.915344	713.306152	6369.897949	2727.578857	35.609299
685.243469	720.810730	6290.914063	2698.526367	35.505905
685.571533	722.371094	6215.496582	2677.647217	35.594967
685.899536	726.532043	6146.097656	2656.619385	35.613323
686.227539	726.011902	6110.655762	2634.700439	35.446884
686.555420	726.011902	6097.801270	2620.880127	35.274429
686.883301	722.296814	6106.568848	2610.031982	35.060173
687.211121	714.643555	6103.521973	2615.381592	35.271496
687.538940	713.454773	6098.544434	2609.734375	35.213516
687.866638	711.299988	6085.986816	2617.907715	35.473835
688.194336	716.872742	6074.916504	2610.328857	35.338570
688.521973	722.073914	6063.696777	2589.152588	34.953396
688.849609	731.584656	6061.615723	2562.775146	34.356091
689.177063	725.194580	6040.959473	2551.927002	34.364433
689.504578	725.343201	5990.656250	2544.571045	34.551182
689.832031	721.925293	5913.084473	2517.079102	34.580982
690.159485	722.816895	5825.333496	2490.478516	34.642937
690.486816	722.891174	5738.250488	2470.119385	34.837547
690.814087	725.491882	5678.734375	2450.949463	34.834908
691.141296	730.321472	5609.855469	2411.494873	34.453564
691.468506	731.807434	5546.251953	2379.024658	34.214069
691.795715	726.977844	5465.262207	2344.176514	34.130470
692.122803	725.045959	5383.157715	2321.365723	34.269676
692.449829	716.946960	5324.606934	2302.121338	34.403023
692.776855	720.290588	5258.552246	2286.963379	34.521431
693.103821	717.467041	5209.066895	2272.548584	34.621998
693.430664	724.600098	5149.104492	2240.152588	34.253609
693.757568	724.525696	5097.018066	2212.363281	34.027222
694.084351	727.497864	5042.851563	2191.484375	33.925068
694.411133	721.107910	5009.192383	2172.983154	33.858364
694.737854	717.021301	4977.390625	2157.528320	33.811790
695.064575	716.055359	4962.381348	2142.221924	33.585892
695.391174	717.467102	4932.140137	2144.673584	33.862808
695.717773	712.786072	4925.230469	2147.125732	34.050056
696.044250	711.151367	4913.862305	2145.639893	34.132458
696.370789	711.745789	4944.549316	2140.884521	33.763405
696.697205	716.946960	4965.353516	2128.401367	33.223145
697.023621	723.857117	5022.863770	2143.930908	33.032600
697.349915	721.182190	5062.764160	2170.976807	33.393234
697.676208	719.250305	5146.652344	2197.131348	33.380325
698.002380	714.049133	5237.004395	2218.678955	33.266521
698.328674	713.231750	5344.817871	2235.100342	32.858479
698.654724	718.730225	5427.145020	2280.499023	33.169735
698.980896	723.114014	5529.533691	2306.950928	32.952530
699.306946	730.024231	5626.201660	2331.768311	32.714176
699.632935	729.949951	5707.414063	2329.241943	32.130661
699.958862	733.070618	5731.265625	2332.808105	32.006306
700.284729	728.315247	5709.644043	2336.374756	32.281742
700.610596	721.627930	5635.787109	2319.582275	32.517349
700.936340	718.061462	5555.688965	2298.182861	32.663147
701.262146	716.946838	5422.835938	2242.010010	32.407547
701.587830	718.507324	5306.477539	2208.871094	32.484165
701.913513	711.597168	5159.060547	2156.933594	32.497993
702.239075	713.083191	5042.776855	2122.531250	32.553062
702.564697	715.683838	4927.607422	2069.405029	32.140209
702.890137	719.770447	4798.840820	2026.903931	32.044888
703.215698	720.662109	4701.058594	1994.285156	31.997391
703.541016	721.107910	4582.397461	1972.662964	32.412876
703.866455	727.052063	4505.939941	1946.582642	32.272205
704.191711	725.194519	4428.812988	1916.787231	32.173744
704.517029	722.965515	4393.073730	1890.484009	31.811558
704.842163	716.501160	4342.399902	1869.456421	31.797781
705.167419	708.030579	4308.592285	1848.948853	31.687227
705.492493	700.303040	4269.508789	1827.475464	31.580481
705.817566	706.173035	4240.084473	1808.230835	31.185215
706.142578	716.501160	4201.224121	1798.571655	31.051840
706.467590	725.194580	4176.035645	1799.240356	31.124174
706.792480	715.089355	4152.333496	1800.429077	31.575869
707.117371	708.847961	4141.336426	1808.007935	32.022247
707.442200	717.095520	4140.370605	1805.630249	31.798048
707.766907	726.680603	4153.744629	1802.881226	31.402994
708.091675	730.395752	4149.955566	1793.073242	31.076441
708.416321	725.120300	4153.894043	1788.986694	31.027609
708.741028	724.228577	4153.299316	1789.803711	31.074751
709.065552	724.674500	4172.766602	1788.763672	30.860229
709.390137	723.262695	4182.797363	1785.048462	30.691578
709.714600	721.702393	4220.022949	1786.980469	30.451128
710.039063	721.479431	4259.552246	1795.228149	30.348408
710.363403	721.850891	4311.415039	1809.345581	30.296007
710.687744	719.993347	4344.405762	1825.097656	30.490578
711.012085	717.615662	4386.609375	1833.122437	30.403618
711.336304	723.336975	4416.999512	1843.450562	30.325279
711.660461	726.977844	4440.776367	1843.970581	30.076824
711.984619	730.692932	4464.553223	1845.159546	29.847569
712.308716	719.101746	4472.354980	1837.432007	29.796293
712.632751	713.974792	4479.190918	1836.911743	29.823973
712.956726	710.408386	4450.361816	1838.100586	30.152573
713.280701	721.925293	4407.637207	1821.605469	29.836304
713.604553	724.897278	4354.064941	1803.029663	29.707426
713.928467	734.853821	4300.418457	1777.098145	29.230837
714.252258	731.510254	4250.115234	1773.457397	29.612507
714.575989	728.166687	4205.385254	1752.429810	29.456394
714.899719	726.457703	4153.894043	1735.117188	29.428978
715.223267	718.358704	4111.243652	1716.021484	29.404556
715.546936	722.445313	4072.754883	1704.653198	29.316929
715.870422	715.906677	4046.526123	1696.554077	29.443394
716.193970	719.473206	4015.987549	1683.699707	29.249880
716.517395	715.089355	3987.306885	1674.188843	29.310383
716.840820	716.278259	3956.100342	1655.836060	29.000290
717.164124	715.683838	3933.066162	1646.250977	28.923113
717.487488	717.095520	3908.768799	1633.693970	28.718430
717.810730	714.940735	3889.821533	1625.223511	28.671400
718.133972	713.900574	3849.103760	1600.109009	28.266380
718.457092	714.494934	3797.835205	1587.329102	28.308071
718.780212	717.690002	3731.780029	1568.381836	28.223835
719.103210	719.844727	3678.505127	1559.316895	28.373386
719.426208	717.615662	3621.440430	1539.403687	28.300194
719.749207	710.928406	3579.979492	1527.738281	28.469688
720.072083	705.652893	3544.091064	1519.267700	28.664171
720.394958	704.538391	3510.729248	1505.521851	28.543442
720.717773	709.739563	3459.683350	1493.113281	28.486898
721.040527	715.906738	3421.639893	1479.515991	28.221897
721.363281	719.696106	3382.705811	1467.107300	28.066408
721.685913	714.346375	3352.835938	1459.751099	28.251192
722.008545	710.631165	3319.177002	1458.190918	28.658102
722.331055	707.807678	3288.341064	1456.407593	29.009502
722.653503	714.420654	3284.403076	1446.822632	28.498327
722.976013	725.194519	3272.737549	1433.448120	27.801439
723.298401	730.024231	3263.375732	1420.444946	27.253254
723.620789	731.361633	3236.477783	1413.535034	27.231207
723.943115	722.148132	3213.369873	1398.525879	27.150444
724.265381	723.634094	3210.026123	1392.209961	26.889399
724.587585	722.891113	3219.833984	1387.974976	26.635927
724.909790	722.668274	3236.775146	1389.312134	26.516130
725.231873	719.993347	3243.759766	1397.411255	26.841545
725.553894	719.324646	3228.081787	1395.627930	26.957703
725.875916	740.946716	3248.291992	1434.191040	27.648539
726.197937	742.209900	3249.778076	1428.841309	27.382362
726.519775	741.466797	3263.301025	1428.395508	27.239250
726.841675	721.999512	3247.251953	1387.083130	26.337313
727.163513	710.333984	3264.341797	1384.854126	26.410261
727.485291	713.826233	3300.155273	1383.442383	25.890600
727.806946	712.340149	3336.043701	1396.668335	26.082527
728.128662	720.736389	3359.225830	1407.739380	26.037739
728.450256	719.696106	3366.061768	1416.432617	26.328051
728.771790	720.439148	3356.996826	1417.175781	26.425997
729.093323	720.959290	3355.213623	1407.665039	26.068316
729.414795	724.525818	3347.634766	1402.984009	25.864660
729.736145	720.885010	3361.157959	1396.222290	25.578314
730.057495	716.203918	3354.767822	1401.052124	25.955338
730.378845	711.002747	3367.696533	1399.417480	25.912460
730.700134	710.779846	3367.028076	1398.228516	25.880438
731.021301	709.516785	3378.173096	1393.770508	25.640385
731.342468	706.024414	3359.449219	1401.572266	26.213211
731.663574	715.089355	3351.944336	1394.216187	25.755182
731.984680	724.525818	3346.074219	1389.386353	25.361368
732.305664	725.863281	3356.848389	1378.463989	24.804424
732.626648	712.785950	3380.179443	1386.339966	25.251392
732.947571	709.739563	3390.656250	1385.448608	25.204403
733.268433	707.213318	3383.820313	1382.104980	25.214447
733.589233	719.844727	3359.968994	1376.160645	24.859282
733.909973	719.324646	3335.003174	1364.197998	24.654152
734.230713	725.343079	3323.783936	1354.018555	24.194334
734.551331	719.770508	3283.808594	1342.724487	24.295816
734.871948	719.101746	3245.096924	1337.746216	24.491119
735.192505	714.049133	3199.103516	1331.207520	24.834803
735.513062	709.739563	3152.441406	1319.690674	24.970346
735.833435	711.225647	3111.575195	1309.436890	24.921839
736.153931	710.854187	3066.621826	1297.622681	24.907742
736.474304	707.064636	3047.005859	1282.093384	24.574495
736.794617	705.727234	3020.256836	1276.446411	24.658108
737.114807	711.671387	3007.774170	1272.954224	24.445023
737.434998	723.411316	2992.096436	1269.907837	24.088690
737.755188	724.897278	2975.972656	1262.700439	23.890944
738.075256	718.507324	2978.424561	1257.573608	23.853363
738.395325	719.621887	2991.575928	1261.734497	23.861073
738.715271	715.089355	3013.123779	1258.019409	23.625845
739.035278	721.479431	3024.195068	1256.459106	23.232555
739.355164	719.696106	3024.715088	1251.480835	23.070730
739.675049	728.909668	3024.269531	1258.762329	23.083643
739.994873	721.702332	3018.696533	1258.762329	23.380991
740.314636	714.569275	2997.000244	1260.991455	23.940361
740.634277	704.389709	2993.062500	1262.997681	24.407507
740.953979	707.287598	2976.343994	1259.505493	24.336897
741.273499	712.265869	2955.910889	1249.251587	23.933630
741.593140	711.894348	2918.239502	1232.756470	23.607462
741.912598	709.962463	2874.103516	1228.075317	23.940807
742.232117	711.522888	2832.865479	1215.295288	23.747810
742.551453	719.919128	2800.841064	1202.440918	23.187885
742.870850	729.058350	2769.336670	1185.276978	22.360607
743.190063	723.634216	2739.912842	1179.109863	22.589916
743.509338	720.959290	2709.374512	1168.113159	22.487951
743.828552	718.804504	2686.117432	1157.710693	22.309933
744.147705	719.176025	2666.576172	1143.890259	21.809294
744.466797	720.587708	2638.266602	1145.599243	22.162809
744.785828	721.553711	2620.656982	1148.868652	22.500879
745.104858	732.401855	2606.910889	1142.032715	21.852701
745.423706	732.847717	2599.480957	1128.583984	21.200537
745.742615	731.064453	2582.985596	1117.958618	20.891502
746.061401	724.525818	2576.892822	1116.546997	21.163258
746.380249	715.758118	2561.289063	1119.444824	21.873743
746.698975	717.021240	2550.738037	1114.540771	21.678349
747.017639	717.392822	2531.939453	1113.277710	21.817289
747.336304	724.525818	2514.626953	1109.488159	21.505062
747.654907	717.541321	2506.750977	1106.516113	21.740034
747.973389	710.854065	2507.270996	1106.441772	22.020929
748.291931	710.185364	2525.697998	1103.989868	21.691092
748.610352	720.885010	2534.317139	1104.732910	21.166929
748.928711	730.024231	2545.314209	1109.265381	20.891491
749.247070	729.578430	2540.930420	1111.345825	21.076378
749.565308	715.758118	2533.797119	1108.373657	21.595551
749.883545	710.482666	2520.868408	1093.661743	21.165604
750.201782	708.847961	2501.698242	1083.928101	20.920883
750.519836	716.649719	2493.450684	1080.287231	20.465855
750.837952	717.838562	2474.428955	1081.699097	20.714024
751.155884	710.928406	2468.484863	1079.098511	20.947840
751.473877	703.423828	2453.252686	1081.996216	21.634823
751.791809	705.429993	2444.410889	1081.253296	21.611698
752.109619	714.866455	2443.742432	1069.736328	20.526045
752.427490	724.228577	2435.940674	1058.145020	19.507746
752.745300	729.206848	2444.708252	1050.417603	18.724014
753.062988	725.045959	2425.983643	1060.225464	19.705572
753.380615	720.364929	2425.909424	1059.482544	19.883247
753.698303	716.278259	2410.157471	1065.946899	20.643068
754.015808	722.073914	2407.631104	1061.785889	20.154284
754.333374	718.953125	2399.086182	1060.522827	20.329920
754.650757	715.163635	2397.897461	1052.498169	20.046814
754.968262	715.832336	2408.522461	1049.080200	19.687469
755.285583	724.377258	2414.541260	1045.290649	18.987114
755.602905	727.423645	2410.751709	1048.039917	19.046570
755.920105	722.371033	2388.906738	1047.519653	19.510450
756.237305	718.135742	2379.990479	1047.891235	19.842619
756.554443	712.934570	2373.006104	1039.420776	19.666996
756.871582	717.689941	2366.170166	1035.631226	19.286934
757.188599	710.705566	2367.879150	1041.352539	19.952465
757.505615	707.510559	2374.863525	1047.742554	20.405516
757.822510	709.145203	2390.244141	1049.005737	20.216570
758.139465	720.885010	2391.061768	1043.581787	19.321115
758.456238	728.761047	2398.046143	1045.885132	18.997599
758.773010	720.290588	2424.646484	1043.804688	18.981604
759.089783	718.581604	2436.832031	1041.204102	18.776220
759.406433	718.210144	2455.333252	1038.826538	18.456747
759.723145	719.993347	2462.912109	1038.826416	18.293055
760.039673	717.169861	2471.308594	1048.411499	18.883434
760.356201	720.141907	2465.735596	1046.925415	18.720478
760.672668	719.027405	2453.995850	1054.801392	19.353319
760.989136	711.374268	2453.550293	1047.148315	19.273256
761.305481	706.024475	2457.488525	1045.959351	19.408611
761.621826	710.334045	2468.336670	1033.476440	18.381224
761.938049	721.033630	2479.853271	1030.058594	17.570021
762.254333	718.432922	2500.732422	1036.225708	17.830492
762.570496	722.891113	2536.175049	1054.875854	18.308481
762.886597	717.169922	2614.341309	1069.959229	18.595543
763.202637	724.377258	2742.216064	1081.253174	17.686047
763.518677	717.169861	2898.400391	1102.949585	17.686335
763.834656	724.748779	3045.668701	1124.274536	17.214111
764.150574	720.959290	3164.181641	1138.317749	17.082294
764.466370	719.993408	3228.899170	1146.788208	17.011192
764.782288	715.981018	3261.740967	1149.166016	17.015940
765.097961	715.758118	3220.502686	1151.840820	17.410267
765.413696	719.250305	3165.072510	1147.456909	17.507675
765.729309	719.547546	3077.767334	1129.698608	17.392403
766.044861	725.120300	2975.675049	1114.763550	17.313210
766.360474	720.810730	2841.781982	1085.859863	17.211414
766.675903	711.671448	2682.699707	1059.185181	17.631088
766.991394	708.699402	2573.623291	1026.937866	17.064421
767.306763	710.482605	2480.001953	1007.173340	16.766743
767.622131	718.730225	2431.259033	1000.783386	16.469980
767.937378	717.318542	2362.677979	995.730774	16.921059
768.252625	721.033630	2322.703125	991.644226	16.895533
768.567810	726.606262	2265.861572	980.127197	16.470362
768.882996	721.999512	2230.864990	972.622559	16.610033
769.197998	718.581604	2184.499756	965.192322	16.822952
769.513062	708.104919	2158.568359	967.867249	17.908920
769.828064	710.036804	2121.788330	967.347168	18.226322
770.142944	708.253479	2093.330322	960.437012	18.207186
770.457825	716.649719	2069.330566	949.143005	17.187593
770.772705	716.129639	2039.015137	940.078064	16.928783
771.087402	715.460938	2017.541870	930.864502	16.543024
771.402100	709.591003	1988.860962	926.406311	16.948362
771.716736	712.860291	1974.669312	923.508484	16.694141
772.031372	719.547546	1962.409180	923.211243	16.386675
772.345947	720.439209	1947.474243	921.279358	16.367924
772.660461	718.804626	1946.062622	921.873840	16.546577
772.974854	718.656006	1934.396973	923.582764	16.856121
773.289246	717.169922	1922.731445	913.180359	16.258850
773.603638	714.717957	1908.242188	910.133972	16.373026
773.917908	713.008972	1884.242554	902.926697	16.215187
774.232178	716.872620	1872.651367	904.412781	16.226301
774.546265	721.776672	1858.088013	900.177490	15.699995
774.860474	721.702332	1851.995239	901.366394	15.895353
775.174561	726.383484	1830.818970	907.087646	16.361675
775.488586	722.891174	1821.531250	900.400391	16.157175
775.802551	719.027527	1817.221680	894.084656	15.940454
776.116516	713.231750	1811.277466	887.991882	15.915562
776.430359	712.711670	1799.389038	884.722473	15.829060
776.744202	715.683838	1785.643066	879.372742	15.298612
777.057922	716.872620	1768.553345	872.016785	14.752022
777.371704	711.671448	1754.138672	877.663757	15.923023
777.685303	715.609558	1742.473267	885.094055	16.505062
777.998962	716.426758	1750.943726	889.403564	16.720539
778.312500	726.829285	1748.788940	879.149841	14.904753
778.626038	720.885010	1747.897095	876.549255	15.157002
778.939453	717.615723	1745.890991	869.713379	14.791532
779.252869	717.244141	1750.572144	875.954773	15.359173
779.566223	718.433044	1745.965332	871.496582	14.896228
779.879578	715.089355	1740.764160	881.973328	16.270651
780.192749	716.426819	1722.634277	877.292236	15.987301
780.505920	715.535156	1724.343262	881.824707	16.483765
780.819031	717.912903	1715.501099	863.546204	14.598539
781.132141	721.256531	1722.634277	863.546204	14.209391
781.445190	726.457703	1711.117310	853.515320	12.903709
781.758118	723.336975	1708.739624	860.945618	13.964712
782.071045	711.820068	1683.922485	865.700989	15.829702
782.383911	700.748962	1670.102173	858.196350	16.242519
782.696838	703.275208	1651.452148	854.406921	15.939189
783.009583	713.528992	1649.297485	843.187256	13.855805
783.322266	719.250305	1628.641235	850.320313	14.412944
783.634888	725.566101	1625.074829	848.611328	13.679159
783.947510	723.559875	1621.285522	845.044922	13.532536
784.260132	733.665039	1621.359741	837.094421	11.651459
784.572571	726.011902	1611.403320	831.001648	11.858004
784.885010	726.011902	1593.496216	832.413391	12.265523
785.197449	717.690002	1584.282715	831.819031	13.169858
785.509766	724.451599	1581.161987	839.472168	13.425840
785.822083	730.172852	1580.344727	840.066589	12.926062
786.134277	733.219238	1586.214478	846.753845	13.310110
786.446533	726.011902	1581.310547	838.208984	13.117884
786.758606	721.405090	1577.372437	836.797180	13.480899
787.070740	717.392761	1579.898804	835.905579	13.740520
787.382690	724.005676	1587.403320	836.574402	13.037877
787.694641	721.033508	1602.784058	835.459778	12.977170
788.006653	725.863281	1618.536133	835.385498	12.269021
788.318481	725.194519	1643.798950	842.518555	12.771987
788.630310	727.572266	1665.495483	852.698059	13.340729
788.942017	724.451477	1688.677856	852.995178	13.331278
789.253784	725.714661	1694.473511	855.744446	13.422307
789.565430	720.216309	1697.519897	850.914734	13.373370
789.877014	721.776611	1685.928711	848.611389	13.155059
790.188538	717.021240	1678.126953	847.422546	13.567842
790.500061	719.770447	1660.517212	841.552551	12.945259
790.811462	709.962463	1640.529907	840.140808	13.989136
791.122925	715.386536	1615.341187	828.698242	12.590824
791.434204	710.556885	1592.530273	822.531067	12.695868
791.745483	722.668274	1582.053589	817.478516	11.032332
792.056702	727.126465	1564.295288	817.181335	10.757074
792.367920	733.665039	1549.508911	817.552917	10.282345
792.678955	725.120300	1527.218140	825.428894	12.505780
792.990112	721.033508	1518.078735	828.178040	13.442717
793.301086	713.974854	1512.952026	823.942871	13.763599
793.612122	720.290527	1512.357422	815.918152	12.073175
793.922974	708.699402	1498.091431	808.859436	12.688250
794.233826	711.894348	1486.871704	815.992493	13.432411
794.544556	712.340149	1474.537476	809.676758	12.770526
794.855286	721.999512	1473.720215	811.311340	11.880985
795.166016	728.538269	1487.763306	809.751038	10.696798
795.476624	732.253235	1491.329956	810.196777	10.268204
795.787292	733.442139	1509.831421	805.292969	9.254485
796.097778	727.497864	1518.375977	806.481750	9.986859
796.408264	723.336914	1544.679321	806.555969	10.132078
796.718689	717.318542	1553.372681	817.329895	11.962306
797.029053	720.513489	1560.728516	821.713684	12.044559
797.339355	720.959290	1547.428345	828.178040	12.973111
797.649658	718.581726	1541.335571	823.274170	12.724637
797.959839	717.615723	1527.515503	814.506409	11.963293
798.270020	719.176086	1512.134766	807.670593	11.160040
798.580078	733.293518	1491.775757	813.911926	10.628912
798.890137	729.132629	1475.800659	811.905823	11.085675
799.200195	729.058289	1470.673828	813.168945	11.341544
799.510071	721.182190	1458.636719	811.385681	12.231736
799.820007	726.234802	1450.760620	808.785095	11.393700
800.129883	721.405090	1441.324219	811.980164	12.581285
800.439575	718.507324	1439.243774	804.846985	11.979366
800.749329	707.882019	1431.664673	805.070007	13.427786
801.058960	708.996582	1429.807251	799.943054	12.617249
801.368591	713.826233	1427.949707	798.605652	11.871815
801.678162	723.485596	1425.869141	802.395081	11.234529
801.987671	718.061523	1418.513184	801.800720	11.955029
802.297119	704.909912	1414.352173	809.453857	14.736075
802.606506	706.618835	1405.361694	806.333191	14.270536
802.915894	707.436096	1403.727051	810.865662	14.854360
803.225159	716.723938	1384.036743	800.017395	12.481921
803.534424	716.055359	1383.145142	805.292908	13.377142
803.843628	717.912842	1373.560181	801.800598	12.794646
804.152771	723.114014	1384.408325	805.367188	12.438210
804.461792	721.182190	1389.906616	795.187683	11.066665
804.770874	723.634216	1396.816772	793.181458	10.331112
805.079773	717.169922	1398.897339	791.844055	10.953665
805.388733	718.061462	1399.566040	800.760437	12.134765
805.697571	720.439209	1409.596802	798.679993	11.353105
806.006470	727.349304	1420.370728	797.342468	10.099711
806.315125	720.513489	1426.686523	794.816223	10.521888
806.623901	715.535217	1425.274902	802.840881	12.301083
806.932495	712.488770	1413.980835	803.583984	12.985923
807.241150	717.987122	1408.482422	804.698486	12.557850
807.549622	726.160461	1406.550415	796.896667	10.396421
807.858154	730.247131	1410.339844	796.599426	9.756360
808.166565	729.429871	1409.894165	789.540710	8.833797
808.474915	720.439270	1392.135742	785.008301	9.612828
808.783264	718.210144	1379.875854	786.717224	10.353730
809.091492	713.306152	1368.358887	785.602722	11.036756
809.399719	714.792236	1360.780029	789.689270	11.594187
809.707825	714.569336	1360.928589	778.172363	9.840198
810.015930	718.878845	1350.303345	776.909241	9.190393
810.323975	721.107910	1346.588257	772.599670	8.232354
810.632080	719.993347	1329.647095	779.584167	9.774535
810.939880	715.460938	1319.319092	777.057861	10.200562
811.247864	712.860352	1312.186035	784.413879	11.939006
811.555664	707.584778	1310.625610	780.995911	12.173492
811.863464	714.643555	1304.087036	782.853455	11.571916
812.171143	718.878906	1301.486450	776.983582	9.973210
812.478882	723.039795	1296.285278	780.327148	9.993511
812.786438	724.377258	1288.929321	783.893738	10.542248
813.094055	724.525696	1282.390625	781.961914	10.295721
813.401489	717.987122	1280.087280	775.274658	10.191695
813.708984	722.371094	1282.613647	773.119812	9.058348
814.016357	724.525879	1280.384644	771.930969	8.528262
814.323730	727.943665	1282.539185	776.240540	8.708487
814.630981	719.324646	1278.452637	776.017639	10.139538
814.938232	709.367981	1282.539185	779.435547	12.224544
815.245361	715.237976	1278.675537	775.497559	10.694988
815.552490	710.111084	1279.344238	777.726563	11.878345
815.859619	719.324646	1278.526978	777.800842	10.457073
816.166565	717.169861	1284.099609	773.342712	9.908257
816.473572	715.683838	1291.752930	772.599670	9.880035
816.780457	714.569275	1289.820923	774.754395	10.462399
817.087341	710.111084	1285.362671	781.590271	12.425726
817.394043	724.080017	1292.347168	772.896973	8.590494
817.700806	723.708496	1305.127319	765.318054	7.156555
818.007507	722.519714	1323.628662	768.587402	7.663784
818.314209	715.386536	1320.285034	774.977356	9.851376
818.620667	715.832336	1324.148804	775.348816	9.783802
818.927246	726.086182	1331.133301	779.435547	8.817390
819.233704	728.092346	1357.362183	778.618164	8.029277
819.540161	732.179016	1381.064819	782.779114	7.797997
819.846497	722.965515	1415.764038	779.584167	8.172456
820.152832	718.953125	1467.255859	790.432312	9.552175
820.458984	708.104919	1529.521484	796.822449	10.800552
820.765259	703.869629	1608.282227	805.441589	11.230710
821.071350	709.962463	1701.383667	812.871765	10.379978
821.377502	715.015137	1874.880371	824.537292	9.442662
821.683472	722.371094	2179.150146	846.828125	8.543302
821.989441	717.615723	2698.526123	885.019775	8.450865
822.295349	712.117249	3419.188477	937.551758	8.327617
822.601196	704.761230	4226.858887	1001.823669	8.434248
822.907043	708.996582	4913.564941	1050.714844	8.127309
823.212769	719.547546	5311.307129	1085.934326	7.979224
823.518494	729.949951	5376.767578	1080.064331	7.534498
823.824097	724.377197	5150.292969	1062.751953	7.645305
824.129700	717.838562	4780.488281	1025.005981	7.560766
824.435242	718.284363	4381.185547	995.062012	7.556242
824.740723	722.445313	4044.000000	962.368835	7.223230
825.046082	723.559875	3720.708740	944.238953	7.362967
825.351501	719.621826	3379.659424	924.771667	7.712291
825.656799	705.578613	3046.337158	902.406555	8.408725
825.962036	706.395996	2747.343506	872.091064	8.118537
826.267212	708.327820	2538.329590	854.778564	8.002766
826.572449	717.912903	2416.696045	853.069580	7.956088
826.877502	715.312317	2428.658936	857.304871	8.287438
827.182495	709.888184	2534.466064	862.283142	8.352341
827.487488	714.792175	2682.254150	869.564758	7.866611
827.792419	712.711670	2785.683350	880.115723	8.075559
828.097290	711.671448	2812.135010	881.824707	8.100748
828.402100	705.727234	2742.959229	875.657532	8.341235
828.706848	713.306152	2613.152344	864.586426	7.962764
829.011597	720.662109	2439.135498	851.063416	7.588206
829.316223	718.284363	2281.019287	840.809570	7.840435
829.620789	716.946960	2128.327148	826.543457	7.765201
829.925354	713.083191	2016.798706	821.490906	8.315289
830.229797	716.055359	1893.307617	805.738708	7.618023
830.534302	711.671448	1780.664673	799.200012	8.187944
830.838562	711.002747	1644.096313	787.385986	8.186022
831.142944	716.724121	1537.471802	771.485168	6.672093
831.447144	711.671448	1452.692383	767.026917	7.470162
831.751404	714.940857	1403.949829	764.203430	7.149772
832.055542	713.380371	1375.937866	770.147705	8.567910
832.359619	719.844788	1371.182495	774.382996	8.373261
832.663635	719.176025	1372.817017	777.132141	8.866658
832.967651	722.593933	1410.785767	777.057800	7.914053
833.271545	720.884949	1474.314575	764.872131	5.838260
833.575439	713.008972	1583.985352	763.609070	5.809583
833.879211	705.875916	1701.903687	778.989746	7.340541
834.183044	711.002747	1831.190430	801.577820	8.085705
834.486694	712.711731	1921.839844	807.744812	7.859637
834.790344	719.770508	1964.043823	811.534363	7.374896
835.093933	717.021240	1939.449585	805.070007	7.202775
835.397522	721.107910	1887.066284	805.887268	7.271216
835.700928	714.123474	1820.045288	796.005066	7.403922
836.004395	707.138977	1749.903320	802.766602	9.170588
836.307739	712.934570	1681.619141	793.924561	8.360822
836.611023	721.628113	1608.579590	787.906067	7.472557
836.914307	729.801270	1540.592651	770.742126	5.049493
837.217529	726.160461	1473.942993	764.575012	5.137129
837.520691	715.312256	1398.600220	763.460449	7.046545
837.823730	715.683838	1332.396484	758.927979	7.012041
838.126831	713.529053	1268.050293	758.556458	8.120050
838.429749	717.392761	1226.143677	757.219055	7.828250
838.732727	713.603333	1189.066528	761.379944	10.048435
839.035522	716.724060	1175.246094	760.042542	9.447415
839.338379	716.278259	1171.456665	753.652527	8.210905
839.641113	715.832458	1184.682495	748.228455	6.909671
839.943848	712.042969	1198.057129	753.355286	8.500229
840.246460	716.129639	1236.546021	758.110657	8.066813
840.549072	714.792175	1254.824463	756.996094	7.815073
840.851563	715.015137	1269.759277	747.188171	5.799617
841.154053	710.185364	1258.242310	745.256348	6.399149
841.456482	713.231750	1246.725464	753.503906	7.548759
841.758850	717.392761	1235.654175	763.311951	8.860237
842.061157	719.844727	1206.453247	757.070496	7.650044
842.363403	717.615723	1183.939453	747.708313	6.453155
842.665588	717.541321	1151.469360	739.609314	5.085634
842.967712	724.748718	1139.655151	741.095398	3.939847
843.269775	731.064453	1122.788452	745.850647	3.774646
843.571777	724.823059	1099.308838	747.188171	5.972219
843.873840	717.689941	1080.435913	757.070496	10.856235
844.175659	710.259766	1064.683716	749.491516	11.069159
844.477600	714.643555	1056.287476	745.107727	8.916937
844.779297	718.061523	1045.662231	728.092285	3.061887
845.081116	721.925232	1041.501343	723.262695	0.418512
845.382751	722.965515	1032.064819	731.733154	2.836512
845.684387	714.197754	1010.071289	736.339905	7.483654
845.985962	718.655945	987.706055	745.033386	9.803914
846.287537	714.049133	984.213867	747.559631	12.403728
846.588989	714.272034	990.083679	740.723816	9.590524
846.890381	712.117371	997.588379	733.887939	7.626193
847.191711	717.838562	992.090027	731.064453	4.822542
847.493042	725.268860	982.356262	738.717590	5.231190
847.794250	728.463867	979.012695	737.751709	3.706999
848.095459	729.578430	975.520325	725.789001	-1.540782
848.396606	730.841553	980.795959	719.770508	-4.429226
848.697693	723.485596	979.161316	724.228699	0.290643
848.998657	720.810730	973.960144	726.160461	2.113270
849.299622	717.467102	961.774414	730.544373	5.352796
849.600464	718.730164	953.303894	730.098450	4.846359
849.901367	715.980957	958.282227	729.727051	5.673141
850.202087	716.055359	966.083984	731.956055	6.359550
850.502808	716.649719	954.269836	733.739441	7.192035
850.803467	716.724121	942.158508	740.946777	10.744881
851.104065	720.810730	936.883057	746.816650	12.035748
851.404663	725.120300	947.136780	738.494690	6.024053
851.705139	721.479492	944.536133	736.414246	6.695498
852.005615	717.318542	949.440125	727.423645	4.353366
852.306030	710.185364	952.189392	730.395691	8.351235
852.606384	716.798340	954.121277	724.080017	3.068257
852.906616	710.928406	946.096619	724.823059	5.908389
853.206909	709.219482	939.632324	725.714661	7.158967
853.506958	715.163757	945.279297	732.401917	7.491089
853.807129	721.107910	946.245117	736.117004	6.666643
854.107178	723.708496	940.672424	736.711487	5.993158
854.407166	717.615723	936.585754	734.779602	7.838460
854.707092	713.157532	933.465149	726.532043	6.070835
855.007019	706.024414	934.356689	727.646667	9.469644
855.306763	705.281433	932.573425	728.315247	10.134019
855.606567	709.219421	927.669434	733.219299	10.986440
855.906250	714.643555	928.040955	727.646667	6.093379
856.205933	719.250305	930.270020	731.213074	5.669029
856.505493	718.581604	931.904724	732.996338	6.757230
856.805054	719.993347	940.895325	748.525574	12.916239
857.104492	716.203918	937.774658	747.931152	14.319235
857.403931	723.857117	940.226746	745.033386	9.787081
857.703308	724.154297	933.465149	740.426575	7.774216
858.002563	719.993347	934.802551	737.603210	8.197909
858.301819	711.894348	932.127686	746.668030	15.789473
858.601013	715.163757	938.220520	738.940491	10.659499
858.900208	712.860291	942.009949	741.095276	12.321635
859.199219	713.083252	942.975830	735.671204	9.825438
859.498291	706.247375	939.334961	738.197571	13.707377
859.797302	708.476379	933.093567	736.340027	12.404949
860.096191	707.436218	935.174072	740.723816	14.616630
860.395020	708.625061	929.229797	741.392578	14.853497
860.693787	709.442383	926.703552	742.135559	15.047869
860.992554	706.470215	917.415710	741.838379	16.766495
861.291260	706.841797	918.010071	737.603088	14.567194
861.589844	706.470215	926.554993	738.940491	14.753531
861.888428	713.231873	931.756165	733.516418	9.282513
862.186890	715.386536	931.681824	741.169678	11.920343
862.485413	716.129578	925.440369	733.590759	8.342227
862.783813	714.643555	923.508545	726.457703	5.656356
863.082153	719.250305	922.171082	726.532043	3.588464
863.380371	722.519592	920.833679	736.265686	6.931476
863.678589	718.210144	916.375488	739.906555	10.948641
863.976746	711.968689	924.251465	732.922058	9.870499
864.274902	709.219482	924.548645	723.114075	6.452722
864.572937	716.203918	937.477356	721.776672	2.518492
864.870911	722.816833	933.316406	725.120300	1.094286
865.168884	726.383484	932.127625	729.058350	1.300093
865.466736	719.919128	925.068848	728.315247	4.092679
865.764587	715.386536	919.719055	727.126465	5.745502
866.062317	714.643555	916.078308	725.194580	5.237937
866.360107	721.479431	916.078308	728.612488	3.665518
866.657715	727.572266	915.781067	727.423645	-0.078966
866.955322	721.999512	924.697327	722.668213	0.329901
867.252808	723.411316	927.372253	723.262695	-0.072867
867.550293	721.107910	933.316467	727.646484	3.081202
867.847717	727.795166	931.161804	731.361633	1.753713
868.145081	718.433044	929.824280	733.219238	6.994705
868.442383	710.482605	922.914063	724.674500	6.680694
868.739624	709.739563	919.719055	733.442139	11.288043
869.036804	715.683838	919.050293	734.259460	9.134064
869.333984	716.055359	931.458923	744.661926	13.280452
869.631042	712.786072	933.836609	744.736145	14.453741
869.928101	708.402100	936.660156	746.222229	16.569023
870.224976	710.333984	925.514648	738.420410	13.052485
870.521851	707.956299	928.189514	732.476257	11.133634
870.818726	713.751953	925.440430	731.510254	8.388884
871.115479	719.324707	927.372314	737.751648	8.857079
871.412231	728.686829	924.548767	738.197510	4.855809
871.708862	729.727051	939.186340	734.482422	2.270308
872.005493	729.206848	940.003723	728.761047	-0.211484
872.302063	727.126465	949.663086	723.857117	-1.469128
872.598572	723.782776	948.548584	724.005676	0.099170
872.895020	722.742615	955.161438	725.640381	1.246786
873.191406	720.216309	954.492737	731.064453	4.630489
873.487671	726.829163	948.548523	731.213074	1.977234
873.783997	731.956055	957.390564	731.510315	-0.197725
874.080200	732.847839	953.749695	731.807556	-0.470926
874.376343	728.835449	949.588684	727.200745	-0.740512
874.672424	719.324646	947.211121	732.847839	5.934180
874.968445	719.176025	952.560852	728.092346	3.820437
875.264465	719.398926	950.777649	734.036621	6.326293
875.560364	718.284363	948.251282	725.268860	3.037175
875.856201	716.203918	942.307129	721.479492	2.333259
876.152039	715.237976	947.656921	724.525818	3.996164
876.447754	719.101807	940.226624	725.417480	2.856158
876.743469	716.649719	942.009949	730.470032	6.132543
877.039063	714.643555	944.090332	725.491760	4.727983
877.334595	712.042969	947.805481	719.547546	3.183109
877.630127	720.364929	954.567078	722.519714	0.920054
877.925537	715.758118	956.276062	720.142029	1.822696
878.221008	709.739563	962.740417	725.566101	6.255527
878.516296	703.572449	967.792969	724.600159	7.958394
878.811646	703.126648	969.873352	728.018005	9.331458
879.106812	709.962463	982.281982	733.516418	8.649382
879.401978	708.104980	992.758606	733.070618	8.770532
879.697083	706.618835	1011.482971	732.996399	8.652236
879.992126	714.123474	1031.321777	738.494812	7.683313
880.287109	718.804504	1068.324585	736.488586	5.059533
880.582031	723.485535	1127.172363	737.528809	3.478755
880.876892	723.857117	1245.982300	736.117004	2.348074
881.171753	725.789063	1456.704712	744.067444	2.500751
881.466492	728.835449	1768.330444	758.482178	2.852032
881.761230	724.823059	2140.661377	770.593506	3.232745
882.055786	723.262695	2499.469482	792.810059	3.915499
882.350403	725.937561	2761.980469	801.429199	3.707762
882.644958	723.708496	2859.688721	806.184570	3.861275
882.939453	723.857117	2834.054443	797.416809	3.485915
883.233826	719.621826	2734.339844	796.227966	3.802326
883.528137	715.089355	2619.616455	789.763611	3.920882
883.822449	709.813904	2497.908936	793.924561	4.703926
884.116577	713.157532	2376.869873	776.909241	3.831895
884.410828	716.203918	2248.697754	771.336487	3.597572
884.704956	719.547546	2088.426758	760.711243	3.007110
884.999023	715.980957	1902.001343	768.364441	4.416744
885.292969	721.256531	1717.730347	759.745300	3.862497
885.586914	719.324646	1547.428345	752.389404	3.992828
885.880798	721.033630	1418.067383	737.825989	2.409117
886.174622	717.169922	1320.953735	736.414307	3.187297
886.468384	716.649719	1256.979126	732.699158	2.970306
886.762085	714.420654	1215.741089	741.689758	5.439456
887.055664	720.290527	1175.691895	744.513245	5.318982
887.349304	721.107910	1143.072998	744.216125	5.476334
887.642822	723.708496	1109.933960	738.197510	3.751439
887.936340	718.804504	1087.866089	735.671326	4.570191
888.229736	719.250305	1064.015015	736.711426	5.064649
888.523071	719.176025	1043.656006	738.791992	6.045355
888.816284	725.789001	1029.464111	739.534973	4.526539
889.109619	722.371033	1011.928711	737.231628	5.132171
889.402710	719.621826	994.690430	729.132568	3.457589
889.695862	709.516785	976.857849	733.070618	8.810406
889.988892	713.083252	972.251160	732.847656	7.626100
890.281921	716.649780	969.204712	731.361694	5.825233
>>>>>End Processed Spectral Data<<<<<
