Jaz Data File
++++++++++++++++++++++++++++++++++++
Date: Fri Jun 04 17:02:14 2021
User: jaz
Dark Spectrum Present: Yes
Reference Spectrum Present: Yes
Processed Spectrum Present: Yes
Spectrometers: JAZA3586
Integration Time (usec): 121000 (JAZA3586)
Spectra Averaged: 10 (JAZA3586)
Boxcar Smoothing: 1 (JAZA3586)
Correct for Electrical Dark: No (JAZA3586)
Strobe/Lamp Enabled: Yes (JAZA3586)
Correct for Detector Non-linearity: No (JAZA3586)
Correct for Stray Light: No (JAZA3586)
Number of Pixels in Processed Spectrum: 2048
>>>>>Begin Processed Spectral Data<<<<<
W	D	R	S	P
191.335022	0.000000	0.000000	0.000000	0.000000
191.713211	225.805969	227.812134	230.338440	225.927170
192.091385	456.738800	461.791412	462.534424	114.705490
192.469528	686.482849	693.913086	704.389832	241.001511
192.847641	699.188538	708.030579	714.866455	177.311066
193.225739	716.501160	719.696106	726.977783	327.912354
193.603790	733.145020	731.584656	728.389587	304.764313
193.981842	736.117004	733.962341	731.436035	217.248322
194.359863	734.779602	737.157227	735.745605	40.628929
194.737854	737.380188	747.931152	744.513245	67.605728
195.115829	753.281067	748.154114	745.553467	150.725006
195.493774	759.596680	749.268616	745.924988	132.374191
195.871704	762.791748	744.810547	744.141663	103.719910
196.249603	761.082825	753.726807	746.445129	198.989395
196.627457	756.178772	751.051941	740.352295	308.699005
197.005310	760.191162	749.640137	736.340027	226.055145
197.383133	755.361511	742.358459	739.683594	120.571060
197.760910	755.955872	743.918762	749.565918	53.085449
198.138687	748.376953	747.188171	754.098328	-481.280487
198.516449	743.324402	750.383240	753.206726	139.999313
198.894180	742.729980	741.764099	749.194336	-669.270142
199.271866	743.101563	731.138855	751.051941	-66.459694
199.649536	742.878601	726.606262	747.485352	-28.310316
200.027191	743.324402	733.293518	744.438965	-11.111314
200.404816	737.603088	736.191406	733.962341	257.901337
200.782410	740.649597	748.525635	731.287415	-118.869194
201.159988	736.934387	759.225281	735.002502	-8.666699
201.537537	738.197571	773.937195	738.569031	1.039351
201.915070	729.058289	768.513000	738.940613	25.047260
202.292557	726.606262	768.587341	738.420471	28.141747
202.670029	726.531982	763.609070	740.055115	36.473019
203.047485	732.104675	771.187988	737.083008	12.737744
203.424911	730.692932	768.215820	735.745544	13.465414
203.802292	724.600098	763.386169	736.934387	31.800821
204.179688	724.377197	762.420227	744.141785	51.953243
204.557037	733.219238	762.568848	742.581360	31.898624
204.934357	733.070618	769.404602	734.408142	3.681194
205.311661	728.612488	767.175598	732.550537	10.211960
205.688934	716.575439	765.540833	733.516418	34.597862
206.066177	720.216309	764.575012	741.838379	48.743694
206.443390	713.900574	759.225281	735.671204	48.032589
206.820587	721.850891	755.435730	733.367920	34.292343
207.197769	727.646667	755.732910	734.482422	24.338444
207.574921	733.962341	758.482117	740.723816	27.575598
207.952042	727.646545	761.900085	733.442139	16.919691
208.329147	724.897400	759.522461	732.179016	21.029902
208.706223	763.757629	806.853210	774.977356	26.034517
209.083267	769.627625	809.156555	789.169189	49.436108
209.460297	771.039368	811.014160	784.710999	34.200630
209.837280	735.076843	764.946533	740.872498	19.403128
210.214264	730.247131	769.107422	737.454590	18.547104
210.591217	728.538147	770.444885	735.374023	16.312119
210.968124	728.983948	771.559509	736.042786	16.579554
211.345016	731.733215	767.472839	739.609314	22.037441
211.721893	731.361633	758.853699	742.284180	39.729813
212.098724	732.773438	756.030273	744.661865	51.117992
212.475555	732.847717	755.510071	745.107666	54.098305
212.852356	728.686768	758.779358	750.011658	70.864258
213.229126	726.829285	765.912415	744.587585	45.437252
213.605865	724.154297	762.643066	733.219238	23.552172
213.982590	721.776672	765.020813	723.114075	3.092679
214.359283	715.237976	762.494446	727.646545	26.257927
214.735931	709.591003	762.791748	735.002625	47.765537
215.112579	714.346375	757.367676	741.318359	62.694489
215.489197	719.250305	755.732910	740.946777	59.470734
215.865799	725.120300	759.819641	728.389587	9.421756
216.242355	716.575439	762.197266	721.850891	11.563438
216.618896	717.764221	760.785583	720.141907	5.526756
216.995407	718.135742	763.163269	725.417480	16.171749
217.371902	723.411316	764.129150	728.240906	11.861116
217.748367	732.922058	762.791687	723.114075	-32.835972
218.124802	731.138855	753.503906	726.531921	-20.598806
218.501236	730.024231	756.327393	721.107910	-33.898285
218.877609	718.878845	755.881592	723.485596	12.449753
219.253983	718.433044	758.705078	724.525818	15.129044
219.630295	725.491760	755.361511	728.984070	11.691793
220.006592	728.835449	750.903320	727.200745	-7.407622
220.382889	730.024231	746.073669	717.021240	-81.018356
220.759140	717.541321	745.107727	717.615662	0.269679
221.135391	716.426819	742.952942	721.999512	21.008320
221.511581	715.535156	752.760925	720.662109	13.772592
221.887772	723.485596	756.253113	722.148132	-4.081675
222.263931	724.080078	772.079590	726.234802	4.489054
222.640060	724.005676	766.581238	741.392578	40.837749
223.016159	717.095520	767.621399	745.479187	56.176495
223.392212	719.919006	757.813477	737.380188	46.078442
223.768265	726.011902	767.398438	736.785828	26.032442
224.144302	732.773376	768.958801	729.949951	-7.802659
224.520294	721.182129	773.788574	736.637207	29.378677
224.896286	716.055237	773.565613	734.110901	31.395489
225.272217	717.467102	775.868958	743.547363	44.656563
225.648148	727.052185	778.766785	748.897156	42.241398
226.024048	724.971619	770.890686	750.457520	55.501781
226.399902	719.621826	769.256104	744.959045	51.047825
226.775772	711.225586	763.237549	739.683594	54.714352
227.151581	718.433044	765.318054	730.024231	24.722586
227.527374	715.015137	761.825867	732.773438	37.936390
227.903137	718.730164	761.454346	728.315247	22.434795
228.278870	716.798340	758.184875	740.723816	57.809807
228.654572	717.392761	757.887695	736.637146	47.522945
229.030273	717.764343	762.271667	744.141785	59.265396
229.405930	715.683777	765.838135	734.556641	37.629559
229.781555	728.166687	768.736023	734.185242	14.835231
230.157181	736.562927	762.568848	729.875671	-25.714359
230.532761	736.934387	764.723633	732.253418	-16.844536
230.908325	730.767273	770.221985	734.333801	9.039550
231.283859	726.383484	775.348877	729.801270	6.980002
231.659332	727.572266	772.674011	733.887878	14.003034
232.034821	728.612488	765.838135	730.767273	5.788443
232.410263	719.696228	766.432556	726.309082	14.149281
232.785690	721.033630	767.844238	715.683838	-11.428590
233.161087	721.925293	768.067200	717.392761	-9.823027
233.536469	724.377197	763.980652	725.640381	3.189579
233.911804	722.816895	763.757629	733.739441	26.678921
234.287140	721.776611	764.277832	733.516418	27.622282
234.662430	727.646484	768.661621	730.618652	7.246515
235.037704	723.782898	774.234375	729.652649	11.634448
235.412933	725.268860	773.937073	730.247131	10.229000
235.788162	720.067688	769.479004	723.559875	7.067586
236.163345	718.730286	764.649231	726.532043	16.990280
236.538513	716.724060	769.776123	728.315247	21.848701
236.913635	716.575439	768.290100	735.968506	37.500134
237.288742	720.884949	764.500671	735.374023	33.219845
237.663834	718.655945	757.070496	733.516418	38.684490
238.038879	724.302917	762.717468	733.293518	23.404154
238.413910	719.547546	763.906311	734.259521	33.165882
238.788910	719.324646	766.135437	730.693054	24.285872
239.163879	718.432922	767.175598	731.956116	27.744053
239.538834	713.751953	763.311829	732.327637	37.481297
239.913757	718.655945	764.575012	737.083008	40.129436
240.288651	715.015076	763.757629	736.117004	43.292622
240.663528	723.782776	773.268372	730.618652	13.813871
241.038361	720.513489	777.355042	726.531982	10.588194
241.413177	722.593994	773.417053	731.436035	17.397696
241.787979	725.640320	766.061035	736.414307	26.654617
242.162735	728.092346	765.466614	739.014893	29.224777
242.537476	725.937500	770.444885	732.773438	15.359108
242.912170	720.884949	777.949463	730.767273	17.317810
243.286865	718.135742	779.212646	728.389587	16.788416
243.661514	713.157532	780.104309	730.098572	25.305237
244.036148	719.176025	779.212646	736.340027	28.589220
244.410751	725.417480	776.389160	746.519348	41.399200
244.785339	735.076843	776.166260	749.045715	33.996277
245.159882	736.711487	776.983582	746.965271	25.461264
245.534378	732.476135	785.231140	743.918884	21.690357
245.908890	726.160461	784.859619	733.739441	12.911564
246.283356	726.457703	777.652283	728.018066	3.047908
246.657791	725.343201	766.878418	723.262695	-5.009015
247.032196	731.510254	772.228210	734.779602	8.029254
247.406586	725.640320	783.522217	736.117004	18.100105
247.780960	728.463867	787.311707	735.968445	12.752512
248.155289	727.795166	783.002136	731.064453	5.921874
248.529602	722.965515	777.726563	725.566101	4.748971
248.903870	724.674500	784.339539	730.024231	8.966275
249.278122	717.095520	784.265320	728.761047	17.367220
249.652344	720.513489	784.116638	735.299744	23.247677
250.026550	713.751892	774.085754	736.860107	38.300575
250.400711	712.785950	780.178528	735.299805	33.407024
250.774857	713.900452	777.726563	734.928223	32.945404
251.148987	719.027405	783.968018	727.646667	13.272531
251.523071	724.674377	777.726563	725.566101	1.680842
251.897125	728.686829	783.447937	730.247131	2.849290
252.271164	723.559875	778.766785	728.389587	8.748384
252.645187	725.120300	776.389160	735.002502	19.275253
253.019165	726.234863	769.924805	727.274963	2.380640
253.393112	733.888000	777.132141	735.671204	4.123572
253.767044	729.652771	771.930969	734.928223	12.477948
254.140930	727.349304	781.293152	748.005432	38.291908
254.514801	722.148132	776.537781	745.999329	43.852455
254.888657	725.045898	782.110413	748.377014	40.885506
255.262466	731.287354	775.051697	738.123230	15.619740
255.636276	731.064453	781.441711	739.089172	15.929250
256.010010	732.922058	781.738953	743.844543	22.374395
256.383759	724.080017	780.847351	748.897034	43.717072
256.757446	730.098450	773.194092	749.863037	45.862148
257.131134	724.451477	775.646057	742.209900	34.688091
257.504791	724.228577	776.983459	739.832214	29.577618
257.878418	715.460938	775.720398	737.008728	35.758354
258.252014	723.782776	780.550049	737.454529	24.083864
258.625580	720.885010	788.797668	733.813660	19.037172
258.999115	729.875671	794.073242	736.042725	9.606365
259.372650	726.680603	793.701660	744.513245	26.607521
259.746124	727.274963	791.546875	746.519348	29.942139
260.119598	728.463867	791.398254	742.209900	21.841846
260.493042	729.281250	796.822449	732.699158	5.060478
260.866425	728.166687	803.806824	733.887939	7.563778
261.239838	717.318420	810.048340	738.420410	22.756399
261.613159	708.922302	806.556152	742.432800	34.322624
261.986511	712.340149	801.800720	738.197571	28.903708
262.359802	720.513489	792.067078	739.683594	26.791256
262.733063	728.761169	789.020569	735.596985	11.343982
263.106293	725.937683	777.726563	734.928223	17.359982
263.479523	719.398926	785.008240	740.500977	32.163193
263.852692	719.696106	791.026855	744.216064	34.375019
264.225861	719.844788	802.172180	746.370850	32.220215
264.598969	730.990173	798.085632	732.624817	2.436295
264.972076	724.674500	792.587158	733.665039	13.238385
265.345154	726.531982	796.896729	737.008606	14.889024
265.718201	715.906738	803.509583	743.621582	31.636923
266.091217	729.801331	809.676758	747.262451	21.860441
266.464203	733.590820	815.323730	747.039551	16.454487
266.837158	739.014893	813.391846	742.581360	4.795124
267.210114	724.748718	820.673523	738.123230	13.942704
267.583038	719.770508	827.360779	733.367859	12.638086
267.955902	717.689941	834.419617	736.488586	16.104427
268.328766	722.965515	824.463074	739.906494	16.691021
268.701569	727.052063	813.168945	736.562805	11.043993
269.074371	719.473206	808.710754	732.253235	14.321359
269.447144	712.488770	815.992493	724.377197	11.485991
269.819885	709.591003	820.896484	733.739441	21.695641
270.192596	716.129700	825.577454	741.838379	23.489454
270.565277	730.767334	831.670349	755.064270	24.079494
270.937927	739.609375	831.150208	752.240723	13.798594
271.310577	735.671326	834.419617	744.810486	9.255006
271.683136	726.011902	824.165771	733.293640	7.418697
272.055725	717.690002	829.812805	731.361633	12.193443
272.428284	717.764343	830.555847	737.083008	17.127766
272.800812	720.364929	841.849854	747.856873	22.629921
273.173279	726.977783	836.351379	747.039551	18.342422
273.545776	735.522644	833.527893	743.695984	8.339696
273.918152	729.281250	831.075989	739.832214	10.364941
274.290558	719.621887	832.339111	742.655762	20.435097
274.662964	713.528992	837.094482	743.175781	23.992775
275.035278	720.439148	836.648621	736.562927	13.874755
275.407593	725.045898	836.500000	737.231628	10.933407
275.779907	724.822998	845.787842	740.798096	13.206397
276.152161	716.278259	852.846497	738.940491	16.594072
276.524384	712.934570	862.654541	738.271790	16.923073
276.896606	713.157410	861.242859	740.649597	18.565084
277.268799	719.027344	865.775391	747.336731	19.291151
277.640930	724.525818	863.026123	742.804382	13.197491
278.013031	731.138733	860.351257	735.299744	3.220284
278.385162	730.321472	854.704285	726.754883	-2.867429
278.757233	722.296692	855.372864	724.377258	1.563440
279.129272	719.844727	859.608154	727.349365	5.369530
279.501282	718.953125	863.026062	734.259460	10.624019
279.873230	723.559875	869.861877	728.909668	3.656677
280.245178	724.971680	875.806152	718.284363	-4.433547
280.617126	721.182312	877.589355	722.891174	1.092574
280.988983	715.015137	878.258118	736.414307	13.108784
281.360870	716.724060	885.465515	753.429504	21.752476
281.732697	721.702332	894.679016	740.723816	10.996560
282.104492	731.138733	902.778015	736.934387	3.376648
282.476288	730.544373	901.960754	731.361633	0.476769
282.848053	732.253357	908.945129	736.934387	2.649263
283.219757	730.321472	915.409485	732.030457	0.923336
283.591461	725.194519	924.474426	726.234863	0.522052
283.963135	726.086121	923.954285	726.680664	0.300475
284.334747	736.637146	924.845947	737.231628	0.315863
284.706360	734.779602	925.291809	743.993164	4.836205
285.077942	734.333801	936.362976	743.101563	4.339849
285.449524	715.460876	947.359680	736.934387	9.259863
285.821014	713.157532	955.235779	733.293518	8.317966
286.192535	711.225647	957.687805	735.596924	9.888446
286.563995	715.609436	967.198547	734.185242	7.383390
286.935425	715.832458	964.300781	738.346130	9.060983
287.306824	719.027527	964.597961	734.036560	6.111906
287.678223	713.751953	954.418457	735.522644	9.046000
288.049561	726.011963	955.235779	726.829285	0.356561
288.420898	724.154358	952.783752	734.556702	4.549871
288.792145	732.327637	952.486572	735.596924	1.484967
289.163452	729.504150	958.876526	740.352295	4.729490
289.534668	737.454529	966.975586	736.711487	-0.323736
289.905914	737.380188	972.548340	737.008728	-0.157955
290.277039	735.745544	985.105469	743.621643	3.158526
290.648193	735.299744	1001.229187	746.222229	4.107287
291.019318	731.881836	1010.591248	745.033386	4.718732
291.390381	724.451599	1006.727539	734.333801	3.500901
291.761475	708.996582	995.582214	733.442200	8.529952
292.132507	712.042969	994.616211	739.386414	9.676587
292.503510	715.758118	1004.126953	747.485413	11.002332
292.874481	729.727051	1021.439453	754.098328	8.354556
293.245422	727.572266	1028.126709	748.525696	6.971592
293.616364	724.600159	1034.442383	749.268616	7.961619
293.987213	717.912903	1029.464233	736.488586	5.962319
294.358093	718.061523	1047.073975	731.733215	4.155372
294.728943	714.940857	1060.448364	730.841614	4.602145
295.099731	711.745789	1076.720825	728.909668	4.702754
295.470490	717.467041	1094.776245	733.739319	4.312717
295.841248	720.736328	1105.773193	734.779602	3.647254
296.211975	722.073792	1118.999146	740.278015	4.586309
296.582642	719.547546	1123.902954	744.290344	6.119072
296.953308	719.770508	1133.116577	738.197510	4.458008
297.323883	724.005676	1144.410400	741.764099	4.224125
297.694519	720.364929	1144.113281	735.151123	3.489381
298.065063	719.993408	1146.565308	737.528809	4.110773
298.435608	721.107910	1139.952271	729.652649	2.040075
298.806122	729.429871	1132.447754	734.928223	1.364295
299.176575	731.584534	1129.252808	743.250183	2.933513
299.547028	728.761047	1123.680054	742.581360	3.499531
299.917450	722.148132	1121.525269	743.844543	5.432562
300.287872	721.702332	1114.317993	736.711426	3.822847
300.658234	725.937561	1115.952515	736.711426	2.762424
301.028564	727.795166	1120.782227	731.361633	0.907528
301.398865	726.977844	1122.714111	730.247131	0.826128
301.769135	722.891113	1129.995728	731.733154	2.171933
302.139374	716.575439	1132.893555	729.578430	3.123331
302.509583	716.129639	1126.354980	727.646545	2.807459
302.879791	713.454773	1118.850464	732.847717	4.783708
303.249939	715.832458	1116.026855	740.129395	6.071283
303.620087	718.804504	1127.172241	746.222168	6.713964
303.990173	720.810730	1130.367310	744.884766	5.878073
304.360260	721.182190	1138.837891	743.101501	5.248177
304.730286	724.600159	1140.472412	741.243958	4.002142
305.100281	722.891174	1142.552856	738.271790	3.665004
305.470276	728.166687	1135.345581	741.541199	3.284677
305.840179	722.668274	1137.203125	737.157288	3.495246
306.210144	719.621887	1140.249634	738.643311	4.522151
306.579987	719.473328	1152.658081	739.312012	4.579728
306.949890	714.049133	1159.345337	740.278015	5.890210
307.319702	718.878845	1177.846680	742.507141	5.148138
307.689484	714.494934	1184.905396	740.946777	5.623141
308.059265	725.789001	1204.298462	744.587585	3.928571
308.429016	727.497986	1212.174683	742.061279	3.004744
308.798737	726.531982	1233.722412	737.008728	2.065643
309.168396	725.863281	1243.456055	736.860107	2.124610
309.538055	714.346375	1256.533325	739.386414	4.618340
309.907684	719.324646	1268.793213	742.507080	4.219065
310.277313	714.569336	1281.796143	741.838379	4.807432
310.646851	723.559875	1294.353394	743.175781	3.436603
311.016388	717.764343	1306.241821	747.856934	5.113635
311.385895	724.525818	1312.483276	750.531738	4.423096
311.755371	723.931396	1314.415039	747.039551	3.913428
312.124817	722.148132	1313.300537	741.243958	3.230271
312.494232	719.993347	1310.254272	740.129395	3.411381
312.863617	721.330811	1307.876343	741.838379	3.496330
313.232971	724.377258	1304.978638	746.222229	3.762473
313.602295	719.473328	1306.910522	737.082947	2.997702
313.971619	717.095520	1316.049805	740.129395	3.845682
314.340820	721.702332	1320.359253	736.339905	2.445069
314.710083	729.058350	1331.430542	739.832214	1.788573
315.079285	730.618652	1344.433472	740.723816	1.646289
315.448486	729.652649	1366.204102	746.296570	2.614702
315.817596	717.838562	1358.328003	752.909485	5.475644
316.186707	719.621765	1352.532349	746.593750	4.261579
316.555786	717.169739	1331.950684	743.770203	4.326820
316.924866	724.080017	1334.551147	736.414246	2.020444
317.293884	713.083191	1332.322144	738.791992	4.151677
317.662872	709.293762	1336.557251	734.110840	3.956404
318.031830	709.739563	1343.393066	739.089172	4.631807
318.400757	724.154297	1354.538574	744.067444	3.158890
318.769684	724.897278	1368.730469	747.188171	3.462216
319.138550	717.244141	1373.188599	739.832214	3.443595
319.507416	713.306152	1378.092407	738.643372	3.811333
319.876190	713.603333	1378.909790	735.819824	3.339287
320.244995	717.541321	1387.157593	748.079834	4.560599
320.613770	719.547546	1381.064819	742.358459	3.448272
320.982483	724.228699	1377.869629	745.404968	3.239740
321.351166	727.572266	1367.690063	744.067566	2.576916
321.719818	725.120178	1363.826294	741.912781	2.629159
322.088440	727.646545	1368.730347	743.695984	2.503485
322.457062	730.395752	1385.225586	741.615479	1.713380
322.825623	721.925232	1408.705200	747.633972	3.743374
323.194183	717.021179	1418.884766	745.107666	4.001702
323.562653	710.408264	1439.912476	742.729980	4.430642
323.931183	719.621826	1457.596558	742.952942	3.161506
324.299591	719.398926	1492.741821	743.175842	3.074563
324.668060	724.228699	1513.100586	740.723816	2.090976
325.036407	724.302917	1536.654663	740.129395	1.948230
325.404755	725.937683	1552.555298	739.609314	1.653924
325.773102	721.702332	1549.954712	741.243958	2.359380
326.141388	728.463867	1556.864868	746.816650	2.215447
326.509674	732.401917	1556.270508	743.547302	1.352811
326.877899	739.683594	1577.744141	744.364563	0.558548
327.246124	736.117126	1581.087769	732.030457	-0.483646
327.614288	734.556641	1586.511719	739.683594	0.601787
327.982422	733.962219	1578.561401	734.259521	0.035200
328.350525	738.643311	1576.406616	743.175781	0.541020
328.718628	739.460632	1575.589233	736.934387	-0.302136
329.086700	739.089172	1588.963745	753.503906	1.696101
329.454712	735.225403	1590.895508	751.794922	1.936438
329.822693	736.934387	1598.177246	752.463623	1.803119
330.190674	735.968445	1604.047241	746.073547	1.164077
330.558563	732.253235	1618.461792	745.627747	1.509183
330.926483	724.079895	1628.418457	741.689758	1.947264
331.294312	719.175964	1638.672241	735.076843	1.729303
331.662231	718.135742	1660.145630	738.271790	2.137562
332.029999	713.751953	1687.860718	744.364563	3.142627
332.397766	713.603333	1714.906860	739.832214	2.619474
332.765503	713.008972	1738.906616	736.265625	2.266956
333.133240	720.513489	1757.779419	733.739319	1.275066
333.500916	720.959290	1788.169312	738.717590	1.663993
333.868561	720.067627	1800.131958	738.717590	1.726746
334.236176	710.854065	1804.144409	738.123230	2.494229
334.603790	711.745789	1798.720337	737.528809	2.371998
334.971344	712.117249	1805.927612	739.163513	2.472665
335.338867	719.993347	1810.608765	739.757996	1.812247
335.706360	715.089417	1810.757202	739.757874	2.251454
336.073853	719.696228	1814.843872	740.798096	1.926851
336.441284	716.426819	1826.806641	738.420410	1.980727
336.808655	718.581604	1826.509399	744.216064	2.313730
337.176086	719.993408	1801.246582	740.872375	1.930997
337.543396	730.247131	1762.460571	749.714539	1.885987
337.910706	730.544373	1733.928223	744.959045	1.436606
338.277954	733.219238	1758.373657	750.383118	1.674273
338.645264	727.869446	1824.354614	746.668030	1.714440
339.012421	725.714661	1905.716187	748.897156	1.964616
339.379669	721.999512	1972.217163	745.924988	1.913705
339.746796	726.086182	2016.798706	747.188171	1.634910
340.113953	735.225403	2035.820313	749.194336	1.074042
340.481018	733.219238	2043.919067	753.875427	1.575966
340.848114	728.612488	2029.578735	757.293274	2.204576
341.215118	721.850891	2030.618774	756.030212	2.611565
341.582153	725.640320	2033.219604	754.915710	2.238900
341.949066	724.971680	2051.498047	755.510071	2.302132
342.316010	725.120300	2061.454834	755.807312	2.296357
342.682922	724.228699	2072.971680	755.584290	2.324801
343.049835	726.680664	2091.993408	751.720642	1.834010
343.416656	733.590820	2141.924561	751.274841	1.255670
343.783478	736.117004	2193.416260	740.203796	0.280436
344.150269	746.222229	2248.846191	742.729980	-0.232410
344.516998	748.005432	2288.895264	744.067383	-0.255570
344.883728	740.798096	2322.628662	752.017822	0.709288
345.250427	725.268860	2357.848145	745.404968	1.233392
345.617065	719.696106	2377.835693	748.005554	1.707302
345.983704	721.107910	2385.414307	750.457520	1.763474
346.350281	722.668213	2383.928467	747.856934	1.516242
346.716827	717.838562	2357.996826	734.185120	0.996645
347.083405	716.278259	2350.046631	730.470032	0.868653
347.449860	733.145020	2346.108398	751.646301	1.147037
347.816376	738.123230	2348.040283	760.711243	1.403054
348.182770	742.209900	2340.312744	753.132507	0.683473
348.549194	731.658875	2322.851563	735.745605	0.256834
348.915558	732.624817	2330.281982	736.191406	0.223239
349.281921	727.423645	2331.396240	741.021057	0.847733
349.648193	721.999512	2351.086670	737.380188	0.944129
350.014526	722.965515	2371.074219	735.968445	0.788961
350.380737	725.194519	2401.017822	736.860107	0.696111
350.746948	730.841553	2438.986572	747.708313	0.987431
351.113159	726.457703	2464.026611	741.095398	0.842424
351.479309	723.708496	2482.528076	739.312073	0.887162
351.845428	722.816895	2496.943115	742.729980	1.122416
352.211517	730.841553	2537.289063	749.417236	1.028299
352.577576	727.200745	2572.508789	752.240723	1.356954
352.943604	727.869446	2598.886475	737.974609	0.540089
353.309601	723.782898	2627.121582	740.946716	0.901774
353.675537	730.470032	2678.241699	743.398682	0.663766
354.041473	727.423645	2737.832275	749.491516	1.097681
354.407379	730.990173	2779.664795	748.005554	0.830556
354.773254	733.813660	2830.339111	747.634033	0.659204
355.139038	725.491760	2874.177734	751.497742	1.210320
355.504913	725.268860	2949.074951	754.692688	1.323129
355.870636	720.142029	3007.997070	754.915588	1.519920
356.236389	725.566101	3068.776611	755.361511	1.271564
356.602081	718.432922	3120.714111	754.767029	1.512483
356.967804	720.587708	3175.401123	749.417236	1.174408
357.333405	720.959290	3246.285889	749.565857	1.132787
357.699036	715.906738	3330.545166	749.119934	1.270279
358.064606	716.203918	3415.398682	752.760803	1.354363
358.430176	717.615723	3485.391846	749.863037	1.165098
358.795654	727.275085	3517.193604	744.290344	0.609884
359.161163	727.052063	3540.153320	745.256287	0.647123
359.526581	727.497864	3544.239502	751.943542	0.867871
359.892029	732.179016	3581.837158	759.522400	0.959532
360.257416	729.875671	3638.306885	761.602844	1.090869
360.622772	731.510254	3736.163818	745.925049	0.479749
360.988098	723.411316	3836.992188	736.340027	0.415236
361.353394	722.816895	3967.913330	731.138855	0.256447
361.718658	721.850891	4110.352051	743.027161	0.624945
362.083893	720.364929	4258.511719	743.918884	0.665715
362.449097	719.844727	4351.093262	744.810486	0.687526
362.814209	714.272034	4358.969238	744.587585	0.831771
363.179382	721.776672	4269.285645	746.147949	0.686997
363.544434	723.857117	4122.834961	745.404968	0.633951
363.909546	731.881836	3960.409180	741.392578	0.294585
364.274536	726.680664	3817.302002	745.404846	0.605839
364.639587	728.835388	3710.157959	746.742371	0.600639
365.004517	726.829163	3639.421143	744.736145	0.614813
365.369507	730.841553	3597.589111	739.014893	0.285108
365.734344	726.011902	3582.951416	747.856873	0.764628
366.099274	726.754883	3580.128174	759.299500	1.140566
366.464081	724.005676	3585.923828	761.900085	1.324091
366.828918	731.584534	3583.322998	762.048645	1.068264
367.193665	730.841553	3585.329102	754.098328	0.814744
367.558411	728.761047	3586.072266	760.042480	1.094786
367.923126	728.909668	3585.106201	758.036438	1.019775
368.287781	737.008728	3590.233154	755.732971	0.656249
368.652435	735.968445	3580.945313	755.881592	0.699941
369.017059	736.711487	3578.790771	756.476074	0.695427
369.381653	728.835388	3566.159180	762.791748	1.196774
369.746185	731.064514	3574.629639	763.237549	1.131433
370.110687	724.451599	3585.923584	756.921814	1.134738
370.475220	725.491760	3618.022461	754.767029	1.012099
370.839661	720.141907	3652.573242	759.596680	1.345463
371.204041	723.039795	3705.253906	760.042542	1.240781
371.568451	716.724060	3745.600342	761.082764	1.464527
371.932770	722.073792	3782.157471	756.030212	1.109657
372.297150	719.324646	3791.519531	764.054871	1.455970
372.661377	720.662109	3808.608643	761.454285	1.321013
373.025696	714.420654	3827.258789	762.123047	1.532441
373.389862	720.736389	3841.748047	758.556458	1.211789
373.754059	721.702332	3844.719971	764.129211	1.358522
374.118225	731.807434	3860.917969	755.212830	0.747989
374.482361	727.423645	3887.221436	755.658691	0.893571
374.846436	727.497986	3932.174561	753.652527	0.816137
375.210510	720.587830	3974.155518	762.048645	1.274319
375.574524	722.222473	4056.705811	757.144775	1.047308
375.938538	721.330811	4155.156738	755.212891	0.986715
376.302460	727.720886	4245.806152	751.572021	0.677958
376.666412	727.943665	4338.164551	754.989929	0.749158
377.030304	728.686768	4413.582031	761.528564	0.891255
377.394196	721.776672	4515.970703	758.482178	0.967412
377.757996	723.039795	4579.351074	759.745361	0.951831
378.121796	722.965515	4624.898926	756.698914	0.864530
378.485565	729.875671	4628.911133	770.667786	1.046210
378.849304	719.324646	4609.072266	766.729797	1.218721
379.212982	717.912842	4559.883789	768.810242	1.324773
379.576630	714.272034	4475.624512	767.249939	1.408480
379.940277	717.764343	4411.204102	775.497498	1.563127
380.303864	726.086182	4368.183105	772.079590	1.262828
380.667450	725.640320	4379.327637	767.324219	1.140872
381.030945	725.714661	4390.547363	765.838196	1.094826
381.394501	724.228699	4421.532227	767.547119	1.171622
381.757935	730.767273	4436.021484	771.187927	1.090901
382.121399	733.962219	4445.977539	770.816406	0.992835
382.484741	733.293640	4468.640137	780.921570	1.275061
382.848145	723.782776	4501.779297	780.178528	1.492742
383.211487	724.451477	4539.673340	793.553040	1.811207
383.574768	716.649719	4596.218262	790.135071	1.894163
383.938019	719.324646	4655.065430	802.320801	2.108781
384.301270	718.507324	4729.442871	799.571594	2.021081
384.664459	722.742615	4785.541016	810.122559	2.150733
385.027649	721.107910	4818.085449	821.416565	2.448357
385.390778	725.045898	4877.750488	834.345215	2.632003
385.753876	725.194580	4892.091309	838.283264	2.713979
386.116943	732.104736	4928.722168	842.592834	2.632790
386.479980	727.869446	4926.716309	848.834290	2.880906
386.842987	733.665039	4987.719238	855.224304	2.857492
387.205994	730.767273	5037.278809	853.961182	2.860643
387.568909	725.045959	5100.139160	856.190247	2.997520
387.931793	718.804504	5130.454590	871.793762	3.467847
388.294678	718.135742	5167.902832	885.539795	3.762086
388.657471	720.513489	5171.766113	900.400391	4.041265
389.020294	726.309082	5179.939453	909.613953	4.115853
389.383057	727.646484	5178.825195	922.394043	4.375191
389.745819	730.767273	5207.951660	932.201965	4.499137
390.108521	727.423645	5228.607910	947.954102	4.899388
390.471191	726.011902	5286.415527	963.037598	5.197472
390.833801	721.925232	5363.987793	982.727722	5.618246
391.196442	716.798340	5472.395020	1011.037109	6.187211
391.558960	708.625000	5561.484375	1028.795410	6.597562
391.921509	708.625000	5656.665527	1053.612671	6.972208
392.284027	706.544617	5756.826172	1072.485474	7.245949
392.646484	713.306152	5859.884277	1098.268555	7.479968
393.008911	719.101746	5897.704590	1119.296265	7.727847
393.371307	722.816895	5889.084473	1134.676880	7.972099
393.733673	734.408142	5845.543457	1159.716919	8.321219
394.096008	736.117004	5824.812988	1194.193237	9.001840
394.458344	736.414246	5844.726563	1227.629517	9.615999
394.820587	726.457703	5876.007813	1260.397095	10.368661
395.182831	726.234802	5914.273438	1287.591797	10.820216
395.545013	729.281189	5898.075684	1316.867065	11.367949
395.907196	732.550476	5876.750488	1342.650146	11.859952
396.269287	735.374023	5824.144531	1365.832520	12.389211
396.631409	735.002502	5767.154297	1389.237915	13.001106
396.993469	731.138733	5708.009277	1421.931030	13.880054
397.355530	725.566101	5642.103027	1451.429321	14.763709
397.717499	720.364929	5626.499512	1485.014282	15.585576
398.079468	719.324646	5612.232910	1515.181152	16.265511
398.441376	720.290527	5618.845703	1546.314087	16.862597
398.803284	726.011902	5621.595215	1576.926758	17.381275
399.165131	727.572205	5639.279785	1612.220581	18.011015
399.526978	727.126404	5651.093750	1649.223267	18.726706
399.888763	723.262695	5661.941406	1696.628418	19.709030
400.250519	724.302917	5684.455078	1735.042847	20.377195
400.612244	729.652771	5726.807129	1776.280762	20.944479
400.973938	726.086182	5731.117188	1806.521973	21.586994
401.335602	724.823059	5727.699219	1843.970703	22.370087
401.697205	725.343079	5768.417480	1891.450073	23.122938
402.058807	731.361633	5843.166016	1942.347290	23.689983
402.420349	728.983948	5940.725098	1999.486328	24.377697
402.781860	724.302917	6006.037109	2043.473633	24.976089
403.143341	719.250305	6070.309082	2096.005615	25.728655
403.504822	717.987244	6137.479004	2154.630371	26.508816
403.866241	711.151367	6247.669434	2221.354248	27.277124
404.227631	712.488770	6360.460938	2281.390625	27.778145
404.588959	715.312317	6501.933594	2338.306641	28.047359
404.950287	715.683838	6629.585938	2403.098633	28.533018
405.311554	717.987244	6712.582031	2456.447998	29.000471
405.672821	719.844727	6754.265625	2503.630127	29.560175
406.034027	719.696106	6745.126465	2516.410400	29.818855
406.395203	720.959290	6715.257324	2537.809326	30.309641
406.756348	718.953125	6665.919922	2559.060059	30.941940
407.117493	724.600098	6634.044434	2599.406250	31.725592
407.478516	723.262695	6638.725098	2626.527100	32.174397
407.839600	725.045898	6689.994141	2652.086914	32.306080
408.200592	726.234802	6708.049316	2683.591309	32.721786
408.561554	725.046082	6693.560547	2704.544678	33.165680
408.922485	721.553772	6674.539063	2736.791992	33.852566
409.283417	718.953125	6681.671875	2751.875732	34.093887
409.644257	717.169922	6756.644043	2801.137939	34.505787
410.005096	720.959290	6853.162598	2851.143799	34.737671
410.365906	722.148132	6922.339355	2902.338623	35.163277
410.726715	727.795166	7015.217285	2951.452881	35.366764
411.087433	725.120178	7061.804688	2976.790039	35.533882
411.448120	725.714661	7138.782715	3013.124023	35.667942
411.808807	721.553711	7166.052246	3055.550781	36.216892
412.169434	717.615723	7154.162598	3083.488525	36.756863
412.530029	719.621887	7150.670410	3121.382813	37.346336
412.890564	732.104675	7135.142090	3119.451172	37.284592
413.251099	735.448303	7156.540527	3133.940186	37.353333
413.611572	730.767273	7194.880859	3147.686279	37.389797
413.972076	724.971680	7225.568359	3179.785156	37.762894
414.332489	722.965515	7262.645996	3231.202393	38.354118
414.692871	722.296814	7324.391113	3290.050049	38.893009
415.053223	719.473328	7422.099121	3336.935303	39.051289
415.413574	725.343201	7568.921387	3399.572266	39.076473
415.773834	728.018066	7688.027832	3461.986572	39.281101
416.134094	727.052185	7808.026855	3540.375977	39.730743
416.494263	724.525879	7887.382324	3601.007080	40.158298
416.854462	724.080078	8059.838379	3684.151611	40.351269
417.214630	726.903503	8273.162109	3775.024170	40.392475
417.574738	722.445374	8500.305664	3867.976563	40.442116
417.934784	725.863281	8692.898438	3953.276367	40.509586
418.294861	732.996399	8928.438477	4052.247314	40.501183
418.654846	737.900330	9249.500000	4179.825684	40.438053
419.014832	739.832214	9575.762695	4315.576660	40.468227
419.374756	730.098450	9917.407227	4456.454590	40.559826
419.734680	726.160461	10268.117188	4626.458984	40.875248
420.094543	717.318542	10637.030273	4784.277832	40.998764
420.454376	716.203918	10928.147461	4942.022461	41.381138
420.814148	721.479431	11216.813477	5083.866699	41.565014
421.173920	720.216309	11521.602539	5221.995605	41.677792
421.533691	719.101746	11896.459961	5371.120605	41.620022
421.893341	717.541443	12194.785156	5481.386230	41.506870
422.253021	724.971680	12432.034180	5586.152344	41.523487
422.612640	728.315247	12524.614258	5636.380859	41.606827
422.972260	726.903503	12556.269531	5649.384277	41.612381
423.331757	725.417480	12493.260742	5655.328613	41.893070
423.691315	729.801270	12497.940430	5687.204590	42.125637
424.050781	732.178955	12553.148438	5747.389160	42.426384
424.410248	730.618652	12631.760742	5763.661621	42.290417
424.769653	720.736328	12724.563477	5794.943359	42.271576
425.128998	717.095520	12766.842773	5819.982910	42.348499
425.488373	717.987122	12744.997070	5833.432129	42.532974
425.847656	722.222473	12655.315430	5803.859375	42.584408
426.206940	724.302917	12541.407227	5745.234375	42.488678
426.566193	719.176086	12383.218750	5676.876465	42.504131
426.925385	716.426941	12157.784180	5585.112793	42.553394
427.284576	712.265930	11863.840820	5464.964844	42.619080
427.643677	717.021301	11630.456055	5374.687500	42.678280
428.002777	720.439148	11410.891602	5285.523926	42.702450
428.361847	726.680603	11180.479492	5211.741699	42.903648
428.720856	727.200684	10941.670898	5118.416992	42.990150
429.079865	726.903503	10762.675781	5074.058594	43.316597
429.438812	725.268860	10633.313477	5034.678223	43.494041
429.797760	728.092468	10543.779297	5013.056152	43.654243
430.156616	725.789063	10446.590820	4946.332031	43.417645
430.515503	728.984070	10378.975586	4935.484375	43.590717
430.874268	732.699219	10349.476563	4944.177734	43.793034
431.233093	735.745605	10364.932617	4984.523926	44.123955
431.591827	729.206848	10415.458008	5000.275879	44.094139
431.950562	726.903503	10448.894531	5022.121094	44.180431
432.309204	721.405090	10492.287109	5045.897949	44.258980
432.667877	724.154297	10552.546875	5088.770508	44.408241
433.026459	721.702332	10658.131836	5124.138672	44.306019
433.385010	725.194580	10750.042969	5184.175293	44.479279
433.743561	726.383484	10903.626953	5252.905762	44.476902
434.102051	722.445374	11035.291992	5343.257324	44.806366
434.460510	730.247253	11185.606445	5405.225098	44.713699
434.818939	722.816895	11271.203125	5433.386230	44.656776
435.177338	718.433044	11331.387695	5435.986816	44.450897
435.535675	712.265930	11346.247070	5426.996094	44.336452
435.894012	714.643616	11312.218750	5438.736328	44.577110
436.252289	710.928467	11329.233398	5476.185059	44.877754
436.610535	706.841797	11311.846680	5496.915527	45.168049
436.968719	712.860352	11409.331055	5552.122559	45.241673
437.326935	718.284363	11488.538086	5588.753906	45.221493
437.685028	722.371094	11608.387695	5643.143066	45.202686
438.043152	715.980957	11684.176758	5665.805176	45.128883
438.401215	717.987122	11849.500000	5721.086426	44.945366
438.759277	713.529053	12044.842773	5811.290527	44.988270
439.117249	721.107910	12344.430664	5948.973145	44.977375
439.475250	724.600098	12549.804688	6079.077637	45.280209
439.833130	730.767273	12814.024414	6203.088379	45.288464
440.191071	734.779602	12992.648438	6279.620605	45.234947
440.548889	730.915833	13226.924805	6383.494629	45.235073
440.906708	730.321472	13462.539063	6483.729980	45.187798
441.264496	720.662109	13657.657227	6594.812500	45.405834
441.622223	728.538147	13836.058594	6663.170410	45.276543
441.979950	724.897278	13927.301758	6724.544922	45.443596
442.337616	730.321472	13985.778320	6753.076660	45.436043
442.695251	723.411316	13912.144531	6738.736816	45.609577
443.052887	725.789063	13795.859375	6681.449219	45.567162
443.410461	719.324646	13699.563477	6641.920410	45.627785
443.768005	718.210144	13602.301758	6605.660156	45.695499
444.125458	717.764343	13520.643555	6588.273438	45.853043
444.482941	726.383484	13514.178711	6595.853027	45.898998
444.840393	738.049011	13601.039063	6647.121094	45.938557
445.197754	740.203796	13754.696289	6756.197754	46.225346
445.555084	736.117126	13909.246094	6864.679688	46.523212
445.912415	726.011902	14179.411133	6987.576660	46.542622
446.269714	724.451477	14453.661133	7084.912598	46.327946
446.626953	723.262695	14740.991211	7195.475098	46.171619
446.984161	716.426819	14963.230469	7332.787109	46.441017
447.341309	709.293762	15168.676758	7452.562500	46.635937
447.698456	711.820007	15332.664063	7548.933105	46.762783
448.055542	715.832458	15455.559570	7602.802734	46.723866
448.412598	723.411316	15442.557617	7600.871094	46.724583
448.769653	724.451477	15393.666992	7581.849609	46.746861
449.126617	733.293640	15197.284180	7487.411621	46.696091
449.483582	733.219238	15048.604492	7428.489746	46.769756
449.840515	726.457764	14786.687500	7333.010254	46.987518
450.197388	719.176025	14614.007813	7261.308594	47.083210
450.554230	722.668274	14483.235352	7187.971191	46.984276
450.911041	725.491760	14394.815430	7134.547363	46.886414
451.267822	725.937683	14322.293945	7117.606934	47.010162
451.624573	724.674500	14185.801758	7085.656250	47.254452
451.981262	716.575439	14086.012695	7064.107910	47.477932
452.337921	717.615662	13967.351563	7018.189453	47.552444
452.694580	714.123474	13902.187500	6998.944824	47.655373
453.051147	716.649719	13931.536133	7005.408691	47.588444
453.407715	716.501160	13896.762695	6997.384277	47.653706
453.764221	719.696106	13948.179688	7025.990723	47.672089
454.120728	723.411316	13827.364258	6949.904785	47.516148
454.477142	721.627991	13806.784180	6936.084473	47.492413
454.833557	722.816895	13694.808594	6888.828125	47.533264
455.189911	723.857178	13571.093750	6869.435059	47.835800
455.546265	727.497986	13421.523438	6835.553223	48.117558
455.902557	727.646545	13309.549805	6798.476563	48.250492
456.258820	720.959290	13323.964844	6808.729004	48.304108
456.615051	718.061462	13378.429688	6829.088379	48.268951
456.971252	722.965515	13363.493164	6833.175781	48.338257
457.327393	730.990234	13458.601563	6916.320313	48.597729
457.683502	733.962341	13635.291992	7031.489746	48.813007
458.039612	729.429871	13994.174805	7209.964844	48.855331
458.395630	728.983948	14305.651367	7376.254395	48.960991
458.751648	728.538086	14641.424805	7554.134766	49.059528
459.107605	721.256531	15080.406250	7797.996094	49.283836
459.463562	720.662109	15574.221680	8022.761719	49.160603
459.819458	717.392822	16056.594727	8203.762695	48.805473
460.175323	716.798340	16471.501953	8399.625000	48.765289
460.531158	718.432922	16925.490234	8599.202148	48.625538
460.886932	719.919006	17259.408203	8764.227539	48.636986
461.242676	719.547546	17508.248047	8843.361328	48.388580
461.598419	716.501160	17497.845703	8832.067383	48.360645
461.954102	716.724060	17263.123047	8754.272461	48.575817
462.309723	729.949951	16859.138672	8576.094727	48.645626
462.665344	733.888000	16372.602539	8362.325195	48.779182
463.020905	737.380188	15941.277344	8166.092285	48.860577
463.376373	730.841614	15580.389648	8009.982422	49.019276
463.731873	726.829285	15266.014648	7892.435547	49.284786
464.087341	726.011902	15035.081055	7788.931152	49.359741
464.442749	726.160583	14889.745117	7751.482422	49.601295
464.798126	726.234863	14784.085938	7691.520020	49.547295
465.153503	723.336914	14841.372070	7710.244629	49.489235
465.508820	716.426819	14851.776367	7702.070801	49.419678
465.864105	712.117249	14946.734375	7767.829590	49.567280
466.219330	714.494934	15146.238281	7882.626953	49.669205
466.574524	718.581543	15344.477539	7970.527344	49.582916
466.929657	722.891113	15539.226563	8058.427246	49.509785
467.284790	725.640381	15693.403320	8135.775879	49.507305
467.639893	724.154297	15821.204102	8222.264648	49.666065
467.994934	724.897278	16082.971680	8321.680664	49.464424
468.349945	723.411316	16210.698242	8380.083008	49.438431
468.704926	720.736328	16287.899414	8414.114258	49.420551
469.059875	719.176025	16139.516602	8364.703125	49.580795
469.414764	715.089355	15990.243164	8291.440430	49.599178
469.769653	719.547546	15840.820313	8236.010742	49.707874
470.124451	720.067627	15734.937500	8207.626953	49.867626
470.479248	717.541321	15620.437500	8154.203125	49.900780
470.834015	717.169922	15533.429688	8120.172363	49.965393
471.188721	722.371094	15553.342773	8151.007813	50.088673
471.543365	726.234863	15604.834961	8207.255859	50.280411
471.898010	729.058350	15686.195313	8255.776367	50.321915
472.252625	724.080078	15822.838867	8304.816406	50.207680
472.607178	726.903503	15983.183594	8396.430664	50.271278
472.961700	726.011902	16173.622070	8481.506836	50.205143
473.316193	728.166687	16413.619141	8608.861328	50.242062
473.670654	727.572266	16589.494141	8686.061523	50.173550
474.025055	728.389465	16808.685547	8816.017578	50.295269
474.379456	726.457581	17004.919922	8917.069336	50.315636
474.733795	718.878845	17188.669922	9031.496094	50.471905
475.088104	713.306091	17378.886719	9112.485352	50.398365
475.442383	713.826233	17377.845703	9126.083008	50.481560
475.796570	721.776672	17457.572266	9170.441406	50.482605
476.150787	725.566101	17524.371094	9228.992188	50.619232
476.504944	723.114075	17705.447266	9318.675781	50.614723
476.859070	719.473206	17901.310547	9427.008789	50.678719
477.213135	726.606262	18121.320313	9538.834961	50.660378
477.567200	729.875549	18423.955078	9724.739258	50.835438
477.921173	728.315247	18732.904297	9872.379883	50.787407
478.275146	721.256531	19141.123047	10077.009766	50.791641
478.629089	722.371094	19444.353516	10220.785156	50.734020
478.983002	723.262695	19814.753906	10440.794922	50.899803
479.336823	722.816895	20138.861328	10617.784180	50.962833
479.690643	721.925232	20502.349609	10818.698242	51.044273
480.044403	724.823059	20908.710938	11022.660156	51.020084
480.398163	723.559875	21426.675781	11300.774414	51.089966
480.751862	720.587708	22152.166016	11693.835938	51.201305
481.105499	722.742493	23046.326172	12156.593750	51.218708
481.459137	727.200684	24208.419922	12808.377930	51.450386
481.812744	728.018066	25597.287109	13591.007813	51.722427
482.166290	723.782898	27302.978516	14575.815430	52.116070
482.519806	724.005676	29321.337891	15687.534180	52.324909
482.873291	727.869446	31688.771484	16953.056641	52.405411
483.226715	729.206970	34352.972656	18383.087891	52.504177
483.580139	718.878723	37052.539063	19833.998047	52.609947
483.933502	721.999512	39992.996094	21347.914063	52.522003
484.286804	731.435974	42836.859375	22768.287109	52.337326
484.640106	737.305847	45566.074219	24108.111328	52.133495
484.993347	730.693054	47640.675781	25150.875000	52.057537
485.346558	721.033630	48884.656250	25780.072266	52.028976
485.699738	721.479492	49043.066406	25857.048828	52.017269
486.052887	718.804504	48244.457031	25460.642578	52.059963
486.405975	719.473206	46833.300781	24737.232422	52.083637
486.759064	719.993347	45016.156250	23811.570313	52.129967
487.112061	732.699158	43216.621094	22857.226563	52.077412
487.464996	729.652649	41803.679688	22096.740234	52.020924
487.817963	725.789001	41069.566406	21695.353516	51.977196
488.170868	712.934570	40851.710938	21573.498047	51.971096
488.523743	718.210144	40998.085938	21577.509766	51.785908
488.876587	710.408386	41222.480469	21625.509766	51.626839
489.229401	716.426758	41287.644531	21609.013672	51.496078
489.582153	705.058411	40882.699219	21448.445313	51.629181
489.934845	710.631165	40110.468750	21087.556641	51.718300
490.287537	706.990417	39139.625000	20674.880859	51.955563
490.640198	718.061523	38262.410156	20290.289063	52.130955
490.992798	718.953125	37500.656250	19888.013672	52.115749
491.345337	727.497986	37025.417969	19654.853516	52.144459
491.697876	732.253357	36762.089844	19473.630859	52.016270
492.050354	746.222229	36981.800781	19586.494141	51.993847
492.402832	745.033386	37332.363281	19625.875000	51.604866
492.755219	742.878601	37589.671875	19659.978516	51.339882
493.107605	729.504150	37402.425781	19504.019531	51.194492
493.459930	722.222473	36855.933594	19232.294922	51.226601
493.812225	718.655945	35841.402344	18752.000000	51.343777
494.164490	717.838562	34416.058594	18062.619141	51.470913
494.516724	723.857117	32655.154297	17201.376953	51.603039
494.868896	720.513489	30925.312500	16311.676758	51.618164
495.221039	725.714661	29468.830078	15550.742188	51.577663
495.573120	717.244141	28261.708984	14926.823242	51.587784
495.925201	732.401855	27520.837891	14569.872070	51.654644
496.277222	737.305847	27037.943359	14345.924805	51.742546
496.629211	739.757874	26861.177734	14247.101563	51.709839
496.981140	722.816895	26752.470703	14158.161133	51.615528
497.333069	722.371094	26822.835938	14166.334961	51.508522
497.684967	727.646545	26881.833984	14227.484375	51.616352
498.036804	726.754883	26952.867188	14310.406250	51.794376
498.388580	722.891174	26927.009766	14328.981445	51.923477
498.740326	713.529053	26929.833984	14301.340820	51.829620
499.092072	712.117249	26795.937500	14207.719727	51.739365
499.443756	715.015076	26567.607422	14085.863281	51.719566
499.795410	721.999512	26296.103516	13948.924805	51.719997
500.147003	733.665100	25981.208984	13806.411133	51.778290
500.498566	728.538147	25673.001953	13644.282227	51.778000
500.850098	731.956116	25353.275391	13485.125000	51.797264
501.201599	732.773438	25087.794922	13335.628906	51.746437
501.553009	739.980774	24815.921875	13203.593750	51.767918
501.904449	736.265625	24599.701172	13122.157227	51.903221
502.255859	736.191345	24443.812500	13031.062500	51.860416
502.607178	730.470032	24357.546875	12992.722656	51.899155
502.958405	734.110840	24267.865234	12907.645508	51.727978
503.309692	722.816895	24186.353516	12871.312500	51.776066
503.660919	719.324707	24213.025391	12865.293945	51.698830
504.012115	717.021301	24239.330078	12908.090820	51.827690
504.363251	728.761047	24314.080078	12958.840820	51.854633
504.714294	727.646545	24314.822266	12997.700195	52.020020
505.065369	728.835388	24387.119141	13024.375000	51.971397
505.416443	726.160461	24451.390625	13053.129883	51.957218
505.767395	736.117126	24518.783203	13065.835938	51.843300
506.118317	733.813660	24511.947266	13068.585938	51.874435
506.469238	727.423584	24516.259766	13109.303711	52.049122
506.820160	718.433044	24515.068359	13121.489258	52.121052
507.170929	726.606262	24578.896484	13169.265625	52.165466
507.521729	727.497864	24640.044922	13198.020508	52.150539
507.872498	722.891113	24748.677734	13251.221680	52.145348
508.223236	715.832336	24864.439453	13336.297852	52.261673
508.573883	715.015137	25005.763672	13397.747070	52.212193
508.924500	725.268860	25156.968750	13478.588867	52.199890
509.275116	728.761047	25318.650391	13536.098633	52.083755
509.625702	729.429871	25512.138672	13637.000977	52.082973
509.976196	729.949890	25750.203125	13745.484375	52.019993
510.326660	728.983948	26007.291016	13889.555664	52.062710
510.677124	732.624756	26257.837891	14049.975586	52.173317
511.027557	736.860046	26456.822266	14197.094727	52.333801
511.377869	733.888000	26658.257813	14298.742188	52.324722
511.728180	736.265625	26780.853516	14373.192383	52.359924
512.078430	728.909668	26911.775391	14431.668945	52.334835
512.428650	722.891174	26987.416016	14491.409180	52.422489
512.778931	715.535217	27081.853516	14513.699219	52.332539
513.129028	716.724060	27152.072266	14546.465820	52.315342
513.479126	718.581604	27236.554688	14587.183594	52.298874
513.829285	726.160461	27317.244141	14593.796875	52.151455
514.179382	727.943665	27342.880859	14599.147461	52.118118
514.529297	729.206848	27331.810547	14575.221680	52.047592
514.879272	721.256409	27344.068359	14622.850586	52.216850
515.229187	715.683777	27276.826172	14590.899414	52.238777
515.579163	719.324646	27295.400391	14603.753906	52.244091
515.928955	715.535156	27295.548828	14608.956055	52.270180
516.278748	718.210144	27469.937500	14722.192383	52.347958
516.628540	715.238037	27678.281250	14853.187500	52.434547
516.978333	720.959290	27983.740234	15039.242188	52.519524
517.327942	725.194519	28340.468750	15249.964844	52.596874
517.677612	726.309082	28801.218750	15468.191406	52.509102
518.027222	724.971680	29323.939453	15711.085938	52.400890
518.376831	725.640381	29946.375000	16027.320313	52.365829
518.726379	724.748718	30522.517578	16367.776367	52.497311
519.075867	724.302917	31028.445313	16619.662109	52.452759
519.425293	727.052063	31512.078125	16832.166016	52.314766
519.774658	724.600159	31866.724609	16979.658203	52.196365
520.124084	730.247131	32076.781250	17088.810547	52.186195
520.473389	725.640381	32032.201172	17070.902344	52.210339
520.822693	727.869446	31863.531250	16970.072266	52.165916
521.171997	730.395691	31540.763672	16827.486328	52.245697
521.521240	731.733154	31202.312500	16659.265625	52.271839
521.870361	732.550476	30808.734375	16500.775391	52.427612
522.219482	729.058289	30542.802734	16347.268555	52.385941
522.568604	725.566101	30234.447266	16189.969727	52.405930
522.917664	715.832336	30026.994141	16065.364258	52.367531
523.266724	715.237976	29900.751953	16033.338867	52.485287
523.615662	715.683777	30034.718750	16140.260742	52.609428
523.964600	728.315247	30330.443359	16328.690430	52.700180
524.313538	726.309082	30793.351563	16589.716797	52.760120
524.662354	732.773438	31304.033203	16912.783203	52.925556
525.011169	737.008728	32028.562500	17294.849609	52.914730
525.359985	741.020996	32827.984375	17731.972656	52.952820
525.708740	736.414246	33832.332031	18264.648438	52.961922
526.057434	738.643311	34949.773438	18920.296875	53.145439
526.406067	730.692932	36279.269531	19687.767578	53.327236
526.754700	724.748779	37780.261719	20535.341797	53.461937
527.103333	720.067688	39501.332031	21477.349609	53.523991
527.451782	721.182190	41415.371094	22557.931641	53.660610
527.800293	732.773438	43362.917969	23675.072266	53.817081
528.148743	722.148132	45291.449219	24796.822266	54.016270
528.497131	720.736328	47091.136719	25827.552734	54.144058
528.845642	714.940735	48792.449219	26749.796875	54.151840
529.193909	716.946960	50341.136719	27652.275391	54.278625
529.542175	711.597168	51640.390625	28383.638672	54.334766
529.890503	707.733398	52523.328125	28920.328125	54.448074
530.238770	714.197754	52831.531250	29091.296875	54.448490
530.586914	727.200684	52720.824219	28983.634766	54.345959
530.934998	722.593933	51970.144531	28455.341797	54.115265
531.283142	722.445313	50811.105469	27680.734375	53.821144
531.631226	722.222412	49007.175781	26588.857422	53.570797
531.979248	732.847717	47010.144531	25447.789063	53.406189
532.327148	732.401917	44964.074219	24286.064453	53.250671
532.675110	730.915833	43314.472656	23388.265625	53.206802
533.023071	730.544250	42253.281250	22787.156250	53.119358
533.370850	731.213074	41752.777344	22454.953125	52.956882
533.718689	723.114075	41808.730469	22387.708984	52.730366
534.066467	718.135925	42037.582031	22470.333984	52.643970
534.414246	719.176086	42262.347656	22621.240234	52.721214
534.761963	724.600098	42373.429688	22697.031250	52.756424
535.109619	731.881836	42431.609375	22712.632813	52.711975
535.457153	734.110840	42218.363281	22557.267578	52.605877
535.804749	739.534973	41639.246094	22264.515625	52.628685
536.152344	733.813660	40845.320313	21856.146484	52.659031
536.499817	728.686829	39882.875000	21395.095703	52.782116
536.847229	724.451477	38920.878906	20831.732422	52.641788
537.194641	722.148132	37995.363281	20311.244141	52.555424
537.542114	720.662109	37349.750000	19903.990234	52.371845
537.889404	720.513489	36892.714844	19641.478516	52.308025
538.236694	722.371094	36538.363281	19435.064453	52.246754
538.583984	725.566101	36284.691406	19311.574219	52.267899
538.931213	726.086182	36114.761719	19244.923828	52.329842
539.278381	722.891113	36002.714844	19227.093750	52.449818
539.625488	718.210144	35900.921875	19223.154297	52.596695
539.972595	717.467102	35950.035156	19320.787109	52.801491
540.319641	709.888184	36259.953125	19529.429688	52.938133
540.666687	710.556946	36799.242188	19881.625000	53.122105
541.013611	710.408386	37688.347656	20384.060547	53.203758
541.360596	717.095520	38732.746094	20940.291016	53.197021
541.707458	715.981018	40031.851563	21568.593750	53.038666
542.054260	718.210144	41243.730469	22140.427734	52.861053
542.401062	724.451599	42419.644531	22730.984375	52.779549
542.747864	726.160461	43312.097656	23137.345703	52.625790
543.094666	726.309082	43824.343750	23366.275391	52.531319
543.441284	728.092346	43770.027344	23286.695313	52.410759
543.787903	727.572266	43307.937500	23033.843750	52.386284
544.134460	728.389587	42395.277344	22544.560547	52.358536
544.481079	722.668274	41192.460938	21909.271484	52.351646
544.827637	726.829285	39689.691406	21086.666016	52.254467
545.174072	723.857117	38105.480469	20265.843750	52.276985
545.520508	723.485596	36716.839844	19507.212891	52.186649
545.866943	718.730225	35478.957031	18880.767578	52.249477
546.213318	722.296692	34539.097656	18375.880859	52.203590
546.559631	723.262695	33726.527344	17942.994141	52.175838
546.905823	723.337097	33061.441406	17569.029297	52.092392
547.252136	720.736389	32523.861328	17257.029297	51.995811
547.598389	718.507324	32056.275391	16989.392578	51.921009
547.944458	716.575500	31740.859375	16802.447266	51.849297
548.290588	715.089355	31368.306641	16582.138672	51.763081
548.636658	719.473328	30905.771484	16346.821289	51.769672
548.982727	726.680664	30299.685547	16045.077148	51.798580
549.328735	730.841614	29731.789063	15762.801758	51.832653
549.674622	726.903503	29099.916016	15439.289063	51.853451
550.020569	726.531982	28502.748047	15103.737305	51.760845
550.366455	729.578430	27778.072266	14694.625000	51.629665
550.712280	728.538147	27131.341797	14352.536133	51.600574
551.058044	726.903503	26562.703125	14074.273438	51.662308
551.403748	721.405090	26057.443359	13852.406250	51.827362
551.749512	723.782776	25730.140625	13685.299805	51.832886
552.095154	722.371094	25497.275391	13572.209961	51.866352
552.440735	732.699158	25416.880859	13542.041992	51.892921
552.786316	733.219238	25338.492188	13493.002930	51.857922
553.131897	732.624817	25334.330078	13448.643555	51.687550
553.477417	717.318420	25356.396484	13415.653320	51.537380
553.822815	716.575439	25389.833984	13438.316406	51.560848
554.168213	718.061523	25414.650391	13451.988281	51.561478
554.513672	721.330872	25383.517578	13450.278320	51.613213
554.859009	719.324646	25273.177734	13381.993164	51.571003
555.204285	719.621887	25099.906250	13303.456055	51.614796
555.549500	715.758118	24898.544922	13183.234375	51.555168
555.894714	724.302917	24720.218750	13088.499023	51.526253
556.239990	722.816895	24462.685547	12968.870117	51.584332
556.585022	730.395752	24209.015625	12848.203125	51.612095
556.930115	724.525879	23925.552734	12679.758789	51.528893
557.275146	728.538269	23680.203125	12536.875000	51.448719
557.620178	724.377258	23486.125000	12443.031250	51.483982
557.965149	723.039734	23303.193359	12364.715820	51.557114
558.310059	720.439148	23138.312500	12277.781250	51.554142
558.654968	723.039795	22969.201172	12191.292969	51.551601
558.999756	718.210144	22886.130859	12134.004883	51.496914
559.344604	722.222473	22848.013672	12087.566406	51.366947
559.689331	724.971680	22796.890625	12056.210938	51.337811
560.033997	729.578430	22684.916016	12036.296875	51.498722
560.378723	725.789001	22645.015625	12011.332031	51.486958
560.723389	720.736389	22634.687500	12004.198242	51.489857
561.067932	718.433044	22713.896484	12003.976563	51.308510
561.412476	721.627991	22689.599609	12047.293945	51.555359
561.757019	726.011902	22717.460938	12050.637695	51.495586
562.101501	731.956055	22710.179688	12059.777344	51.541115
562.445862	730.098450	22733.437500	12040.754883	51.404270
562.790222	728.389465	22733.958984	12023.590820	51.328827
563.134644	728.463806	22720.955078	12025.078125	51.365776
563.478943	734.036438	22735.146484	12026.043945	51.324718
563.823181	727.200684	22770.664063	12033.028320	51.288803
564.167358	727.349304	22807.740234	12042.242188	51.244080
564.511536	721.999512	22849.796875	12068.395508	51.276665
564.855774	731.956055	22830.476563	12068.098633	51.298199
565.199768	729.132568	22896.531250	12087.640625	51.239697
565.543823	721.850891	22951.960938	12099.752930	51.182396
565.887817	717.912903	23140.244141	12192.110352	51.173077
566.231812	719.919128	23267.525391	12274.809570	51.246643
566.575745	728.315247	23499.646484	12353.792969	51.053127
566.919617	724.154297	23689.787109	12443.031250	51.027885
567.263428	725.714661	23885.351563	12503.290039	50.853886
567.607239	721.702332	24058.404297	12610.879883	50.946266
567.950989	724.525818	24132.408203	12659.325195	50.986240
568.294678	719.844727	24209.757813	12715.573242	51.067570
568.638367	717.689941	24096.521484	12689.640625	51.208508
568.981995	716.129639	24022.218750	12640.377930	51.163658
569.325623	726.234802	23867.000000	12572.762695	51.193329
569.669128	733.813660	23757.923828	12488.801758	51.055126
570.012573	734.482422	23614.000000	12414.795898	51.051399
570.356140	727.200745	23580.562500	12338.858398	50.809406
570.699524	717.987122	23511.906250	12311.737305	50.863346
571.042908	723.782776	23520.677734	12328.679688	50.905602
571.386230	718.358704	23580.640625	12373.260742	50.978737
571.729492	727.275085	23690.310547	12435.824219	50.988682
572.072815	721.850891	23848.646484	12515.401367	50.995182
572.416016	726.086243	23908.978516	12574.026367	51.106396
572.759094	723.336975	24048.671875	12616.453125	50.987980
573.102234	722.816895	24117.548828	12621.208008	50.859272
573.445374	718.878906	24194.376953	12636.366211	50.765640
573.788391	715.906738	24226.177734	12645.504883	50.742065
574.131409	717.169861	24279.083984	12633.096680	50.572830
574.474365	719.250305	24297.138672	12653.010742	50.614204
574.817261	721.256531	24192.890625	12598.917969	50.604321
575.160156	721.330811	24023.630859	12545.420898	50.742157
575.502930	718.433044	23805.775391	12409.445313	50.638191
575.845703	720.810730	23636.734375	12304.084961	50.546837
576.188477	735.002502	23419.177734	12182.674805	50.465450
576.531250	734.036621	23223.242188	12065.870117	50.387882
576.873901	728.389587	22974.548828	11924.695313	50.329159
577.216431	715.609558	22722.439453	11822.825195	50.471676
577.559082	716.649719	22459.705078	11692.796875	50.481167
577.901611	717.541321	22224.017578	11585.949219	50.535511
578.244080	718.061523	22005.345703	11437.195313	50.354630
578.586487	726.977844	21728.271484	11304.043945	50.363880
578.928955	767.472839	21454.093750	11202.917969	50.445385
579.271301	763.460449	21100.857422	11021.543945	50.439514
579.613647	755.658691	20740.341797	10819.515625	50.357853
579.955872	716.278259	20392.455078	10610.206055	50.283791
580.298157	717.912903	20104.978516	10461.006836	50.255638
580.640320	721.033508	19884.968750	10379.868164	50.401104
580.982483	723.559875	19662.728516	10278.741211	50.451962
581.324524	723.336975	19465.677734	10194.184570	50.531834
581.666626	729.058289	19282.892578	10076.489258	50.380051
582.008728	727.646484	19133.544922	10013.406250	50.449913
582.350647	730.470032	19011.169922	9969.344727	50.538960
582.692566	727.423645	18953.435547	9923.054688	50.453335
583.034424	723.782776	18910.042969	9845.928711	50.159546
583.376343	720.959290	18843.023438	9773.111328	49.951000
583.718201	719.027527	18774.662109	9751.934570	50.028191
584.059937	719.993347	18675.466797	9740.640625	50.238987
584.401611	715.015137	18606.218750	9711.959961	50.286976
584.743347	712.191589	18529.685547	9672.579102	50.289829
585.085022	707.882019	18476.189453	9598.276367	50.035126
585.426514	715.015137	18363.916016	9553.917969	50.081886
585.768127	714.643555	18261.898438	9502.500000	50.081093
586.109619	714.420654	18156.537109	9459.405273	50.137173
586.451172	708.625061	18144.873047	9416.308594	49.940121
586.792542	711.448547	18121.466797	9378.934570	49.784477
587.133850	721.999573	18121.914063	9372.916992	49.718159
587.475220	725.045959	18100.216797	9380.272461	49.813766
587.816589	725.491760	18054.966797	9381.461914	49.949406
588.157776	722.668274	18072.353516	9415.418945	50.103218
588.498962	729.132629	18123.400391	9431.319336	50.029049
588.840210	720.142029	18153.492188	9457.250000	50.117210
589.181335	726.754883	18217.320313	9467.207031	49.972378
589.522400	724.377197	18224.525391	9480.582031	50.035034
589.863403	729.875671	18306.408203	9496.706055	49.878040
590.204407	726.754883	18288.576172	9495.813477	49.932514
590.545410	729.132568	18367.039063	9514.835938	49.811485
590.886353	741.987000	18389.849609	9540.023438	49.853264
591.227112	737.825989	18399.210938	9533.114258	49.799538
591.567932	732.179016	18358.269531	9501.757813	49.753399
591.908752	728.240967	18278.171875	9431.541992	49.591652
592.249512	730.470032	18282.705078	9426.489258	49.543663
592.590149	731.436035	18207.064453	9382.799805	49.505306
592.930786	729.504150	18162.111328	9369.871094	49.564400
593.271423	723.559875	18046.568359	9327.221680	49.666100
593.612000	723.411316	17934.818359	9258.490234	49.589668
593.952576	718.804504	17897.814453	9227.133789	49.527470
594.292969	719.250305	17882.732422	9197.858398	49.399117
594.633484	717.541321	17962.904297	9250.243164	49.478241
594.973877	718.358704	18033.791016	9291.035156	49.508884
595.314209	728.761169	18145.615234	9347.728516	49.486366
595.654480	729.652771	18286.642578	9434.959961	49.583145
595.994812	731.361755	18443.496094	9505.398438	49.536869
596.335022	725.566101	18642.626953	9596.122070	49.508991
596.675171	727.275085	18764.037109	9667.824219	49.568481
597.015320	722.519714	18923.044922	9744.208008	49.568287
597.355408	728.315247	19015.031250	9789.829102	49.552437
597.695496	722.073914	19173.148438	9812.789063	49.269299
598.035461	720.142029	19187.044922	9793.989258	49.135731
598.375366	711.299988	19227.539063	9796.516602	49.066212
598.715271	720.810730	19185.484375	9789.234375	49.112289
599.055176	730.841492	19076.556641	9744.875977	49.134277
599.395081	730.098450	18905.212891	9651.774414	49.087315
599.734802	731.956055	18651.990234	9542.772461	49.167404
600.074524	726.680603	18374.691406	9425.746094	49.292042
600.414246	730.395691	18018.560547	9256.782227	49.319214
600.753906	728.166687	17672.457031	9055.495117	49.145332
601.093506	726.531982	17320.412109	8861.194336	49.022060
601.433044	728.761047	17075.287109	8737.331055	48.992489
601.772583	732.996399	16888.710938	8647.053711	48.986115
602.112122	739.014893	16850.072266	8606.929688	48.835495
602.451538	730.395813	16836.402344	8583.153320	48.756699
602.790894	728.315369	16900.005859	8617.777344	48.785637
603.130310	728.315247	16994.962891	8675.363281	48.854858
603.469604	732.104736	17149.812500	8760.141602	48.898651
603.808838	720.513489	17357.933594	8857.181641	48.905827
604.148010	723.708496	17604.693359	8984.537109	48.935703
604.487305	727.943787	17835.626953	9081.278320	48.827972
604.826416	734.110840	18046.349609	9180.696289	48.789680
605.165527	725.789001	18246.296875	9261.090820	48.716064
605.504456	723.485596	18442.380859	9344.977539	48.657055
605.843445	726.309082	18580.064453	9389.560547	48.523415
606.182434	729.504150	18687.208984	9405.164063	48.311630
606.521423	732.104736	18645.228516	9416.903320	48.482883
606.860229	729.578430	18548.337891	9359.170898	48.429817
607.199036	730.024231	18376.994141	9286.875000	48.489063
607.537903	728.761047	18198.966797	9171.779297	48.328102
607.876648	727.572266	17945.294922	9067.235352	48.436504
608.215271	720.885010	17642.212891	8936.313477	48.550732
608.553955	717.615723	17330.960938	8796.179688	48.626953
608.892578	725.937683	17085.689453	8659.908203	48.496887
609.231140	726.234863	16892.947266	8561.753906	48.466991
609.569641	725.491699	16780.304688	8503.426758	48.446129
609.908081	716.352539	16749.988281	8499.339844	48.541626
610.246521	724.525818	16790.185547	8487.302734	48.319065
610.584961	728.463867	16829.123047	8479.575195	48.141579
610.923340	726.754883	16829.492188	8455.723633	47.997856
611.261597	723.559875	16762.546875	8460.776367	48.240055
611.599854	718.135742	16723.091797	8442.349609	48.261387
611.938110	721.627991	16651.166016	8414.114258	48.290707
612.276245	720.364807	16511.031250	8303.922852	48.025574
612.614319	723.782776	16244.061523	8207.626953	48.219780
612.952393	723.782898	15944.843750	8043.937988	48.092281
613.290466	728.612488	15622.742188	7900.162598	48.150181
613.628479	722.891174	15321.518555	7735.879395	48.038685
613.966370	727.795105	15020.666992	7621.750488	48.233521
614.304260	720.959290	14788.543945	7498.853516	48.180935
614.642151	722.073914	14581.686523	7388.068359	48.096546
614.979980	715.015137	14417.699219	7276.613770	47.885502
615.317749	714.420654	14259.210938	7200.676270	47.887459
615.655396	723.114075	14167.968750	7137.593750	47.709549
615.993164	718.953125	14052.575195	7104.826172	47.893009
616.330811	724.823059	14006.879883	7086.473145	47.896572
616.668396	711.820129	13922.916992	7072.429688	48.145962
617.005859	723.559875	13938.745117	7054.151855	47.903919
617.343445	720.662109	13938.000977	7026.287598	47.707226
617.680908	730.990173	13984.515625	7006.375000	47.348797
618.018311	726.531982	13994.843750	7019.823730	47.430992
618.355652	724.005676	14019.140625	7042.857422	47.527550
618.692993	725.789001	14038.980469	7076.145020	47.699726
619.030273	727.497864	14045.370117	7052.442871	47.492157
619.367554	733.665039	14033.182617	7039.365723	47.413002
619.704712	729.875671	13996.625977	7022.127441	47.428738
620.041870	733.144958	13989.566406	7025.025391	47.462887
620.379028	727.572266	13983.920898	7024.579590	47.501823
620.716064	730.544373	13966.534180	7009.421875	47.437912
621.053040	720.662109	13905.233398	6990.103027	47.551346
621.389954	718.284363	13814.137695	6951.167969	47.594330
621.726929	714.494934	13728.765625	6896.704590	47.503311
622.063843	719.176025	13662.188477	6849.670410	47.365280
622.400635	723.782776	13623.254883	6828.865723	47.328163
622.737427	727.275085	13600.444336	6812.742188	47.272488
623.074219	724.600159	13540.928711	6787.330566	47.304737
623.410889	728.092346	13486.539063	6736.582031	47.094212
623.747559	722.891174	13466.328125	6725.213379	47.101284
624.084167	734.333801	13464.768555	6707.455078	46.920010
624.420715	725.343201	13444.112305	6718.824219	47.123119
624.757324	727.646545	13421.151367	6702.849121	47.072914
625.093750	723.039734	13433.411133	6722.687500	47.202774
625.430176	728.686768	13456.073242	6717.337891	47.053268
625.766602	736.340027	13462.463867	6728.558105	47.085964
626.102905	729.652649	13516.036133	6737.845215	46.988987
626.439209	724.377197	13601.929688	6762.959473	46.892311
626.775452	716.055359	13714.276367	6808.135254	46.868568
627.111694	715.237976	13789.171875	6810.587402	46.622154
627.447876	718.581604	13858.424805	6840.754395	46.592438
627.783997	716.203918	13925.445313	6851.156738	46.444397
628.120056	719.324646	14022.112305	6905.843750	46.505432
628.456055	721.627991	14068.625977	6926.796875	46.491119
628.792053	721.182190	14053.022461	6929.248535	46.565716
629.128052	719.398926	13962.596680	6892.766113	46.615383
629.463928	718.730225	13858.200195	6850.414063	46.666142
629.799744	726.011902	13752.690430	6785.695801	46.517490
630.135559	722.891113	13635.812500	6728.259277	46.506657
630.471375	718.433044	13492.706055	6650.539063	46.437912
630.807068	721.256531	13346.477539	6561.375488	46.257561
631.142700	724.080078	13236.731445	6512.261719	46.258633
631.478333	729.652771	13102.838867	6444.274902	46.185532
631.813965	719.993408	12986.109375	6390.702637	46.230679
632.149475	715.683838	12792.997070	6302.208496	46.256351
632.484924	717.615723	12713.641602	6274.716309	46.324516
632.820435	723.485596	12605.828125	6237.787598	46.407528
633.155884	732.699158	12558.942383	6218.765625	46.388920
633.491150	742.284180	12498.534180	6184.363770	46.290947
633.826477	745.776428	12454.027344	6151.001953	46.165951
634.161804	736.265686	12386.040039	6103.150879	46.068577
634.497009	722.593994	12286.252930	6049.949707	46.069805
634.832153	708.253601	12186.834961	5999.052246	46.092796
635.167297	707.882080	12130.586914	5963.089844	46.006687
635.502380	711.597168	12080.136719	5937.010254	45.963806
635.837463	718.878845	12008.359375	5914.273438	46.019783
636.172424	725.343079	11925.289063	5886.410156	46.081177
636.507324	726.309082	11832.485352	5833.878418	45.988552
636.842224	727.720886	11761.229492	5795.018066	45.926437
637.177124	730.470032	11660.401367	5740.776855	45.840237
637.511963	726.309082	11538.840820	5682.523438	45.837688
637.846741	721.330811	11405.020508	5622.857910	45.878601
638.181396	709.813904	11251.808594	5559.626953	46.004696
638.516113	707.882019	11151.278320	5502.710938	45.912544
638.850769	717.689941	11029.421875	5448.767090	45.880527
639.185303	726.532043	10980.827148	5403.516602	45.610004
639.519836	725.566101	10914.475586	5367.257324	45.556313
639.854370	715.683838	10826.872070	5314.056152	45.478058
640.188843	717.764343	10715.715820	5276.682129	45.598522
640.523254	720.067688	10588.954102	5222.218262	45.619637
640.857605	723.931396	10525.575195	5177.116699	45.433048
641.191895	716.055359	10454.319336	5129.785645	45.323589
641.526184	716.352539	10411.965820	5113.736328	45.354366
641.860413	712.340149	10340.040039	5090.702637	45.476719
642.194580	713.454773	10264.995117	5065.736328	45.566284
642.528748	715.312317	10165.206055	5019.520020	45.547684
642.862793	720.662109	10119.956055	4989.947754	45.421345
643.196838	723.039795	10083.547852	4959.186035	45.255520
643.530823	730.544373	10049.815430	4933.180176	45.096184
643.864746	730.247131	9970.831055	4898.778809	45.111130
644.198669	736.117004	9907.896484	4873.812500	45.113331
644.532532	728.983948	9873.642578	4857.243164	45.143944
644.866333	732.327637	9840.354492	4852.190918	45.233322
645.200073	732.179016	9838.794922	4836.290527	45.067356
645.533813	729.058289	9816.503906	4807.386230	44.878708
645.867554	723.411316	9814.051758	4789.107910	44.723984
646.201172	721.033508	9775.636719	4779.596680	44.823200
646.534729	724.080017	9797.333008	4800.698730	44.930069
646.868225	721.627991	9813.011719	4803.447754	44.897675
647.201782	712.265930	9816.950195	4804.562500	44.947155
647.535217	713.008972	9790.944336	4800.104980	45.022305
647.868591	718.953125	9795.253906	4813.850586	45.116371
648.201965	729.281189	9812.268555	4820.611816	45.043888
648.535278	728.612488	9807.364258	4822.395020	45.091908
648.868591	728.761047	9783.736328	4809.541016	45.066715
649.201782	720.662109	9746.734375	4783.312012	45.010162
649.534912	722.742493	9721.992188	4749.503906	44.745522
649.868103	717.392761	9695.390625	4719.856934	44.580807
650.201172	719.993408	9674.437500	4714.582031	44.610123
650.534180	718.953125	9636.541992	4698.012695	44.620354
650.867188	720.959290	9607.563477	4698.161133	44.755024
651.200134	724.080017	9568.407227	4669.331543	44.607708
651.533020	721.107910	9532.816406	4649.046875	44.576359
651.865845	730.544434	9493.659180	4606.620605	44.231716
652.198608	735.225403	9461.411133	4592.502441	44.203472
652.531433	735.968445	9429.015625	4578.162109	44.198467
652.864136	729.058289	9357.833008	4556.242676	44.353741
653.196777	1342.947388	9988.440430	5188.855957	44.484550
653.529358	1369.473511	9957.307617	5167.828125	44.229481
653.861938	1370.216431	9914.658203	5142.713379	44.151478
654.194519	754.246887	9174.602539	4452.516113	43.920586
654.526978	740.872375	9110.851563	4417.668457	43.928375
654.859375	737.083008	9049.774414	4398.572266	44.046978
655.191833	733.665100	9017.675781	4379.328125	44.008430
655.524170	725.863281	8954.145508	4356.665527	44.125885
655.856445	730.395752	8930.963867	4340.838867	44.026741
656.188660	751.646301	8909.194336	4333.111328	43.903698
656.520874	750.606140	8872.414063	4314.164551	43.876415
656.853088	748.897156	8860.154297	4297.743652	43.752113
657.185181	726.532043	8800.860352	4279.614258	44.004681
657.517212	720.513489	8821.665039	4285.261230	44.002975
657.849243	719.176025	8854.358398	4304.060059	44.066425
658.181274	719.919128	8941.738281	4324.790039	43.845173
658.513123	716.278259	8977.032227	4325.979004	43.696987
658.844971	712.265869	9031.049805	4344.703125	43.665482
659.176819	717.764343	9081.055664	4364.541504	43.604568
659.508667	724.525879	9172.299805	4405.110840	43.568699
659.840393	726.977844	9257.227539	4433.940918	43.456676
660.172058	729.206848	9327.741211	4464.330566	43.439075
660.503662	725.417480	9383.914063	4492.193848	43.503819
660.835266	728.835449	9434.290039	4488.627441	43.188919
661.166931	719.844727	9412.593750	4475.698730	43.206745
661.498413	721.850891	9368.829102	4458.014160	43.207733
661.829773	721.405090	9270.081055	4425.989746	43.335190
662.161194	728.092346	9165.314453	4364.541504	43.100079
662.492615	728.389465	9041.452148	4309.186035	43.074337
662.823975	741.020996	8878.803711	4246.697266	43.079010
663.155212	738.940613	8737.405273	4201.744629	43.293358
663.486450	740.575256	8580.032227	4115.182129	43.046436
663.817627	731.287415	8454.385742	4054.922607	43.035000
664.148743	729.727051	8314.176758	3983.369141	42.898853
664.479858	724.005676	8211.862305	3938.638672	42.931286
664.810913	712.191589	8110.513184	3886.701172	42.908508
665.141907	713.751953	8045.275391	3846.651611	42.731907
665.472778	717.467102	7966.291504	3814.255859	42.721256
665.803711	732.104736	7904.769531	3792.410889	42.666237
666.134583	730.544434	7853.722656	3763.061279	42.572525
666.465454	729.950012	7811.667480	3747.085938	42.604580
666.796143	719.101746	7779.865723	3723.532227	42.551067
667.126831	722.891174	7754.157715	3723.978271	42.682026
667.457458	729.132629	7736.324707	3708.151611	42.513737
667.788147	735.522644	7713.885254	3687.941406	42.308186
668.118774	731.584656	7681.711426	3680.065186	42.423405
668.449219	720.290588	7685.576172	3669.588623	42.342815
668.779663	720.736328	7691.074219	3681.031250	42.469891
669.110107	723.262695	7668.932129	3657.105469	42.239883
669.440552	732.624817	7618.480469	3642.022217	42.251793
669.770874	729.504150	7577.911621	3612.003906	42.090076
670.101135	724.823059	7561.268066	3606.951172	42.158291
670.431396	727.497864	7528.723145	3584.214844	42.002979
670.761597	729.058350	7469.875488	3570.989014	42.160030
671.091797	731.584656	7443.869629	3552.115967	42.020432
671.421875	720.067688	7411.845215	3543.050781	42.185848
671.751892	717.764343	7412.364746	3537.255615	42.115898
672.081909	717.764343	7369.863770	3531.459717	42.297852
672.411865	720.141907	7311.907715	3519.199951	42.462948
672.741821	716.352539	7256.329590	3478.704346	42.237942
673.071716	714.272156	7203.871582	3430.779297	41.859394
673.401550	717.169922	7182.250000	3410.717773	41.663025
673.731262	723.485596	7141.902832	3402.841797	41.744812
674.060974	727.052063	7130.460449	3403.956299	41.804367
674.390625	722.445313	7098.063965	3373.566650	41.582180
674.720276	716.798340	7061.656250	3366.953857	41.768555
675.049927	719.250305	7015.811035	3356.625244	41.885963
675.379395	726.383362	6991.886230	3348.600586	41.851665
675.708923	732.550537	6940.468750	3315.090088	41.600735
676.038330	733.219238	6901.459473	3293.245117	41.503342
676.367737	735.002502	6844.321777	3263.003906	41.379429
676.697083	741.095398	6801.151855	3244.948486	41.317322
677.026428	740.649597	6753.077637	3212.552490	41.113220
677.355652	731.287354	6733.238281	3210.992188	41.314980
677.684875	728.909668	6762.216309	3227.858643	41.419228
678.013977	718.655945	6739.554688	3227.635986	41.671185
678.343079	719.844727	6741.560547	3220.428467	41.526100
678.672180	708.179199	6725.808594	3206.831055	41.522194
679.001221	704.166809	6773.807129	3217.456299	41.407555
679.330139	709.145203	6781.683594	3240.713623	41.688797
679.659058	711.522766	6800.927734	3250.224365	41.690472
679.987976	720.216248	6823.887207	3264.564453	41.685539
680.316772	714.494934	6881.546387	3276.898682	41.549904
680.645630	711.820068	6925.087891	3282.471436	41.373581
680.974304	717.467102	6970.189941	3281.282471	41.003185
681.302979	722.519714	6996.493652	3280.614014	40.773109
681.631653	728.240967	7036.468262	3283.585938	40.508129
681.960266	721.553711	7078.820313	3298.000732	40.527592
682.288757	720.290588	7098.658691	3303.127686	40.493698
682.617249	717.244141	7088.107910	3306.991211	40.649857
682.945679	721.925293	7060.467285	3287.226807	40.471478
683.274109	733.070618	7037.656250	3259.065674	40.065998
683.602478	745.033386	7001.173340	3250.744141	40.052025
683.930725	733.516418	6926.500000	3226.595703	40.256516
684.259033	726.531982	6839.416504	3200.812744	40.476482
684.587280	721.033630	6775.665527	3161.878174	40.313675
684.915344	731.436035	6718.674316	3133.494385	40.119637
685.243469	733.962341	6664.359375	3109.643311	40.059391
685.571533	735.076843	6584.186035	3073.309326	39.975872
685.899536	733.590820	6517.611328	3050.275391	40.053188
686.227539	732.178955	6444.869629	3027.761719	40.183918
686.555420	733.442200	6408.609863	3003.613281	40.001835
686.883301	730.395752	6394.120605	3002.647461	40.119389
687.211121	725.937683	6400.957031	2981.694092	39.748875
687.538940	713.751953	6396.869629	2975.750000	39.802063
687.866638	718.061523	6373.539063	2942.907959	39.339676
688.194336	717.615662	6363.804688	2950.858398	39.553097
688.521973	725.268860	6344.783691	2941.718750	39.442017
688.849609	718.210144	6331.854980	2958.065430	39.900192
689.177063	716.798340	6328.363281	2951.898438	39.830246
689.504578	717.541321	6313.799316	2946.697266	39.832977
689.832031	715.981018	6279.769043	2920.542725	39.623394
690.159485	715.386658	6201.676270	2886.809326	39.579075
690.486816	706.024475	6115.410645	2847.577393	39.589573
690.814087	719.919128	6041.925293	2810.426025	39.280426
691.141296	721.330811	5934.261230	2778.030273	39.453804
691.468506	722.073914	5831.648926	2741.621826	39.524769
691.795715	716.872620	5719.451660	2699.492188	39.631950
692.122803	720.959290	5645.595215	2660.260498	39.379589
692.449829	730.990173	5592.691406	2645.474121	39.378887
692.776855	730.767273	5552.122559	2619.839600	39.181351
693.103821	723.336914	5502.116699	2594.427979	39.154160
693.430664	715.460876	5428.036621	2549.252197	38.912716
693.757568	710.482666	5344.892090	2525.995361	39.174629
694.084351	715.906738	5282.552246	2506.825195	39.217373
694.411133	722.891174	5256.843262	2502.292725	39.246147
694.737854	726.234863	5214.342285	2477.995605	39.031166
695.064575	722.519714	5198.292969	2471.382568	39.073978
695.391174	720.142029	5153.190918	2455.333252	39.142162
695.717773	729.132629	5136.621582	2447.234619	38.981426
696.044250	721.776611	5112.770020	2431.779541	38.943420
696.370789	720.959290	5115.519531	2425.166748	38.779934
696.697205	701.417725	5115.593262	2436.089111	39.297741
697.023621	708.699280	5146.726074	2447.903076	39.188675
697.349915	717.467041	5194.726074	2461.054688	38.943195
697.676208	728.761047	5280.174316	2486.911865	38.628681
698.002380	729.429871	5363.616211	2505.710449	38.329933
698.328674	724.451477	5459.317871	2541.895996	38.384285
698.654724	721.553711	5550.413574	2573.177490	38.344948
698.980896	724.525879	5634.078125	2612.037842	38.445705
699.306946	729.429871	5701.173340	2630.241943	38.232300
699.632935	737.603027	5769.160156	2640.941406	37.828018
699.958862	730.915833	5802.894043	2649.560791	37.828339
700.284729	720.810730	5816.268066	2660.854736	38.073990
700.610596	715.535156	5780.603027	2655.504883	38.300961
700.936340	726.829285	5709.792969	2632.099609	38.235683
701.262146	728.686768	5603.020020	2584.843018	38.080212
701.587830	728.835388	5501.818848	2534.986328	37.841129
701.913513	727.274963	5387.913086	2478.070068	37.565567
702.239075	727.646484	5261.375488	2425.686768	37.453503
702.564697	723.782776	5118.714355	2371.891602	37.500217
702.890137	716.129639	4995.223145	2326.343994	37.629799
703.215698	716.724121	4898.927246	2281.390625	37.412495
703.541016	713.974854	4804.859863	2242.678955	37.368542
703.866455	719.473206	4731.820313	2213.031982	37.224068
704.191711	719.473206	4645.777832	2195.422607	37.591312
704.517029	727.275085	4575.561523	2175.137695	37.623566
704.842163	729.429871	4519.982910	2150.989502	37.502697
705.167419	723.931396	4477.110840	2125.652100	37.347553
705.492493	720.067688	4436.243652	2100.612305	37.149605
705.817566	708.327820	4370.857910	2076.760986	37.363056
706.142578	710.556946	4345.148926	2064.129639	37.241394
706.467590	718.432922	4327.910645	2052.761230	36.967354
706.792480	724.674377	4323.601074	2046.371094	36.724747
707.117371	720.736328	4323.972656	2038.420776	36.569469
707.442200	718.730225	4327.464355	2043.473267	36.709354
707.766907	714.792175	4327.167480	2046.445435	36.863647
708.091675	718.358704	4304.876465	2043.547729	36.949181
708.416321	710.854065	4280.653809	2035.225952	37.099331
708.741028	716.203918	4290.981934	2035.968750	36.918793
709.065552	725.937561	4311.043457	2047.560181	36.864254
709.390137	726.754883	4349.384277	2061.826172	36.853653
709.714600	726.086182	4374.572754	2062.792236	36.637276
710.039063	712.117249	4406.522949	2059.894287	36.481567
710.363403	723.039795	4445.680176	2065.467041	36.061157
710.687744	722.073792	4486.546875	2083.002197	36.151897
711.012085	728.240906	4533.282715	2101.429443	36.088657
711.336304	724.674377	4567.165527	2118.296143	36.268707
711.660461	726.903503	4618.285645	2129.070068	36.032608
711.984619	729.949951	4648.378418	2133.602783	35.821831
712.308716	725.417480	4669.926270	2135.980469	35.760170
712.632751	722.668274	4659.226563	2134.642822	35.868252
712.956726	726.606262	4660.861328	2132.562256	35.736271
713.280701	725.343079	4623.783691	2111.460449	35.555687
713.604553	734.556641	4578.533691	2097.194336	35.448643
713.928467	731.287354	4508.837891	2072.822998	35.513374
714.252258	734.779602	4444.120117	2048.451904	35.415253
714.575989	728.315247	4385.791992	2028.390015	35.545673
714.899719	727.720886	4311.638184	2004.835938	35.634613
715.223267	724.525818	4276.493652	1993.021973	35.712490
715.546936	720.290527	4231.391113	1975.040649	35.736660
715.870422	720.513489	4191.788086	1966.198608	35.885521
716.193970	718.135803	4144.605957	1943.090454	35.749752
716.517395	723.708496	4117.336426	1910.545898	34.972527
716.840820	718.135742	4091.776367	1895.313843	34.893406
717.164124	723.039795	4060.940674	1887.734741	34.893036
717.487488	720.513489	4029.139404	1885.877319	35.221985
717.810730	718.655945	3993.622803	1868.490601	35.109814
718.133972	718.878845	3950.452881	1852.218384	35.070824
718.457092	717.244141	3893.239502	1832.305176	35.109024
718.780212	716.203918	3850.589844	1808.082397	34.835480
719.103210	714.123535	3798.875244	1792.553101	34.960011
719.426208	711.745789	3759.643311	1770.708130	34.744030
719.749207	728.538269	3719.965820	1764.095093	34.617481
720.072083	728.092346	3687.049805	1746.336914	34.412273
720.394958	728.315247	3647.000732	1737.197632	34.566326
720.717773	720.662109	3591.570313	1706.956421	34.354782
721.040527	717.021240	3535.769287	1689.866821	34.513393
721.363281	720.587830	3497.057617	1672.702759	34.292286
721.685913	724.897278	3470.977295	1665.941406	34.268635
722.008545	727.349304	3448.240967	1644.616333	33.712002
722.331055	718.804504	3412.500977	1630.573242	33.848236
722.653503	709.070862	3369.628174	1622.251343	34.322903
722.976013	705.875793	3360.860596	1623.663086	34.568459
723.298401	719.621887	3342.730713	1620.170776	34.331356
723.620789	723.931458	3336.935303	1609.693970	33.898247
723.943115	731.287354	3296.365967	1602.189575	33.952263
724.265381	722.891174	3291.833252	1592.753296	33.860714
724.587585	723.559875	3284.923584	1584.431274	33.609886
724.909790	724.228699	3302.756104	1577.223999	33.080715
725.231873	732.179016	3296.068604	1582.573608	33.168144
725.553894	732.253357	3305.133545	1593.050293	33.456551
725.875916	929.750000	3525.589844	1733.036621	30.945154
726.197937	931.013184	3533.020264	1734.299805	30.871807
726.519775	924.846008	3531.682617	1730.287476	30.897274
726.841675	720.290527	3323.337891	1588.592163	33.357121
727.163513	715.981018	3332.551514	1579.304321	32.994457
727.485291	721.182129	3349.120361	1585.471313	32.888489
727.806946	724.748718	3371.411377	1604.344360	33.234142
728.128662	719.398926	3401.429932	1608.208008	33.139404
728.450256	721.405090	3424.463623	1617.644531	33.156494
728.771790	720.736328	3436.203369	1606.127563	32.605488
729.093323	725.789001	3443.931396	1613.260742	32.649937
729.414795	723.485535	3455.151123	1607.390991	32.357750
729.736145	722.222412	3457.974365	1607.985229	32.377308
730.057495	718.432922	3454.184814	1597.359985	32.127441
730.378845	721.330811	3457.008545	1590.523926	31.772497
730.700134	727.423645	3454.482422	1597.880005	31.919237
731.021301	733.144958	3459.237549	1601.669434	31.859684
731.342468	733.367859	3449.355469	1601.669434	31.970013
731.663574	725.268860	3454.705078	1588.592163	31.630096
731.984680	719.919128	3447.125977	1592.753052	32.004684
732.305664	709.516785	3453.144775	1596.022461	32.311440
732.626648	710.779846	3458.494873	1608.356812	32.666306
732.947571	712.414490	3458.791748	1611.700317	32.744438
733.268433	714.866516	3462.581055	1614.672485	32.747433
733.589233	722.965515	3462.878174	1601.297974	32.056953
733.909973	731.138855	3450.692627	1595.353882	31.777824
734.230713	741.541199	3420.526123	1588.815063	31.626677
734.551331	737.083008	3367.696533	1576.629395	31.914471
734.871948	726.457703	3328.390381	1555.453125	31.860756
735.192505	721.330811	3292.724854	1537.472046	31.739252
735.513062	723.114075	3239.375732	1524.171753	31.835228
735.833435	727.497986	3191.747803	1516.518555	32.018692
736.153931	727.349304	3145.308594	1498.983032	31.912603
736.474304	728.538147	3121.828857	1483.082397	31.527479
736.794617	731.956055	3101.172607	1467.701660	31.054384
737.114807	736.488586	3072.268799	1456.110474	30.808630
737.434998	732.550476	3054.956299	1457.002075	31.194016
737.755188	732.327576	3040.393311	1449.125977	31.056240
738.075256	728.092285	3035.860596	1451.206421	31.333914
738.395325	728.240967	3035.786377	1452.098022	31.369137
738.715271	729.949951	3045.520264	1461.460327	31.590939
739.035278	728.984070	3064.169922	1449.497437	30.854649
739.355164	729.801331	3078.510498	1445.782349	30.484020
739.675049	720.587830	3095.674072	1433.968262	30.035980
739.994873	718.210144	3107.042236	1447.342773	30.522558
740.314636	717.987305	3112.094971	1447.937134	30.489431
740.634277	717.690002	3099.835205	1444.296387	30.502186
740.953979	715.460938	3069.222656	1427.355347	30.244965
741.273499	713.528992	3050.126953	1415.095337	30.025122
741.593140	713.603333	3006.288330	1412.420410	30.480291
741.912598	718.358704	2969.285156	1408.036499	30.639730
742.232117	711.968567	2911.106445	1402.389648	31.395079
742.551453	711.597168	2876.704102	1386.934570	31.191874
742.870850	708.253479	2843.713623	1383.219360	31.607513
743.190063	715.312256	2812.283447	1367.764282	31.114019
743.509338	720.141907	2783.528564	1355.801636	30.806622
743.828552	722.445313	2755.293701	1339.009277	30.330051
744.147705	722.296692	2740.135742	1322.959961	29.767649
744.466797	720.884949	2720.445557	1319.021851	29.913418
744.785828	723.485596	2699.120361	1303.641235	29.365532
745.104858	727.275085	2667.541748	1303.864136	29.717001
745.423706	734.408203	2647.703125	1292.347290	29.161165
745.742615	734.556702	2637.152100	1286.997437	29.036163
746.061401	731.956238	2636.929199	1278.081177	28.668385
746.380249	724.005798	2615.604492	1273.177124	29.032127
746.698975	724.674377	2601.115234	1267.084351	28.906317
747.017639	724.897278	2579.047607	1262.180298	28.977316
747.336304	724.823059	2555.493408	1264.260620	29.466667
747.654907	722.891113	2541.895996	1272.433960	30.211180
747.973389	720.587708	2541.524414	1278.378296	30.632069
748.291931	720.216309	2547.840088	1267.604492	29.950813
748.610352	724.823059	2556.162354	1251.332275	28.749954
748.928711	727.275085	2567.159180	1254.081421	28.632584
749.247070	728.538147	2574.218018	1267.381592	29.194847
749.565308	726.903564	2558.019775	1276.446533	30.011366
749.883545	729.949951	2533.574219	1268.050293	29.834393
750.201782	731.584656	2530.973633	1255.864624	29.136557
750.519836	724.005676	2521.982666	1248.211426	29.155308
750.837952	715.609436	2517.598877	1234.465454	28.793509
751.155884	710.482605	2493.896484	1218.341797	28.476801
751.473877	714.272156	2483.642822	1219.307739	28.543234
751.791809	716.649719	2469.376709	1213.957886	28.373394
752.109619	720.067688	2475.023682	1217.301636	28.333128
752.427490	719.324707	2469.079346	1209.351074	28.005434
752.745300	728.240967	2460.831787	1216.929932	28.205677
753.062988	729.281250	2445.302490	1213.066284	28.192251
753.380615	726.977783	2442.478760	1201.029175	27.633408
753.698303	721.999512	2438.837891	1198.502930	27.754704
754.015808	722.668213	2431.184814	1204.744385	28.216066
754.333374	726.680603	2413.575195	1212.694702	28.811172
754.650757	724.451477	2409.860107	1200.509155	28.245831
754.968262	721.702332	2405.104736	1192.930176	27.992586
755.285583	728.835388	2416.621826	1192.261597	27.457634
755.602905	734.853821	2404.733154	1193.153198	27.445059
755.920105	732.773438	2399.680664	1188.100464	27.315680
756.237305	727.572266	2391.804443	1178.887085	27.118502
756.554443	724.971680	2379.842041	1177.772339	27.361700
756.871582	722.668274	2365.575684	1172.051147	27.352901
757.188599	712.191589	2350.269287	1172.719727	28.113939
757.505615	709.516602	2364.386963	1174.725952	28.111528
757.822510	714.866455	2389.204102	1180.001587	27.780247
758.139465	718.655945	2413.798096	1185.499878	27.540106
758.456238	721.999512	2422.714600	1180.967407	26.986759
758.773010	726.606262	2437.723633	1186.837280	26.896519
759.089783	733.144958	2441.810303	1195.084961	27.035137
759.406433	727.646545	2452.510010	1207.196289	27.802185
759.723145	718.581604	2449.314941	1206.676270	28.201609
760.039673	717.095520	2457.116455	1206.081909	28.102327
760.356201	722.148132	2469.079346	1194.564941	27.042669
760.672668	728.686768	2472.868896	1190.849731	26.497402
760.989136	728.686768	2471.159912	1187.357544	26.322975
761.305481	723.337097	2452.955811	1184.162476	26.643179
761.621826	724.228699	2454.070313	1180.967407	26.403500
761.938049	727.275085	2461.797852	1185.054077	26.392218
762.254333	738.569031	2497.240234	1188.694946	25.594662
762.570496	731.733154	2528.075928	1203.109741	26.240904
762.886597	720.662109	2594.428223	1208.682373	26.044888
763.202637	711.820068	2665.461426	1247.765625	27.433161
763.518677	713.603333	2792.221924	1281.944824	27.342268
763.834656	719.696106	2929.681885	1326.377930	27.451841
764.150574	718.061462	3060.380615	1350.451904	26.998476
764.466370	719.844727	3155.859375	1371.702515	26.759190
764.782288	721.182190	3188.181396	1374.154419	26.468279
765.097961	727.275085	3222.137451	1376.680664	26.029716
765.413696	726.309082	3194.422607	1362.934814	25.794022
765.729309	723.708496	3134.534424	1337.374634	25.454601
766.044861	714.643616	3014.089844	1308.991089	25.847418
766.360474	713.677734	2872.766357	1275.109009	26.003160
766.675903	710.482666	2739.764404	1239.072144	26.048107
766.991394	713.677673	2615.827393	1204.001221	25.777338
767.306763	713.826355	2529.413086	1169.599121	25.103333
767.622131	718.284424	2440.547119	1157.710815	25.514481
767.937378	723.337097	2381.996582	1133.413696	24.723375
768.252625	727.052185	2314.901123	1135.419800	25.718292
768.567810	730.544250	2262.072021	1117.364258	25.257132
768.882996	731.436035	2214.221191	1114.838013	25.856880
769.197998	730.544434	2178.333008	1086.305786	24.572742
769.513062	724.674500	2153.961914	1077.612427	24.693279
769.828064	722.371094	2112.203613	1067.655884	24.843626
770.142944	719.250305	2084.042725	1066.467163	25.441000
770.457825	717.244141	2058.259766	1050.640503	24.861483
770.772705	716.129578	2033.590942	1038.603394	24.476908
771.087402	715.758118	2007.956665	1037.563110	24.903681
771.402100	717.169861	1979.349976	1038.008911	25.419434
771.716736	714.717957	1956.242065	1031.395996	25.507198
772.031372	714.197754	1933.876831	1019.433350	25.025894
772.345947	721.479431	1926.669434	1019.804871	24.753397
772.660461	728.686707	1919.907837	1015.123779	24.045666
772.974854	733.739319	1904.824585	1013.117615	23.856359
773.289246	730.767273	1887.066284	1001.377747	23.403156
773.603638	722.222412	1879.487305	1003.755432	24.327448
773.917908	718.581543	1875.177856	999.222961	24.264423
774.232178	722.668213	1857.865234	1001.377869	24.551655
774.546265	723.634094	1838.472290	992.684387	24.133575
774.860474	720.587830	1824.131836	990.083679	24.420944
775.174561	713.454651	1810.831665	981.093079	24.388924
775.488586	718.210144	1802.955566	980.275696	24.159178
775.802551	721.627991	1788.392212	976.040527	23.848995
776.116516	729.429871	1783.414063	973.291321	23.137108
776.430359	724.377258	1764.466797	968.981750	23.517637
776.744202	728.761047	1759.116821	974.925964	23.891256
777.057922	715.535217	1747.599976	969.947754	24.650833
777.371704	717.987122	1740.318359	970.690735	24.718370
777.685303	716.426758	1729.916016	964.820801	24.508799
777.998962	726.011902	1724.491821	971.879639	24.624205
778.312500	723.634277	1719.216309	975.520508	25.300400
778.626038	723.857178	1709.110962	970.913757	25.075426
778.939453	724.897278	1701.680786	972.325439	25.330912
779.252869	731.807434	1710.374390	973.514221	24.700077
779.566223	731.138855	1710.225708	970.244934	24.421335
779.879578	726.977844	1715.946899	965.117981	24.079636
780.192749	721.182129	1703.166992	959.842529	24.303877
780.505920	728.835388	1703.984253	958.653625	23.567503
780.819031	729.504089	1690.015503	959.768250	23.973080
781.132141	749.268616	1702.572632	966.752686	22.813715
781.445190	745.702087	1698.931641	963.409119	22.838888
781.758118	754.395508	1695.736694	962.443176	22.101196
782.071045	734.259460	1674.560425	948.325684	22.765713
782.383911	729.652649	1656.579102	946.468079	23.390791
782.696838	719.547546	1638.449219	934.728210	23.417158
783.009583	718.135742	1620.616699	920.090515	22.377733
783.322266	710.928467	1611.700317	917.044189	22.882122
783.634888	708.625000	1610.734375	915.409485	22.922329
783.947510	712.043030	1607.762329	925.366028	23.815832
784.260132	720.290527	1602.412476	923.508545	23.037407
784.572571	726.457703	1594.907837	924.623047	22.818275
784.885010	728.315247	1583.168091	913.180481	21.625387
785.197449	731.213135	1568.530396	906.344666	20.915791
785.509766	727.498047	1557.756470	908.202209	21.764809
785.822083	728.315247	1553.446899	913.923523	22.494383
786.134277	725.937561	1546.462524	925.663269	24.341211
786.446533	732.550537	1540.369751	921.650879	23.408745
786.758606	730.024231	1542.747437	921.650940	23.578348
787.070740	727.423645	1561.397339	912.734619	22.220242
787.382690	717.987122	1569.347778	912.511719	22.848671
787.694641	717.318420	1570.090820	909.762451	22.566870
788.006653	715.312317	1579.898560	924.623047	24.209352
788.318481	719.696106	1594.536499	928.783997	23.900118
788.630310	718.061523	1618.387695	931.310303	23.685724
788.942017	720.587830	1627.972656	926.183411	22.658035
789.253784	723.559875	1656.876343	930.344299	22.155874
789.565430	727.943665	1663.117676	935.619934	22.207233
789.877014	734.779602	1653.384155	928.486816	21.087116
790.188538	735.522644	1638.226440	922.839844	20.750683
790.500061	731.584534	1620.393677	909.613953	20.030107
790.811462	730.247070	1611.625977	906.418945	19.988211
791.122925	728.240967	1592.010132	897.502625	19.595705
791.434204	728.315247	1569.793579	900.251770	20.432674
791.745483	726.903564	1551.069336	904.635681	21.565094
792.056702	722.445313	1524.394531	902.555115	22.459003
792.367920	719.621826	1508.196655	908.499329	23.951754
792.678955	715.683777	1482.636597	898.394226	23.822906
792.990112	719.175964	1477.360962	901.886414	24.098400
793.301086	722.891174	1467.627319	886.877258	22.019354
793.612122	728.092468	1473.125854	881.676086	20.614326
793.922974	728.686829	1456.853516	866.444031	18.918362
794.233826	727.869446	1450.463501	867.558594	19.331621
794.544556	727.423645	1448.234375	873.279846	20.235022
794.855286	723.931396	1452.395386	877.292236	21.052631
795.166016	734.110901	1461.905884	883.459412	20.520685
795.476624	726.086182	1464.209351	873.948547	20.032207
795.787292	724.451599	1462.500488	874.097229	20.275843
796.097778	714.866455	1467.032837	874.988953	21.288176
796.408264	725.268860	1476.543579	879.521301	20.532095
796.718689	732.624817	1500.840698	887.100159	20.108324
797.029053	734.705261	1506.487671	881.676086	19.043039
797.339355	726.977844	1506.413452	882.121887	19.904665
797.649658	726.754944	1506.339233	882.419189	19.967596
797.959839	724.005676	1505.001587	884.722595	20.578459
798.270020	725.343262	1503.292603	886.134277	20.668571
798.580078	729.652771	1497.720093	877.366516	19.231874
798.890137	726.606262	1492.295898	866.295410	18.243572
799.200195	725.714661	1473.497070	857.453430	17.617260
799.510071	717.690002	1444.742065	864.066406	20.132864
799.820007	718.581604	1426.537720	868.375916	21.158701
800.129883	720.885010	1422.376953	868.747375	21.078270
800.439575	722.742615	1420.222168	861.465759	19.889206
800.749329	721.999512	1420.667969	854.852783	19.015209
801.058960	720.662109	1411.603027	855.075745	19.453709
801.368591	725.566101	1401.720703	852.475098	18.769228
801.678162	725.566101	1387.380371	860.574036	20.399672
801.987671	722.816833	1381.287476	861.242859	21.022354
802.297119	715.238037	1379.950073	863.471924	22.300467
802.606506	716.278259	1368.878906	861.094238	22.190598
802.915894	721.107910	1360.334229	849.800293	20.132523
803.225159	716.501160	1365.758423	839.546448	18.951700
803.534424	715.163757	1371.999634	840.512390	19.083706
803.843628	716.501160	1364.792358	848.165527	20.309448
804.152771	722.371094	1357.733643	860.945618	21.810307
804.461792	727.943787	1359.219727	858.939453	20.750937
804.770874	721.628113	1366.575562	859.459656	21.370974
805.079773	720.587830	1370.290649	848.091248	19.624884
805.388733	721.330811	1372.519897	840.438049	18.290730
805.697571	726.532043	1377.423828	840.809570	17.557070
806.006470	730.470032	1381.807739	853.515320	18.891167
806.315125	725.863281	1382.179199	856.115967	19.846035
806.623901	724.674500	1390.946899	855.893066	19.694433
806.932495	714.049133	1389.163696	847.273926	19.733658
807.241150	719.993408	1392.209961	853.143860	19.807673
807.549622	717.838562	1390.129517	854.778503	20.369148
807.858154	725.788879	1380.544556	856.710388	19.995476
808.166565	721.850891	1369.547729	844.078918	18.871180
808.474915	722.742615	1355.950317	843.781738	19.115232
808.783264	726.754883	1352.606812	845.193542	18.924391
809.091492	726.977844	1346.068115	851.954895	20.187210
809.399719	730.841553	1334.476807	841.924072	18.402258
809.707825	725.789001	1322.588379	835.608398	18.401392
810.015930	726.309082	1314.192017	831.298828	17.858955
810.323975	715.832336	1316.124146	840.289490	20.732775
810.632080	712.934570	1308.991089	846.010742	22.326099
810.939880	714.717834	1301.709351	846.159424	22.392418
811.247864	719.101746	1302.303833	838.877747	20.537649
811.555664	724.451599	1301.114868	827.509460	17.871410
811.863464	725.566101	1295.913818	820.896423	16.714422
812.171143	728.909668	1281.722046	820.970764	16.653227
812.478882	730.247070	1279.344238	827.955261	17.794334
812.786438	729.504089	1278.155396	836.797302	19.555811
813.094055	729.355469	1272.136841	842.295715	20.807686
813.401489	725.417480	1271.542480	838.134766	20.639465
813.708984	720.067688	1266.341309	824.091492	19.042437
814.016357	724.451599	1266.118286	822.382507	18.079552
814.323730	724.005798	1264.037720	821.193665	17.996689
814.630981	724.748779	1270.279175	823.422791	18.087721
814.938232	719.547546	1273.920044	820.524902	18.214712
815.245361	716.352539	1267.975952	820.153503	18.817360
815.552490	722.371094	1261.065796	828.475342	19.696547
815.859619	723.039795	1260.545532	818.518799	17.763346
816.166565	735.151184	1261.511475	816.809875	15.513840
816.473572	727.349304	1267.752808	803.881165	14.161984
816.780457	725.194519	1266.935669	802.395203	14.250474
817.087341	718.878723	1265.821167	794.593323	13.843248
817.394043	717.615662	1272.434082	803.212402	15.427884
817.700806	712.860291	1275.777710	811.534363	17.529049
818.007507	714.346375	1284.396851	823.719971	19.186651
818.314209	709.739563	1287.963379	826.989319	20.277573
818.620667	714.494934	1298.737305	820.302063	18.110144
818.927246	715.535217	1304.681519	812.128723	16.395504
819.233704	722.519714	1319.839355	815.100891	15.499436
819.540161	725.268860	1351.417969	828.401062	16.470869
819.846497	721.405090	1401.126465	847.719727	18.583296
820.152832	724.748718	1445.633789	857.156250	18.367357
820.458984	726.903564	1488.432129	864.660828	18.089573
820.765259	722.296692	1542.301758	875.211731	18.648060
821.071350	722.073914	1629.978882	887.991882	18.274817
821.377502	715.758118	1776.429565	910.654114	18.374777
821.683472	719.919006	2043.547852	942.158508	16.790167
821.989441	714.717834	2474.949463	1004.572754	16.466862
822.295349	717.764343	3067.365234	1102.949585	16.393646
822.601196	722.073914	3710.751953	1213.363403	16.438354
822.907043	721.850891	4281.916992	1308.025024	16.465260
823.212769	727.646545	4648.898438	1364.049316	16.229582
823.518494	729.578430	4781.751465	1378.612671	16.016943
823.824097	737.603088	4709.529297	1357.510620	15.607226
824.129700	725.491760	4499.401367	1309.436890	15.473214
824.435242	716.724060	4227.898926	1261.957397	15.528516
824.740723	714.569275	3949.932373	1211.877319	15.371012
825.046082	717.467041	3678.430420	1166.775635	15.174406
825.351501	720.142029	3395.337158	1122.565552	15.042773
825.656799	720.810730	3091.141846	1082.070557	15.240902
825.962036	724.823059	2783.974365	1047.817017	15.685781
826.267212	728.389587	2546.205811	1012.077454	15.605971
826.572449	728.018066	2378.727295	988.894958	15.803927
826.877502	730.618652	2334.814453	983.396484	15.757293
827.182495	735.671204	2395.965576	997.365417	15.761916
827.487488	735.374023	2511.134766	1012.746094	15.619901
827.792419	731.435974	2605.276123	1017.352783	15.258336
828.097290	722.891113	2629.721924	1010.294128	15.072288
828.402100	727.869446	2590.415771	1004.275574	14.840228
828.706848	732.699158	2517.450684	993.353088	14.604494
829.011597	736.117004	2393.885010	980.870300	14.764026
829.316223	733.813660	2264.375732	953.749695	14.369626
829.620789	734.333801	2140.438477	935.545471	14.309864
829.925354	738.717590	2024.303345	916.895508	13.859669
830.229797	734.705322	1912.997681	904.709900	14.428047
830.534302	737.231628	1796.045288	895.496399	14.947367
830.838562	725.937561	1677.606812	872.759766	15.427860
831.142944	720.885010	1560.282837	855.001465	15.977698
831.447144	712.042969	1461.757324	829.812805	15.708628
831.751404	715.683838	1393.770508	815.546692	14.727152
832.055542	724.228699	1357.882324	809.751038	13.496701
832.359619	724.228699	1334.179688	812.723206	14.508462
832.663635	725.268860	1344.359253	823.051270	15.794529
832.967651	723.039734	1372.817017	828.103821	16.169247
833.271545	722.668274	1434.339844	829.367004	14.992693
833.575439	721.033508	1502.326782	838.506165	15.035667
833.879211	722.148132	1607.762329	855.298584	15.034815
834.183044	723.336975	1705.173218	880.561523	16.013317
834.486694	726.086182	1807.116577	892.895752	15.430609
834.790344	720.439209	1860.242798	906.344543	16.310295
835.093933	720.067688	1864.032349	897.131042	15.478045
835.397522	722.073914	1826.138062	892.227051	15.411526
835.700928	721.999512	1772.937378	874.022888	14.465496
836.004395	725.045959	1727.241211	880.412903	15.502662
836.307739	722.445313	1674.040405	870.679199	15.577412
836.611023	731.064453	1611.477173	861.391418	14.802939
836.914307	726.829163	1547.354126	836.648621	13.384048
837.217529	723.931458	1473.868652	826.469177	13.672841
837.520691	719.324707	1402.984009	817.552795	14.367989
837.823730	720.810730	1323.480103	809.528137	14.720742
838.126831	723.485657	1264.557983	796.005066	13.402905
838.429749	726.829285	1218.118774	795.559265	13.989711
838.732727	722.816895	1189.958130	797.936951	16.080801
839.035522	717.467102	1174.800293	795.113464	16.978073
839.338379	708.699402	1166.255493	791.695496	18.138998
839.641113	710.036804	1169.301880	786.419983	16.631611
839.943848	713.974854	1180.447266	791.175354	16.549854
840.246460	716.055359	1195.456421	791.695496	15.778049
840.549072	717.392761	1212.248901	795.113464	15.705717
840.851563	720.959290	1218.861938	791.695496	14.206835
841.154053	725.045898	1230.675903	785.751221	12.005878
841.456482	728.389587	1226.143555	775.794678	9.523800
841.758850	724.080017	1217.450073	780.698730	11.475912
842.061157	720.067627	1189.735107	779.807129	12.719531
842.363403	720.810608	1173.314331	779.955627	13.070615
842.665588	717.021240	1152.286621	766.655457	11.403208
842.967712	720.067688	1134.602539	766.878418	11.292351
843.269775	712.711731	1118.850342	762.494446	12.257567
843.571777	718.135803	1099.828979	760.711182	11.154346
843.873840	721.925232	1082.070557	758.630859	10.191894
844.175659	727.052063	1066.392578	763.980652	10.882458
844.477600	732.624817	1052.572266	776.612061	13.748271
844.779297	730.321472	1041.872681	772.228210	13.450995
845.081116	720.959290	1028.572510	772.896912	16.884068
845.382751	719.250427	1021.885315	770.816406	17.039007
845.684387	717.987244	1007.321960	776.166260	20.107859
845.985962	722.073792	991.421204	769.256104	17.517269
846.287537	720.216309	982.133301	767.918640	18.212767
846.588989	722.668213	979.458435	766.729736	17.158567
846.890381	732.773438	972.696960	768.810242	15.020122
847.191711	732.030457	970.839355	765.466614	14.001219
847.493042	728.463867	973.439941	772.005188	17.773703
847.794250	726.011902	977.080811	784.488098	23.290895
848.095459	723.485596	973.811462	779.435547	22.350847
848.396606	724.080017	967.495789	763.757629	16.300346
848.697693	719.101746	963.632019	748.599915	12.063197
848.998657	720.067688	960.214050	759.076660	16.243832
849.299622	730.172852	962.220215	764.575012	14.825491
849.600464	732.401917	963.037598	757.590515	10.921380
849.901367	725.714661	952.337952	745.776428	8.852474
850.202087	709.888184	944.313293	745.924988	15.372416
850.502808	710.408386	940.598145	750.606140	17.462877
850.803467	713.974854	947.136780	747.633972	14.435942
851.104065	722.668213	953.303955	748.079773	11.018049
851.404663	719.473206	949.960266	750.829041	13.604163
851.705139	721.999512	953.303955	755.138489	14.326996
852.005615	719.027405	953.749756	753.875427	14.846487
852.306030	722.148132	958.950928	749.491516	11.546901
852.606384	727.497864	953.155273	747.782532	8.989143
852.906616	728.761047	946.245178	745.850647	7.857861
853.206909	724.897400	941.564148	747.633972	10.493798
853.506958	723.857117	942.009949	754.618469	14.100826
853.807129	724.228699	937.625977	760.042480	16.782681
854.107178	731.807556	942.901550	764.946533	15.698683
854.407166	732.847839	938.666260	757.739075	12.093784
854.707092	735.151123	938.963440	751.423401	7.983952
855.007019	732.476257	937.848938	745.404846	6.295184
855.306763	726.457703	936.214294	750.011658	11.229185
855.606567	724.377197	936.585754	745.776367	10.084028
855.906250	729.429749	926.480652	741.169617	5.957785
856.205933	735.596924	926.034851	741.541199	3.121371
856.505493	736.934387	928.561096	743.324402	3.334616
856.805054	736.414307	936.808777	749.937317	6.748195
857.104492	736.191345	940.152344	752.983826	8.233182
857.403931	732.699158	940.523865	758.556458	12.441879
857.703308	719.473206	930.641602	759.671082	19.035934
858.002563	712.488770	933.093567	756.104492	19.770977
858.301819	714.197754	926.257751	753.355286	18.465307
858.601013	717.615723	926.777832	751.497742	16.198927
858.900208	725.566101	925.960449	744.736145	9.566160
859.199219	731.658875	925.366028	752.537903	10.778656
859.498291	737.454529	929.527039	758.333679	10.870452
859.797302	724.748779	928.338196	770.593567	22.518257
860.096191	720.513489	939.334961	766.952698	21.222418
860.395020	713.900574	943.050110	763.460510	21.627771
860.693787	719.770447	935.842773	754.544189	16.093567
860.992554	710.408386	923.880066	756.253113	21.475788
861.291260	715.386536	922.914063	758.928040	20.981073
861.589844	717.690002	930.492920	757.441956	18.680174
861.888428	724.154297	932.796326	761.008484	17.663837
862.186890	727.572266	931.830383	755.064270	13.459443
862.485413	728.538147	931.830383	758.779480	14.875793
862.783813	732.476257	928.858398	749.120056	8.475210
863.082153	730.098572	929.304138	741.392517	5.669493
863.380371	725.120300	925.514648	740.723816	7.786405
863.678589	728.092346	925.068909	742.284180	7.204834
863.976746	726.606262	915.781067	752.760925	13.825659
864.274902	724.154297	920.684998	749.194336	12.741032
864.572937	716.724060	930.567200	745.330566	13.377332
864.870911	725.863281	940.375244	744.810486	8.832703
865.168884	728.166687	935.174072	751.794922	11.414199
865.466736	730.098572	930.492981	751.869141	10.863860
865.764587	718.507324	927.892395	746.816589	13.520193
866.062317	720.736389	931.830383	740.649475	9.433279
866.360107	717.764343	938.666260	736.191406	8.341740
866.657715	717.912903	940.226563	742.061279	10.862300
866.955322	717.615723	943.495911	749.714539	14.210549
867.252808	716.946960	935.322693	759.893860	19.666517
867.550293	717.244141	938.294739	761.900085	20.201685
867.847717	715.981018	935.768494	759.522461	19.810703
868.145081	718.878906	936.660156	755.955872	17.024866
868.442383	720.364929	928.338196	761.602966	19.828527
868.739624	721.033630	930.195801	756.996094	17.193579
869.036804	716.278259	927.075012	758.482178	20.021143
869.333984	712.191589	926.183411	749.491516	17.430538
869.631042	710.928467	918.381653	747.039551	17.406858
869.928101	709.368103	920.090637	741.912781	15.444327
870.224976	714.569275	924.325867	738.420410	11.370863
870.521851	724.823059	950.703308	753.355286	12.631572
870.818726	728.686829	948.251282	762.494446	15.397582
871.115479	725.268860	953.601074	769.404602	19.329617
871.412231	720.810730	936.288574	757.070496	16.827608
871.708862	720.587830	939.632263	751.720642	14.213013
872.005493	721.627991	940.821106	743.473083	9.966140
872.302063	719.696106	933.910950	745.404846	12.001381
872.598572	721.107910	936.585876	753.578125	15.068926
872.895020	728.612488	927.372314	755.955872	13.756997
873.191406	734.259521	930.864563	755.881531	10.997688
873.487671	733.888000	933.910950	752.166443	9.138172
873.783997	726.309082	944.981995	756.698914	13.897392
874.080200	719.696106	948.920105	756.773254	16.175074
874.376343	718.507324	947.285461	746.742371	12.341672
874.672424	721.925293	937.551758	747.336731	11.784935
874.968445	721.033630	934.951172	748.079834	12.643285
875.264465	724.228577	942.232727	757.739075	15.371495
875.560364	724.823059	953.526855	760.785461	15.724444
875.856201	717.095520	953.303894	762.122986	19.062603
876.152039	715.609558	952.560852	761.602844	19.410439
876.447754	709.962463	954.864258	757.887756	19.569189
876.743469	724.451477	957.241943	762.122986	16.182583
877.039063	722.519714	951.966492	752.537903	13.082854
877.334595	730.395752	942.529968	752.612244	10.472847
877.630127	718.804504	945.279236	743.175842	10.761173
877.925537	720.959290	946.988220	757.813416	16.305048
878.221008	710.779785	954.418457	759.076599	19.823132
878.516296	721.330811	953.155273	764.277771	18.525639
878.811646	721.107910	963.483398	751.572021	12.568974
879.106812	725.788879	981.093201	744.661865	7.392349
879.401978	719.324524	998.108459	743.398743	8.635440
879.697083	717.392761	1019.433350	742.358459	8.265676
879.992126	720.216248	1031.024536	744.959045	7.960791
880.287109	717.690002	1071.965454	747.633972	8.452171
880.582031	714.123474	1138.466309	759.968262	10.803715
880.876892	705.652893	1249.920288	780.624329	13.774743
881.171753	713.157532	1431.441895	802.543640	12.444390
881.466492	719.250305	1685.780273	829.961426	11.454494
881.761230	726.309082	2018.953613	851.063293	9.651084
882.055786	719.547546	2341.501709	881.453125	9.982131
882.350403	717.912903	2597.548828	901.960754	9.791676
882.644958	714.420654	2729.881836	915.038025	9.953918
882.939453	711.820068	2766.884766	909.836914	9.635553
883.233826	707.138977	2722.005859	909.688232	10.052736
883.528137	709.888184	2644.656738	910.951416	10.392108
883.822449	719.027405	2564.261475	904.858582	10.070872
884.116577	724.971680	2476.212402	889.775085	9.410666
884.410828	720.216309	2372.262939	869.118958	9.013223
884.704956	718.135803	2225.292236	852.549500	8.918364
884.999023	722.593933	2037.454956	835.979919	8.623420
885.292969	733.516418	1823.314453	822.456787	8.161179
885.586914	738.717590	1618.684692	804.252625	7.447442
885.880798	731.213074	1465.918457	794.296082	8.586164
886.174622	732.253357	1359.739746	791.249695	9.402011
886.468384	730.470032	1278.155396	791.992676	11.233210
886.762085	731.435974	1222.354126	790.060730	11.941859
887.055664	718.804504	1172.571289	773.491272	12.051734
887.349304	718.284424	1143.147339	760.414063	9.916055
887.642822	722.296814	1108.968140	753.280945	8.013041
887.936340	725.640381	1094.553345	752.760925	7.351475
888.229736	716.649719	1069.959106	755.807312	11.083089
888.523071	715.237976	1050.491821	748.674255	9.973421
888.816284	718.358704	1036.522949	752.835144	10.836051
889.109619	724.600159	1028.201050	755.881592	10.303473
889.402710	724.451477	1021.736633	753.801086	9.872544
889.695862	718.581604	999.520203	749.417175	10.975911
889.988892	714.717834	979.755676	742.952881	10.653214
890.281921	715.312317	962.517456	743.621643	11.451755
>>>>>End Processed Spectral Data<<<<<
