Jaz Data File
++++++++++++++++++++++++++++++++++++
Date: Fri Jun 04 17:00:25 2021
User: jaz
Dark Spectrum Present: Yes
Reference Spectrum Present: Yes
Processed Spectrum Present: Yes
Spectrometers: JAZA3586
Integration Time (usec): 27600 (JAZA3586)
Spectra Averaged: 10 (JAZA3586)
Boxcar Smoothing: 1 (JAZA3586)
Correct for Electrical Dark: No (JAZA3586)
Strobe/Lamp Enabled: Yes (JAZA3586)
Correct for Detector Non-linearity: No (JAZA3586)
Correct for Stray Light: No (JAZA3586)
Number of Pixels in Processed Spectrum: 2048
>>>>>Begin Processed Spectral Data<<<<<
W	D	R	S	P
191.335022	0.000000	0.000000	0.000000	0.000000
191.713211	231.675903	230.932861	227.217728	599.989746
192.091385	465.135040	462.162933	460.974091	140.000000
192.469528	702.606506	697.033875	697.851135	85.334381
192.847641	708.922302	696.959473	708.922180	0.001020
193.225739	719.473328	706.618896	713.826233	43.931114
193.603790	726.086243	718.135742	719.398926	84.111900
193.981842	730.692932	724.451477	719.770447	174.999023
194.359863	736.488586	730.990173	724.897278	210.811890
194.737854	735.596924	736.191406	725.268860	-1737.320313
195.115829	734.110840	743.101563	724.451599	-107.435646
195.493774	730.470032	743.250061	724.748718	-44.767609
195.871704	732.104736	739.312073	728.389587	-51.546768
196.249603	736.488586	745.999329	735.745544	-7.812660
196.627457	737.008606	745.330627	735.596985	-16.962479
197.005310	737.603088	743.695984	739.460693	30.488049
197.383133	737.454529	740.872375	743.844543	186.960251
197.760910	741.020996	746.965271	744.067444	51.250114
198.138687	738.420410	749.194336	750.829041	115.172783
198.516449	738.569031	749.268616	746.222229	71.527992
198.894180	729.801270	742.804382	746.965271	131.999176
199.271866	731.956116	741.318298	735.076843	33.333332
199.649536	734.185120	735.374023	729.801270	-368.730438
200.027191	735.076843	741.466858	732.104736	-46.511738
200.404816	735.522644	741.243958	727.720764	-136.365189
200.782410	738.048889	759.299500	733.293518	-22.377575
201.159988	738.940613	763.980652	723.634216	-61.127686
201.537537	732.773438	768.587402	726.011902	-18.879606
201.915070	718.358704	755.435791	723.931458	15.030183
202.292557	719.101746	752.017883	731.733215	38.374702
202.670029	722.965515	753.949768	740.055115	55.155758
203.047485	724.674377	760.859924	743.695984	52.566860
203.424911	728.538147	759.002258	743.027283	47.561329
203.802292	722.222473	764.203552	732.253357	23.893820
204.179688	722.816895	765.838196	734.853943	27.979275
204.557037	718.655945	772.822571	738.123230	35.939629
204.934357	727.646545	768.438782	743.324402	38.433434
205.311661	726.532043	775.646179	734.928223	17.095240
205.688934	725.863281	769.181824	733.367859	17.324169
206.066177	720.439209	765.763855	726.383484	13.114884
206.443390	720.885010	763.832031	726.234802	12.456725
206.820587	713.157532	765.392334	727.200745	26.884783
207.197769	708.550781	775.646057	733.962219	37.873661
207.574921	709.888184	768.884521	730.395752	34.760750
207.952042	709.962463	768.141602	727.275085	29.757441
208.329147	711.374207	761.528625	720.513489	18.222286
208.706223	725.417480	769.850403	737.380188	26.923071
209.083267	732.847717	768.290100	736.711426	10.901379
209.460297	737.825989	768.513123	737.825989	0.000000
209.837280	722.816895	754.618469	726.457703	11.448515
210.214264	714.866516	756.104492	722.593933	18.738594
210.591217	711.671570	758.259277	726.531982	31.897711
210.968124	709.368103	758.630798	723.857117	29.411736
211.345016	717.541443	761.677246	722.371033	10.942567
211.721893	717.689941	762.940369	722.073914	9.688245
212.098724	722.742615	763.906250	727.126465	10.649813
212.475555	729.206970	753.726807	730.767273	6.363431
212.852356	729.949890	747.931213	730.247131	1.653055
213.229126	728.463867	746.890930	725.120300	-18.144871
213.605865	714.272034	757.218994	723.559875	21.626308
213.982590	717.987244	760.191101	724.154297	14.612535
214.359283	719.027527	765.318054	728.686829	20.866692
214.735931	725.714661	756.624695	730.247131	14.663428
215.112579	720.662109	753.503906	727.572266	21.040737
215.489197	722.148132	752.760925	727.795105	18.446447
215.865799	721.330811	760.191223	723.336975	5.162489
216.242355	714.420654	762.271667	724.971680	22.049744
216.618896	715.981018	764.352051	718.507324	5.222766
216.995407	709.665283	762.643127	714.569275	9.256684
217.371902	711.374268	757.590515	712.488770	2.411494
217.748367	712.414490	760.191101	711.076965	-2.799538
218.124802	714.197754	759.002258	716.055359	4.146023
218.501236	715.683777	761.900146	713.083252	-5.626848
218.877609	709.293762	758.333496	717.615723	16.969831
219.253983	706.247314	759.745300	722.593933	30.555578
219.630295	702.532227	761.379883	720.142029	29.924391
220.006592	704.538391	761.157043	719.696106	26.771593
220.382889	706.173096	757.739075	723.857117	34.293968
220.759140	712.340149	759.596680	734.110901	46.069298
221.135391	711.374207	757.441956	734.333801	49.838760
221.511581	714.717834	759.968262	733.962219	42.528625
221.887772	713.231750	760.785583	734.853821	45.468616
222.263931	711.894348	765.763855	737.603088	47.724106
222.640060	710.779785	770.519226	733.219238	37.562206
223.016159	712.340149	770.147705	732.996338	35.732681
223.392212	712.711670	773.565613	730.470032	29.181942
223.768265	714.123474	776.017578	728.538147	23.289251
224.144302	718.953125	781.293152	724.228577	8.462382
224.520294	716.649719	776.389160	722.519592	9.825791
224.896286	716.501160	765.020813	721.776611	10.872814
225.272217	714.346375	756.104492	726.160583	28.292006
225.648148	718.581543	755.510071	726.160583	20.523539
226.024048	713.306091	753.875427	729.950012	41.025864
226.399902	713.529053	756.550293	726.160461	29.360867
226.775772	708.996582	757.070496	725.194580	33.693947
227.151581	711.597168	762.494568	723.411316	23.211693
227.527374	708.625000	758.630798	726.086182	34.918312
227.903137	712.191589	750.531738	728.835449	43.411045
228.278870	722.371094	753.206726	732.550537	33.011948
228.654572	722.222473	754.544128	727.423645	16.091911
229.030273	721.776611	763.683350	735.968445	33.865276
229.405930	715.535156	769.701904	732.327637	31.001455
229.781555	711.002747	774.680176	734.185242	36.406143
230.157181	709.293762	773.119812	723.114075	21.653091
230.532761	703.869629	770.816406	721.405090	26.193138
230.908325	712.563171	775.646179	726.383484	21.908138
231.283859	713.380432	775.274597	725.417480	19.447792
231.659332	713.826233	770.370605	728.686829	26.281300
232.034821	711.597168	771.782410	722.742493	18.518368
232.410263	711.820068	775.348816	721.330811	14.970769
232.785690	711.522888	779.361145	721.256531	14.348309
233.161087	715.832458	769.256042	721.850891	11.265498
233.536469	718.358704	764.797852	720.662109	4.960052
233.911804	726.977783	756.327393	717.615662	-31.898624
234.287140	722.891113	756.847473	714.123474	-25.820314
234.662430	717.838623	762.123047	721.776672	8.892629
235.037704	715.386536	767.695740	720.142029	9.091122
235.412933	709.962463	775.868958	727.646545	26.832079
235.788162	705.652893	774.828674	721.925293	23.523262
236.163345	713.751953	778.841064	728.240967	22.260273
236.538513	718.730164	776.983582	723.931396	8.928631
236.913635	729.801270	774.903076	735.299744	12.191250
237.288742	723.262695	766.506836	737.231628	32.302486
237.663834	720.662109	760.636963	735.671326	37.546646
238.038879	717.169861	758.333557	734.556702	42.238289
238.413910	707.436218	760.488342	726.977844	36.834766
238.788910	710.779785	764.054871	728.018066	32.357117
239.163879	711.374268	771.559509	722.593994	18.641989
239.538834	715.758118	775.497498	722.891113	11.940190
239.913757	718.730286	776.983582	723.559814	8.290567
240.288651	724.525879	770.296326	725.714661	2.597269
240.663528	716.575439	771.485168	730.024231	24.492548
241.038361	707.213318	772.005310	731.361633	37.270523
241.413177	701.343323	779.509827	729.429871	35.931694
241.787979	709.888184	783.447937	725.417480	21.111132
242.162735	714.197754	788.203308	723.485596	12.550196
242.537476	716.426819	789.912292	719.844727	4.651134
242.912170	720.067688	788.723389	720.587708	0.757431
243.286865	716.278320	781.813293	720.067627	5.782114
243.661514	708.625183	786.642883	726.829163	23.333139
244.036148	708.847961	787.608826	725.120300	20.660437
244.410751	717.021301	791.992676	721.553711	6.045520
244.785339	724.080017	789.837952	718.953125	-7.796614
245.159882	722.445313	787.014465	716.575378	-9.090926
245.534378	713.380371	785.156921	727.274963	19.358122
245.908890	708.104919	788.128967	725.268860	21.448479
246.283356	706.544495	793.850281	729.429871	26.212896
246.657791	709.516663	809.973938	725.120300	15.532611
247.032196	707.956299	816.289734	733.813721	23.868366
247.406586	709.368103	823.794250	733.813721	21.363665
247.780960	714.494934	820.747864	736.860168	21.049051
248.155289	716.352539	815.992493	736.265686	19.985102
248.529602	716.798340	819.707581	731.658875	14.440428
248.903870	715.535156	817.998718	730.321472	14.430804
249.278122	722.816895	812.871765	717.690002	-5.693076
249.652344	721.256531	806.110291	718.433044	-3.327473
250.026550	722.593994	799.423035	712.414551	-13.249474
250.400711	720.439209	801.280579	720.364929	-0.091883
250.774857	723.336914	803.732605	723.411316	0.092545
251.148987	726.383362	804.475586	726.086243	-0.380472
251.523071	721.405090	809.156555	720.662109	-0.846688
251.897125	712.488831	808.785095	722.519714	10.416691
252.271164	703.944031	813.763428	721.776672	16.238153
252.645187	706.544617	813.466125	719.176086	11.813778
253.019165	712.340149	814.357849	721.405090	8.885655
253.393112	720.513489	812.500244	721.330811	0.888521
253.767044	725.491699	808.413574	722.222412	-3.942611
254.140930	728.909668	803.138123	721.182190	-10.410398
254.514801	723.039795	804.772766	718.210144	-5.909060
254.888657	715.832336	808.339355	721.107910	5.702890
255.262466	713.454773	814.506348	724.079895	10.514554
255.636276	716.724121	815.918152	725.863281	9.213417
256.010010	724.302917	809.156555	729.281189	5.866892
256.383759	720.662109	806.927551	725.937561	6.115371
256.757446	715.163757	814.803528	728.612488	13.497352
257.131134	704.984192	827.880859	725.194519	16.444975
257.504791	706.916077	843.335876	726.160461	14.106739
257.878418	710.408386	848.091309	726.383301	11.602684
258.252014	716.203918	855.595886	730.098450	9.967957
258.625580	716.129639	856.858948	728.686707	8.922852
258.999115	718.284363	865.626709	736.562805	12.405424
259.372650	716.575439	880.784485	737.454529	12.714945
259.746124	715.980957	905.527283	734.853821	9.956861
260.119598	715.312317	932.647705	726.531921	5.162346
260.493042	711.597168	952.486572	723.782776	5.058590
260.866425	711.894348	954.715637	723.782776	4.895958
261.239838	709.665283	939.483582	723.931458	6.207589
261.613159	713.529053	913.997742	721.702332	4.077085
261.986511	715.832458	896.462402	723.634094	4.319127
262.359802	722.371094	892.301453	725.640320	1.923862
262.733063	729.652771	893.415833	730.990173	0.816669
263.106293	728.389587	898.245544	729.281189	0.524916
263.479523	721.925232	898.171204	728.463867	3.709949
263.852692	713.751953	892.970032	722.742615	5.016604
264.225861	712.265869	893.044373	728.909668	9.206736
264.598969	713.380371	885.836914	734.110840	12.020691
264.972076	707.361877	894.084656	735.894104	15.280528
265.345154	707.882019	894.307556	734.036621	14.029517
265.718201	708.030701	913.774841	732.922058	12.098209
266.091217	721.330872	928.115234	733.590820	5.928857
266.464203	724.748718	931.830383	735.225403	5.059204
266.837158	714.717834	940.969666	734.333801	8.669971
267.210114	705.727234	945.725037	740.798157	14.613018
267.583038	707.882019	957.464844	741.912659	13.635009
267.955902	713.974854	956.276062	742.358459	11.714183
268.328766	717.838562	955.087158	735.225403	7.328533
268.701569	715.758118	956.053040	730.395752	6.091529
269.074371	716.724121	966.826965	722.965515	2.495531
269.447144	712.340271	976.040527	718.953125	2.507716
269.819885	711.151367	987.037354	715.312256	1.508191
270.192596	717.318542	984.436707	718.581604	0.472847
270.565277	725.640381	1002.120789	722.371094	-1.182466
270.937927	725.566101	1022.851257	727.646545	0.699814
271.310577	725.863281	1061.562866	729.206970	0.996036
271.683136	724.823059	1084.596802	735.299744	2.912020
272.055725	723.634216	1113.129028	732.847717	2.365500
272.428284	719.919128	1118.478882	733.070618	3.299753
272.800812	715.238037	1121.822388	733.367859	4.459055
273.173279	717.467041	1109.339600	729.949890	3.185436
273.545776	714.643555	1103.469727	731.510254	4.337851
273.918152	713.900574	1106.144653	729.949951	4.091681
274.290558	710.036804	1103.321167	733.665100	6.007942
274.662964	708.253601	1100.423340	730.098450	5.570253
275.035278	713.677551	1092.844360	725.640320	3.155015
275.407593	717.169861	1091.135376	726.977844	2.622697
275.779907	725.937683	1101.463501	728.835449	0.771656
276.152161	716.352539	1123.160034	728.389587	2.958905
276.524384	719.398926	1140.323853	730.024231	2.524276
276.896606	709.962463	1145.153564	734.110840	5.548913
277.268799	709.442383	1140.323853	735.448303	6.035516
277.640930	699.485840	1151.840820	732.624817	7.325879
278.013031	704.835632	1169.822144	730.247253	5.465024
278.385162	714.049133	1173.908691	732.847717	4.087897
278.757233	719.398926	1173.537231	731.658875	2.699607
279.129272	717.912903	1160.757080	727.275085	2.114103
279.501282	718.655945	1167.221436	721.702332	0.679140
279.873230	716.426941	1178.664063	724.823059	1.816409
280.245178	721.925232	1208.756714	729.281250	1.510999
280.617126	723.485596	1248.954468	730.618652	1.357465
280.988983	728.686707	1277.040894	724.525879	-0.758785
281.360870	724.377197	1302.675293	725.863281	0.256975
281.732697	721.033630	1322.142578	722.891174	0.309020
282.104492	719.101746	1353.795532	729.875671	1.697500
282.476288	721.925293	1385.894531	727.423645	0.828103
282.848053	714.346375	1404.692993	734.408142	2.906043
283.219757	708.699280	1406.476196	739.832214	4.461732
283.591461	704.909912	1393.993530	744.959045	5.811941
283.963135	704.612732	1379.355835	744.661926	5.935473
284.334747	709.145203	1378.018188	734.259521	3.754722
284.706360	713.826233	1400.012085	727.572266	2.003252
285.077942	719.919128	1433.299438	730.915833	1.541492
285.449524	717.912903	1463.614868	730.841553	1.733756
285.821014	714.197754	1495.044922	729.132629	1.912650
286.192535	717.838562	1520.679565	719.993408	0.268403
286.563995	724.674377	1544.902222	719.993408	-0.570691
286.935425	721.479431	1556.196289	720.736389	-0.089017
287.306824	718.358704	1554.190063	726.531982	0.977862
287.678223	706.321594	1541.707153	733.070618	3.201997
288.049561	711.820007	1511.763184	742.135559	3.789713
288.420898	706.990417	1496.085327	744.290344	4.726925
288.792145	710.259766	1495.788086	741.318176	3.953825
289.163452	706.470276	1516.146973	738.197571	3.918514
289.534668	701.120422	1539.923828	729.801331	3.419265
289.905914	700.154541	1577.075195	733.145020	3.762083
290.277039	704.389832	1608.876831	724.080078	2.176952
290.648193	711.522888	1661.334473	733.293518	2.292100
291.019318	712.117371	1696.999878	737.231628	2.549975
291.390381	707.733398	1720.776733	744.438965	3.623297
291.761475	707.807800	1721.965454	736.860046	2.864668
292.132507	715.832458	1703.241211	729.281189	1.362023
292.503510	715.163757	1691.650024	726.754883	1.187024
292.874481	718.581604	1676.789551	736.414307	1.861047
293.245422	715.980957	1681.470581	737.305908	2.208719
293.616364	717.838562	1705.321777	737.677429	2.009033
293.987213	715.683838	1730.064453	725.566101	0.974216
294.358093	716.426819	1782.373657	727.943665	1.080433
294.728943	719.398926	1828.292603	724.897278	0.495841
295.099731	718.433105	1893.084595	732.401917	1.189188
295.470490	718.210144	1923.697388	725.417480	0.597877
295.841248	715.089417	1941.084351	724.302917	0.751512
296.211975	723.411316	1958.248169	722.519714	-0.072204
296.582642	721.850891	2006.619141	726.829285	0.387493
296.953308	721.182190	2068.736328	727.200745	0.446628
297.323883	717.095520	2116.735840	717.912903	0.058399
297.694519	720.364929	2153.070068	713.603333	-0.471946
298.065063	720.364807	2162.655029	715.386536	-0.345164
298.435608	715.089355	2129.218750	721.627991	0.462379
298.806122	711.448547	2063.683838	718.804504	0.543985
299.176575	708.996582	1999.114624	718.358704	0.725679
299.547028	711.299988	1973.926147	719.250305	0.629665
299.917450	703.052429	1956.464966	729.578430	2.116302
300.287872	707.138977	1948.663208	734.185242	2.178473
300.658234	705.058533	1937.146118	733.367859	2.297672
301.028564	715.981018	1937.369141	728.166687	0.997690
301.398865	717.318542	1933.133789	717.541321	0.018323
301.769135	722.296814	1931.350586	726.829163	0.374867
302.139374	712.042969	1930.979004	735.076843	1.889670
302.509583	708.773682	1938.929321	740.798157	2.603287
302.879791	712.711731	1950.966431	737.825989	2.028198
303.249939	721.182129	1948.365845	726.903503	0.466220
303.620087	721.256531	1927.932617	727.126465	0.486455
303.990173	720.067688	1900.366333	719.621887	-0.037770
304.360260	724.600098	1900.589478	724.600098	0.000000
304.730286	729.875671	1913.146484	724.823059	-0.427004
305.100281	726.011902	1927.115356	726.977783	0.080416
305.470276	718.061523	1943.164673	729.727051	0.952208
305.840179	714.940735	1954.681641	739.832214	2.007797
306.210144	709.962463	1970.731079	743.844543	2.687415
306.579987	713.231750	1967.833374	746.147949	2.623638
306.949890	715.014954	1986.706055	739.237793	1.904774
307.319702	717.987122	2001.046509	738.420410	1.592544
307.689484	720.216309	2022.148560	736.934387	1.284097
308.059265	716.501160	2041.467163	737.157288	1.558993
308.429016	718.135803	2088.054932	740.575195	1.638008
308.798737	709.293762	2157.008057	740.352295	2.145350
309.168396	712.934570	2223.285889	734.185242	1.407002
309.538055	712.191589	2268.684814	726.011963	0.887917
309.907684	713.974854	2287.186523	724.971680	0.699005
310.277313	709.813904	2311.929199	733.739319	1.493364
310.646851	709.813904	2325.155029	736.414246	1.646732
311.016388	711.522949	2345.588379	738.346191	1.641504
311.385895	709.962585	2345.291016	735.299805	1.549366
311.755371	710.928467	2363.866699	737.826111	1.627262
312.124817	718.433044	2368.473633	735.819824	1.053718
312.494232	724.748779	2365.575928	727.349304	0.158489
312.863617	731.807434	2342.987549	730.098572	-0.106063
313.232971	722.742615	2318.988037	728.538269	0.363080
313.602295	718.358704	2306.728271	736.117126	1.118028
313.971619	710.408386	2315.198486	731.658936	1.324195
314.340820	704.687012	2328.424561	731.881836	1.674829
314.710083	700.674622	2368.622070	728.018066	1.639347
315.079285	700.154541	2396.782959	735.819824	2.102127
315.448486	709.591003	2439.878662	738.569092	1.674756
315.817596	715.758118	2431.556641	741.021057	1.472372
316.186707	714.197754	2400.052002	737.900391	1.405972
316.555786	713.454773	2338.826660	738.866211	1.563423
316.924866	714.792175	2298.331543	748.674255	2.139642
317.293884	719.993347	2280.499023	746.222229	1.680794
317.662872	726.457703	2275.818115	740.575195	0.911182
318.031830	718.953125	2280.127686	731.733215	0.818620
318.400757	714.420654	2289.638428	723.485657	0.575476
318.769684	716.055237	2320.697021	725.566101	0.592709
319.138550	718.878845	2346.925781	730.172852	0.693715
319.507416	720.736389	2373.749023	732.402039	0.705720
319.876190	704.092590	2387.718018	730.172852	1.549054
320.244995	711.151367	2386.603516	725.566101	0.860349
320.613770	711.671448	2369.736816	731.881836	1.218914
320.982483	717.169922	2345.217041	735.894226	1.150108
321.351166	716.649719	2329.167236	735.002502	1.138145
321.719818	715.981018	2307.991211	739.237793	1.460843
322.088440	723.114075	2302.641357	735.299744	0.771476
322.457062	720.290527	2319.953857	736.191406	0.994014
322.825623	725.789001	2360.597412	729.429871	0.222709
323.194183	714.643555	2414.169678	732.401917	1.044901
323.562653	710.556885	2467.964844	732.104736	1.226115
323.931183	706.247375	2534.020020	736.117004	1.634209
324.299591	710.779785	2597.697510	736.711426	1.374286
324.668060	713.751953	2668.656494	743.175781	1.505129
325.036407	713.900574	2710.860352	742.507141	1.432506
325.404755	718.953125	2740.655518	744.736145	1.275312
325.773102	711.002747	2740.804688	740.649597	1.460578
326.141388	714.643555	2751.652588	741.466858	1.316798
326.509674	708.922180	2759.825928	739.980774	1.514386
326.877899	716.798340	2783.379883	738.494812	1.049873
327.246124	713.231873	2803.144531	737.454529	1.159027
327.614288	717.764221	2813.546875	738.271790	0.978516
327.982422	714.792175	2804.853516	735.671204	0.998967
328.350525	711.671448	2777.807373	733.590820	1.060887
328.718628	714.346375	2754.773438	730.172852	0.775645
329.086700	716.501160	2745.039795	728.166687	0.575071
329.454712	718.581604	2759.900391	728.389465	0.480467
329.822693	716.946960	2773.794922	726.754883	0.476842
330.190674	715.683777	2791.255859	731.287354	0.751772
330.558563	718.953125	2813.695557	734.036560	0.720062
330.926483	710.779785	2832.345459	736.860046	1.229293
331.294312	709.962463	2850.698242	735.894104	1.211342
331.662231	711.745789	2889.707031	732.699036	0.962058
332.029999	714.346375	2938.227295	733.442139	0.858669
332.397766	713.751953	2991.055908	741.095398	1.200694
332.765503	705.504395	3045.594482	738.197510	1.397088
333.133240	712.191589	3118.262451	739.460693	1.133346
333.500916	714.940735	3177.407227	735.968445	0.853929
333.868561	711.968689	3210.843506	740.129395	1.126935
334.236176	707.362000	3217.531006	725.194580	0.710414
334.603790	703.349609	3230.831055	721.256531	0.708489
334.971344	704.389832	3230.979492	725.268860	0.826372
335.338867	708.402161	3231.425049	739.980774	1.251618
335.706360	707.287598	3223.475342	743.770264	1.449918
336.073853	715.015137	3232.837158	740.352356	1.006315
336.441284	709.368103	3249.629639	734.779602	1.000350
336.808655	718.878906	3247.326172	732.847717	0.552466
337.176086	711.522949	3206.236572	732.699036	0.848838
337.543396	710.854187	3109.791992	733.813660	0.957068
337.910706	701.863586	3055.550781	735.299744	1.420586
338.277954	705.430115	3062.535156	736.265625	1.308194
338.645264	702.680847	3160.391846	744.736145	1.711157
339.012421	708.402161	3284.328857	746.816589	1.491286
339.379669	716.575439	3395.336914	747.113831	1.140019
339.746796	727.497986	3500.178467	742.209900	0.530603
340.113953	722.742615	3577.007080	731.881836	0.320195
340.481018	713.603333	3622.778076	724.228577	0.365232
340.848114	709.665283	3631.545654	726.532043	0.577257
341.215118	716.575439	3628.870361	731.138733	0.500062
341.582153	720.736389	3648.857666	740.575195	0.677527
341.949066	714.569336	3666.839111	738.123230	0.797823
342.316010	709.813965	3678.133057	744.884766	1.181504
342.682922	706.098816	3690.541992	743.175842	1.242343
343.049835	713.380371	3716.101807	750.085938	1.222410
343.416656	719.324646	3764.027344	755.510010	1.188470
343.783478	717.169922	3840.856201	749.268616	1.027590
344.150269	721.702393	3966.427734	740.203613	0.570194
344.516998	716.649719	4108.420410	735.151062	0.545477
344.883728	716.501160	4215.639160	736.265625	0.564838
345.250427	711.002747	4297.743652	732.773438	0.606977
345.617065	713.751953	4323.006348	726.754883	0.360266
345.983704	726.011902	4337.421387	732.847839	0.189287
346.350281	728.241028	4294.919922	732.104736	0.108328
346.716827	720.364929	4270.028809	742.284180	0.617502
347.083405	708.550781	4232.580078	745.850769	1.058447
347.449860	709.591003	4188.815918	751.943542	1.217298
347.816376	708.327820	4116.222168	740.055115	0.930994
348.182770	712.191589	4070.154297	733.739441	0.641694
348.549194	709.219482	4048.458252	734.631042	0.760999
348.915558	719.473328	4059.975342	744.736145	0.756258
349.281921	715.981018	4093.931396	754.544128	1.141613
349.648193	707.807800	4144.754395	750.754700	1.249565
350.014526	706.247375	4203.230957	746.593750	1.153748
350.380737	705.132813	4245.286133	737.454529	0.913003
350.746948	716.278259	4303.762207	740.872498	0.685557
351.113159	713.157532	4345.669434	738.717590	0.703647
351.479309	718.581604	4385.123535	739.312012	0.565394
351.845428	718.507324	4402.882324	736.562805	0.490055
352.211517	721.033630	4457.048828	734.185242	0.352022
352.577576	721.850891	4502.076172	730.098572	0.218180
352.943604	716.426819	4578.311035	734.259521	0.461762
353.309601	718.730286	4638.124512	739.683594	0.534606
353.675537	709.516785	4739.473145	739.609314	0.746721
354.041473	713.529053	4838.444824	736.042786	0.545799
354.407379	706.618958	4956.734375	735.374023	0.676571
354.773254	713.083252	5063.284180	732.922058	0.456043
355.139038	709.591003	5158.392090	732.401855	0.512742
355.504913	710.408386	5261.746582	733.590759	0.509353
355.870636	714.866455	5360.346680	743.844543	0.623791
356.236389	719.398926	5483.615234	735.671204	0.341552
356.602081	718.953125	5630.140137	731.807434	0.261735
356.967804	713.974792	5789.742188	727.349304	0.263497
357.333405	711.299866	5949.418457	742.878601	0.602864
357.699036	714.866455	6108.575684	748.897156	0.630933
358.064606	719.621826	6292.475098	749.120056	0.529320
358.430176	724.971680	6430.603516	740.129395	0.265662
358.795654	726.160461	6493.611816	736.339905	0.176498
359.161163	719.176025	6458.169434	739.089172	0.346980
359.526581	711.968750	6423.618652	744.587585	0.571093
359.892029	706.247314	6435.582031	745.702087	0.688645
360.257416	709.516663	6559.072754	749.565857	0.684654
360.622772	707.956299	6777.671875	744.884766	0.608405
360.988098	710.854187	7065.966309	743.993164	0.521454
361.353394	706.916016	7387.176270	743.472961	0.547238
361.718658	713.157532	7691.966309	745.107666	0.457816
362.083893	714.792175	7941.103027	746.742371	0.442137
362.449097	716.203918	8097.732910	739.386414	0.314061
362.814209	713.529053	8119.727051	741.095398	0.372206
363.179382	719.844727	7914.057129	735.671204	0.219989
363.544434	721.405090	7533.627441	733.144836	0.172334
363.909546	718.284424	7082.609863	732.104675	0.217152
364.274536	713.751953	6740.371582	734.705322	0.347680
364.639587	714.197754	6509.735840	742.135559	0.482057
365.004517	718.358704	6389.439453	742.581360	0.427126
365.369507	716.724121	6310.158691	737.380188	0.369291
365.734344	720.885010	6255.621094	730.841614	0.179893
366.099274	717.021240	6197.367188	730.841614	0.252181
366.464081	717.244141	6165.863281	741.169739	0.439113
366.828918	706.916016	6169.280762	748.822815	0.767192
367.193665	712.488770	6180.574219	754.246887	0.763670
367.558411	705.281433	6193.949219	750.977600	0.832555
367.923126	714.717957	6176.042480	746.742371	0.586385
368.287781	712.637390	6164.153809	749.268616	0.671946
368.652435	715.758118	6115.039551	751.943542	0.670190
369.017059	714.792175	6091.114746	749.417236	0.644029
369.381653	723.188416	6041.406250	741.838379	0.350681
369.746185	728.463867	6038.285156	739.386292	0.205702
370.110687	726.680603	6045.046875	743.250061	0.311552
370.475220	712.042969	6110.136230	741.838379	0.551962
370.839661	705.652893	6188.079590	742.952942	0.680357
371.204041	705.875793	6278.134277	744.810486	0.698724
371.568451	712.637390	6345.378418	746.668030	0.604158
371.932770	717.541321	6383.792969	745.627869	0.495681
372.297150	718.284424	6417.006348	749.417297	0.546313
372.661377	716.649719	6445.240723	756.476074	0.695221
373.025696	717.392761	6470.652344	748.451355	0.539843
373.389862	712.785950	6463.296875	739.534973	0.465159
373.754059	706.767395	6448.064453	727.275085	0.357196
374.118225	703.200928	6484.769531	737.305908	0.589891
374.482361	711.299988	6532.101074	745.479187	0.587191
374.846436	719.919128	6638.948730	755.955872	0.608829
375.210510	724.674500	6726.402344	754.321228	0.493970
375.574524	717.764343	6867.800781	753.652527	0.583544
375.938538	714.643555	6987.353516	753.726807	0.623068
376.302460	711.597168	7147.847656	755.138611	0.676503
376.666412	712.265930	7318.446777	754.618469	0.641105
377.030304	716.203918	7519.063965	752.315125	0.530824
377.394196	719.176025	7709.873535	759.819641	0.581396
377.757996	717.541321	7864.125488	754.989929	0.524007
378.121796	714.420715	7943.109375	764.203430	0.688683
378.485565	711.522888	7937.313965	756.401672	0.621092
378.849304	714.717957	7827.791504	767.398499	0.740616
379.212982	716.575439	7671.235840	756.996094	0.581202
379.576630	724.005676	7473.292969	769.107422	0.668245
379.940277	723.411316	7337.617188	778.618164	0.834671
380.303864	726.457703	7231.586426	787.683105	0.941187
380.667450	717.095520	7198.150391	786.271423	1.067356
381.030945	717.615723	7171.623535	779.435547	0.957852
381.394501	708.179199	7188.936035	781.516052	1.131609
381.757935	709.442383	7235.895996	793.776062	1.292182
382.121399	708.699402	7276.985840	800.463196	1.397074
382.484741	713.454651	7331.300781	815.620911	1.543799
382.848145	716.946960	7383.981934	820.524902	1.553583
383.211487	718.210144	7459.621582	840.809570	1.818602
383.574768	712.637390	7577.391113	852.697998	2.040286
383.938019	714.866516	7675.693848	870.382080	2.234154
384.301270	715.980957	7787.074219	874.097168	2.236093
384.664459	711.820068	7875.865723	886.431458	2.437329
385.027649	701.566345	7956.261230	898.319885	2.712086
385.390778	700.303162	8020.235840	925.068909	3.070599
385.753876	712.042969	8029.226563	950.629089	3.260628
386.116943	718.433044	8058.055176	971.062256	3.441992
386.479980	723.114075	8086.142090	994.244690	3.682325
386.842987	718.284363	8161.485840	1010.145508	3.921177
387.205994	720.290527	8223.825195	1034.962646	4.193652
387.568909	718.581543	8298.277344	1058.813843	4.488733
387.931793	717.764343	8342.264648	1085.116943	4.818055
388.294678	717.615662	8378.821289	1112.831909	5.158669
388.657471	717.615723	8387.959961	1140.769653	5.516753
389.020294	724.823059	8375.922852	1171.828247	5.842365
389.383057	721.628113	8373.619141	1213.512085	6.428183
389.745819	715.312317	8380.231445	1249.103027	6.964075
390.108521	715.758118	8430.906250	1295.467896	7.513916
390.471191	721.182190	8529.877930	1333.436523	7.840673
390.833801	720.662109	8680.415039	1381.287476	8.299571
391.196442	713.380371	8886.977539	1432.556519	8.798772
391.558960	712.785950	9081.129883	1488.060547	9.264373
391.921509	713.751892	9264.583008	1547.874390	9.754870
392.284027	717.541321	9433.101563	1609.619751	10.235468
392.646484	714.049133	9569.595703	1674.634766	10.847277
393.008911	719.398926	9604.666992	1719.959473	11.260894
393.371307	720.067688	9553.770508	1754.361694	11.708498
393.733673	716.724060	9456.731445	1776.875122	12.129865
394.096008	719.696106	9409.547852	1817.593140	12.634243
394.458344	726.160461	9431.617188	1873.542969	13.180038
394.820587	722.296692	9465.349609	1913.889648	13.629027
395.182831	710.482605	9530.809570	1959.734253	14.163326
395.545013	695.696350	9492.990234	1993.690552	14.754471
395.907196	700.823242	9391.493164	2040.947144	15.420260
396.269287	709.739563	9204.471680	2058.854248	15.881781
396.631409	711.374268	9052.671875	2081.739258	16.428679
396.993469	703.646790	8921.155273	2101.578125	17.011620
397.355530	699.485840	8832.883789	2131.447754	17.605949
397.717499	705.355713	8783.547852	2150.172119	17.885393
398.079468	716.872620	8782.730469	2177.218018	18.105270
398.441376	723.485596	8804.278320	2220.313721	18.523283
398.803284	724.005798	8823.002930	2278.047119	19.188070
399.165131	717.987122	8868.624023	2331.396729	19.794891
399.526978	713.603333	8884.672852	2370.553955	20.278259
399.888763	706.024414	8910.159180	2403.693115	20.692842
400.250519	707.510498	8918.852539	2441.067383	21.111736
400.612244	700.674744	8951.842773	2480.596436	21.571754
400.973938	711.225647	8948.499023	2521.091553	21.971663
401.335602	712.934570	8969.750000	2556.385010	22.326410
401.697205	718.804504	9007.421875	2609.288330	22.808193
402.058807	716.129578	9079.198242	2652.161377	23.149778
402.420349	716.278137	9166.428711	2695.702881	23.424728
402.781860	714.866455	9277.214844	2739.169922	23.641918
403.143341	717.169861	9423.590820	2813.249756	24.075104
403.504822	717.764343	9594.190430	2885.026123	24.415928
403.866241	721.999512	9790.573242	2966.090088	24.745792
404.227631	714.569275	9968.676758	3023.526123	24.950615
404.588959	721.107910	10171.596680	3115.290283	25.333954
404.950287	720.216309	10322.282227	3167.748047	25.489635
405.311554	726.011902	10438.640625	3221.617188	25.694435
405.672821	714.643555	10476.609375	3257.208252	26.045622
406.034027	707.213318	10475.643555	3287.003906	26.409468
406.395203	702.012146	10384.919922	3300.898438	26.839935
406.756348	704.389832	10293.675781	3283.214111	26.892765
407.117493	704.984192	10233.712891	3300.006592	27.233669
407.478516	702.086426	10215.955078	3310.780518	27.419907
407.839600	704.984192	10228.215820	3333.666016	27.602835
408.200592	708.847961	10199.757813	3344.365479	27.768860
408.561554	719.993347	10185.044922	3367.919678	27.975824
408.922485	724.971680	10179.323242	3396.600342	28.258190
409.283417	724.377258	10200.797852	3422.755127	28.474653
409.644257	724.154297	10316.338867	3461.986572	28.542322
410.005096	715.386658	10462.342773	3528.488037	28.861332
410.365906	717.244141	10611.022461	3572.549072	28.859600
410.726715	708.847961	10730.426758	3626.864502	29.117334
411.087433	710.705566	10797.968750	3665.873291	29.296030
411.448120	704.835632	10890.624023	3716.919189	29.571432
411.808807	709.070801	10918.709961	3735.495361	29.642818
412.169434	713.826233	10859.043945	3724.275391	29.673578
412.530029	719.176025	10769.659180	3733.043213	29.987286
412.890564	718.210144	10727.826172	3736.609619	30.154997
413.251099	714.272034	10744.768555	3758.751953	30.352238
413.611572	723.485596	10811.045898	3766.776367	30.168749
413.972076	729.429871	10874.352539	3806.602539	30.332144
414.332489	729.801331	10971.835938	3837.661133	30.344166
414.692871	719.398926	11113.382813	3902.230225	30.621861
415.053223	709.516785	11241.703125	3955.653564	30.821110
415.413574	708.773682	11440.166992	4031.219727	30.960062
415.773834	705.207092	11606.605469	4091.850830	31.066141
416.134094	711.151367	11788.276367	4141.484863	30.967724
416.494263	713.380432	11943.717773	4211.849609	31.151953
416.854462	715.163757	12231.491211	4309.557617	31.211287
417.214630	713.826355	12564.367188	4426.212891	31.326725
417.574738	709.219482	12943.311523	4532.168457	31.248327
417.934784	711.299988	13263.481445	4636.563965	31.271566
418.294861	711.968750	13636.332031	4770.086426	31.398975
418.654846	716.426941	14095.968750	4931.545898	31.504211
419.014832	716.872742	14599.370117	5090.776855	31.506611
419.374756	711.671448	15147.723633	5246.440918	31.412809
419.734680	714.717834	15690.729492	5431.157715	31.493298
420.094543	713.083252	16250.823242	5623.527344	31.603336
420.454376	718.730225	16769.306641	5809.357910	31.716169
420.814148	716.723938	17290.318359	5968.886230	31.689941
421.173920	720.216309	17832.728516	6139.559082	31.668892
421.533691	722.593994	18375.212891	6317.217285	31.692879
421.893341	713.677734	18769.611328	6469.240723	31.876297
422.253021	712.191589	19009.683594	6570.069824	32.014652
422.612640	709.665283	19044.679688	6626.613281	32.271305
422.972260	720.513489	18992.294922	6605.139160	32.206085
423.331757	725.714661	18871.181641	6595.703613	32.349617
423.691315	728.389587	18885.968750	6586.192871	32.260925
424.050781	726.011902	19011.689453	6660.198730	32.452652
424.410248	723.188416	19157.544922	6703.517090	32.441212
424.769653	715.758118	19295.673828	6746.910156	32.460598
425.128998	713.157471	19354.669922	6775.220215	32.519157
425.488373	715.832336	19247.896484	6762.811035	32.629814
425.847656	719.176086	19012.580078	6727.145996	32.842274
426.206940	722.073914	18755.566406	6653.214355	32.889584
426.566193	718.804626	18399.285156	6548.001465	32.969673
426.925385	713.603333	18029.259766	6444.646973	33.097466
427.284576	711.597168	17488.408203	6284.598145	33.218475
427.643677	714.049133	17100.623047	6174.630371	33.323505
428.002777	724.451477	16716.626953	6058.792969	33.355946
428.361847	731.213074	16328.840820	5943.177734	33.415112
428.720856	732.030457	15979.989258	5843.611816	33.523052
429.079865	721.776611	15728.102539	5752.665527	33.525120
429.438812	717.615723	15558.543945	5709.495605	33.635902
429.797760	712.265869	15453.183594	5678.139160	33.687679
430.156616	723.262695	15264.157227	5612.604980	33.624771
430.515503	721.999512	15140.518555	5572.109375	33.638058
430.874268	720.141907	15115.476563	5534.363770	33.442928
431.233093	707.659180	15171.649414	5576.121582	33.659195
431.591827	710.482605	15275.227539	5604.654297	33.602867
431.950562	710.111084	15297.593750	5631.552246	33.737427
432.309204	715.460938	15348.043945	5647.229004	33.704014
432.667877	701.566223	15449.541992	5698.052734	33.879135
433.026459	706.544617	15565.454102	5760.318359	34.011742
433.385010	713.751953	15719.632813	5808.317871	33.950462
433.743561	727.200745	15898.776367	5865.828125	33.870098
434.102051	726.606262	16095.456055	5915.165527	33.760231
434.460510	715.980957	16247.405273	5972.527344	33.844589
434.818939	709.813904	16312.418945	6006.929688	33.950199
435.177338	706.395996	16375.502930	6030.037598	33.975399
435.535675	715.238037	16327.577148	6029.442871	34.038494
435.894012	721.107910	16265.163086	6003.585938	33.983913
436.252289	722.668274	16254.760742	6026.471191	34.147381
436.610535	724.080078	16246.885742	6028.105469	34.169243
436.968719	727.869446	16420.380859	6077.070801	34.087605
437.326935	727.943787	16536.962891	6092.377441	33.932739
437.685028	726.011902	16689.953125	6153.306152	33.997208
438.043152	719.101746	16790.111328	6188.524902	34.032856
438.401215	722.519714	17050.617188	6282.963379	34.054451
438.759277	716.129700	17347.679688	6380.076660	34.055435
439.117249	714.123535	17785.173828	6525.339355	34.041348
439.475250	703.721130	18073.394531	6640.805176	34.180744
439.833130	705.207092	18483.099609	6781.683594	34.179958
440.191071	707.659119	18733.720703	6873.001465	34.202381
440.548889	720.959290	19089.335938	6992.034668	34.140606
440.906708	717.244141	19431.052734	7105.717285	34.137749
441.264496	712.340149	19704.189453	7219.029297	34.260429
441.622223	705.058594	19869.958984	7296.453125	34.393055
441.979950	711.448547	19891.431641	7326.916504	34.491520
442.337616	708.699280	19897.005859	7318.743652	34.448296
442.695251	709.665283	19729.824219	7239.537109	34.331326
443.052887	711.151367	19525.566406	7144.800781	34.195320
443.410461	715.015137	19336.019531	7096.652344	34.271175
443.768005	717.764343	19172.851563	7080.528809	34.477020
444.125458	714.494934	19095.425781	7074.064941	34.598736
444.482941	719.324646	19146.470703	7088.851074	34.565994
444.840393	723.857117	19302.287109	7139.822754	34.534489
445.197754	722.371094	19625.873047	7240.057129	34.478722
445.555084	719.547546	19923.158203	7354.780762	34.552010
445.912415	712.711731	20328.183594	7476.339844	34.481087
446.269714	717.764343	20613.876953	7599.757324	34.589638
446.626953	719.324707	20963.695313	7741.080566	34.684978
446.984161	721.033630	21324.138672	7870.812500	34.702435
447.341309	715.386536	21603.962891	7964.509277	34.703766
447.698456	721.182190	21784.890625	8016.669434	34.635342
448.055542	722.148132	21883.634766	8070.315918	34.724251
448.412598	725.120300	21811.935547	8057.164063	34.770752
448.769653	717.095520	21668.158203	8015.554688	34.835747
449.126617	713.231873	21301.919922	7911.679688	34.963120
449.483582	716.798340	21022.097656	7840.052246	35.080765
449.840515	722.891174	20632.380859	7717.377441	35.131420
450.197388	725.491760	20375.218750	7622.567871	35.100113
450.554230	719.101746	20174.154297	7542.840332	35.074379
450.911041	710.705505	19966.552734	7502.494141	35.271305
451.267822	704.538330	19776.931641	7458.804688	35.413841
451.624573	701.492004	19578.693359	7394.458496	35.455288
451.981262	703.795410	19463.375000	7347.646973	35.415779
452.337921	709.442383	19312.390625	7290.657715	35.377270
452.694580	711.671448	19221.742188	7276.688965	35.467274
453.051147	711.225647	19218.101563	7283.747559	35.513947
453.407715	709.516663	19149.371094	7268.886719	35.571705
453.764221	710.928467	19153.830078	7285.307129	35.647202
454.120728	712.637390	18943.775391	7216.874512	35.676529
454.477142	715.460938	18893.250000	7198.224609	35.663105
454.833557	721.405090	18678.812500	7126.225098	35.666729
455.189911	723.039734	18490.828125	7049.173340	35.604507
455.546265	723.039795	18247.486328	6984.529785	35.730030
455.902557	725.491760	18089.890625	6939.428223	35.785500
456.258820	724.080017	18106.978516	6953.619629	35.837173
456.615051	726.829163	18219.623047	6972.046875	35.701660
456.971252	719.621887	18212.117188	6982.152344	35.801239
457.327393	721.850891	18361.466797	7060.615723	35.934822
457.683502	721.627991	18639.876953	7164.342285	35.956161
458.039612	726.754883	19129.904297	7341.480469	35.943447
458.395630	726.234863	19625.726563	7531.843750	36.009480
458.751648	720.290588	20096.509766	7719.607422	36.123234
459.107605	722.371094	20838.421875	7977.660156	36.067165
459.463562	722.891174	21601.435547	8244.333008	36.024742
459.819458	722.816895	22325.146484	8518.733398	36.088314
460.175323	711.968567	22947.429688	8725.219727	36.038158
460.531158	709.962585	23467.103516	8916.104492	36.059635
460.886932	713.603333	23751.384766	9026.814453	36.085121
461.242676	718.358704	23814.466797	9084.027344	36.221119
461.598419	720.290588	23580.859375	9025.625977	36.330395
461.954102	721.405090	23122.412109	8875.608398	36.401054
462.309723	722.222473	22423.521484	8648.540039	36.524624
462.665344	726.383484	21683.021484	8395.985352	36.597481
463.020905	725.640381	21078.568359	8201.757813	36.732391
463.376373	724.302917	20637.433594	8025.213379	36.663799
463.731873	711.225647	20270.599609	7868.286621	36.591465
464.087341	703.795410	19979.035156	7734.689941	36.476299
464.442749	698.817139	19771.138672	7688.919922	36.650505
464.798126	707.213318	19676.919922	7665.886230	36.683079
465.153503	712.637390	19783.544922	7722.728027	36.758034
465.508820	713.826233	19895.818359	7727.037109	36.561432
465.864105	712.265869	20072.359375	7774.517090	36.478394
466.219330	711.894348	20379.750000	7882.181152	36.456882
466.574524	718.432922	20559.787109	7986.204590	36.629414
466.929657	712.711670	20747.029297	8086.291016	36.804741
467.284790	715.015076	20899.943359	8163.640137	36.901917
467.639893	710.556946	21070.990234	8227.837891	36.921024
467.994934	715.832336	21230.515625	8301.248047	36.975544
468.349945	708.699280	21234.751953	8335.948242	37.158871
468.704926	706.618835	21204.138672	8349.544922	37.287079
469.059875	705.058594	20979.000000	8284.827148	37.386753
469.414764	710.333984	20719.835938	8172.853516	37.294880
469.769653	717.467102	20498.783203	8086.810547	37.254059
470.124451	721.850891	20403.826172	8051.517090	37.240501
470.479248	724.748779	20254.845703	7999.950684	37.251232
470.834015	723.708496	20154.611328	7981.597656	37.352303
471.188721	727.646545	20209.226563	7991.925781	37.287937
471.543365	728.092346	20335.615234	8038.959473	37.286030
471.898010	720.513489	20527.687500	8096.247559	37.237690
472.252625	711.374268	20691.150391	8161.856934	37.290119
472.607178	705.578613	20974.617188	8263.577148	37.288391
472.961700	712.265869	21206.220703	8363.440430	37.333813
473.316193	718.804504	21532.039063	8485.444336	37.315872
473.670654	724.005676	21701.820313	8563.165039	37.368809
474.025055	723.559875	21948.578125	8642.818359	37.310963
474.379456	721.182190	22113.828125	8704.489258	37.317997
474.733795	714.420654	22244.154297	8788.971680	37.504181
475.088104	710.705505	22379.681641	8842.543945	37.527561
475.442383	712.265930	22370.392578	8864.612305	37.641048
475.796570	713.677673	22488.162109	8901.391602	37.602333
476.150787	711.820068	22642.712891	8991.594727	37.753933
476.504944	705.950134	22962.736328	9108.028320	37.750633
476.859070	706.990417	23284.169922	9198.379883	37.610497
477.213135	714.494934	23614.521484	9296.459961	37.475784
477.567200	717.912842	24051.939453	9476.272461	37.534710
477.921173	720.290588	24528.146484	9653.335938	37.521420
478.275146	717.021240	25059.259766	9873.939453	37.617405
478.629089	721.850891	25417.251953	9980.192383	37.490147
478.983002	725.268860	25892.791016	10155.398438	37.469440
479.336823	721.405090	26308.513672	10287.137695	37.384968
479.690643	713.008850	26786.130859	10496.596680	37.523655
480.044403	711.076965	27292.427734	10737.487305	37.719715
480.398163	718.210144	28053.365234	11020.727539	37.689625
480.751862	719.770508	29053.849609	11406.210938	37.715858
481.105499	717.838562	30336.462891	11840.956055	37.554470
481.459137	714.197754	31932.708984	12468.444336	37.651527
481.812744	716.723938	33951.511719	13216.299805	37.609917
482.166290	714.494873	36393.691406	14155.487305	37.671791
482.519806	716.055359	39310.968750	15281.989258	37.740551
482.873291	717.838562	42686.765625	16585.853516	37.808960
483.226715	718.210144	46390.753906	18136.699219	38.137768
483.580139	718.061523	49833.792969	19754.121094	38.757561
483.933502	714.866455	52925.531250	21429.646484	39.675381
484.286804	716.203857	55304.332031	22961.619141	40.751381
484.640106	715.609558	57138.277344	24265.187500	41.737797
484.993347	712.934631	58102.875000	25108.150391	42.507824
485.346558	713.008972	58299.406250	25391.244141	42.854275
485.699738	712.711670	57665.230469	25056.437500	42.743896
486.052887	711.225647	56501.277344	24277.599609	42.241177
486.405975	709.516663	55083.800781	23331.650391	41.604469
486.759064	714.123474	53691.074219	22409.626953	40.952724
487.112061	722.593933	52533.582031	21652.927734	40.397480
487.464996	725.937561	51834.917969	21163.867188	39.988922
487.817963	719.844788	51682.519531	20962.431641	39.720413
488.170868	714.494934	51773.910156	21003.224609	39.735535
488.523743	712.265869	51864.042969	21041.935547	39.743820
488.876587	711.968750	51689.652344	21031.607422	39.859871
489.229401	723.708557	51263.972656	20821.406250	39.765713
489.582153	725.194580	50452.738281	20472.109375	39.710217
489.934845	734.482422	49414.207031	20020.943359	39.619083
490.287537	725.045898	48365.347656	19543.250000	39.500595
490.640198	724.674500	47541.332031	19139.490234	39.333900
490.992798	717.912903	46975.738281	18801.113281	39.092201
491.345337	717.912903	46891.558594	18706.451172	38.958458
491.697876	717.838562	46999.660156	18730.599609	38.919735
492.050354	719.398926	47409.964844	18911.677734	38.963501
492.402832	716.055359	47635.250000	19030.041016	39.033035
492.755219	707.436218	47503.582031	18999.130859	39.088039
493.107605	704.761292	46725.636719	18709.722656	39.123466
493.459930	709.368103	45418.425781	18242.953125	39.217075
493.812225	718.433044	43612.726563	17538.634766	39.213146
494.164490	721.182190	41548.597656	16714.992188	39.174191
494.516724	723.485596	39335.566406	15800.546875	39.047523
494.868896	721.999512	37351.535156	15001.496094	38.983559
495.221039	714.272034	35803.359375	14374.828125	38.931068
495.573120	710.408386	34569.933594	13877.593750	38.887688
495.925201	709.591003	33929.148438	13584.989258	38.758488
496.277222	709.293762	33550.871094	13414.984375	38.687820
496.629211	701.863464	33483.855469	13386.824219	38.694904
496.981140	706.098816	33435.332031	13386.453125	38.743206
497.333069	713.083252	33514.761719	13419.516602	38.737144
497.684967	718.953125	33554.437500	13462.166992	38.809277
498.036804	719.919006	33597.164063	13460.458008	38.751842
498.388580	715.237976	33504.507813	13449.684570	38.837238
498.740326	716.872559	33360.734375	13368.395508	38.756210
499.092072	710.705566	32985.503906	13283.989258	38.956970
499.443756	711.151367	32573.349609	13100.015625	38.882641
499.795410	713.529053	32157.845703	12994.059570	39.054848
500.147003	718.804504	31816.947266	12838.692383	38.973026
500.498566	719.621887	31410.806641	12737.790039	39.158371
500.850098	718.358704	31000.359375	12559.983398	39.104500
501.201599	712.191589	30613.466797	12407.514648	39.113125
501.553009	713.529053	30276.130859	12263.664063	39.070087
501.904449	713.900574	30034.052734	12130.440430	38.937519
502.255859	721.033508	29769.833984	12035.109375	38.948513
502.607178	717.615662	29710.017578	11986.885742	38.869736
502.958405	715.163635	29580.728516	11982.725586	39.034615
503.309692	709.070862	29561.337891	11981.536133	39.069599
503.660919	709.591003	29525.744141	11978.043945	39.104641
504.012115	714.346375	29608.521484	11978.491211	38.984135
504.363251	716.055359	29709.796875	12009.772461	38.952255
504.714294	722.296692	29803.937500	12044.916992	38.933910
505.065369	721.627991	29820.287109	12082.364258	39.042130
505.416443	725.566101	29876.083984	12096.631836	39.008110
505.767395	719.473145	29871.103516	12135.195313	39.159809
506.118317	717.838562	29888.119141	12112.606445	39.062935
506.469238	716.203918	29865.236328	12123.379883	39.133976
506.820160	727.126465	29870.064453	12080.062500	38.956043
507.170929	727.052063	29890.720703	12115.653320	39.050648
507.521729	724.228577	30003.662109	12130.661133	38.957150
507.872498	717.541321	30024.615234	12180.073242	39.111828
508.223236	715.609436	30204.505859	12238.104492	39.074013
508.573883	721.182190	30367.078125	12346.957031	39.215458
508.924500	721.330811	30643.931641	12458.858398	39.226292
509.275116	718.804504	30864.755859	12571.872070	39.318935
509.625702	714.643555	31117.384766	12650.708008	39.259827
509.976196	713.529053	31398.396484	12739.721680	39.192585
510.326660	709.591003	31703.335938	12841.739258	39.143864
510.677124	709.293762	31969.787109	12952.153320	39.163998
511.027557	716.946960	32206.216797	13054.765625	39.181023
511.377869	725.194580	32419.984375	13158.938477	39.229618
511.728180	728.092346	32540.281250	13239.481445	39.328915
512.078430	722.445313	32707.462891	13286.589844	39.281342
512.428650	719.473145	32818.250000	13301.301758	39.197220
512.778931	720.439148	32962.394531	13307.022461	39.037903
513.129028	720.439270	33027.480469	13368.098633	39.148304
513.479126	725.937683	33109.511719	13410.452148	39.169594
513.829285	726.160583	33059.660156	13436.234375	39.309307
514.179382	720.959290	33005.937500	13397.375000	39.264130
514.529297	720.810730	32893.371094	13368.471680	39.311951
514.879272	720.141907	32923.980469	13381.696289	39.316914
515.229187	723.188416	32822.335938	13328.050781	39.268524
515.579163	720.884949	32872.863281	13373.375000	39.352135
515.928955	717.541321	32872.417969	13376.570313	39.368923
516.278748	723.708496	33100.824219	13475.541992	39.385330
516.628540	724.525879	33323.808594	13558.539063	39.369007
516.978333	724.600098	33822.820313	13734.190430	39.306011
517.327942	716.798340	34424.226563	13974.708008	39.332310
517.677612	714.420654	35120.074219	14207.051758	39.216320
518.027222	710.482605	35822.089844	14453.663086	39.141418
518.376831	719.621887	36599.812500	14770.414063	39.160305
518.726379	724.154297	37368.250000	15069.112305	39.146713
519.075867	725.714661	37949.222656	15330.359375	39.235004
519.425293	718.655945	38340.503906	15502.222656	39.295162
519.774658	709.219482	38528.488281	15635.223633	39.466663
520.124084	712.191589	38532.054688	15693.402344	39.612019
520.473389	710.036804	38263.597656	15625.713867	39.718407
520.822693	715.832458	37838.136719	15460.166992	39.718266
521.171997	717.392761	37315.046875	15243.128906	39.690350
521.521240	714.420654	36834.757813	15026.461914	39.623222
521.870361	712.711731	36416.359375	14867.083008	39.644047
522.219482	712.637390	36087.121094	14686.304688	39.502110
522.568604	719.250305	35809.453125	14588.002930	39.523148
522.917664	725.120300	35647.250000	14500.176758	39.445065
523.266724	723.782776	35697.699219	14544.906250	39.518372
523.615662	726.680664	35967.273438	14654.502930	39.522099
523.964600	719.101746	36424.828125	14834.613281	39.532906
524.313538	717.838623	37061.300781	15061.680664	39.467461
524.662354	712.265930	37867.042969	15347.821289	39.390778
525.011169	713.083252	38835.507813	15759.383789	39.468372
525.359985	712.191589	39949.082031	16223.403320	39.532215
525.708740	716.278259	41271.371094	16740.923828	39.513275
526.057434	722.148132	42709.203125	17310.677734	39.508675
526.406067	721.256531	44321.425781	18002.658203	39.636089
526.754700	721.999512	46041.156250	18767.603516	39.818932
527.103333	718.432922	48001.859375	19642.443359	40.022503
527.451782	719.696106	50066.878906	20652.367188	40.392723
527.800293	713.603333	52082.125000	21720.544922	40.894581
528.148743	717.392822	53977.953125	22826.017578	41.510315
528.497131	715.981140	55621.011719	23891.146484	42.209549
528.845642	715.981018	56983.863281	24893.195313	42.968056
529.193909	708.847961	58000.253906	25779.476563	43.759842
529.542175	715.906738	58685.261719	26446.568359	44.386662
529.890503	715.089355	58954.082031	26782.490234	44.759361
530.238770	717.541443	58718.019531	26735.755859	44.858624
530.586914	708.253601	58034.957031	26273.517578	44.595734
530.934998	710.482605	56889.652344	25498.093750	44.122425
531.283142	708.030579	55545.816406	24522.201172	43.426571
531.631226	710.854065	53913.386719	23433.218750	42.709179
531.979248	715.609558	52269.437500	22354.939453	41.974243
532.327148	717.615723	50780.781250	21426.304688	41.365124
532.675110	723.262695	49757.855469	20782.099609	40.907520
533.023071	720.587708	49288.707031	20426.783203	40.574341
533.370850	719.844727	49169.597656	20277.806641	40.367512
533.718689	709.368103	49345.105469	20320.976563	40.323452
534.066467	707.659119	49523.503906	20441.943359	40.425983
534.414246	699.114319	49591.417969	20544.923828	40.590862
534.761963	702.383606	49478.550781	20550.943359	40.693153
535.109619	695.622070	49150.281250	20440.382813	40.748943
535.457153	701.863525	48531.042969	20155.431641	40.673012
535.804749	702.383606	47621.136719	19737.478516	40.570335
536.152344	707.882019	46682.761719	19320.044922	40.483330
536.499817	717.764343	45762.750000	18902.314453	40.369759
536.847229	719.324707	44896.378906	18477.970703	40.198803
537.194641	717.392761	44097.550781	18076.513672	40.016270
537.542114	716.055359	43454.312500	17794.757813	39.961159
537.889404	715.386536	42916.062500	17579.951172	39.962784
538.236694	719.027405	42415.265625	17371.158203	39.936771
538.583984	712.785950	41990.769531	17184.957031	39.905464
538.931213	716.575439	41769.941406	17079.521484	39.857746
539.278381	719.027527	41678.546875	17033.898438	39.831696
539.625488	726.754944	41737.027344	16999.867188	39.680576
539.972595	726.160461	42030.671875	17095.048828	39.629784
540.319641	723.262695	42706.972656	17339.134766	39.576946
540.666687	719.770508	43718.308594	17705.224609	39.502396
541.013611	713.900574	45117.058594	18232.400391	39.453278
541.360596	711.968689	46515.285156	18795.765625	39.481415
541.707458	708.550781	48012.707031	19474.521484	39.670872
542.054260	712.117249	49132.011719	20029.859375	39.896290
542.401062	703.423828	50047.566406	20586.312500	40.294327
542.747864	699.040039	50444.937500	20906.259766	40.620872
543.094666	704.612793	50370.261719	21006.494141	40.877110
543.441284	713.974915	49803.035156	20754.013672	40.823841
543.787903	719.993347	48842.222656	20329.298828	40.748951
544.134460	711.076965	47567.636719	19717.193359	40.562340
544.481079	711.671387	46077.125000	19025.361328	40.369244
544.827637	709.293762	44405.238281	18282.779297	40.217659
545.174072	713.900574	42727.855469	17560.037109	40.096527
545.520508	714.049133	41258.816406	16913.601563	39.954731
545.866943	714.123535	40042.628906	16380.480469	39.834614
546.213318	713.157532	39176.335938	15969.511719	39.664829
546.559631	711.002747	38463.324219	15684.635742	39.662815
546.905823	710.631165	37868.457031	15400.575195	39.533920
547.252136	710.928406	37340.460938	15165.557617	39.461681
547.598389	712.785950	36846.199219	14953.645508	39.411884
547.944458	712.488770	36396.449219	14788.174805	39.445412
548.290588	713.157532	35803.210938	14594.465820	39.559097
548.636658	724.154297	35114.500000	14319.769531	39.533234
548.982727	721.776672	34314.703125	14009.257813	39.554405
549.328735	723.485657	33538.839844	13691.019531	39.516666
549.674622	711.151367	32702.187500	13367.729492	39.562889
550.020569	719.027527	31925.205078	13066.801758	39.568367
550.366455	716.129639	31119.914063	12708.738281	39.444458
550.712280	718.358704	30409.951172	12424.976563	39.427383
551.058044	718.061523	29845.843750	12180.445313	39.352066
551.403748	713.677551	29362.726563	12003.308594	39.406651
551.749512	714.866516	29072.945313	11895.346680	39.426086
552.095154	711.448547	28836.587891	11789.909180	39.389889
552.440735	721.256531	28806.494141	11760.336914	39.305630
552.786316	719.696106	28797.208984	11724.968750	39.196037
553.131897	714.272034	28847.806641	11729.575195	39.153637
553.477417	706.916016	28809.099609	11732.844727	39.235130
553.822815	706.544617	28792.601563	11738.938477	39.280678
554.168213	706.693176	28719.041016	11722.963867	39.326481
554.513672	704.909973	28661.234375	11652.821289	39.160767
554.859009	705.207092	28434.091797	11590.109375	39.254742
555.204285	711.374207	28221.365234	11524.351563	39.305641
555.549500	713.008850	27934.478516	11471.225586	39.521072
555.894714	715.906677	27656.734375	11356.352539	39.495617
556.239990	716.575439	27318.734375	11198.534180	39.402664
556.585022	712.934631	27004.802734	11065.383789	39.375099
556.930115	706.841797	26723.865234	10927.032227	39.282703
557.275146	702.160706	26424.724609	10801.387695	39.262131
557.620178	701.417664	26187.921875	10702.639648	39.241245
557.965149	704.687012	25970.212891	10605.375977	39.186558
558.310059	710.408264	25789.880859	10550.540039	39.235802
558.654968	719.621887	25643.947266	10494.887695	39.219780
558.999756	718.358704	25536.953125	10458.331055	39.244659
559.344604	714.123535	25502.328125	10444.288086	39.253201
559.689331	715.609558	25410.416016	10399.631836	39.214813
560.033997	716.724060	25343.320313	10373.922852	39.214512
560.378723	725.491882	25332.398438	10342.344727	39.081924
560.723389	728.092346	25333.068359	10333.056641	39.036671
561.067932	732.179016	25375.494141	10308.983398	38.861675
561.412476	729.578430	25334.107422	10305.192383	38.918095
561.757019	723.188416	25346.070313	10296.796875	38.880939
562.101501	725.194580	25348.968750	10340.858398	39.050327
562.445862	714.494934	25381.365234	10328.226563	38.974262
562.790222	715.832458	25375.791016	10348.585938	39.062328
563.134644	703.646729	25356.919922	10332.461914	39.056946
563.478943	707.807800	25343.765625	10329.044922	39.053638
563.823181	707.064758	25330.318359	10315.745117	39.022789
564.167358	715.535217	25332.771484	10285.428711	38.874767
564.511536	718.135803	25392.283203	10313.663086	38.888992
564.855774	713.380432	25443.923828	10314.182617	38.821636
565.199768	714.643555	25620.693359	10372.659180	38.777790
565.543823	711.077087	25739.130859	10435.817383	38.855358
565.887817	714.049133	26004.021484	10523.643555	38.788475
566.231812	715.683777	26232.054688	10597.797852	38.728527
566.575745	715.758118	26479.708984	10648.249023	38.551895
566.919617	717.838562	26689.462891	10709.399414	38.471066
567.263428	719.324707	26796.533203	10780.210938	38.581150
567.607239	724.377197	26874.255859	10825.535156	38.627934
567.950989	721.479309	26844.830078	10845.597656	38.755051
568.294678	715.683777	26863.181641	10847.974609	38.750519
568.638367	711.894348	26767.482422	10811.492188	38.761734
568.981995	717.392761	26630.466797	10760.446289	38.756706
569.325623	718.135742	26399.533203	10689.709961	38.828003
569.669128	719.324646	26220.759766	10614.143555	38.801029
570.012573	715.683777	26058.115234	10563.543945	38.859177
570.356140	710.854187	26001.271484	10536.422852	38.850952
570.699524	707.956360	26001.343750	10517.328125	38.782360
571.042908	709.665283	26120.304688	10533.971680	38.662178
571.386230	711.597168	26245.875000	10522.231445	38.421432
571.729492	714.643555	26380.437500	10563.692383	38.374226
572.072815	711.894348	26565.750000	10631.605469	38.368401
572.416016	718.581604	26709.375000	10695.133789	38.384945
572.759094	727.200745	26907.914063	10760.297852	38.322472
573.102234	733.888000	26963.787109	10747.145508	38.174976
573.445374	731.956055	26925.820313	10755.616211	38.267208
573.788391	716.872620	26871.875000	10739.343750	38.319519
574.131409	712.785950	26863.626953	10747.591797	38.372784
574.474365	707.064697	26857.537109	10732.360352	38.336960
574.817261	719.473206	26720.373047	10679.456055	38.306297
575.160156	715.758057	26474.208984	10592.151367	38.342342
575.502930	715.163757	26244.982422	10475.346680	38.230522
575.845703	715.906738	26019.474609	10401.934570	38.279293
576.188477	723.114075	25790.400391	10294.790039	38.183933
576.531250	729.949951	25530.712891	10199.459961	38.182331
576.873901	726.977844	25268.943359	10063.486328	38.043037
577.216431	719.101746	24958.656250	9943.859375	38.056629
577.559082	722.445374	24624.666016	9834.559570	38.122459
577.901611	719.473206	24233.833984	9705.124023	38.213459
578.244080	724.971619	23860.906250	9569.595703	38.228943
578.586487	722.519592	23509.603516	9435.850586	38.238026
578.928955	754.692688	23162.906250	9318.823242	38.218716
579.271301	756.847595	22834.341797	9174.157227	38.126202
579.613647	757.442078	22477.984375	9004.300781	37.968014
579.955872	724.228699	22133.740234	8845.739258	37.934124
580.298157	714.197754	21823.750000	8727.002930	37.958195
580.640320	705.429993	21531.666016	8634.719727	38.073559
580.982483	703.349609	21311.802734	8544.738281	38.049381
581.324524	701.937805	21059.841797	8464.417969	38.130054
581.666626	705.429993	20879.138672	8388.182617	38.082993
582.008728	711.968689	20757.429688	8348.504883	38.096085
582.350647	723.039795	20665.443359	8307.862305	38.033642
582.692566	722.891174	20586.089844	8266.326172	37.976940
583.034424	723.857117	20466.166016	8212.307617	37.930977
583.376343	721.107910	20331.156250	8163.193848	37.950371
583.718201	720.885010	20213.609375	8141.869141	38.070534
584.059937	714.272156	20121.474609	8085.919434	37.984081
584.401611	702.309326	20058.242188	8047.504395	37.948029
584.743347	703.126648	19966.626953	7994.526855	37.850861
585.085022	704.092590	19851.384766	7961.238770	37.901680
585.426514	709.591003	19777.527344	7907.443848	37.748466
585.768127	709.591003	19719.496094	7867.691895	37.654587
586.109619	707.287598	19674.320313	7840.571777	37.608856
586.451172	713.008972	19619.335938	7834.998535	37.669876
586.792542	712.711670	19595.857422	7839.531250	37.741695
587.133850	711.522888	19558.035156	7830.317871	37.772480
587.475220	711.968689	19549.935547	7825.191406	37.760033
587.816589	711.894348	19509.220703	7799.482422	37.705299
588.157776	717.764221	19567.548828	7797.029785	37.556213
588.498962	712.117249	19618.146484	7791.754395	37.446453
588.840210	706.173035	19696.462891	7786.404785	37.283436
589.181335	706.693176	19749.884766	7799.259277	37.244629
589.522400	712.785950	19800.708984	7817.463379	37.220795
589.863403	718.953125	19904.361328	7849.339355	37.165672
590.204407	711.894348	19881.847656	7863.159668	37.304550
590.545410	717.244202	19936.535156	7895.406738	37.348740
590.886353	717.764343	19892.695313	7876.831543	37.335556
591.227112	722.965515	19907.853516	7850.528809	37.151966
591.567932	715.015137	19817.054688	7795.098145	37.064541
591.908752	710.631165	19715.705078	7753.488770	37.057774
592.249512	718.581604	19642.667969	7732.535645	37.063633
592.590149	717.318542	19544.142578	7690.777344	37.040016
592.930786	726.160461	19485.964844	7657.489746	36.947769
593.271423	722.222412	19379.710938	7618.406250	36.962013
593.612000	723.188293	19322.349609	7595.001465	36.946896
593.952576	721.776611	19306.152344	7579.992188	36.903130
594.292969	722.073914	19360.763672	7587.719238	36.835453
594.633484	727.720886	19401.185547	7615.435059	36.885036
594.973877	731.510315	19497.033203	7653.328125	36.885822
595.314209	729.801270	19635.681641	7699.173340	36.863514
595.654480	724.748779	19882.070313	7758.392578	36.715172
595.994812	722.519714	20105.572266	7827.717285	36.656754
596.335022	718.210144	20336.580078	7893.326660	36.573463
596.675171	720.513489	20488.974609	7942.218750	36.531448
597.015320	716.501160	20694.496094	8004.855469	36.481915
597.355408	716.055359	20801.343750	8027.666016	36.402817
597.695496	715.089417	20921.939453	8057.461426	36.336056
598.035461	713.231873	20879.138672	8030.860840	36.287132
598.375366	720.587830	20811.302734	8017.412109	36.319386
598.715271	715.163635	20687.511719	7971.195313	36.330391
599.055176	718.581604	20439.191406	7931.220703	36.574120
599.395081	713.528992	20216.431641	7835.369629	36.516827
599.734802	717.021179	19884.003906	7703.037598	36.448181
600.074524	715.832336	19544.812500	7548.636719	36.288765
600.414246	716.426758	19109.990234	7404.860840	36.362907
600.753906	722.148132	18699.988281	7274.979980	36.449497
601.093506	721.330811	18371.720703	7155.277344	36.452148
601.433044	723.188477	18151.337891	7083.353027	36.493633
601.772583	715.758118	18045.603516	7018.560547	36.369640
602.112122	717.912903	18054.669922	7003.402832	36.255280
602.451538	713.677673	18112.998047	6982.597656	36.029682
602.790894	718.655945	18248.451172	7038.845215	36.053986
603.130310	716.278137	18447.136719	7079.935059	35.890289
603.469604	718.210144	18679.703125	7164.564941	35.889862
603.808838	717.615662	18995.267578	7232.181152	35.642242
604.148010	716.575378	19287.126953	7348.093750	35.709866
604.487305	722.148132	19605.515625	7439.931641	35.575138
604.826416	722.742493	19826.640625	7529.466309	35.630024
605.165527	724.302917	20022.056641	7582.370605	35.538166
605.504456	719.696228	20164.048828	7626.877441	35.522812
605.843445	714.420654	20211.677734	7655.632813	35.600964
606.182434	708.327820	20186.341797	7656.821777	35.673527
606.521423	704.241211	20065.599609	7640.548828	35.825520
606.860229	708.699402	19863.941406	7566.022949	35.798679
607.199036	717.021301	19597.119141	7467.349121	35.753670
607.537903	720.216309	19306.744141	7347.053223	35.653980
607.876648	719.398926	18996.603516	7207.140625	35.496357
608.215271	721.627991	18729.486328	7107.129395	35.459530
608.553955	718.432922	18435.917969	7006.003906	35.487942
608.892578	719.919006	18237.083984	6937.645020	35.495049
609.231140	711.299988	18116.341797	6877.757324	35.429146
609.569641	717.095520	18070.943359	6823.292969	35.186417
609.908081	710.928406	18107.423828	6821.583984	35.125786
610.246521	710.556946	18099.994141	6807.318359	35.060139
610.584961	711.448547	18114.556641	6808.804688	35.036018
610.923340	715.386536	18035.794922	6777.671387	35.000820
611.261597	717.615723	17922.187500	6751.888184	35.073654
611.599854	712.042969	17786.955078	6706.043457	35.104137
611.938110	710.779846	17613.236328	6677.362793	35.300095
612.276245	713.231750	17397.685547	6596.669922	35.262997
612.614319	708.327820	17084.349609	6503.048340	35.385399
612.952393	704.389832	16740.478516	6369.526855	35.327423
613.290466	703.126648	16393.632813	6247.818359	35.337879
613.628479	710.705566	16077.028320	6124.921875	35.234303
613.966370	725.045959	15807.903320	6037.986816	35.225029
614.304260	731.584656	15551.484375	5940.353516	35.147129
614.642151	726.680664	15353.542969	5871.549316	35.174110
614.979980	716.129578	15188.813477	5773.989746	34.947632
615.317749	712.711670	15013.014648	5731.711426	35.097160
615.655396	718.507324	14886.921875	5682.746094	35.037365
615.993164	723.039795	14808.606445	5656.889160	35.027699
616.330811	723.188416	14811.653320	5631.031250	34.835896
616.668396	723.708496	14816.036133	5613.050781	34.695065
617.005859	722.593994	14780.520508	5604.876953	34.729752
617.343445	719.993408	14753.028320	5582.140625	34.647869
617.680908	717.690002	14720.707031	5575.378906	34.690304
618.018311	718.284485	14732.594727	5563.490234	34.573273
618.355652	721.405212	14777.918945	5580.654785	34.569378
618.692993	721.776672	14780.445313	5572.109863	34.500656
619.030273	717.838562	14764.469727	5579.242676	34.609043
619.367554	716.649719	14701.015625	5566.537109	34.680779
619.704712	711.820068	14653.463867	5566.685547	34.822762
620.041870	716.501160	14616.682617	5551.156250	34.781239
620.379028	713.454773	14577.823242	5512.741699	34.615982
620.716064	719.844727	14544.312500	5487.701660	34.488541
621.053040	716.501160	14506.937500	5442.451172	34.269764
621.389954	724.971680	14464.807617	5420.903809	34.177498
621.726929	722.148132	14394.815430	5383.752441	34.094334
622.063843	720.216309	14331.434570	5371.492676	34.172371
622.400635	710.036804	14279.719727	5341.696777	34.132412
622.737427	709.442383	14232.239258	5330.328613	34.171085
623.074219	710.259705	14149.319336	5291.914063	34.092075
623.410889	710.036804	14064.390625	5274.378906	34.178684
623.747559	710.631287	14016.019531	5244.732422	34.077179
624.084167	710.854187	14003.239258	5245.698730	34.116112
624.420715	711.374268	14033.926758	5242.131348	34.008175
624.757324	712.117371	14070.038086	5235.072754	33.859726
625.093750	719.473328	14142.629883	5234.106934	33.633175
625.430176	728.612549	14190.109375	5235.444336	33.479427
625.766602	732.104736	14273.700195	5261.004395	33.444355
626.102905	725.789001	14357.515625	5281.512207	33.420002
626.439209	720.513489	14493.043945	5313.090332	33.345917
626.775452	721.999512	14600.187500	5334.638184	33.236607
627.111694	722.296814	14689.424805	5345.189453	33.098377
627.447876	716.946960	14736.680664	5359.752441	33.116219
627.783997	719.919128	14795.975586	5376.544922	33.081894
628.120056	720.364929	14857.497070	5406.786133	33.149731
628.456055	723.188293	14849.695313	5411.466797	33.187809
628.792053	710.705505	14800.433594	5382.117676	33.154736
629.128052	707.510498	14686.453125	5341.622559	33.150665
629.463928	715.237976	14583.395508	5301.647949	33.071518
629.799744	717.318420	14459.754883	5253.722168	33.010185
630.135559	721.256531	14335.075195	5208.397949	32.960197
630.471375	712.488770	14201.553711	5152.447754	32.915249
630.807068	716.501160	14016.464844	5111.209473	33.043011
631.142700	712.117371	13857.828125	5066.702637	33.125523
631.478333	724.080078	13680.171875	5026.355957	33.206589
631.813965	723.336975	13577.114258	4981.923340	33.131012
632.149475	730.395752	13446.563477	4934.592285	33.061817
632.484924	717.689941	13356.285156	4889.564941	33.009007
632.820435	716.501160	13235.988281	4847.583984	32.997223
633.155884	717.764343	13154.924805	4808.574707	32.891834
633.491150	718.878906	13099.570313	4771.646484	32.734581
633.826477	721.107910	13025.117188	4746.755371	32.718174
634.161804	715.312317	12975.484375	4711.386719	32.593952
634.497009	715.237976	12886.765625	4690.507813	32.660400
634.832153	711.076965	12850.358398	4656.625488	32.502323
635.167297	715.758118	12783.262695	4640.501953	32.523243
635.502380	720.067688	12724.415039	4602.459473	32.341549
635.837463	722.816895	12604.639648	4563.227051	32.321728
636.172424	718.655945	12523.351563	4516.937012	32.176018
636.507324	712.042969	12401.421875	4466.634277	32.119682
636.842224	709.888184	12311.291992	4434.312500	32.103218
637.177124	710.408386	12153.473633	4400.504395	32.247444
637.511963	716.798340	12020.695313	4362.832520	32.254665
637.846741	723.708496	11893.338867	4310.895020	32.115532
638.181396	716.278259	11756.176758	4252.493164	32.031227
638.516113	723.114075	11668.350586	4216.159180	31.913839
638.850769	719.398926	11557.491211	4188.741699	32.010643
639.185303	729.429871	11488.984375	4159.837891	31.882435
639.519836	719.696106	11387.041992	4125.361328	31.926079
639.854370	712.414490	11286.731445	4077.807617	31.826103
640.188843	702.532227	11175.723633	4034.712158	31.816280
640.523254	704.241211	11081.656250	4013.833008	31.892256
640.857605	710.111145	10990.413086	3992.805420	31.931887
641.191895	719.250305	10925.546875	3964.124268	31.792864
641.526184	725.120300	10854.067383	3914.935791	31.492073
641.860413	724.228577	10796.557617	3895.617188	31.486151
642.194580	723.485596	10732.135742	3878.899170	31.526863
642.528748	714.494934	10677.077148	3855.494141	31.527964
642.862793	723.559875	10635.096680	3809.277588	31.132586
643.196838	720.662109	10561.313477	3786.987061	31.159777
643.530823	724.302917	10513.538086	3760.014893	31.010715
643.864746	717.169861	10447.481445	3749.760986	31.166433
644.198669	721.925232	10387.594727	3727.173096	31.091976
644.532532	717.912903	10331.125000	3724.646729	31.277100
644.866333	718.878845	10273.464844	3695.817383	31.157169
645.200073	711.448547	10264.475586	3675.904297	31.031586
645.533813	719.101746	10254.963867	3670.554688	30.951086
645.867554	717.615723	10248.648438	3671.594482	30.993269
646.201172	719.844727	10238.468750	3669.514404	30.988403
646.534729	721.033630	10208.598633	3663.421143	31.013092
646.868225	725.789001	10233.862305	3652.870361	30.785221
647.201782	729.058350	10222.716797	3648.783936	30.754484
647.535217	722.668274	10244.190430	3645.737549	30.699600
647.868591	721.776672	10247.163086	3654.505127	30.788551
648.201965	716.203918	10254.518555	3640.536377	30.658798
648.535278	718.953125	10242.036133	3614.975830	30.410559
648.868591	713.231873	10205.925781	3604.870850	30.461729
649.201782	722.148132	10175.385742	3593.205078	30.371151
649.534912	714.569275	10142.543945	3597.143311	30.574690
649.868103	713.083252	10101.604492	3576.561279	30.499777
650.201172	708.625000	10048.701172	3568.462646	30.618998
650.534180	716.946960	9991.264648	3542.679443	30.468361
650.867188	723.336975	9981.678711	3521.206055	30.219980
651.200134	730.098572	9975.065430	3503.224609	29.996061
651.533020	735.448303	9927.882813	3482.791748	29.887007
651.865845	732.847656	9877.282227	3459.906250	29.822058
652.198608	733.367859	9826.088867	3446.011719	29.833138
652.531433	725.788879	9820.813477	3433.900391	29.775747
652.864136	725.417480	9772.962891	3427.435791	29.864658
653.196777	859.905334	9894.967773	3548.846680	29.761183
653.529358	864.289246	9847.637695	3531.459961	29.690161
653.861938	861.317139	9801.941406	3512.215576	29.650038
654.194519	718.284424	9587.799805	3345.925781	29.625534
654.526978	717.021240	9519.367188	3325.790039	29.637199
654.859375	720.439209	9452.420898	3312.266846	29.682011
655.191833	719.696228	9413.188477	3305.059326	29.739061
655.524170	716.203918	9369.573242	3271.400391	29.528343
655.856445	716.203918	9357.833008	3225.183838	29.033646
656.188660	722.073792	9326.999023	3201.183838	28.810364
656.520874	722.222412	9286.056641	3193.679688	28.859238
656.853088	724.377197	9266.664063	3198.509033	28.963343
657.185181	727.572266	9264.062500	3193.976563	28.892487
657.517212	727.572266	9312.434570	3192.713623	28.714979
657.849243	727.943787	9350.551758	3200.366943	28.673725
658.181274	719.770447	9415.789063	3207.722900	28.610247
658.513123	711.448547	9457.621094	3226.967041	28.761364
658.844971	709.145203	9526.796875	3243.165283	28.738039
659.176819	708.625061	9612.467773	3260.700439	28.662630
659.508667	717.392761	9745.916992	3277.270264	28.353220
659.840393	716.501160	9832.702148	3291.164795	28.242723
660.172058	719.919006	9908.639648	3297.182861	28.048126
660.503662	718.581604	9926.249023	3291.313232	27.941189
660.835266	713.083252	9950.471680	3289.901611	27.895529
661.166931	710.705566	9893.928711	3285.517578	28.038218
661.498413	707.882080	9832.925781	3274.372314	28.125786
661.829773	721.479492	9718.202148	3234.991943	27.938089
662.161194	720.885010	9582.525391	3188.775635	27.849138
662.492615	723.857117	9416.978516	3145.159912	27.853088
662.823975	709.739563	9240.435547	3109.123047	28.126469
663.155212	713.008850	9061.291992	3071.748779	28.254192
663.486450	714.272034	8908.747070	3019.439697	28.130756
663.817627	726.160461	8766.012695	2962.449463	27.815052
664.148743	727.497986	8662.731445	2902.190186	27.405521
664.479858	728.018066	8542.881836	2859.614502	27.276182
664.810913	726.977844	8458.918945	2834.871826	27.262159
665.141907	720.290527	8380.528320	2819.490967	27.403854
665.472778	715.237976	8304.444336	2803.739014	27.519360
665.803711	705.281433	8267.069336	2781.819580	27.460939
666.134583	716.203918	8215.577148	2770.897217	27.398201
666.465454	718.358704	8200.717773	2748.903564	27.137764
666.796143	726.754883	8144.618652	2735.751953	27.083229
667.126831	719.770508	8107.838379	2721.634277	27.095903
667.457458	716.649719	8083.095703	2707.962646	27.032209
667.788147	714.420654	8039.034668	2701.200928	27.124708
668.118774	715.312256	8030.564453	2688.049561	26.967455
668.449219	726.309021	8005.227051	2685.820557	26.920368
668.779663	728.166687	8012.359863	2672.817627	26.696859
669.110107	723.634216	7989.548828	2654.613281	26.575857
669.440552	719.993408	7963.171387	2643.913818	26.561829
669.770874	713.751953	7959.084473	2628.755859	26.430862
670.101135	719.844727	7934.490234	2625.709717	26.416613
670.431396	723.485596	7935.901855	2605.350586	26.092020
670.761597	724.451477	7855.283691	2591.753174	26.186310
671.091797	725.640381	7805.574707	2577.561523	26.157320
671.421875	719.844727	7733.575684	2566.267334	26.325827
671.751892	725.045959	7703.854004	2552.595703	26.187134
672.081909	724.080017	7684.089844	2534.242920	26.008051
672.411865	720.513489	7635.273438	2524.955078	26.095507
672.741821	719.919128	7586.158691	2512.917969	26.113256
673.071716	718.953125	7531.398438	2504.373291	26.208212
673.401550	724.897400	7483.025879	2491.221436	26.136290
673.731262	726.086182	7463.931152	2469.376709	25.873117
674.060974	724.228699	7412.142090	2440.101318	25.656321
674.390625	726.829285	7386.507813	2426.652588	25.524103
674.720276	724.674500	7334.496094	2420.782715	25.660421
675.049927	725.417480	7271.858887	2412.609131	25.772654
675.379395	716.575439	7230.174316	2386.974854	25.644800
675.708923	713.751953	7175.042480	2363.569580	25.533871
676.038330	711.225647	7152.528809	2346.479736	25.387009
676.367737	717.392761	7102.597656	2330.133301	25.257458
676.697083	716.723938	7095.093262	2311.260254	24.999123
677.026428	718.210144	7080.083984	2302.121094	24.896923
677.355652	711.671448	7075.477051	2297.737305	24.923229
677.684875	715.832458	7059.799316	2307.322510	25.086670
678.013977	715.312256	7049.619629	2291.718750	24.886801
678.343079	720.067688	7053.408691	2283.916992	24.692329
678.672180	721.330811	7061.878906	2274.703369	24.499027
679.001221	721.033630	7102.150879	2278.938721	24.414299
679.330139	720.439209	7146.955566	2295.582520	24.510063
679.659058	721.256531	7184.479004	2301.823975	24.454788
679.987976	725.045898	7229.505859	2324.783447	24.594471
680.316772	725.045898	7270.372559	2310.145752	24.217276
680.645630	724.302917	7338.062500	2315.272705	24.055450
680.974304	715.906738	7375.882813	2317.501709	24.048059
681.302979	723.039856	7440.748535	2332.213867	23.954210
681.631653	722.296814	7458.655762	2341.427246	24.035690
681.960266	728.835449	7477.230957	2330.281982	23.730774
682.288757	716.575439	7460.364746	2322.182861	23.808683
682.617249	714.272034	7422.990234	2311.037354	23.801348
682.945679	717.689941	7392.600098	2306.802002	23.807243
683.274109	721.553711	7350.916504	2297.737305	23.775793
683.602478	724.600159	7318.224121	2280.127441	23.591387
683.930725	718.433044	7232.701172	2253.378662	23.562824
684.259033	723.114075	7137.073730	2229.453125	23.485323
684.587280	716.872742	7030.449219	2193.490479	23.387974
684.915344	721.330872	6965.730957	2176.846680	23.309139
685.243469	714.643555	6897.447266	2146.531250	23.159197
685.571533	718.061523	6826.636719	2133.082275	23.164497
685.899536	710.854187	6765.411621	2098.383057	22.917097
686.227539	715.535156	6705.226563	2095.782471	23.043713
686.555420	712.117249	6688.433594	2078.618652	22.865280
686.883301	717.095520	6658.117188	2081.516357	22.966099
687.211121	715.238037	6637.312500	2071.559814	22.902817
687.538940	719.696228	6627.505371	2069.999512	22.856243
687.866638	713.826355	6634.267090	2050.086426	22.570278
688.194336	710.556946	6642.736816	2037.974976	22.376564
688.521973	707.956299	6628.619629	2042.879028	22.546844
688.849609	721.850891	6619.406738	2048.154541	22.489040
689.177063	722.519714	6592.583496	2040.872925	22.458925
689.504578	727.943848	6541.239746	2019.399414	22.215548
689.832031	725.789001	6461.735840	1992.056030	22.075991
690.159485	730.618652	6366.331543	1970.582520	22.001900
690.486816	728.240967	6289.279785	1946.062500	21.899172
690.814087	722.148193	6196.995605	1937.592163	22.200508
691.141296	717.392822	6117.193848	1917.679077	22.228344
691.468506	712.191589	6017.183105	1895.388062	22.303457
691.795715	716.872620	5927.722656	1854.001587	21.822330
692.122803	724.748779	5846.286621	1837.357788	21.724119
692.449829	726.309082	5783.427246	1820.268188	21.632065
692.776855	723.188477	5728.740234	1810.757446	21.727255
693.103821	711.597168	5686.089844	1795.079468	21.780760
693.430664	712.860291	5622.709473	1770.188110	21.534834
693.757568	709.665283	5557.025879	1750.794922	21.478281
694.084351	718.507324	5500.036621	1726.646484	21.084032
694.411133	721.256531	5456.717285	1717.210083	21.031818
694.737854	724.005676	5438.959473	1716.987305	21.060263
695.064575	719.398926	5414.587891	1704.950195	20.990662
695.391174	717.392761	5398.315918	1698.040039	20.949869
695.717773	715.535156	5369.857910	1686.151733	20.854088
696.044250	714.717957	5357.746094	1688.232056	20.967222
696.370789	717.021301	5388.953613	1684.591431	20.710278
696.697205	719.101746	5394.674805	1681.024902	20.573374
697.023621	718.953125	5455.825684	1686.894653	20.434189
697.349915	712.414490	5499.738770	1701.755249	20.665840
697.676208	709.739563	5604.431152	1729.172852	20.827326
698.002380	714.123352	5689.507813	1744.182129	20.703100
698.328674	712.117249	5817.902832	1754.658813	20.418827
698.654724	711.077087	5949.047363	1769.519409	20.207109
698.980896	709.591003	6063.622559	1785.271484	20.091036
699.306946	724.154297	6143.349121	1800.652222	19.864536
699.632935	726.532043	6175.744629	1797.680054	19.656931
699.958862	723.262695	6194.246582	1796.193970	19.611303
700.284729	721.330811	6202.939941	1794.931030	19.585493
700.610596	724.971619	6187.930176	1780.070313	19.313686
700.936340	729.949951	6082.569824	1770.039429	19.431408
701.262146	716.129639	5922.893066	1746.856934	19.795931
701.587830	712.488770	5755.563965	1720.553833	19.989094
701.913513	705.281433	5609.632813	1674.634766	19.765167
702.239075	711.151367	5483.466309	1630.796021	19.270411
702.564697	708.625000	5341.474121	1609.396851	19.443151
702.890137	716.203918	5219.914551	1576.629395	19.104813
703.215698	717.169922	5097.464355	1564.369507	19.341156
703.541016	718.061523	4984.449219	1538.883667	19.239277
703.866455	715.237976	4894.543457	1516.815796	19.179689
704.191711	715.312317	4812.141113	1491.032593	18.934652
704.517029	713.157471	4767.856934	1470.599487	18.680595
704.842163	715.089355	4707.969238	1462.203247	18.711153
705.167419	712.265869	4657.889160	1441.546997	18.483294
705.492493	717.987122	4617.690918	1428.098267	18.209360
705.817566	710.631287	4581.431152	1430.624512	18.600632
706.142578	710.408264	4557.654297	1426.389282	18.610222
706.467590	704.464111	4540.787598	1418.810547	18.620600
706.792480	709.813904	4545.171875	1406.401855	18.162268
707.117371	709.145203	4547.995605	1405.287476	18.134134
707.442200	713.826233	4532.986328	1409.671265	18.219845
707.766907	716.278259	4515.599609	1416.655640	18.434277
708.091675	721.330811	4505.048340	1415.764038	18.353199
708.416321	716.426941	4506.014160	1416.506958	18.473780
708.741028	712.042969	4520.131836	1400.011841	18.065989
709.065552	707.807800	4544.057129	1393.770508	17.881077
709.390137	716.129639	4553.716309	1389.535278	17.547634
709.714600	718.655945	4581.951660	1403.504028	17.727043
710.039063	721.405090	4610.483887	1404.321411	17.559847
710.363403	722.519714	4664.725098	1398.525757	17.147915
710.687744	727.423645	4708.117676	1394.884888	16.767458
711.012085	727.497864	4760.574707	1394.216187	16.531258
711.336304	724.600098	4806.122559	1399.566040	16.537111
711.660461	714.792175	4848.995605	1393.844727	16.425232
711.984619	711.374268	4869.057129	1398.748657	16.532633
712.308716	703.275208	4860.884277	1402.315430	16.813517
712.632751	707.956360	4854.865723	1399.194702	16.668760
712.956726	713.974854	4835.175293	1401.869507	16.691610
713.280701	715.832458	4804.339844	1399.268921	16.716038
713.604553	711.820068	4740.588379	1396.816772	17.002634
713.928467	713.751953	4673.641602	1374.526001	16.686678
714.252258	713.380432	4611.598145	1362.786255	16.659044
714.575989	716.352539	4556.540527	1347.925659	16.446411
714.899719	710.854065	4492.045410	1342.278687	16.699091
715.223267	715.237976	4452.516113	1324.668945	16.306814
715.546936	711.820068	4422.720703	1314.415161	16.238514
715.870422	715.906738	4399.092285	1310.179932	16.134762
716.193970	717.689941	4367.587891	1293.164673	15.766871
716.517395	728.092346	4332.889160	1290.341064	15.597238
716.840820	721.776611	4310.523926	1272.805664	15.354357
717.164124	720.142029	4271.960449	1273.771484	15.587212
717.487488	712.860352	4246.251953	1258.539551	15.443497
717.810730	715.981018	4194.239746	1258.539551	15.598567
718.133972	709.962463	4152.556152	1251.777954	15.738584
718.457092	707.807678	4081.522705	1245.387817	15.934367
718.780212	706.990417	4029.956787	1236.322998	15.929520
719.103210	708.996582	3973.337891	1228.000977	15.899207
719.426208	719.919128	3930.019531	1216.929932	15.482718
719.749207	720.290588	3875.035400	1192.855957	14.979511
720.072083	726.309082	3835.209229	1178.812622	14.555100
720.394958	717.021240	3775.172852	1168.113159	14.750476
720.717773	720.736328	3715.953857	1161.574463	14.718067
721.040527	720.587830	3670.182861	1149.686157	14.547704
721.363281	723.485596	3638.009766	1137.426147	14.202681
721.685913	718.433044	3628.573486	1132.670776	14.234287
722.008545	717.541321	3598.778076	1131.704712	14.374500
722.331055	715.609558	3575.223877	1130.813110	14.519565
722.653503	714.643555	3557.837158	1126.057617	14.470139
722.976013	707.287598	3547.955078	1117.735718	14.449002
723.298401	710.482666	3536.438232	1111.271484	14.182418
723.620789	713.231873	3505.899658	1116.844238	14.452574
723.943115	726.160461	3480.562500	1110.454224	13.951984
724.265381	726.754883	3463.324219	1107.407837	13.909860
724.587585	725.343079	3467.782227	1103.841187	13.801513
724.909790	715.163635	3465.181641	1106.590454	14.233609
725.231873	713.974854	3472.463135	1113.946411	14.499665
725.553894	716.203918	3470.308594	1101.835083	14.002051
725.875916	767.324158	3529.379639	1143.147461	13.606653
726.197937	772.599609	3524.252686	1137.797607	13.271949
726.519775	770.667786	3536.438232	1145.004883	13.534640
726.841675	721.479431	3509.466064	1103.692627	13.709291
727.163513	718.358704	3540.821533	1100.423340	13.536569
727.485291	721.479431	3564.895752	1092.695923	13.055299
727.806946	720.513489	3574.852539	1094.182007	13.091245
728.128662	718.581604	3603.756592	1092.249878	12.951321
728.450256	716.575439	3619.583008	1089.575073	12.848731
728.771790	722.593994	3635.112305	1093.290161	12.727685
729.093323	715.015137	3629.093506	1097.599731	13.128837
729.414795	711.894348	3635.186279	1108.225098	13.557686
729.736145	705.727234	3620.697266	1098.788574	13.484233
730.057495	707.287598	3602.641602	1098.342896	13.506304
730.378845	709.665283	3596.771729	1094.256226	13.320982
730.700134	710.036865	3601.973389	1086.603027	13.021246
731.021301	716.872742	3615.273193	1084.225220	12.674318
731.342468	722.222412	3621.737549	1083.928101	12.474695
731.663574	730.544373	3629.316406	1089.797974	12.393303
731.984680	729.355469	3637.712891	1085.042603	12.229829
732.305664	725.714661	3642.988281	1081.327393	12.189899
732.626648	718.210144	3657.774658	1079.544189	12.292094
732.947571	715.906738	3669.885742	1073.748657	12.113895
733.268433	719.250305	3672.486328	1065.723999	11.732001
733.589233	726.383484	3667.136719	1060.225464	11.352262
733.909973	724.897400	3635.260742	1067.284302	11.764404
734.230713	718.655945	3597.143311	1072.188110	12.281874
734.551331	710.408386	3550.852539	1064.832153	12.477759
734.871948	718.730225	3513.701172	1053.166748	11.965653
735.192505	721.033630	3472.760498	1036.225708	11.454337
735.513062	716.798340	3425.578125	1036.820190	11.814244
735.833435	706.841797	3382.854248	1023.371399	11.828405
736.153931	706.395935	3337.604248	1016.535461	11.786963
736.474304	712.488770	3297.703369	1007.173340	11.398844
736.794617	720.290588	3246.657471	1009.922607	11.464369
737.114807	720.513489	3221.617188	1003.904053	11.330620
737.434998	714.717834	3205.270752	996.399475	11.310004
737.755188	711.597168	3215.821533	991.792725	11.188916
738.075256	713.603333	3215.004639	997.811218	11.361946
738.395325	714.420715	3229.493408	1000.188904	11.362224
738.715271	716.426941	3248.366455	1003.383850	11.333483
739.035278	708.253601	3268.279297	1009.625305	11.772214
739.355164	710.631287	3291.759033	1012.523193	11.696124
739.675049	703.275208	3291.684814	1007.619141	11.757951
739.994873	714.049133	3296.440186	998.777100	11.025749
740.314636	716.426819	3274.446533	987.408875	10.593431
740.634277	725.566101	3255.276367	983.470886	10.195033
740.953979	726.383362	3211.289063	982.876404	10.322043
741.273499	736.785828	3173.989258	975.520447	9.795433
741.593140	732.773438	3140.776123	965.861084	9.679708
741.912598	725.194580	3102.584717	959.396790	9.851232
742.232117	717.392761	3067.662109	957.316223	10.208340
742.551453	719.176025	3034.151611	954.344177	10.158559
742.870850	726.754883	3007.328125	954.195496	9.972958
743.190063	717.541321	2961.260498	949.737366	10.348712
743.509338	711.151367	2927.601563	951.149170	10.828026
743.828552	702.235046	2911.106201	941.341248	10.824815
744.147705	705.801514	2895.577148	935.322693	10.481493
744.466797	714.866394	2866.896240	923.062683	9.674415
744.785828	716.946960	2826.698486	932.053284	10.195813
745.104858	722.593933	2808.717041	937.625977	10.307735
745.423706	704.909912	2787.318115	944.387512	11.500031
745.742615	706.247314	2771.194336	927.892334	10.733690
746.061401	703.126648	2748.903564	925.217468	10.856063
746.380249	713.380432	2740.656006	918.901794	10.137811
746.698975	710.631287	2726.389648	914.517883	10.114635
747.017639	715.535156	2717.027344	906.864746	9.559347
747.336304	717.615662	2705.287598	900.697571	9.210872
747.654907	721.256531	2700.383789	897.502502	8.905237
747.973389	721.182190	2704.916260	898.914246	8.959470
748.291931	720.142029	2701.944092	897.948425	8.971955
748.610352	721.628113	2703.207275	903.372498	9.171695
748.928711	711.968689	2704.990479	896.090820	9.238340
749.247070	706.693176	2697.486084	896.388000	9.528606
749.565308	700.228821	2705.733643	888.586243	9.392020
749.883545	709.070862	2690.947266	896.982483	9.481501
750.201782	722.816895	2682.031006	889.106384	8.487561
750.519836	726.531982	2658.031006	893.713135	8.655513
750.837952	726.977844	2651.121094	882.493469	8.082331
751.155884	721.256592	2644.730957	900.400391	9.313553
751.473877	728.241028	2636.483398	888.883484	8.418346
751.791809	731.138855	2623.480469	892.821533	8.544054
752.109619	727.497986	2620.582764	879.595520	8.034375
752.427490	721.182190	2598.143311	889.775085	8.982226
752.745300	718.804504	2588.855469	890.072266	9.158454
753.062988	719.027405	2578.081543	888.809082	9.132691
753.380615	720.067688	2584.768799	888.660583	9.041283
753.698303	715.535156	2577.561279	880.338623	8.850760
754.015808	720.810608	2562.180664	879.298401	8.607058
754.333374	721.702332	2548.137451	864.735046	7.831251
754.650757	716.575439	2547.394531	866.072510	8.165584
754.968262	718.507324	2554.676025	867.335632	8.105372
755.285583	714.346375	2567.456299	877.217957	8.789095
755.602905	724.154297	2569.239502	882.270508	8.569589
755.920105	722.668274	2563.518311	873.279846	8.181631
756.237305	728.612488	2543.605225	865.478088	7.540835
756.554443	722.668274	2527.853027	866.964172	7.993414
756.871582	724.228577	2528.373291	868.970276	8.022732
757.188599	722.371033	2535.951904	867.187012	7.985085
757.505615	719.547546	2535.580322	860.648376	7.769730
757.822510	717.541321	2547.394287	868.004333	8.222683
758.139465	713.974854	2563.443604	872.759766	8.585434
758.456238	715.683777	2593.684814	874.320068	8.447083
758.773010	712.488770	2610.180420	872.165344	8.414253
759.089783	712.860291	2614.267090	872.462585	8.393906
759.406433	714.123474	2615.901611	863.174744	7.837469
759.723145	718.804504	2616.793213	863.174744	7.606485
760.039673	719.993347	2628.458740	863.620605	7.525799
760.356201	723.931458	2638.489990	863.992004	7.315553
760.672668	715.312317	2637.672363	859.088074	7.479127
760.989136	722.445313	2629.350342	862.951721	7.368296
761.305481	716.055359	2635.220215	864.214905	7.720001
761.621826	717.244141	2650.526611	862.803223	7.529116
761.938049	713.157532	2659.814453	856.115967	7.343792
762.254333	722.296692	2681.882324	860.797058	7.067839
762.570496	730.841553	2713.906982	869.118958	6.972912
762.886597	729.058289	2816.593506	876.474854	7.061752
763.202637	726.309082	2934.883057	881.824707	7.041450
763.518677	724.971680	3101.766846	882.716309	6.636863
763.834656	721.479492	3263.152588	891.929871	6.706227
764.150574	718.210144	3404.253662	904.041260	6.918396
764.466370	712.563171	3487.546875	910.431213	7.130422
764.782288	718.507324	3513.255615	909.911133	6.848696
765.097961	723.039795	3491.856445	909.762512	6.743773
765.413696	724.971680	3425.949951	904.784241	6.657312
765.729309	724.154297	3314.050049	898.988586	6.750630
766.044861	724.897278	3179.784912	885.168274	6.528649
766.360474	722.148132	3030.882080	880.264343	6.848611
766.675903	718.730225	2884.951904	868.598816	6.918433
766.991394	715.758118	2770.674072	867.112793	7.365492
767.306763	712.860352	2676.384033	854.332703	7.205024
767.622131	713.380432	2601.115479	848.462830	7.155792
767.937378	708.625061	2516.930420	833.973816	6.931835
768.252625	708.550720	2457.339600	836.277161	7.303709
768.567810	702.309326	2409.488525	833.602295	7.690638
768.882996	700.080261	2374.194824	829.144043	7.709376
769.197998	709.219482	2327.235596	816.735535	6.644931
769.513062	715.386536	2300.040771	812.425964	6.123697
769.828064	725.566101	2265.935791	817.255676	5.952440
770.142944	721.182190	2251.818359	817.478516	6.291261
770.457825	722.073792	2221.577148	815.546692	6.233590
770.772705	719.473328	2191.855957	803.658264	5.717599
771.087402	718.804504	2160.426025	806.630371	6.092158
771.402100	718.878845	2129.070068	804.252686	6.054061
771.716736	718.210144	2110.123047	803.806885	6.149576
772.031372	721.925232	2092.141846	797.193848	5.493191
772.345947	718.804504	2081.367920	792.587158	5.414989
772.660461	715.906738	2072.154297	789.912292	5.456641
772.974854	716.055359	2058.631104	793.478760	5.766781
773.289246	714.569275	2037.677734	792.661438	5.902174
773.603638	716.203857	2022.148560	792.438477	5.837507
773.917908	709.293762	2000.749390	791.472473	6.363263
774.232178	712.563049	1989.455444	784.190918	5.609547
774.546265	711.820068	1975.189087	789.986511	6.187142
774.860474	720.216248	1961.145996	783.447937	5.095510
775.174561	719.696106	1947.771484	792.215637	5.905137
775.488586	720.439148	1931.870728	795.484863	6.194796
775.802551	715.906738	1927.115356	799.423035	6.895286
776.116516	718.507324	1913.889282	797.788269	6.632269
776.430359	714.717834	1903.635620	786.419983	6.030876
776.744202	711.968689	1891.004272	780.921570	5.848244
777.057922	715.906738	1889.889648	774.828796	5.018988
777.371704	719.176025	1890.335571	776.091980	4.859795
777.685303	723.708496	1875.400757	775.497559	4.496779
777.998962	716.055359	1861.729004	778.692566	5.467282
778.312500	714.197754	1853.927124	775.051758	5.339338
778.626038	717.764343	1852.441040	772.302490	4.806492
778.939453	720.216309	1855.561646	775.051758	4.829848
779.252869	731.510254	1853.332642	776.834961	4.040275
779.566223	727.646545	1851.549438	781.367371	4.779846
779.879578	726.011902	1843.227539	775.200256	4.402763
780.192749	713.008972	1838.695190	772.451111	5.280524
780.505920	713.529053	1835.723022	769.627625	4.999009
780.819031	715.163757	1826.360962	768.958801	4.841178
781.132141	722.445374	1821.159668	773.862793	4.679780
781.445190	723.485596	1810.014282	772.822571	4.540789
781.758118	725.045959	1803.624390	779.361267	5.035824
782.071045	720.810730	1779.847534	778.692444	5.465505
782.383911	714.420593	1757.036499	787.385925	6.998294
782.696838	718.284363	1744.850708	789.763672	6.962950
783.009583	715.312195	1728.875610	785.528381	6.927656
783.322266	720.810730	1730.584595	772.302490	5.099336
783.634888	713.454773	1711.340332	757.293274	4.393139
783.947510	715.832458	1707.773804	759.893860	4.441936
784.260132	712.340271	1697.817017	762.271667	5.066725
784.572571	707.064697	1708.145386	763.460449	5.633487
784.885010	707.882019	1696.033813	755.510071	4.819912
785.197449	710.111084	1690.089722	753.429626	4.420356
785.509766	723.039795	1672.034180	755.732971	3.445034
785.822083	720.587830	1672.405640	760.339783	4.176425
786.134277	718.804504	1652.418091	759.373840	4.345410
786.446533	711.002747	1654.275757	767.027039	5.939351
786.758606	717.244141	1650.337524	770.816406	5.741362
787.070740	721.479431	1660.294312	770.073425	5.176100
787.382690	727.943665	1667.947388	760.339783	3.446382
787.694641	725.640381	1680.133179	759.448059	3.541952
788.006653	723.188293	1705.767578	763.237549	4.075931
788.318481	720.959290	1727.092407	760.636963	3.943581
788.630310	717.689941	1766.918823	753.949707	3.455849
788.942017	711.745789	1792.255859	754.321228	3.940310
789.253784	707.213379	1801.840942	753.429504	4.222087
789.565430	701.120544	1793.816284	759.968262	5.385553
789.877014	708.179199	1792.255859	760.414063	4.818374
790.188538	704.761292	1779.773071	769.256042	5.999446
790.500061	720.364929	1759.859985	765.615234	4.353104
790.811462	720.067688	1734.151245	760.785583	4.015241
791.122925	719.176025	1706.213257	752.463684	3.372483
791.434204	715.163635	1673.965942	753.801086	4.029762
791.745483	713.751892	1653.681274	750.829041	3.944674
792.056702	725.120300	1639.415405	759.299561	3.738318
792.367920	722.519714	1622.474243	752.166504	3.294254
792.678955	721.405090	1592.753296	746.965332	2.933413
792.990112	717.838623	1583.762573	745.330566	3.174868
793.301086	723.262695	1575.440430	740.798157	2.057724
793.612122	724.674500	1572.542603	737.825989	1.551124
793.922974	717.615662	1553.001099	737.231628	2.348134
794.233826	708.402161	1553.001099	746.222229	4.477873
794.544556	711.002747	1556.419067	761.305664	5.950077
794.855286	718.507324	1558.945435	759.002258	4.818313
795.166016	723.336975	1563.329224	758.779480	4.219385
795.476624	718.135742	1568.159058	762.940369	5.270988
795.787292	713.900574	1584.059937	761.231445	5.439334
796.097778	703.944031	1604.195801	763.460449	6.611086
796.408264	701.863464	1619.873657	763.757629	6.742209
796.718689	705.652893	1635.180054	765.838135	6.474823
797.029053	709.739563	1634.659790	763.311829	5.792096
797.339355	719.993408	1641.272827	750.234558	3.282517
797.649658	720.439209	1637.780640	748.302673	3.037415
797.959839	725.194580	1624.703491	752.983826	3.089380
798.270020	714.643555	1607.093628	759.448059	5.020393
798.580078	708.476379	1592.381714	757.219055	5.514468
798.890137	708.625000	1577.595337	750.308899	4.796930
799.200195	712.711670	1560.951538	746.073547	3.933071
799.510071	716.946960	1545.050781	749.045715	3.876175
799.820007	721.330872	1541.261230	742.358582	2.564573
800.129883	717.318542	1535.242798	738.346191	2.570855
800.439575	717.838562	1534.499634	732.847839	1.837883
800.749329	713.083191	1531.601929	742.209900	3.558466
801.058960	722.668274	1517.484497	739.980774	2.178176
801.368591	726.903503	1505.521851	738.866211	1.536402
801.678162	729.875671	1487.763306	736.711426	0.901948
801.987671	715.980957	1484.494019	741.318176	3.296915
802.297119	706.544617	1480.110229	745.924988	5.090760
802.606506	702.829407	1475.800659	741.689758	5.027400
802.915894	709.739563	1466.067017	743.175781	4.420866
803.225159	716.055359	1454.475708	741.763977	3.481570
803.534424	712.785950	1441.249878	740.872498	3.855585
803.843628	716.501160	1443.776245	746.965332	4.188810
804.152771	716.055359	1439.169434	753.281006	5.147963
804.461792	720.885010	1456.853516	752.315002	4.270562
804.770874	718.804504	1455.813354	744.513245	3.488254
805.079773	714.123474	1465.175293	741.318298	3.620898
805.388733	713.231750	1466.438477	746.593750	4.429328
805.697571	712.340149	1480.481812	744.661865	4.207781
806.006470	714.792175	1493.336060	735.002441	2.595906
806.315125	711.671448	1498.908813	733.887939	2.822083
806.623901	714.940735	1499.800415	737.454590	2.868520
806.932495	717.467102	1496.902710	740.352356	2.936131
807.241150	727.869446	1487.911987	738.494812	1.397996
807.549622	728.389648	1471.045288	740.872375	1.680823
807.858154	724.525818	1462.649048	742.432800	2.426015
808.166565	714.940735	1455.664673	741.912659	3.641292
808.474915	707.659119	1453.361328	742.432800	4.663213
808.783264	711.820068	1444.147583	748.822815	5.052759
809.091492	712.934570	1439.243774	748.525635	4.900263
809.399719	720.364929	1433.522461	745.033386	3.459047
809.707825	729.355469	1415.689819	740.723816	1.656386
810.015930	735.448425	1397.336914	736.488586	0.157151
810.323975	737.751770	1378.538452	735.076843	-0.417444
810.632080	723.411316	1365.312622	743.250183	3.090641
810.939880	714.792175	1359.293945	751.200500	5.649065
811.247864	707.436218	1363.380737	756.030090	7.408229
811.555664	714.792175	1369.845093	748.748535	5.183758
811.863464	720.439148	1368.878906	744.290344	3.678244
812.171143	721.405090	1363.603394	735.894226	2.256178
812.478882	720.662109	1358.550903	733.367859	1.991844
812.786438	717.467041	1349.188721	734.928223	2.764062
813.094055	716.352478	1340.643921	742.061279	4.118077
813.401489	716.426819	1334.551147	740.723816	3.930762
813.708984	720.662109	1333.362305	739.312012	3.043887
814.016357	731.287415	1332.693726	737.751709	1.074863
814.323730	730.767273	1334.922729	739.014832	1.365139
814.630981	725.120300	1334.254028	742.729980	2.890938
814.938232	713.454773	1329.424194	742.135559	4.656203
815.245361	703.944031	1329.870117	745.033386	6.564570
815.552490	707.733398	1332.396362	736.414246	4.591412
815.859619	710.036804	1335.591431	733.293518	3.717775
816.166565	714.197754	1333.362305	731.287354	2.760106
816.473572	719.176025	1335.219849	735.299805	2.617311
816.780457	718.878845	1342.724487	734.556824	2.513118
817.087341	721.033630	1345.176514	729.801331	1.404758
817.394043	714.197754	1351.120728	726.977844	2.006536
817.700806	716.872742	1357.510742	721.553711	0.730673
818.007507	713.306152	1361.077271	723.485535	1.571447
818.314209	713.900574	1368.507446	721.776611	1.203171
818.620667	707.882019	1378.018188	729.727051	3.259790
818.927246	708.773682	1391.169922	728.538269	2.896351
819.233704	704.909912	1416.209839	736.414307	4.429130
819.540161	706.395996	1448.160034	740.649475	4.617840
819.846497	714.940735	1497.720093	740.575195	3.274800
820.152832	721.256531	1550.772095	736.414307	1.827305
820.458984	724.897400	1622.325562	741.541199	1.854611
820.765259	720.439148	1707.699585	743.621643	2.348164
821.071350	718.878723	1817.072876	755.435730	3.328829
821.377502	713.677551	1986.483276	747.782532	2.679512
821.683472	714.346375	2318.467773	757.516296	2.691188
821.989441	713.677673	2881.905273	763.014648	2.275452
822.295349	713.603333	3673.823486	789.763611	2.572791
822.601196	712.414551	4554.385254	809.230957	2.519967
822.907043	707.510498	5302.093750	828.846863	2.640857
823.212769	709.813904	5731.935059	836.054260	2.513686
823.518494	713.528992	5798.510254	842.741516	2.541062
823.824097	725.120300	5562.152832	838.134705	2.336441
824.129700	725.863342	5157.426270	832.561951	2.407697
824.435242	721.628113	4717.183105	818.741699	2.430541
824.740723	718.061523	4328.431152	806.630371	2.453180
825.046082	719.993347	3971.703857	791.992676	2.214199
825.351501	726.160461	3625.601563	791.695496	2.260264
825.656799	724.822998	3279.053467	784.265320	2.327211
825.962036	724.302917	2968.616455	777.355042	2.363847
826.267212	713.454773	2724.309326	768.958801	2.760221
826.572449	712.637451	2581.202393	766.283997	2.871002
826.877502	712.191589	2589.078369	767.992920	2.973079
827.182495	718.433044	2703.578857	761.751526	2.182131
827.487488	715.832458	2871.205811	762.568848	2.168366
827.792419	718.358704	2996.703125	761.082825	1.875227
828.097290	722.222473	3038.238281	768.141541	1.982675
828.402100	727.423645	2962.969971	764.500671	1.658522
828.706848	728.315247	2815.181641	756.847473	1.367228
829.011597	722.742615	2617.462158	749.937317	1.435289
829.316223	718.730286	2436.832031	750.754700	1.863942
829.620789	717.690002	2276.041016	752.166443	2.212367
829.925354	721.107910	2130.779053	747.708252	1.886989
830.229797	716.055359	1988.415039	742.284180	2.061431
830.534302	722.296692	1851.846680	741.615479	1.710308
830.838562	720.810730	1736.083130	740.946777	1.983315
831.142944	728.018066	1632.059204	738.717712	1.183535
831.447144	723.708496	1543.490356	733.070740	1.142041
831.751404	723.782776	1481.967773	729.726990	0.784006
832.055542	717.467102	1443.404785	731.733154	1.965190
832.359619	709.219482	1432.482056	730.024170	2.876505
832.663635	708.996582	1436.643188	735.299622	3.614810
832.967651	710.333984	1474.389038	737.974609	3.617622
833.271545	716.501160	1550.920776	740.649597	2.894040
833.575439	714.123474	1668.393188	735.596985	2.250256
833.879211	713.603333	1814.918335	733.442200	1.801380
834.183044	708.179260	1944.576660	739.906494	2.566103
834.486694	703.275330	2039.609741	740.723877	2.802333
834.790344	705.207092	2069.553711	745.479187	2.951749
835.093933	710.185364	2056.773682	739.163391	2.151959
835.397522	719.324646	2002.829712	733.962341	1.140447
835.700928	722.148132	1941.604370	727.497986	0.438708
836.004395	715.312317	1856.824829	726.234802	0.956843
836.307739	713.083191	1772.342773	732.699158	1.851857
836.611023	715.089355	1688.232056	729.801270	1.511794
836.914307	721.479492	1620.616699	735.596985	1.570115
837.217529	720.364929	1545.125122	735.151184	1.792794
837.520691	713.008972	1466.587280	741.987000	3.845390
837.823730	710.631165	1384.779785	742.209900	4.684239
838.126831	705.875793	1328.755493	744.141785	6.143400
838.429749	714.049133	1285.214233	737.380188	4.084818
838.732727	717.169861	1257.053467	737.305908	3.729702
839.035522	720.067688	1227.480957	732.104736	2.372238
839.338379	713.826355	1213.957886	735.671204	4.367821
839.641113	708.476501	1221.090942	730.470032	4.290462
839.943848	711.225647	1245.759399	730.098450	3.530704
840.246460	711.597168	1280.533203	729.652649	3.173552
840.549072	714.866455	1307.727905	728.166687	2.243396
840.851563	722.445313	1320.062134	728.315247	0.982224
841.154053	722.371094	1316.049805	728.463867	1.026275
841.456482	725.863281	1289.895142	730.098450	0.750874
841.758850	716.426819	1264.780884	730.767273	2.615181
842.061157	716.946960	1241.524170	727.869446	2.082150
842.363403	709.665283	1220.422241	729.355469	3.855099
842.665588	710.036804	1204.521362	733.070618	4.658146
842.967712	717.244141	1179.184204	730.915833	2.959625
843.269775	718.210144	1167.147095	730.098450	2.648101
843.571777	719.175964	1142.998901	723.411316	0.999321
843.873840	709.070801	1116.249878	725.194519	3.959859
844.175659	714.346375	1091.729858	723.039795	2.303604
844.477600	716.501221	1069.587769	726.680664	2.882988
844.779297	716.946960	1061.786011	726.160461	2.671826
845.081116	711.522888	1046.925415	722.891174	3.389446
845.382751	708.253479	1037.786011	718.210144	3.021451
845.684387	715.386658	1030.801636	720.587830	1.648993
845.985962	720.587830	1017.873047	724.823059	1.424635
846.287537	726.086243	1009.179626	730.247070	1.469772
846.588989	718.135803	1011.780273	728.983948	3.694313
846.890381	713.529053	1010.665710	728.166687	4.926229
847.191711	708.402100	1021.142334	729.058289	6.604903
847.493042	717.764343	1001.229187	723.262695	1.939695
847.794250	725.714661	994.021790	722.742493	-1.107748
848.095459	727.795166	984.362488	713.826233	-5.444549
848.396606	729.058289	981.167419	717.318542	-4.656613
848.697693	728.686829	985.179749	717.615723	-4.316340
848.998657	729.206970	980.275696	721.925232	-2.900297
849.299622	724.525879	984.288086	727.052185	0.972546
849.600464	724.748718	978.641113	723.485596	-0.497503
849.901367	723.485596	977.823792	719.176086	-1.694401
850.202087	723.039795	982.504883	717.392822	-2.176390
850.502808	723.336975	985.774170	714.940857	-3.199287
850.803467	717.838562	978.566895	718.878906	0.399015
851.104065	714.346375	974.405945	727.126465	4.914293
851.404663	710.408386	965.341003	727.795166	6.820147
851.705139	712.042969	965.341003	721.925293	3.901461
852.005615	712.637390	960.214050	711.820068	-0.330129
852.306030	711.894348	962.368896	713.974854	0.830625
852.606384	716.501160	969.501953	719.844727	1.321564
852.906616	721.107910	973.439941	722.371033	0.500580
853.206909	718.358704	973.960022	726.457703	3.168606
853.506958	723.188416	976.560730	723.782776	0.234580
853.807129	715.089417	973.514221	721.479431	2.472678
854.107178	717.095520	973.365662	715.683777	-0.550881
854.407166	708.699402	965.415222	713.231750	1.765512
854.707092	713.157532	960.511230	706.321594	-2.763628
855.007019	711.077087	960.065430	704.761292	-2.536583
855.306763	710.259705	961.997375	703.126648	-2.833528
855.606567	708.847961	957.613464	707.138977	-0.686986
855.906250	710.408386	958.579407	713.008850	1.047852
856.205933	712.637390	953.080994	715.609436	1.236068
856.505493	709.368103	953.898254	718.953125	3.919771
856.805054	705.281433	950.406067	715.980957	4.364932
857.104492	706.395996	949.514465	715.906738	3.911978
857.403931	714.197754	956.573242	709.813904	-1.808702
857.703308	723.708496	955.830261	714.940735	-3.777225
858.002563	725.417480	950.034607	717.318420	-3.605718
858.301819	726.457764	947.285339	726.383484	-0.033637
858.601013	728.018066	955.161438	724.154297	-1.701027
858.900208	725.120300	963.780579	729.578430	1.867982
859.199219	715.683777	965.415222	728.463867	5.117534
859.498291	706.693176	958.728027	725.268860	7.370284
859.797302	708.550781	953.378235	725.937561	7.101646
860.096191	720.216309	946.913879	724.228699	1.769931
860.395020	724.154297	941.043945	725.789001	0.753703
860.693787	723.782776	946.096497	722.519592	-0.568199
860.992554	723.559875	945.576416	716.129639	-3.346704
861.291260	720.736389	952.560852	706.470215	-6.153869
861.589844	713.826233	948.920105	702.383606	-4.867259
861.888428	708.847961	954.418457	700.823242	-3.267787
862.186890	713.751953	944.536194	708.030579	-2.479101
862.485413	721.033630	937.997559	710.631165	-4.794560
862.783813	720.736328	930.344421	713.083252	-3.651136
863.082153	715.015076	939.334961	715.163757	0.066281
863.380371	709.888184	951.074890	710.408386	0.215685
863.678589	708.922302	960.214111	718.210144	3.696038
863.976746	710.408264	963.483398	717.467041	2.789202
864.274902	708.179199	968.833191	720.364929	4.675060
864.572937	703.646790	968.461670	716.575439	4.882146
864.870911	702.978027	965.341003	722.073914	7.278423
865.168884	709.293762	956.201660	724.080017	5.988571
865.466736	716.649719	949.514465	724.525818	3.382263
865.764587	721.405090	941.341248	721.405090	0.000000
866.062317	722.816895	936.511414	722.148193	-0.312924
866.360107	714.346375	937.848877	721.851013	3.357743
866.657715	707.882019	948.845642	723.931396	6.660498
866.955322	701.492004	955.012878	718.581604	6.740904
867.252808	706.544617	959.173828	715.832458	3.676472
867.550293	704.018311	948.994324	713.529053	3.882316
867.847717	703.349548	945.650696	717.615723	5.887786
868.145081	700.451843	942.232727	724.823059	10.079877
868.442383	710.333984	949.663086	724.674500	5.991965
868.739624	720.364929	947.879883	723.634216	1.436955
869.036804	733.665039	944.833496	714.643555	-9.007730
869.333984	724.971680	951.372070	716.724060	-3.642935
869.631042	717.615662	950.108887	717.244141	-0.159799
869.928101	710.779785	955.830078	714.197754	1.394803
870.224976	714.792175	951.297668	710.408264	-1.853619
870.521851	714.940735	965.192383	717.467102	1.009531
870.818726	716.501160	963.111816	723.039795	2.651400
871.115479	716.798340	963.854797	724.897400	3.278222
871.412231	713.751892	966.232605	716.724060	1.177186
871.708862	707.287598	970.987976	715.609558	3.155839
872.005493	706.916077	966.678406	716.129639	3.546920
872.302063	716.575500	954.789978	719.473328	1.216478
872.598572	724.600159	952.486572	720.959290	-1.597668
872.895020	728.463867	955.755920	720.216309	-3.628617
873.191406	722.891174	961.774414	725.863281	1.244167
873.487671	722.816895	964.523621	732.847839	4.150048
873.783997	720.513489	968.090149	734.556702	5.672268
874.080200	721.999512	969.353271	726.903503	1.982582
874.376343	720.736389	972.994202	719.770447	-0.382919
874.672424	724.154297	977.080811	726.011902	0.734445
874.968445	725.045959	972.919861	725.491760	0.179850
875.264465	718.804504	970.542175	728.835388	3.984658
875.560364	712.042969	968.758850	716.501160	1.736624
875.856201	713.157532	974.926025	714.197754	0.397382
876.152039	719.324707	973.439941	708.699402	-4.181294
876.447754	728.315247	971.285156	712.117249	-6.666668
876.743469	731.064453	971.656677	715.163635	-6.609032
877.039063	727.943787	976.783508	719.398926	-3.433881
877.334595	722.073914	991.569824	722.148132	0.027540
877.630127	718.507324	990.826843	728.018066	3.492494
877.925537	719.547546	994.096130	722.073792	0.920145
878.221008	721.999512	986.517273	721.925232	-0.028081
878.516296	718.730225	997.811218	713.751953	-1.783809
878.811646	722.073914	1001.377747	714.792175	-2.607103
879.106812	720.067688	1012.003113	714.049133	-2.061605
879.401978	720.439148	1016.832703	721.107910	0.225633
879.697083	720.216309	1046.925415	721.256531	0.318394
879.992126	717.764343	1072.634033	720.662109	0.816572
880.287109	720.067688	1120.336426	719.176025	-0.222766
880.582031	709.665222	1193.078857	727.646484	3.719643
880.876892	708.327820	1318.501831	732.401917	3.945448
881.171753	705.429932	1546.388184	733.962219	3.392830
881.466492	708.922180	1874.286133	729.355530	1.753388
881.761230	712.860352	2293.650635	727.572266	0.930668
882.055786	714.717957	2702.018311	726.309082	0.583260
882.350403	721.479431	2982.436768	739.683533	0.805150
882.644958	723.708496	3109.123047	738.643311	0.626089
882.939453	728.389648	3064.318359	731.584534	0.136772
883.233826	727.572266	2958.734375	721.776611	-0.259759
883.528137	726.160583	2806.710938	723.411316	-0.132141
883.822449	720.216309	2667.988037	732.922058	0.652322
884.116577	714.866455	2530.230713	738.346191	1.293390
884.410828	712.117249	2394.776611	740.649597	1.695670
884.704956	714.940857	2234.060059	745.033386	1.980920
884.999023	717.912903	2037.900757	730.767273	0.973825
885.292969	718.878845	1817.295898	730.841553	1.089086
885.586914	715.312256	1625.074829	723.634216	0.914740
885.880798	714.420654	1481.967773	728.463867	1.829622
886.174622	713.677673	1388.495117	726.754883	1.937889
886.468384	715.683838	1312.706177	722.965393	1.219645
886.762085	712.191650	1254.601440	719.398926	1.328751
887.055664	717.541443	1199.914673	708.179199	-1.940871
887.349304	721.925232	1163.952148	706.395996	-3.513188
887.642822	725.120300	1132.596436	713.677673	-2.808171
887.936340	718.878845	1113.054810	717.541321	-0.339322
888.229736	715.758118	1088.757813	722.073914	1.693244
888.523071	720.513489	1067.878784	719.770447	-0.213908
888.816284	730.395752	1051.160522	722.222473	-2.548060
889.109619	727.274963	1041.798462	723.559875	-1.181180
889.402710	719.398926	1027.012207	726.754944	2.391320
889.695862	713.900574	1023.817200	721.256531	2.373528
889.988892	713.528992	1012.448914	710.631287	-0.969392
890.281921	708.847961	998.628540	696.810974	-4.153828
>>>>>End Processed Spectral Data<<<<<
