Jaz Data File
++++++++++++++++++++++++++++++++++++
Date: Fri Jun 04 17:02:39 2021
User: jaz
Dark Spectrum Present: Yes
Reference Spectrum Present: Yes
Processed Spectrum Present: Yes
Spectrometers: JAZA3586
Integration Time (usec): 121000 (JAZA3586)
Spectra Averaged: 10 (JAZA3586)
Boxcar Smoothing: 1 (JAZA3586)
Correct for Electrical Dark: No (JAZA3586)
Strobe/Lamp Enabled: Yes (JAZA3586)
Correct for Detector Non-linearity: No (JAZA3586)
Correct for Stray Light: No (JAZA3586)
Number of Pixels in Processed Spectrum: 2048
>>>>>Begin Processed Spectral Data<<<<<
W	D	R	S	P
191.335022	0.000000	0.000000	0.000000	0.000000
191.713211	225.805969	227.812134	227.960754	107.408195
192.091385	456.738800	461.791412	459.859528	61.764633
192.469528	686.482849	693.913086	696.662292	137.000259
192.847641	699.188538	708.030579	707.733398	96.639008
193.225739	716.501160	719.696106	718.655945	67.443550
193.603790	733.145020	731.584656	728.538269	295.235687
193.981842	736.117004	733.962341	734.333801	82.760185
194.359863	734.779602	737.157227	737.528809	115.628288
194.737854	737.380188	747.931152	746.816711	89.437546
195.115829	753.281067	748.154114	750.085999	62.319046
195.493774	759.596680	749.268616	750.457520	88.488609
195.871704	762.791748	744.810547	749.417297	74.380188
196.249603	761.082825	753.726807	755.287170	78.787926
196.627457	756.178772	751.051941	756.624695	-8.697826
197.005310	760.191162	749.640137	753.801086	60.563553
197.383133	755.361511	742.358459	753.132324	17.143568
197.760910	755.955872	743.918762	754.915588	8.642301
198.138687	748.376953	747.188171	751.423401	-256.266357
198.516449	743.324402	750.383240	742.878601	-6.315498
198.894180	742.729980	741.764099	740.055115	276.935242
199.271866	743.101563	731.138855	743.993103	-7.452665
199.649536	742.878601	726.606262	746.742371	-23.744402
200.027191	743.324402	733.293518	747.262512	-39.259853
200.404816	737.603088	736.191406	739.906494	-163.167450
200.782410	740.649597	748.525635	736.785828	-49.057278
201.159988	736.934387	759.225281	742.209778	23.666124
201.537537	738.197571	773.937195	740.426575	6.236786
201.915070	729.058289	768.513000	749.491516	51.789066
202.292557	726.606262	768.587341	752.983704	62.831738
202.670029	726.531982	763.609070	763.609070	100.000000
203.047485	732.104675	771.187988	762.123047	76.806107
203.424911	730.692932	768.215820	762.048767	83.564560
203.802292	724.600098	763.386169	753.503906	74.521103
204.179688	724.377197	762.420227	748.005554	62.109554
204.557037	733.219238	762.568848	734.333801	3.797539
204.934357	733.070618	769.404602	739.460693	17.587049
205.311661	728.612488	767.175598	737.305847	22.543201
205.688934	716.575439	765.540833	747.336731	62.822514
206.066177	720.216309	764.575012	749.268738	65.494316
206.443390	713.900574	759.225281	748.822937	77.049286
206.820587	721.850891	755.435730	742.581360	61.725677
207.197769	727.646667	755.732910	737.305908	34.391361
207.574921	733.962341	758.482117	738.866272	19.999901
207.952042	727.646545	761.900085	734.928223	21.258175
208.329147	724.897400	759.522461	739.980774	43.562016
208.706223	763.757629	806.853210	795.707825	74.137985
209.083267	769.627625	809.156555	799.794495	76.315926
209.460297	771.039368	811.014160	791.546875	51.301098
209.837280	735.076843	764.946533	732.476257	-8.706438
210.214264	730.247131	769.107422	736.414246	15.869965
210.591217	728.538147	770.444885	736.785706	19.680746
210.968124	728.983948	771.559509	743.324402	33.682362
211.345016	731.733215	767.472839	746.073547	40.124462
211.721893	731.361633	758.853699	740.352295	32.702751
212.098724	732.773438	756.030273	733.442200	2.875551
212.475555	732.847717	755.510071	727.349365	-24.262053
212.852356	728.686768	758.779358	742.804260	46.913517
213.229126	726.829285	765.912415	743.695984	43.155960
213.605865	724.154297	762.643066	740.054993	41.312561
213.982590	721.776672	765.020813	734.779602	30.068651
214.359283	715.237976	762.494446	734.556641	40.880466
214.735931	709.591003	762.791748	733.887939	45.670292
215.112579	714.346375	757.367676	726.606262	28.497250
215.489197	719.250305	755.732910	729.949890	29.327908
215.865799	725.120300	759.819641	727.795166	7.708693
216.242355	716.575439	762.197266	725.268799	19.055264
216.618896	717.764221	760.785583	730.618652	29.879183
216.995407	718.135742	763.163269	732.104675	31.023096
217.371902	723.411316	764.129150	736.637207	32.481815
217.748367	732.922058	762.791687	736.860046	13.183921
218.124802	731.138855	753.503906	739.089172	35.547951
218.501236	730.024231	756.327393	740.500916	39.830513
218.877609	718.878845	755.881592	739.089172	54.618450
219.253983	718.433044	758.705078	739.534973	52.398468
219.630295	725.491760	755.361511	741.615479	53.980091
220.006592	728.835449	750.903320	742.061340	59.932793
220.382889	730.024231	746.073669	745.999329	99.536804
220.759140	717.541321	745.107727	743.770264	95.148216
221.135391	716.426819	742.952942	749.120056	123.249214
221.511581	715.535156	752.760925	752.463623	99.201355
221.887772	723.485596	756.253113	758.482117	106.802483
222.263931	724.080078	772.079590	751.349121	56.811085
222.640060	724.005676	766.581238	741.318298	40.663284
223.016159	717.095520	767.621399	735.522644	36.470665
223.392212	719.919006	757.813477	734.185242	37.647274
223.768265	726.011902	767.398438	731.213074	12.567305
224.144302	732.773376	768.958801	730.470032	-6.365394
224.520294	721.182129	773.788574	723.931396	5.226104
224.896286	716.055237	773.565613	730.470032	25.064686
225.272217	717.467102	775.868958	737.380188	34.096668
225.648148	727.052185	778.766785	747.931213	40.373566
226.024048	724.971619	770.890686	747.856934	49.838371
226.399902	719.621826	769.256104	744.661926	50.449207
226.775772	711.225586	763.237549	742.284180	59.714329
227.151581	718.433044	765.318054	743.101563	52.614937
227.527374	715.015137	761.825867	740.352295	54.126816
227.903137	718.730164	761.454346	737.305908	43.478291
228.278870	716.798340	758.184875	741.169678	58.887119
228.654572	717.392761	757.887695	744.513367	66.972832
229.030273	717.764343	762.271667	741.615479	53.589237
229.405930	715.683777	765.838135	737.231628	42.963070
229.781555	728.166687	768.736023	733.887939	14.102406
230.157181	736.562927	762.568848	736.711426	0.571018
230.532761	736.934387	764.723633	729.652771	-26.203001
230.908325	730.767273	770.221985	731.138855	0.941794
231.283859	726.383484	775.348877	728.240967	3.793461
231.659332	727.572266	772.674011	731.733154	9.225560
232.034821	728.612488	765.838135	724.228516	-11.776752
232.410263	719.696228	766.432556	727.572266	16.852068
232.785690	721.033630	767.844238	728.463867	15.872976
233.161087	721.925293	768.067200	730.544373	18.679504
233.536469	724.377197	763.980652	721.999512	-6.003733
233.911804	722.816895	763.757629	723.559875	1.814772
234.287140	721.776611	764.277832	727.720764	13.985840
234.662430	727.646484	768.661621	737.083008	23.007418
235.037704	723.782898	774.234375	741.169617	34.462257
235.412933	725.268860	773.937073	741.763977	33.892998
235.788162	720.067688	769.479004	745.330566	51.127720
236.163345	718.730286	764.649231	743.398743	53.721741
236.538513	716.724060	769.776123	748.674133	60.223999
236.913635	716.575439	768.290100	742.878601	50.862099
237.288742	720.884949	764.500671	743.101501	50.937027
237.663834	718.655945	757.070496	736.414246	46.228058
238.038879	724.302917	762.717468	743.101501	48.936104
238.413910	719.547546	763.906311	738.494690	42.713417
238.788910	719.324646	766.135437	734.928162	33.333160
239.163879	718.432922	767.175598	728.983948	21.646381
239.538834	713.751953	763.311829	734.631042	42.129021
239.913757	718.655945	764.575012	738.717712	43.689407
240.288651	715.015076	763.757629	737.008728	45.122078
240.663528	723.782776	773.268372	741.541077	35.885799
241.038361	720.513489	777.355042	740.203674	34.640476
241.413177	722.593994	773.417053	738.123230	30.555492
241.787979	725.640320	766.061035	731.584534	14.705860
242.162735	728.092346	765.466614	734.036621	15.904726
242.537476	725.937500	770.444885	741.243958	34.390827
242.912170	720.884949	777.949463	748.079773	47.656281
243.286865	718.135742	779.212646	752.389343	56.082741
243.661514	713.157532	780.104309	757.367676	66.037750
244.036148	719.176025	779.212646	756.996094	62.994999
244.410751	725.417480	776.389160	747.708313	43.731800
244.785339	735.076843	776.166260	734.333801	-1.808354
245.159882	736.711487	776.983582	726.903564	-24.354139
245.534378	732.476135	785.231140	733.962402	2.817301
245.908890	726.160461	784.859619	741.689758	26.455740
246.283356	726.457703	777.652283	740.723816	27.866453
246.657791	725.343201	766.878418	730.841614	13.237954
247.032196	731.510254	772.228210	728.686829	-6.934103
247.406586	725.640320	783.522217	734.556702	15.404440
247.780960	728.463867	787.311707	736.711426	14.015058
248.155289	727.795166	783.002136	738.420410	19.246201
248.529602	722.965515	777.726563	737.677429	26.865656
248.903870	724.674500	784.339539	738.197510	22.664881
249.278122	717.095520	784.265320	738.346130	31.637150
249.652344	720.513489	784.116638	734.779602	22.429886
250.026550	713.751892	774.085754	739.906433	43.349689
250.400711	712.785950	780.178528	741.764099	42.999023
250.774857	713.900452	777.726563	744.216064	47.497196
251.148987	719.027405	783.968018	738.346130	29.748297
251.523071	724.674377	777.726563	731.807434	13.445359
251.897125	728.686829	783.447937	737.305847	15.739306
252.271164	723.559875	778.766785	744.810547	38.492775
252.645187	725.120300	776.389160	751.794922	52.028896
253.019165	726.234863	769.924805	743.250183	38.945621
253.393112	733.888000	777.132141	748.451355	33.677059
253.767044	729.652771	771.930969	745.999329	38.664272
254.140930	727.349304	781.293152	749.045715	40.220364
254.514801	722.148132	776.537781	744.661865	41.393414
254.888657	725.045898	782.110413	742.729980	30.989630
255.262466	731.287354	775.051697	739.014893	17.657158
255.636276	731.064453	781.441711	742.878601	23.451351
256.010010	732.922058	781.738953	743.993164	22.678841
256.383759	724.080017	780.847351	743.547363	34.293221
256.757446	730.098450	773.194092	734.853943	11.034742
257.131134	724.451477	775.646057	727.869446	6.676427
257.504791	724.228577	776.983459	729.727051	10.422683
257.878418	715.460938	775.720398	729.281250	22.934677
258.252014	723.782776	780.550049	740.649597	29.712227
258.625580	720.885010	788.797668	741.169617	29.868670
258.999115	729.875671	794.073242	743.398743	21.064772
259.372650	726.680603	793.701660	740.055115	19.955687
259.746124	727.274963	791.546875	739.757874	19.422029
260.119598	728.463867	791.398254	740.203613	18.653946
260.493042	729.281250	796.822449	743.695984	21.342134
260.866425	728.166687	803.806824	747.633972	25.736713
261.239838	717.318420	810.048340	751.571960	36.939037
261.613159	708.922302	806.556152	748.079773	40.106449
261.986511	712.340149	801.800720	746.890930	38.621239
262.359802	720.513489	792.067078	743.175781	31.671776
262.733063	728.761169	789.020569	743.101501	23.797668
263.106293	725.937683	777.726563	729.578430	7.029978
263.479523	719.398926	785.008240	731.138855	17.893692
263.852692	719.696106	791.026855	732.699158	18.229237
264.225861	719.844788	802.172180	742.432800	27.436813
264.598969	730.990173	798.085632	740.798157	14.617954
264.972076	724.674500	792.587158	739.089111	21.225222
265.345154	726.531982	796.896729	736.265625	13.833124
265.718201	715.906738	803.509583	732.699158	19.168806
266.091217	729.801331	809.676758	736.265686	8.093046
266.464203	733.590820	815.323730	741.838379	10.090866
266.837158	739.014893	813.391846	750.011719	14.785260
267.210114	724.748718	820.673523	739.460754	15.337050
267.583038	719.770508	827.360779	741.838379	20.511028
267.955902	717.689941	834.419617	739.832214	18.968847
268.328766	722.965515	824.463074	749.863098	26.500719
268.701569	727.052063	813.168945	747.633972	23.899971
269.074371	719.473206	808.710754	749.863098	34.055050
269.447144	712.488770	815.992493	746.593750	32.950485
269.819885	709.591003	820.896484	745.850769	32.576801
270.192596	716.129700	825.577454	740.649597	22.403290
270.565277	730.767334	831.670349	751.497742	20.544884
270.937927	739.609375	831.150208	754.618469	16.396065
271.310577	735.671326	834.419617	754.395508	18.961525
271.683136	726.011902	824.165771	742.358582	16.654137
272.055725	717.690002	829.812805	736.340027	16.633570
272.428284	717.764343	830.555847	735.076843	15.349117
272.800812	720.364929	841.849854	728.612488	6.788957
273.173279	726.977783	836.351379	738.494690	10.529879
273.545776	735.522644	833.527893	743.844482	8.491217
273.918152	729.281250	831.075989	753.206726	23.503647
274.290558	719.621887	832.339111	738.791992	17.007254
274.662964	713.528992	837.094482	738.346130	20.084198
275.035278	720.439148	836.648621	725.268860	4.156040
275.407593	725.045898	836.500000	732.922058	7.066730
275.779907	724.822998	845.787842	725.417480	0.491451
276.152161	716.278259	852.846497	740.426575	17.682234
276.524384	712.934570	862.654541	748.599915	23.821367
276.896606	713.157410	861.242859	754.841309	28.148544
277.268799	719.027344	865.775391	753.355286	23.392435
277.640930	724.525818	863.026123	744.736145	14.592262
278.013031	731.138733	860.351257	747.931152	12.995969
278.385162	730.321472	854.704285	740.946716	8.542374
278.757233	722.296692	855.372864	737.231506	11.222756
279.129272	719.844727	859.608154	725.789001	4.253098
279.501282	718.953125	863.026062	725.937561	4.847847
279.873230	723.559875	869.861877	730.915833	5.027926
280.245178	724.971680	875.806152	743.027283	11.970475
280.617126	721.182312	877.589355	744.438965	14.869313
280.988983	715.015137	878.258118	739.534973	15.020453
281.360870	716.724060	885.465515	738.791931	13.077919
281.732697	721.702332	894.679016	745.627747	13.831584
282.104492	731.138733	902.778015	744.438965	7.748944
282.476288	730.544373	901.960754	741.912598	6.631936
282.848053	732.253357	908.945129	737.231628	2.817489
283.219757	730.321472	915.409485	738.791992	4.576482
283.591461	725.194519	924.474426	737.157288	6.002998
283.963135	726.086121	923.954285	745.182068	9.650844
284.334747	736.637146	924.845947	752.537903	8.448466
284.706360	734.779602	925.291809	751.200500	8.619342
285.077942	734.333801	936.362976	751.497742	8.495773
285.449524	715.460876	947.359680	757.367676	18.071157
285.821014	713.157532	955.235779	764.575012	21.240025
286.192535	711.225647	957.687805	756.847473	18.510681
286.563995	715.609436	967.198547	739.609314	9.539315
286.935425	715.832458	964.300781	735.076843	7.745206
287.306824	719.027527	964.597961	727.200684	3.328233
287.678223	713.751953	954.418457	734.408142	8.582910
288.049561	726.011963	955.235779	736.339905	4.505615
288.420898	724.154358	952.783752	737.008728	5.622361
288.792145	732.327637	952.486572	732.699158	0.168751
289.163452	729.504150	958.876526	728.984070	-0.226741
289.534668	737.454529	966.975586	731.138855	-2.751675
289.905914	737.380188	972.548340	735.522644	-0.789879
290.277039	735.745544	985.105469	748.079834	4.946380
290.648193	735.299744	1001.229187	757.441895	8.326325
291.019318	731.881836	1010.591248	758.184998	9.437486
291.390381	724.451599	1006.727539	746.147949	7.686220
291.761475	708.996582	995.582214	740.500916	10.992991
292.132507	712.042969	994.616211	741.095398	10.281380
292.503510	715.758118	1004.126953	737.900391	7.678455
292.874481	729.727051	1021.439453	755.510071	8.838507
293.245422	727.572266	1028.126709	755.955872	9.443748
293.616364	724.600159	1034.442383	762.048645	12.086308
293.987213	717.912903	1029.464233	746.445068	9.158094
294.358093	718.061523	1047.073975	742.432800	7.407403
294.728943	714.940857	1060.448364	743.175781	8.172014
295.099731	711.745789	1076.720825	738.940613	7.451147
295.470490	717.467041	1094.776245	741.392578	6.341095
295.841248	720.736328	1105.773193	741.689758	5.441928
296.211975	722.073792	1118.999146	742.878601	5.241492
296.582642	719.547546	1123.902954	742.804260	5.751553
296.953308	719.770508	1133.116577	741.466797	5.248940
297.323883	724.005676	1144.410400	740.426575	3.905974
297.694519	720.364929	1144.113281	737.974609	4.155693
298.065063	719.993408	1146.565308	740.203674	4.737833
298.435608	721.107910	1139.952271	749.937317	6.883083
298.806122	729.429871	1132.447754	748.377014	4.701316
299.176575	731.584534	1129.252808	742.952942	2.858767
299.547028	728.761047	1123.680054	736.265625	1.900283
299.917450	722.148132	1121.525269	743.547302	5.358136
300.287872	721.702332	1114.317993	742.358459	5.261158
300.658234	725.937561	1115.952515	749.714417	6.096396
301.028564	727.795166	1120.782227	751.423401	6.012472
301.398865	726.977844	1122.714111	752.092102	6.346211
301.769135	722.891113	1129.995728	753.801086	7.592637
302.139374	716.575439	1132.893555	752.389343	8.602533
302.509583	716.129639	1126.354980	751.869324	8.712208
302.879791	713.454773	1118.850464	738.791992	6.249997
303.249939	715.832458	1116.026855	740.055115	6.052722
303.620087	718.804504	1127.172241	743.547363	6.058965
303.990173	720.810730	1130.367310	747.039551	6.404200
304.360260	721.182190	1138.837891	748.897156	6.635840
304.730286	724.600159	1140.472412	753.652527	6.985888
305.100281	722.891174	1142.552856	755.732971	7.825779
305.470276	728.166687	1135.345581	748.302734	4.945258
305.840179	722.668274	1137.203125	741.095398	4.445253
306.210144	719.621887	1140.249634	735.968445	3.886229
306.579987	719.473328	1152.658081	735.745544	3.756415
306.949890	714.049133	1159.345337	731.138733	3.837805
307.319702	718.878845	1177.846680	744.513245	5.585228
307.689484	714.494934	1184.905396	744.364685	6.349721
308.059265	725.789001	1204.298462	743.844543	3.773288
308.429016	727.497986	1212.174683	729.355469	0.383242
308.798737	726.531982	1233.722412	736.265625	1.919130
309.168396	725.863281	1243.456055	734.928223	1.751366
309.538055	714.346375	1256.533325	737.528809	4.275727
309.907684	719.324646	1268.793213	738.643372	3.515893
310.277313	714.569336	1281.796143	744.661926	5.305213
310.646851	723.559875	1294.353394	751.126221	4.829478
311.016388	717.764343	1306.241821	750.977600	5.643930
311.385895	724.525818	1312.483276	757.219055	5.560477
311.755371	723.931396	1314.415039	752.166504	4.781692
312.124817	722.148132	1313.300537	737.083008	2.526400
312.494232	719.993347	1310.254272	734.705322	2.492453
312.863617	721.330811	1307.876343	738.494812	2.926286
313.232971	724.377258	1304.978638	748.897156	4.223190
313.602295	719.473328	1306.910522	744.587646	4.275235
313.971619	717.095520	1316.049805	741.466858	4.068981
314.340820	721.702332	1320.359253	737.826111	2.693326
314.710083	729.058350	1331.430542	743.621643	2.417657
315.079285	730.618652	1344.433472	745.033386	2.348385
315.448486	729.652649	1366.204102	749.640198	3.139974
315.817596	717.838562	1358.328003	747.188232	4.582382
316.186707	719.621765	1352.532349	750.383118	4.860300
316.555786	717.169739	1331.950684	749.863037	5.317878
316.924866	724.080017	1334.551147	758.259277	5.598833
317.293884	713.083191	1332.322144	755.881592	6.911452
317.662872	709.293762	1336.557251	758.779358	7.889124
318.031830	709.739563	1343.393066	742.358459	5.147750
318.400757	724.154297	1354.538574	740.575195	2.604903
318.769684	724.897278	1368.730469	737.083008	1.892684
319.138550	717.244141	1373.188599	744.587585	4.168561
319.507416	713.306152	1378.092407	740.426575	4.079570
319.876190	713.603333	1378.909790	737.157288	3.540317
320.244995	717.541321	1387.157593	745.033386	4.105645
320.613770	719.547546	1381.064819	747.559631	4.234520
320.982483	724.228699	1377.869629	750.680359	4.046818
321.351166	727.572266	1367.690063	739.386414	1.845621
321.719818	725.120178	1363.826294	745.627747	3.210799
322.088440	727.646545	1368.730347	749.788757	3.453872
322.457062	730.395752	1385.225586	746.445129	2.450923
322.825623	721.925232	1408.705200	742.284180	2.964406
323.194183	717.021179	1418.884766	738.271912	3.027758
323.562653	710.408264	1439.912476	747.188171	5.041768
323.931183	719.621826	1457.596558	747.336731	3.755536
324.299591	719.398926	1492.741821	739.460693	2.594162
324.668060	724.228699	1513.100586	734.928223	1.356307
325.036407	724.302917	1536.654663	738.569092	1.756157
325.404755	725.937683	1552.555298	748.154114	2.687631
325.773102	721.702332	1549.954712	748.971436	3.292367
326.141388	728.463867	1556.864868	743.473083	1.811830
326.509674	732.401917	1556.270508	734.408142	0.243513
326.877899	739.683594	1577.744141	739.609314	-0.008863
327.246124	736.117126	1581.087769	746.519470	1.231089
327.614288	734.556641	1586.511719	755.064270	2.407126
327.982422	733.962219	1578.561401	746.519470	1.486770
328.350525	738.643311	1576.406616	741.838318	0.381374
328.718628	739.460632	1575.589233	736.488525	-0.355460
329.086700	739.089172	1588.963745	738.420410	-0.078690
329.454712	735.225403	1590.895508	738.494690	0.382073
329.822693	736.934387	1598.177246	741.763977	0.560770
330.190674	735.968445	1604.047241	741.095276	0.590595
330.558563	732.253235	1618.461792	743.324402	1.249273
330.926483	724.079895	1628.418457	744.884766	2.300562
331.294312	719.175964	1638.672241	748.228333	3.159596
331.662231	718.135742	1660.145630	744.661865	2.815907
332.029999	713.751953	1687.860718	736.265625	2.311207
332.397766	713.603333	1714.906860	735.745544	2.211339
332.765503	713.008972	1738.906616	746.147888	3.230236
333.133240	720.513489	1757.779419	752.686523	3.101715
333.500916	720.959290	1788.169312	754.321228	3.126090
333.868561	720.067627	1800.131958	752.612305	3.013216
334.236176	710.854065	1804.144409	754.767090	4.016593
334.603790	711.745789	1798.720337	748.599915	3.390523
334.971344	712.117249	1805.927612	741.764099	2.710420
335.338867	719.993347	1810.608765	747.188171	2.493530
335.706360	715.089417	1810.757202	753.652527	3.519599
336.073853	719.696228	1814.843872	755.361511	3.256664
336.441284	716.426819	1826.806641	746.445129	2.703427
336.808655	718.581604	1826.509399	752.537903	3.064848
337.176086	719.993408	1801.246582	747.485352	2.542600
337.543396	730.247131	1762.460571	753.206726	2.224307
337.910706	730.544373	1733.928223	745.999329	1.540284
338.277954	733.219238	1758.373657	749.937439	1.630798
338.645264	727.869446	1824.354614	749.045715	1.931287
339.012421	725.714661	1905.716187	750.383118	2.090545
339.379669	721.999512	1972.217163	745.925049	1.913710
339.746796	726.086182	2016.798706	748.228333	1.715498
340.113953	735.225403	2035.820313	748.748535	1.039765
340.481018	733.219238	2043.919067	757.739197	1.870753
340.848114	728.612488	2029.578735	753.726807	1.930436
341.215118	721.850891	2030.618774	751.126160	2.236857
341.582153	725.640320	2033.219604	747.856934	1.699064
341.949066	724.971680	2051.498047	745.776367	1.568358
342.316010	725.120300	2061.454834	741.466797	1.223234
342.682922	724.228699	2072.971680	734.408020	0.754727
343.049835	726.680664	2091.993408	728.761047	0.152374
343.416656	733.590820	2141.924561	742.729980	0.648934
343.783478	736.117004	2193.416260	750.903320	1.014638
344.150269	746.222229	2248.846191	752.389343	0.410423
344.516998	748.005432	2288.895264	739.089172	-0.578644
344.883728	740.798096	2322.628662	746.668030	0.371085
345.250427	725.268860	2357.848145	751.572021	1.611141
345.617065	719.696106	2377.835693	754.989929	2.128519
345.983704	721.107910	2385.414307	749.714417	1.718825
346.350281	722.668213	2383.928467	742.581360	1.198677
346.716827	717.838562	2357.996826	735.819824	1.096313
347.083405	716.278259	2350.046631	725.937500	0.591225
347.449860	733.145020	2346.108398	758.407898	1.566240
347.816376	738.123230	2348.040283	773.342773	2.187662
348.182770	742.209900	2340.312744	783.968018	2.612981
348.549194	731.658875	2322.851563	761.751465	1.891197
348.915558	732.624817	2330.281982	756.030212	1.464982
349.281921	727.423645	2331.396240	747.411072	1.246120
349.648193	721.999512	2351.086670	746.668030	1.514254
350.014526	722.965515	2371.074219	744.736145	1.320946
350.380737	725.194519	2401.017822	746.445129	1.268070
350.746948	730.841553	2438.986572	746.222351	0.900439
351.113159	726.457703	2464.026611	747.708313	1.223008
351.479309	723.708496	2482.528076	744.959045	1.208228
351.845428	722.816895	2496.943115	743.101563	1.143361
352.211517	730.841553	2537.289063	741.689758	0.600527
352.577576	727.200745	2572.508789	740.426575	0.716727
352.943604	727.869446	2598.886475	740.723816	0.687026
353.309601	723.782898	2627.121582	742.581360	0.987657
353.675537	730.470032	2678.241699	748.599915	0.930801
354.041473	727.423645	2737.832275	743.027161	0.776137
354.407379	730.990173	2779.664795	740.946777	0.486002
354.773254	733.813660	2830.339111	742.507141	0.414661
355.139038	725.491760	2874.177734	748.154114	1.054708
355.504913	725.268860	2949.074951	753.503906	1.269672
355.870636	720.142029	3007.997070	748.971436	1.260106
356.236389	725.566101	3068.776611	747.559631	0.938607
356.602081	718.432922	3120.714111	744.661865	1.091835
356.967804	720.587708	3175.401123	745.850769	1.029123
357.333405	720.959290	3246.285889	751.051941	1.191634
357.699036	715.906738	3330.545166	750.606140	1.327120
358.064606	716.203918	3415.398682	754.915710	1.434198
358.430176	717.615723	3485.391846	757.739197	1.449665
358.795654	727.275085	3517.193604	754.989990	0.993395
359.161163	727.052063	3540.153320	750.085999	0.818809
359.526581	727.497864	3544.239502	743.101563	0.553963
359.892029	732.179016	3581.837158	755.732971	0.826554
360.257416	729.875671	3638.306885	766.804016	1.269700
360.622772	731.510254	3736.163818	761.379944	0.994114
360.988098	723.411316	3836.992188	748.154114	0.794673
361.353394	722.816895	3967.913330	738.717590	0.489991
361.718658	721.850891	4110.352051	743.993103	0.653452
362.083893	720.364929	4258.511719	748.228333	0.787514
362.449097	719.844727	4351.093262	744.067383	0.667061
362.814209	714.272034	4358.969238	745.924988	0.868466
363.179382	721.776672	4269.285645	742.804260	0.592742
363.544434	723.857117	4122.834961	752.538025	0.843810
363.909546	731.881836	3960.409180	746.073669	0.439576
364.274536	726.680664	3817.302002	750.903320	0.783747
364.639587	728.835388	3710.157959	750.680420	0.732730
365.004517	726.829163	3639.421143	753.875427	0.928598
365.369507	730.841553	3597.589111	751.274902	0.712771
365.734344	726.011902	3582.951416	751.497742	0.892068
366.099274	726.754883	3580.128174	763.980652	1.304623
366.464081	724.005676	3585.923828	769.404785	1.586318
366.828918	731.584534	3583.322998	773.862854	1.482545
367.193665	730.841553	3585.329102	766.804138	1.259861
367.558411	728.761047	3586.072266	765.540955	1.287221
367.923126	728.909668	3585.106201	753.801086	0.871488
368.287781	737.008728	3590.233154	759.150879	0.776040
368.652435	735.968445	3580.945313	756.773193	0.731280
369.017059	736.711487	3578.790771	760.339783	0.831374
369.381653	728.835388	3566.159180	762.494568	1.186300
369.746185	731.064514	3574.629639	766.804016	1.256855
370.110687	724.451599	3585.923584	770.147705	1.596944
370.475220	725.491760	3618.022461	759.968201	1.191913
370.839661	720.141907	3652.573242	756.624573	1.244110
371.204041	723.039795	3705.253906	755.807312	1.098765
371.568451	716.724060	3745.600342	763.757629	1.552839
371.932770	722.073792	3782.157471	760.562683	1.257772
372.297150	719.324646	3791.519531	760.934143	1.354390
372.661377	720.662109	3808.608643	753.206726	1.053924
373.025696	714.420654	3827.258789	751.423401	1.188714
373.389862	720.736389	3841.748047	748.748535	0.897534
373.754059	721.702332	3844.719971	759.002258	1.194355
374.118225	731.807434	3860.917969	763.237549	1.004442
374.482361	727.423645	3887.221436	769.553223	1.333300
374.846436	727.497986	3932.174561	763.460449	1.122187
375.210510	720.587830	3974.155518	766.358215	1.406775
375.574524	722.222473	4056.705811	763.163269	1.227800
375.938538	721.330811	4155.156738	764.946533	1.270179
376.302460	727.720886	4245.806152	763.980652	1.030668
376.666412	727.943665	4338.164551	761.825745	0.938504
377.030304	728.686768	4413.582031	757.590515	0.784384
377.394196	721.776672	4515.970703	754.098328	0.851871
377.757996	723.039795	4579.351074	756.178772	0.859344
378.121796	722.965515	4624.898926	752.017822	0.744562
378.485565	729.875671	4628.911133	755.732971	0.663172
378.849304	719.324646	4609.072266	751.794922	0.834766
379.212982	717.912842	4559.883789	756.698914	1.009536
379.576630	714.272034	4475.624512	763.534729	1.309707
379.940277	717.764343	4411.204102	768.958801	1.386092
380.303864	726.086182	4368.183105	774.903076	1.340351
380.667450	725.640320	4379.327637	771.856628	1.264922
381.030945	725.714661	4390.547363	770.519226	1.222554
381.394501	724.228699	4421.532227	776.166199	1.404740
381.757935	730.767273	4436.021484	783.745117	1.429803
382.121399	733.962219	4445.977539	795.113342	1.647383
382.484741	733.293640	4468.640137	798.605652	1.748486
382.848145	723.782776	4501.779297	796.525208	1.925423
383.211487	724.451477	4539.673340	801.577820	2.021543
383.574768	716.649719	4596.218262	792.958679	1.966944
383.938019	719.324646	4655.065430	795.559265	1.936983
384.301270	718.507324	4729.442871	798.828613	2.002558
384.664459	722.742615	4785.541016	809.305237	2.130616
385.027649	721.107910	4818.085449	820.302063	2.421154
385.390778	725.045898	4877.750488	818.593079	2.252681
385.753876	725.194580	4892.091309	827.806580	2.462552
386.116943	732.104736	4928.722168	832.487610	2.391995
386.479980	727.869446	4926.716309	844.673340	2.781809
386.842987	733.665039	4987.719238	852.772278	2.799852
387.205994	730.767273	5037.278809	861.168457	3.028000
387.568909	725.045959	5100.139160	868.004395	3.267552
387.931793	718.804504	5130.454590	881.453125	3.686798
388.294678	718.135742	5167.902832	890.295166	3.868954
388.657471	720.513489	5171.766113	897.353821	3.972822
389.020294	726.309082	5179.939453	905.007141	4.012414
389.383057	727.646484	5178.825195	925.663269	4.448637
389.745819	730.767273	5207.951660	944.090332	4.764670
390.108521	727.423645	5228.607910	961.328613	5.196521
390.471191	726.011902	5286.415527	977.303711	5.510297
390.833801	721.925232	5363.987793	1000.783386	6.007204
391.196442	716.798340	5472.395020	1023.297058	6.445011
391.558960	708.625000	5561.484375	1041.872681	6.867038
391.921509	708.625000	5656.665527	1069.216309	7.287558
392.284027	706.544617	5756.826172	1093.736084	7.666730
392.646484	713.306152	5859.884277	1119.964844	7.901536
393.008911	719.101746	5897.704590	1139.580933	8.119549
393.371307	722.816895	5889.084473	1171.828247	8.691214
393.733673	734.408142	5845.543457	1195.233521	9.016106
394.096008	736.117004	5824.812988	1224.657349	9.600502
394.458344	736.414246	5844.726563	1244.421997	9.944727
394.820587	726.457703	5876.007813	1264.632324	10.450905
395.182831	726.234802	5914.273438	1292.644531	10.917608
395.545013	729.281189	5898.075684	1319.096191	11.411075
395.907196	732.550476	5876.750488	1355.801636	12.115608
396.269287	735.374023	5824.144531	1384.854126	12.763006
396.631409	735.002502	5767.154297	1416.358398	13.540051
396.993469	731.138733	5708.009277	1445.113647	14.345860
397.355530	725.566101	5642.103027	1476.766602	15.279057
397.717499	720.364929	5626.499512	1507.305054	16.039921
398.079468	719.324646	5612.232910	1546.239624	16.900276
398.441376	720.290527	5618.845703	1574.697632	17.442022
398.803284	726.011902	5621.595215	1604.270020	17.939804
399.165131	727.572205	5639.279785	1640.306763	18.582836
399.526978	727.126404	5651.093750	1670.919556	19.167332
399.888763	723.262695	5661.941406	1713.941040	20.059584
400.250519	724.302917	5684.455078	1742.398804	20.525496
400.612244	729.652771	5726.807129	1792.404663	21.267143
400.973938	726.086182	5731.117188	1830.596069	22.067991
401.335602	724.823059	5727.699219	1877.555542	23.041395
401.697205	725.343079	5768.417480	1923.177246	23.752064
402.058807	731.361633	5843.166016	1968.799194	24.207451
402.420349	728.983948	5940.725098	2019.770996	24.766907
402.781860	724.302917	6006.037109	2064.649658	25.377018
403.143341	719.250305	6070.309082	2120.971436	26.195213
403.504822	717.987244	6137.479004	2182.791016	27.028433
403.866241	711.151367	6247.669434	2251.372803	27.819315
404.227631	712.488770	6360.460938	2319.656982	28.455667
404.588959	715.312317	6501.933594	2378.875977	28.748447
404.950287	715.683838	6629.585938	2436.683350	29.100912
405.311554	717.987244	6712.582031	2488.620850	29.537169
405.672821	719.844727	6754.265625	2536.174561	30.099489
406.034027	719.696106	6745.126465	2558.391357	30.515585
406.395203	720.959290	6715.257324	2576.075439	30.948015
406.756348	718.953125	6665.919922	2594.427979	31.536663
407.117493	724.600098	6634.044434	2624.446533	32.149326
407.478516	723.262695	6638.725098	2643.096436	32.454498
407.839600	725.045898	6689.994141	2670.811279	32.619987
408.200592	726.234802	6708.049316	2703.133057	33.048470
408.561554	725.046082	6693.560547	2736.495117	33.700996
408.922485	721.553772	6674.539063	2761.014893	34.259468
409.283417	718.953125	6681.671875	2786.352295	34.672089
409.644257	717.169922	6756.644043	2850.846680	35.328850
410.005096	720.959290	6853.162598	2900.035156	35.534962
410.365906	722.148132	6922.339355	2957.694092	36.056080
410.726715	727.795166	7015.217285	2985.260498	35.904469
411.087433	725.120178	7061.804688	3035.711914	36.463734
411.448120	725.714661	7138.782715	3068.033447	36.524155
411.808807	721.553711	7166.052246	3101.321533	36.927120
412.169434	717.615723	7154.162598	3112.912842	37.214008
412.530029	719.621887	7150.670410	3130.373779	37.486141
412.890564	732.104675	7135.142090	3143.079346	37.653606
413.251099	735.448303	7156.540527	3174.806641	37.989773
413.611572	730.767273	7194.880859	3203.413086	38.251892
413.972076	724.971680	7225.568359	3249.406494	38.833893
414.332489	722.965515	7262.645996	3284.328857	39.166489
414.692871	722.296814	7324.391113	3344.885742	39.723591
415.053223	719.473328	7422.099121	3385.157471	39.770741
415.413574	725.343201	7568.921387	3452.624268	39.851681
415.773834	728.018066	7688.027832	3509.466064	39.963276
416.134094	727.052185	7808.026855	3574.778076	40.216579
416.494263	724.525879	7887.382324	3640.610352	40.711197
416.854462	724.080078	8059.838379	3725.613037	40.916466
417.214630	726.903503	8273.162109	3831.568359	41.141773
417.574738	722.445374	8500.305664	3916.125000	41.061161
417.934784	725.863281	8692.898438	3995.926025	41.044914
418.294861	732.996399	8928.438477	4110.798340	41.215614
418.654846	737.900330	9249.500000	4246.103516	41.216732
419.014832	739.832214	9575.762695	4401.767578	41.443684
419.374756	730.098450	9917.407227	4540.713379	41.476944
419.734680	726.160461	10268.117188	4708.935059	41.739601
420.094543	717.318542	10637.030273	4855.534668	41.717102
420.454376	716.203918	10928.147461	5002.728027	41.975594
420.814148	721.479431	11216.813477	5148.509766	42.180939
421.173920	720.216309	11521.602539	5309.003906	42.483318
421.533691	719.101746	11896.459961	5464.371094	42.454304
421.893341	717.541443	12194.785156	5576.419434	42.334885
422.253021	724.971680	12432.034180	5659.192871	42.147388
422.612640	728.315247	12524.614258	5699.315918	42.140339
422.972260	726.903503	12556.269531	5721.161621	42.219154
423.331757	725.417480	12493.260742	5729.557129	42.523846
423.691315	729.801270	12497.940430	5744.492188	42.612438
424.050781	732.178955	12553.148438	5796.355469	42.840622
424.410248	730.618652	12631.760742	5833.878418	42.880417
424.769653	720.736328	12724.563477	5873.630371	42.927094
425.128998	717.095520	12766.842773	5892.726074	42.952190
425.488373	717.987122	12744.997070	5885.890137	42.969143
425.847656	722.222473	12655.315430	5848.441406	42.958008
426.206940	724.302917	12541.407227	5800.219238	42.953979
426.566193	719.176086	12383.218750	5736.095703	43.011841
426.925385	716.426941	12157.784180	5659.712402	43.205414
427.284576	712.265930	11863.840820	5529.607910	43.198757
427.643677	717.021301	11630.456055	5437.324219	43.252220
428.002777	720.439148	11410.891602	5349.870605	43.304359
428.361847	726.680603	11180.479492	5290.799316	43.659904
428.720856	727.200684	10941.670898	5208.621094	43.873253
429.079865	726.903503	10762.675781	5155.271484	44.125832
429.438812	725.268860	10633.313477	5097.910156	44.132229
429.797760	728.092468	10543.779297	5080.151855	44.337803
430.156616	725.789063	10446.590820	5033.860840	44.318069
430.515503	728.984070	10378.975586	5005.922852	44.320652
430.874268	732.699219	10349.476563	4992.994141	44.300652
431.233093	735.745605	10364.932617	5015.433594	44.444954
431.591827	729.206848	10415.458008	5054.219238	44.651043
431.950562	726.903503	10448.894531	5077.179199	44.746758
432.309204	721.405090	10492.287109	5117.376953	44.990532
432.667877	724.154297	10552.546875	5163.816406	45.171803
433.026459	721.702332	10658.131836	5226.453613	45.335716
433.385010	725.194580	10750.042969	5280.991699	45.445045
433.743561	726.383484	10903.626953	5344.743652	45.379288
434.102051	722.445374	11035.291992	5409.980957	45.453362
434.460510	730.247253	11185.606445	5480.271973	45.431484
434.818939	722.816895	11271.203125	5525.744629	45.532345
435.177338	718.433044	11331.387695	5540.382813	45.434563
435.535675	712.265930	11346.247070	5542.388672	45.421581
435.894012	714.643616	11312.218750	5537.633301	45.510315
436.252289	710.928467	11329.233398	5558.586426	45.653786
436.610535	706.841797	11311.846680	5567.279785	45.831551
436.968719	712.860352	11409.331055	5611.787109	45.799469
437.326935	718.284363	11488.538086	5665.210938	45.931385
437.685028	722.371094	11608.387695	5716.628906	45.877735
438.043152	715.980957	11684.176758	5761.729980	46.003456
438.401215	717.987122	11849.500000	5834.769531	45.966640
438.759277	713.529053	12044.842773	5929.208496	46.028908
439.117249	721.107910	12344.430664	6063.770996	45.965027
439.475250	724.600098	12549.804688	6170.468750	46.053059
439.833130	730.767273	12814.024414	6299.235840	46.084171
440.191071	734.779602	12992.648438	6393.748535	46.166008
440.548889	730.915833	13226.924805	6493.240234	46.113319
440.906708	730.321472	13462.539063	6591.394531	46.033405
441.264496	720.662109	13657.657227	6668.595215	45.976158
441.622223	728.538147	13836.058594	6752.482910	45.957928
441.979950	724.897278	13927.301758	6806.278809	46.062679
442.337616	730.321472	13985.778320	6850.488281	46.170925
442.695251	723.411316	13912.144531	6848.853516	46.444508
443.052887	725.789063	13795.859375	6803.677246	46.502338
443.410461	719.324646	13699.563477	6763.851074	46.567142
443.768005	718.210144	13602.301758	6714.142578	46.537487
444.125458	717.764343	13520.643555	6710.725098	46.809479
444.482941	726.383484	13514.178711	6742.972656	47.049465
444.840393	738.049011	13601.039063	6793.869141	47.079414
445.197754	740.203796	13754.696289	6889.645996	47.250729
445.555084	736.117126	13909.246094	6983.712891	47.426815
445.912415	726.011902	14179.411133	7128.009277	47.586468
446.269714	724.451477	14453.661133	7246.076172	47.501820
446.626953	723.262695	14740.991211	7362.434082	47.362675
446.984161	716.426819	14963.230469	7474.631348	47.436638
447.341309	709.293762	15168.676758	7568.697754	47.439117
447.698456	711.820007	15332.664063	7641.589355	47.396507
448.055542	715.832458	15455.559570	7700.288574	47.385246
448.412598	723.411316	15442.557617	7699.025391	47.391430
448.769653	724.451477	15393.666992	7671.681641	47.359245
449.126617	733.293640	15197.284180	7570.630371	47.271442
449.483582	733.219238	15048.604492	7518.989746	47.401943
449.840515	726.457764	14786.687500	7423.139160	47.628536
450.197388	719.176025	14614.007813	7365.257813	47.831322
450.554230	722.668274	14483.235352	7302.099609	47.813663
450.911041	725.491760	14394.815430	7280.552246	47.954536
451.267822	725.937683	14322.293945	7261.010254	48.064884
451.624573	724.674500	14185.801758	7198.596191	48.093460
451.981262	716.575439	14086.012695	7160.850098	48.201538
452.337921	717.615662	13967.351563	7118.795410	48.311752
452.694580	714.123474	13902.187500	7092.195313	48.362453
453.051147	716.649719	13931.536133	7082.535645	48.172081
453.407715	716.501160	13896.762695	7068.343750	48.192085
453.764221	719.696106	13948.179688	7113.519531	48.333759
454.120728	723.411316	13827.364258	7079.638184	48.506180
454.477142	721.627991	13806.784180	7060.615723	48.444111
454.833557	722.816895	13694.808594	6996.864746	48.366108
455.189911	723.857178	13571.093750	6948.492676	48.451164
455.546265	727.497986	13421.523438	6909.781250	48.702309
455.902557	727.646545	13309.549805	6863.119629	48.764267
456.258820	720.959290	13323.964844	6873.893066	48.821159
456.615051	718.061462	13378.429688	6913.347656	48.934486
456.971252	722.965515	13363.493164	6941.137207	49.192345
457.327393	730.990234	13458.601563	7016.406250	49.384098
457.683502	733.962341	13635.291992	7097.841309	49.327309
458.039612	729.429871	13994.174805	7280.255371	49.385235
458.395630	728.983948	14305.651367	7461.628418	49.589817
458.751648	728.538086	14641.424805	7628.808594	49.596252
459.107605	721.256531	15080.406250	7885.302246	49.891853
459.463562	720.662109	15574.221680	8119.503906	49.811909
459.819458	717.392822	16056.594727	8364.108398	49.850807
460.175323	716.798340	16471.501953	8529.357422	49.588741
460.531158	718.432922	16925.490234	8746.915039	49.536949
460.886932	719.919006	17259.408203	8880.883789	49.342304
461.242676	719.547546	17508.248047	9005.861328	49.356487
461.598419	716.501160	17497.845703	8995.681641	49.335625
461.954102	716.724060	17263.123047	8924.574219	49.605057
462.309723	729.949951	16859.138672	8721.801758	49.549000
462.665344	733.888000	16372.602539	8480.244141	49.533199
463.020905	737.380188	15941.277344	8270.932617	49.550140
463.376373	730.841614	15580.389648	8079.529297	49.487617
463.731873	726.829285	15266.014648	7971.716309	49.830074
464.087341	726.011902	15035.081055	7885.004395	50.031155
464.442749	726.160583	14889.745117	7863.085938	50.389259
464.798126	726.234863	14784.085938	7815.160156	50.426804
465.153503	723.336914	14841.372070	7831.730469	50.349735
465.508820	716.426819	14851.776367	7852.162598	50.481495
465.864105	712.117249	14946.734375	7904.620605	50.528252
466.219330	714.494934	15146.238281	8033.312500	50.713329
466.574524	718.581543	15344.477539	8112.296875	50.552219
466.929657	722.891113	15539.226563	8197.077148	50.445576
467.284790	725.640381	15693.403320	8268.852539	50.396389
467.639893	724.154297	15821.204102	8371.018555	50.651382
467.994934	724.897278	16082.971680	8461.743164	50.376404
468.349945	723.411316	16210.698242	8506.473633	50.254524
468.704926	720.736328	16287.899414	8530.769531	50.169918
469.059875	719.176025	16139.516602	8498.001953	50.445229
469.414764	715.089355	15990.243164	8437.445313	50.555012
469.769653	719.547546	15840.820313	8363.068359	50.548134
470.124451	720.067627	15734.937500	8342.337891	50.764812
470.479248	717.541321	15620.437500	8311.799805	50.958271
470.834015	717.169922	15533.429688	8302.957031	51.199070
471.188721	722.371094	15553.342773	8309.941406	51.160305
471.543365	726.234863	15604.834961	8316.554688	51.015015
471.898010	729.058350	15686.195313	8357.942383	51.004974
472.252625	724.080078	15822.838867	8429.124023	51.030975
472.607178	726.903503	15983.183594	8544.367188	51.240955
472.961700	726.011902	16173.622070	8626.249023	51.142132
473.316193	728.166687	16413.619141	8734.804688	51.044994
473.670654	727.572266	16589.494141	8815.571289	50.990032
474.025055	728.389465	16808.685547	8937.428711	51.050297
474.379456	726.457581	17004.919922	9049.997070	51.132221
474.733795	718.878845	17188.669922	9163.233398	51.271778
475.088104	713.306091	17378.886719	9247.938477	51.211136
475.442383	713.826233	17377.845703	9257.895508	51.272560
475.796570	721.776672	17457.572266	9297.053711	51.239140
476.150787	725.566101	17524.371094	9383.096680	51.536587
476.504944	723.114075	17705.447266	9492.097656	51.635914
476.859070	719.473206	17901.310547	9592.035156	51.639187
477.213135	726.606262	18121.320313	9658.610352	51.348953
477.567200	729.875549	18423.955078	9819.252930	51.369595
477.921173	728.315247	18732.904297	9995.945313	51.473709
478.275146	721.256531	19141.123047	10216.029297	51.546368
478.629089	722.371094	19444.353516	10397.625000	51.678577
478.983002	723.262695	19814.753906	10586.651367	51.663792
479.336823	722.816895	20138.861328	10773.820313	51.766483
479.690643	721.925232	20502.349609	10954.153320	51.729065
480.044403	724.823059	20908.710938	11200.987305	51.903595
480.398163	723.559875	21426.675781	11502.507813	52.064377
480.751862	720.587708	22152.166016	11880.632813	52.072903
481.105499	722.742493	23046.326172	12337.296875	52.028179
481.459137	727.200684	24208.419922	12990.714844	52.226906
481.812744	728.018066	25597.287109	13853.666992	52.778584
482.166290	723.782898	27302.978516	14869.163086	53.219746
482.519806	724.005676	29321.337891	16038.242188	53.551277
482.873291	727.869446	31688.771484	17308.597656	53.553764
483.226715	729.206970	34352.972656	18717.376953	53.498379
483.580139	718.878723	37052.539063	20135.593750	53.440018
483.933502	721.999512	39992.996094	21644.607422	53.277508
484.286804	731.435974	42836.859375	23126.275391	53.187546
484.640106	737.305847	45566.074219	24508.306641	53.026215
484.993347	730.693054	47640.675781	25569.126953	52.949142
485.346558	721.033630	48884.656250	26155.671875	52.808819
485.699738	721.479492	49043.066406	26241.564453	52.813015
486.052887	718.804504	48244.457031	25857.570313	52.895149
486.405975	719.473206	46833.300781	25163.804688	53.008682
486.759064	719.993347	45016.156250	24232.791016	53.080887
487.112061	732.699158	43216.621094	23250.212891	53.002438
487.464996	729.652649	41803.679688	22482.369141	52.959785
487.817963	725.789001	41069.566406	22036.033203	52.821640
488.170868	712.934570	40851.710938	21912.095703	52.814663
488.523743	718.210144	40998.085938	21944.195313	52.696251
488.876587	710.408386	41222.480469	21992.119141	52.531776
489.229401	716.426758	41287.644531	21949.244141	52.334679
489.582153	705.058411	40882.699219	21767.873047	52.424221
489.934845	710.631165	40110.468750	21449.560547	52.637096
490.287537	706.990417	39139.625000	21026.482422	52.870415
490.640198	718.061523	38262.410156	20572.861328	52.883595
490.992798	718.953125	37500.656250	20129.720703	52.772888
491.345337	727.497986	37025.417969	19891.060547	52.795204
491.697876	732.253357	36762.089844	19783.396484	52.876019
492.050354	746.222229	36981.800781	19926.800781	52.932999
492.402832	745.033386	37332.363281	20017.078125	52.674099
492.755219	742.878601	37589.671875	20039.814453	52.370731
493.107605	729.504150	37402.425781	19893.216797	52.255756
493.459930	722.222473	36855.933594	19586.568359	52.207054
493.812225	718.655945	35841.402344	19074.697266	52.262547
494.164490	717.838562	34416.058594	18338.505859	52.289612
494.516724	723.857117	32655.154297	17470.056641	52.444469
494.868896	720.513489	30925.312500	16583.177734	52.517033
495.221039	725.714661	29468.830078	15832.348633	52.557400
495.573120	717.244141	28261.708984	15199.066406	52.576160
495.925201	732.401855	27520.837891	14832.308594	52.634304
496.277222	737.305847	27037.943359	14584.731445	52.650536
496.629211	739.757874	26861.177734	14516.002930	52.739265
496.981140	722.816895	26752.470703	14444.299805	52.714809
497.333069	722.371094	26822.835938	14460.795898	52.636707
497.684967	727.646545	26881.833984	14490.664063	52.622616
498.036804	726.754883	26952.867188	14548.324219	52.701553
498.388580	722.891174	26927.009766	14542.231445	52.737282
498.740326	713.529053	26929.833984	14522.690430	52.673943
499.092072	712.117249	26795.937500	14401.500977	52.482281
499.443756	715.015076	26567.607422	14265.676758	52.415100
499.795410	721.999512	26296.103516	14113.727539	52.364410
500.147003	733.665100	25981.208984	14004.949219	52.564655
500.498566	728.538147	25673.001953	13867.562500	52.673111
500.850098	731.956116	25353.275391	13678.315430	52.581909
501.201599	732.773438	25087.794922	13526.661133	52.530800
501.553009	739.980774	24815.921875	13433.561523	52.723095
501.904449	736.265625	24599.701172	13356.954102	52.887138
502.255859	736.191345	24443.812500	13257.909180	52.817268
502.607178	730.470032	24357.546875	13207.828125	52.809574
502.958405	734.110840	24267.865234	13168.968750	52.838394
503.309692	722.816895	24186.353516	13149.502930	52.961689
503.660919	719.324707	24213.025391	13109.006836	52.736183
504.012115	717.021301	24239.330078	13123.643555	52.744068
504.363251	728.761047	24314.080078	13176.546875	52.777691
504.714294	727.646545	24314.822266	13198.093750	52.869606
505.065369	728.835388	24387.119141	13246.168945	52.908886
505.416443	726.160461	24451.390625	13252.929688	52.799358
505.767395	736.117126	24518.783203	13295.729492	52.809944
506.118317	733.813660	24511.947266	13295.803711	52.830009
506.469238	727.423584	24516.259766	13327.531250	52.966473
506.820160	718.433044	24515.068359	13339.196289	53.035919
507.170929	726.606262	24578.896484	13366.614258	52.992847
507.521729	727.497864	24640.044922	13384.148438	52.928909
507.872498	722.891113	24748.677734	13435.640625	52.912937
508.223236	715.832336	24864.439453	13537.657227	53.095505
508.573883	715.015137	25005.763672	13644.504883	53.228046
508.924500	725.268860	25156.968750	13720.145508	53.188591
509.275116	728.761047	25318.650391	13765.842773	53.018059
509.625702	729.429871	25512.138672	13853.890625	52.958138
509.976196	729.949890	25750.203125	13974.410156	52.934956
510.326660	728.983948	26007.291016	14114.991211	52.954525
510.677124	732.624756	26257.837891	14256.909180	52.984020
511.027557	736.860046	26456.822266	14403.583008	53.136635
511.377869	733.888000	26658.257813	14520.015625	53.178257
511.728180	736.265625	26780.853516	14593.054688	53.204102
512.078430	728.909668	26911.775391	14645.882813	53.152977
512.428650	722.891174	26987.416016	14691.208008	53.183205
512.778931	715.535217	27081.853516	14740.397461	53.192341
513.129028	716.724060	27152.072266	14766.105469	53.146198
513.479126	718.581604	27236.554688	14817.820313	53.168613
513.829285	726.160461	27317.244141	14826.440430	53.026348
514.179382	727.943665	27342.880859	14857.276367	53.087982
514.529297	729.206848	27331.810547	14841.596680	53.048904
514.879272	721.256409	27344.068359	14873.398438	53.157951
515.229187	715.683777	27276.826172	14826.959961	53.127522
515.579163	719.324646	27295.400391	14845.907227	53.155262
515.928955	715.535156	27295.548828	14900.964844	53.368782
516.278748	718.210144	27469.937500	14991.093750	53.353130
516.628540	715.238037	27678.281250	15136.058594	53.483654
516.978333	720.959290	27983.740234	15285.854492	53.424099
517.327942	725.194519	28340.468750	15547.918945	53.675819
517.677612	726.309082	28801.218750	15789.551758	53.653751
518.027222	724.971680	29323.939453	16077.250977	53.681232
518.376831	725.640381	29946.375000	16354.473633	53.485420
518.726379	724.748718	30522.517578	16662.458984	53.486252
519.075867	724.302917	31028.445313	16900.228516	53.378597
519.425293	727.052063	31512.078125	17159.023438	53.376507
519.774658	724.600159	31866.724609	17304.953125	53.240917
520.124084	730.247131	32076.781250	17381.634766	53.120346
520.473389	725.640381	32032.201172	17347.083984	53.092525
520.822693	727.869446	31863.531250	17259.927734	53.096859
521.171997	730.395691	31540.763672	17148.398438	53.287266
521.521240	731.733154	31202.312500	16971.632813	53.296982
521.870361	732.550476	30808.734375	16780.525391	53.357750
522.219482	729.058289	30542.802734	16569.208984	53.130363
522.568604	725.566101	30234.447266	16425.285156	53.203369
522.917664	715.832336	30026.994141	16333.967773	53.283920
523.266724	715.237976	29900.751953	16350.833008	53.573135
523.615662	715.683777	30034.718750	16452.777344	53.675346
523.964600	728.315247	30330.443359	16644.179688	53.765945
524.313538	726.309082	30793.351563	16890.716797	53.761215
524.662354	732.773438	31304.033203	17209.328125	53.895569
525.011169	737.008728	32028.562500	17580.544922	53.827740
525.359985	741.020996	32827.984375	18079.857422	54.037010
525.708740	736.414246	33832.332031	18604.359375	53.988365
526.057434	738.643311	34949.773438	19256.884766	54.129292
526.406067	730.692932	36279.269531	19952.732422	54.072598
526.754700	724.748779	37780.261719	20803.722656	54.186203
527.103333	720.067688	39501.332031	21799.378906	54.354366
527.451782	721.182190	41415.371094	22930.638672	54.576485
527.800293	732.773438	43362.917969	24064.201172	54.729881
528.148743	722.148132	45291.449219	25185.427734	54.888184
528.497131	720.736328	47091.136719	26219.498047	54.989307
528.845642	714.940735	48792.449219	27234.546875	55.160107
529.193909	716.946960	50341.136719	28172.765625	55.327488
529.542175	711.597168	51640.390625	28960.376953	55.467209
529.890503	707.733398	52523.328125	29443.494141	55.457748
530.238770	714.197754	52831.531250	29606.070313	55.436211
530.586914	727.200684	52720.824219	29453.447266	55.249554
530.934998	722.593933	51970.144531	28995.966797	55.170193
531.283142	722.445313	50811.105469	28225.375000	54.908497
531.631226	722.222412	49007.175781	27143.228516	54.718922
531.979248	732.847717	47010.144531	25918.869141	54.424141
532.327148	732.401917	44964.074219	24743.994141	54.285969
532.675110	730.915833	43314.472656	23798.716797	54.170673
533.023071	730.544250	42253.281250	23204.962891	54.125568
533.370850	731.213074	41752.777344	22896.234375	54.032612
533.718689	723.114075	41808.730469	22869.781250	53.903702
534.066467	718.135925	42037.582031	22950.921875	53.807076
534.414246	719.176086	42262.347656	23049.521484	53.752144
534.761963	724.600098	42373.429688	23099.228516	53.722111
535.109619	731.881836	42431.609375	23115.427734	53.677921
535.457153	734.110840	42218.363281	22944.751953	53.539928
535.804749	739.534973	41639.246094	22657.646484	53.589893
536.152344	733.813660	40845.320313	22233.007813	53.598568
536.499817	728.686829	39882.875000	21765.349609	53.727745
536.847229	724.451477	38920.878906	21223.310547	53.666958
537.194641	722.148132	37995.363281	20668.193359	53.513081
537.542114	720.662109	37349.750000	20242.587891	53.296242
537.889404	720.513489	36892.714844	19978.888672	53.240814
538.236694	722.371094	36538.363281	19807.619141	53.286945
538.583984	725.566101	36284.691406	19706.642578	53.378918
538.931213	726.086182	36114.761719	19645.416016	53.461536
539.278381	722.891113	36002.714844	19605.888672	53.523502
539.625488	718.210144	35900.921875	19565.390625	53.569435
539.972595	717.467102	35950.035156	19673.947266	53.803860
540.319641	709.888184	36259.953125	19925.388672	54.051937
540.666687	710.556946	36799.242188	20294.599609	54.266438
541.013611	710.408386	37688.347656	20755.646484	54.208645
541.360596	717.095520	38732.746094	21276.732422	54.082031
541.707458	715.981018	40031.851563	21933.642578	53.967167
542.054260	718.210144	41243.730469	22493.140625	53.731403
542.401062	724.451599	42419.644531	23118.103516	53.707996
542.747864	726.160461	43312.097656	23513.765625	53.509697
543.094666	726.309082	43824.343750	23754.281250	53.431606
543.441284	728.092346	43770.027344	23641.416016	53.234886
543.787903	727.572266	43307.937500	23356.466797	53.143963
544.134460	728.389587	42395.277344	22888.951172	53.185070
544.481079	722.668274	41192.460938	22265.552734	53.232010
544.827637	726.829285	39689.691406	21480.025391	53.264042
545.174072	723.857117	38105.480469	20595.005859	53.157528
545.520508	723.485596	36716.839844	19847.521484	53.132126
545.866943	718.730225	35478.957031	19193.876953	53.150249
546.213318	722.296692	34539.097656	18704.521484	53.175415
546.559631	723.262695	33726.527344	18230.468750	53.046894
546.905823	723.337097	33061.441406	17844.169922	52.943214
547.252136	720.736389	32523.861328	17544.878906	52.900909
547.598389	718.507324	32056.275391	17311.791016	52.949795
547.944458	716.575500	31740.859375	17130.789063	52.907631
548.290588	715.089355	31368.306641	16918.728516	52.861137
548.636658	719.473328	30905.771484	16654.804688	52.789948
548.982727	726.680664	30299.685547	16349.124023	52.826706
549.328735	730.841614	29731.789063	16021.968750	52.726303
549.674622	726.903503	29099.916016	15665.985352	52.652435
550.020569	726.531982	28502.748047	15326.421875	52.562557
550.366455	729.578430	27778.072266	14954.463867	52.590305
550.712280	728.538147	27131.341797	14609.327148	52.573166
551.058044	726.903503	26562.703125	14310.481445	52.576576
551.403748	721.405090	26057.443359	14074.421875	52.703648
551.749512	723.782776	25730.140625	13943.203125	52.864235
552.095154	722.371094	25497.275391	13826.844727	52.894146
552.440735	732.699158	25416.880859	13776.393555	52.842319
552.786316	733.219238	25338.492188	13738.945313	52.857475
553.131897	732.624817	25334.330078	13745.409180	52.893829
553.477417	717.318420	25356.396484	13731.661133	52.819927
553.822815	716.575439	25389.833984	13686.858398	52.568184
554.168213	718.061523	25414.650391	13667.020508	52.432175
554.513672	721.330872	25383.517578	13651.416992	52.428787
554.859009	719.324646	25273.177734	13611.292969	52.504871
555.204285	719.621887	25099.906250	13546.649414	52.612293
555.549500	715.758118	24898.544922	13429.325195	52.572796
555.894714	724.302917	24720.218750	13324.558594	52.510002
556.239990	722.816895	24462.685547	13171.866211	52.439415
556.585022	730.395752	24209.015625	13037.007813	52.416252
556.930115	724.525879	23925.552734	12880.377930	52.393593
557.275146	728.538269	23680.203125	12748.713867	52.371696
557.620178	724.377258	23486.125000	12650.856445	52.397030
557.965149	723.039734	23303.193359	12586.583008	52.539688
558.310059	720.439148	23138.312500	12501.877930	52.553776
558.654968	723.039795	22969.201172	12426.757813	52.610054
558.999756	718.210144	22886.130859	12357.062500	52.503132
559.344604	722.222473	22848.013672	12313.668945	52.388844
559.689331	724.971680	22796.890625	12276.890625	52.337631
560.033997	729.578430	22684.916016	12247.541992	52.460880
560.378723	725.789001	22645.015625	12249.695313	52.574421
560.723389	720.736389	22634.687500	12220.866211	52.478577
561.067932	718.433044	22713.896484	12238.773438	52.375988
561.412476	721.627991	22689.599609	12220.940430	52.345810
561.757019	726.011902	22717.460938	12218.636719	52.259518
562.101501	731.956055	22710.179688	12234.389648	52.335594
562.445862	730.098450	22733.437500	12246.277344	52.338322
562.790222	728.389465	22733.958984	12267.676758	52.438026
563.134644	728.463806	22720.955078	12243.899414	52.360756
563.478943	734.036438	22735.146484	12244.567383	52.317959
563.823181	727.200684	22770.664063	12242.786133	52.240368
564.167358	727.349304	22807.740234	12243.304688	52.154671
564.511536	721.999512	22849.796875	12281.421875	52.239372
564.855774	731.956055	22830.476563	12282.684570	52.269241
565.199768	729.132568	22896.531250	12321.250000	52.293541
565.543823	721.850891	22951.960938	12345.546875	52.288074
565.887817	717.912903	23140.244141	12443.922852	52.296120
566.231812	719.919128	23267.525391	12525.581055	52.358829
566.575745	728.315247	23499.646484	12593.047852	52.103813
566.919617	724.154297	23689.787109	12675.003906	52.037971
567.263428	725.714661	23885.351563	12767.659180	51.995396
567.607239	721.702332	24058.404297	12874.059570	52.074017
567.950989	724.525818	24132.408203	12926.147461	52.126125
568.294678	719.844727	24209.757813	12916.338867	51.922260
568.638367	717.689941	24096.521484	12907.718750	52.141312
568.981995	716.129639	24022.218750	12861.875000	52.114040
569.325623	726.234802	23867.000000	12822.791992	52.273800
569.669128	733.813660	23757.923828	12738.086914	52.137840
570.012573	734.482422	23614.000000	12669.729492	52.165642
570.356140	727.200745	23580.562500	12607.313477	51.984093
570.699524	717.987122	23511.906250	12553.816406	51.925377
571.042908	723.782776	23520.677734	12558.051758	51.911758
571.386230	718.358704	23580.640625	12589.852539	51.926113
571.729492	727.275085	23690.310547	12679.833008	52.051296
572.072815	721.850891	23848.646484	12758.148438	52.044815
572.416016	726.086243	23908.978516	12830.221680	52.211498
572.759094	723.336975	24048.671875	12883.422852	52.132526
573.102234	722.816895	24117.548828	12923.398438	52.150978
573.445374	718.878906	24194.376953	12944.500000	52.078217
573.788391	715.906738	24226.177734	12918.122070	51.901634
574.131409	717.169861	24279.083984	12902.666992	51.716923
574.474365	719.250305	24297.138672	12884.760742	51.597118
574.817261	721.256531	24192.890625	12855.040039	51.695518
575.160156	721.330811	24023.630859	12782.520508	51.759651
575.502930	718.433044	23805.775391	12674.410156	51.785854
575.845703	720.810730	23636.734375	12547.723633	51.610020
576.188477	735.002502	23419.177734	12422.299805	51.521805
576.531250	734.036621	23223.242188	12295.465820	51.408798
576.873901	728.389587	22974.548828	12179.627930	51.475124
577.216431	715.609558	22722.439453	12051.678711	51.511597
577.559082	716.649719	22459.705078	11921.128906	51.531303
577.901611	717.541321	22224.017578	11799.718750	51.529491
578.244080	718.061523	22005.345703	11659.583008	51.399326
578.586487	726.977844	21728.271484	11539.362305	51.484375
578.928955	767.472839	21454.093750	11401.975586	51.407635
579.271301	763.460449	21100.857422	11213.617188	51.383942
579.613647	755.658691	20740.341797	11018.424805	51.353157
579.955872	716.278259	20392.455078	10819.888672	51.349457
580.298157	717.912903	20104.978516	10686.738281	51.419979
580.640320	721.033508	19884.968750	10567.556641	51.380486
580.982483	723.559875	19662.728516	10454.541992	51.380199
581.324524	723.336975	19465.677734	10353.563477	51.382198
581.666626	729.058289	19282.892578	10251.174805	51.321556
582.008728	727.646484	19133.544922	10179.621094	51.352966
582.350647	730.470032	19011.169922	10112.377930	51.321384
582.692566	727.423645	18953.435547	10073.889648	51.280918
583.034424	723.782776	18910.042969	10039.487305	51.223858
583.376343	720.959290	18843.023438	10006.125000	51.236801
583.718201	719.027527	18774.662109	9983.387695	51.310078
584.059937	719.993347	18675.466797	9933.530273	51.313251
584.401611	715.015137	18606.218750	9879.809570	51.225147
584.743347	712.191589	18529.685547	9819.328125	51.113453
585.085022	707.882019	18476.189453	9773.482422	51.021183
585.426514	715.015137	18363.916016	9744.058594	51.159237
585.768127	714.643555	18261.898438	9677.854492	51.080421
586.109619	714.420654	18156.537109	9626.735352	51.096516
586.451172	708.625061	18144.873047	9587.131836	50.919823
586.792542	711.448547	18121.466797	9596.866211	51.036240
587.133850	721.999573	18121.914063	9585.125977	50.937756
587.475220	725.045959	18100.216797	9583.490234	50.983353
587.816589	725.491760	18054.966797	9571.899414	51.048328
588.157776	722.668274	18072.353516	9580.072266	51.052246
588.498962	729.132629	18123.400391	9595.230469	50.971378
588.840210	720.142029	18153.492188	9596.270508	50.914650
589.181335	726.754883	18217.320313	9637.137695	50.943935
589.522400	724.377197	18224.525391	9644.641602	50.972507
589.863403	729.875671	18306.408203	9682.015625	50.932339
590.204407	726.754883	18288.576172	9657.496094	50.853165
590.545410	729.132568	18367.039063	9676.590820	50.728573
590.886353	741.987000	18389.849609	9661.136719	50.539543
591.227112	737.825989	18399.210938	9675.031250	50.603081
591.567932	732.179016	18358.269531	9637.359375	50.522724
591.908752	728.240967	18278.171875	9604.221680	50.575584
592.249512	730.470032	18282.705078	9597.162109	50.516033
592.590149	731.436035	18207.064453	9557.782227	50.506599
592.930786	729.504150	18162.111328	9545.447266	50.571571
593.271423	723.559875	18046.568359	9475.676758	50.523079
593.612000	723.411316	17934.818359	9444.247070	50.668934
593.952576	718.804504	17897.814453	9427.604492	50.694424
594.292969	719.250305	17882.732422	9414.005859	50.658459
594.633484	717.541321	17962.904297	9431.169922	50.527370
594.973877	718.358704	18033.791016	9445.510742	50.401009
595.314209	728.761169	18145.615234	9503.244141	50.379269
595.654480	729.652771	18286.642578	9578.512695	50.400784
595.994812	731.361755	18443.496094	9670.276367	50.467747
596.335022	725.566101	18642.626953	9781.730469	50.544922
596.675171	727.275085	18764.037109	9845.110352	50.551395
597.015320	722.519714	18923.044922	9907.524414	50.465603
597.355408	728.315247	19015.031250	9920.675781	50.267963
597.695496	722.073914	19173.148438	9979.821289	50.174568
598.035461	720.142029	19187.044922	9972.836914	50.104210
598.375366	711.299988	19227.539063	9987.845703	50.099518
598.715271	720.810730	19185.484375	9967.264648	50.076454
599.055176	730.841492	19076.556641	9923.574219	50.108337
599.395081	730.098450	18905.212891	9856.553711	50.214016
599.734802	731.956055	18651.990234	9717.903320	50.144695
600.074524	726.680603	18374.691406	9564.989258	50.081043
600.414246	730.395691	18018.560547	9374.402344	49.999565
600.753906	728.166687	17672.457031	9211.458008	50.065777
601.093506	726.531982	17320.412109	9049.105469	50.154472
601.433044	728.761047	17075.287109	8943.818359	50.255676
601.772583	732.996399	16888.710938	8853.243164	50.262379
602.112122	739.014893	16850.072266	8812.821289	50.113449
602.451538	730.395813	16836.402344	8786.444336	50.018906
602.790894	728.315369	16900.005859	8817.875977	50.022976
603.130310	728.315247	16994.962891	8858.964844	49.983559
603.469604	732.104736	17149.812500	8926.581055	49.912430
603.808838	720.513489	17357.933594	9008.313477	49.814213
604.148010	723.708496	17604.693359	9134.331055	49.823059
604.487305	727.943787	17835.626953	9266.515625	49.910744
604.826416	734.110840	18046.349609	9380.199219	49.942059
605.165527	725.789001	18246.296875	9449.374023	49.790707
605.504456	723.485596	18442.380859	9503.763672	49.553196
605.843445	726.309082	18580.064453	9563.131836	49.495594
606.182434	729.504150	18687.208984	9616.036133	49.485901
606.521423	732.104736	18645.228516	9603.999023	49.527348
606.860229	729.578430	18548.337891	9546.116211	49.478966
607.199036	730.024231	18376.994141	9469.435547	49.523579
607.537903	728.761047	18198.966797	9387.405273	49.562351
607.876648	727.572266	17945.294922	9262.427734	49.570175
608.215271	720.885010	17642.212891	9103.643555	49.539604
608.553955	717.615723	17330.960938	8952.584961	49.568394
608.892578	725.937683	17085.689453	8801.454102	49.362099
609.231140	726.234863	16892.947266	8713.851563	49.407799
609.569641	725.491699	16780.304688	8638.137695	49.285198
609.908081	716.352539	16749.988281	8618.223633	49.283089
610.246521	724.525818	16790.185547	8594.372070	48.985516
610.584961	728.463867	16829.123047	8591.325195	48.835648
610.923340	726.754883	16829.492188	8596.601563	48.872726
611.261597	723.559875	16762.546875	8588.651367	49.037331
611.599854	718.135742	16723.091797	8583.375977	49.142529
611.938110	721.627991	16651.166016	8540.057617	49.081333
612.276245	720.364807	16511.031250	8464.120117	49.040081
612.614319	723.782776	16244.061523	8342.561523	49.089188
612.952393	723.782898	15944.843750	8179.392578	48.982197
613.290466	728.612488	15622.742188	8023.132813	48.975807
613.628479	722.891174	15321.518555	7850.304688	48.822495
613.966370	727.795105	15020.666992	7743.458496	49.085052
614.304260	720.959290	14788.543945	7611.941895	48.984829
614.642151	722.073914	14581.686523	7487.039063	48.810638
614.979980	715.015137	14417.699219	7381.455566	48.650620
615.317749	714.420654	14259.210938	7311.685059	48.707027
615.655396	723.114075	14167.968750	7290.285645	48.845238
615.993164	718.953125	14052.575195	7256.329590	49.029263
616.330811	724.823059	14006.879883	7240.503418	49.056259
616.668396	711.820129	13922.916992	7216.503418	49.236511
617.005859	723.559875	13938.745117	7175.488281	48.822079
617.343445	720.662109	13938.000977	7163.376953	48.744419
617.680908	730.990173	13984.515625	7147.699219	48.415112
618.018311	726.531982	13994.843750	7179.203125	48.632195
618.355652	724.005676	14019.140625	7163.748047	48.436832
618.692993	725.789001	14038.980469	7167.240234	48.383976
619.030273	727.497864	14045.370117	7153.642578	48.252037
619.367554	733.665039	14033.182617	7161.964355	48.334831
619.704712	729.875671	13996.625977	7164.713379	48.503498
620.041870	733.144958	13989.566406	7152.900391	48.427513
620.379028	727.572266	13983.920898	7130.312012	48.299423
620.716064	730.544373	13966.534180	7103.562988	48.149162
621.053040	720.662109	13905.233398	7078.151855	48.219162
621.389954	718.284363	13814.137695	7061.359375	48.435753
621.726929	714.494934	13728.765625	7036.021973	48.573807
622.063843	719.176025	13662.188477	7001.322754	48.536972
622.400635	723.782776	13623.254883	6954.437500	48.301628
622.737427	727.275085	13600.444336	6925.311035	48.146935
623.074219	724.600159	13540.928711	6896.035156	48.152912
623.410889	728.092346	13486.539063	6874.413574	48.174526
623.747559	722.891174	13466.328125	6852.419922	48.099495
624.084167	734.333801	13464.768555	6835.701660	47.927410
624.420715	725.343201	13444.112305	6826.191406	47.967281
624.757324	727.646545	13421.151367	6806.649902	47.890659
625.093750	723.039734	13433.411133	6809.324219	47.884399
625.430176	728.686768	13456.073242	6820.691895	47.865322
625.766602	736.340027	13462.463867	6834.810059	47.920876
626.102905	729.652649	13516.036133	6861.633301	47.957111
626.439209	724.377197	13601.929688	6877.831543	47.784344
626.775452	716.055359	13714.276367	6910.821777	47.658573
627.111694	715.237976	13789.171875	6919.737793	47.457024
627.447876	718.581604	13858.424805	6956.666504	47.474579
627.783997	716.203918	13925.445313	7012.689941	47.667278
628.120056	719.324646	14022.112305	7062.176270	47.680618
628.456055	721.627991	14068.625977	7045.755371	47.382397
628.792053	721.182190	14053.022461	6997.013184	47.074005
629.128052	719.398926	13962.596680	6965.359863	47.163544
629.463928	718.730225	13858.200195	6956.963379	47.477055
629.799744	726.011902	13752.690430	6935.044434	47.663975
630.135559	722.891113	13635.812500	6859.775879	47.525143
630.471375	718.433044	13492.706055	6776.259277	47.422081
630.807068	721.256531	13346.477539	6690.143066	47.277485
631.142700	724.080078	13236.731445	6641.400391	47.290699
631.478333	729.652771	13102.838867	6596.893066	47.418991
631.813965	719.993408	12986.109375	6528.533691	47.354355
632.149475	715.683838	12792.997070	6458.317871	47.548935
632.484924	717.615723	12713.641602	6405.340332	47.413410
632.820435	723.485596	12605.828125	6358.900879	47.426800
633.155884	732.699158	12558.942383	6298.938965	47.066845
633.491150	742.284180	12498.534180	6260.673340	46.940044
633.826477	745.776428	12454.027344	6233.924316	46.874191
634.161804	736.265686	12386.040039	6207.472656	46.964062
634.497009	722.593994	12286.252930	6167.794434	47.088902
634.832153	708.253601	12186.834961	6119.720703	47.144043
635.167297	707.882080	12130.586914	6091.485840	47.130722
635.502380	711.597168	12080.136719	6046.384277	46.925880
635.837463	718.878845	12008.359375	6005.591797	46.828663
636.172424	725.343079	11925.289063	5947.115723	46.623192
636.507324	726.309082	11832.485352	5895.326660	46.541832
636.842224	727.720886	11761.229492	5848.069824	46.407261
637.177124	730.470032	11660.401367	5820.503906	46.569675
637.511963	726.309082	11538.840820	5771.910156	46.664383
637.846741	721.330811	11405.020508	5720.046387	46.788292
638.181396	709.813904	11251.808594	5662.090332	46.976650
638.516113	707.882019	11151.278320	5609.855469	46.938499
638.850769	717.689941	11029.421875	5568.691895	47.043522
639.185303	726.532043	10980.827148	5509.621094	46.644737
639.519836	725.566101	10914.475586	5470.314453	46.567776
639.854370	715.683838	10826.872070	5427.590820	46.600925
640.188843	717.764343	10715.715820	5386.649902	46.698425
640.523254	720.067688	10588.954102	5326.836426	46.679718
640.857605	723.931396	10525.575195	5285.598145	46.539818
641.191895	716.055359	10454.319336	5236.558594	46.420013
641.526184	716.352539	10411.965820	5215.010254	46.398899
641.860413	712.340149	10340.040039	5157.723145	46.172844
642.194580	713.454773	10264.995117	5146.578125	46.412659
642.528748	715.312317	10165.206055	5130.230957	46.719238
642.862793	720.662109	10119.956055	5118.788574	46.792095
643.196838	723.039795	10083.547852	5077.328125	46.517647
643.530823	730.544373	10049.815430	5043.074219	46.275394
643.864746	730.247131	9970.831055	5012.609863	46.342987
644.198669	736.117004	9907.896484	4988.684570	46.365784
644.532532	728.983948	9873.642578	4953.316406	46.194538
644.866333	732.327637	9840.354492	4947.743652	46.282425
645.200073	732.179016	9838.794922	4938.604492	46.190872
645.533813	729.058289	9816.503906	4932.288574	46.253159
645.867554	723.411316	9814.051758	4910.443848	46.058720
646.201172	721.033508	9775.636719	4888.375488	46.024563
646.534729	724.080017	9797.333008	4879.979492	45.803852
646.868225	721.627991	9813.011719	4869.874512	45.628330
647.201782	712.265930	9816.950195	4873.664063	45.706120
647.535217	713.008972	9790.944336	4867.942383	45.769588
647.868591	718.953125	9795.253906	4878.419434	45.827770
648.201965	729.281189	9812.268555	4891.199707	45.821030
648.535278	728.612488	9807.364258	4882.580566	45.754837
648.868591	728.761047	9783.736328	4874.184082	45.780609
649.201782	720.662109	9746.734375	4843.125488	45.672836
649.534912	722.742493	9721.992188	4831.460449	45.656223
649.868103	717.392761	9695.390625	4809.541016	45.579739
650.201172	719.993408	9674.437500	4800.327637	45.567699
650.534180	718.953125	9636.541992	4776.698730	45.502720
650.867188	720.959290	9607.563477	4756.043457	45.406368
651.200134	724.080017	9568.407227	4748.612793	45.504112
651.533020	721.107910	9532.816406	4725.876465	45.448261
651.865845	730.544434	9493.659180	4707.003418	45.377232
652.198608	735.225403	9461.411133	4663.610840	45.018360
652.531433	735.968445	9429.015625	4651.275879	45.039528
652.864136	729.058289	9357.833008	4619.919922	45.091705
653.196777	1342.947388	9988.440430	4991.434082	42.201027
653.529358	1369.473511	9957.307617	4980.140137	42.043972
653.861938	1370.216431	9914.658203	4956.734863	41.974873
654.194519	754.246887	9174.602539	4530.385254	44.845356
654.526978	740.872375	9110.851563	4486.844238	44.754852
654.859375	737.083008	9049.774414	4470.051758	44.906860
655.191833	733.665100	9017.675781	4469.903320	45.101803
655.524170	725.863281	8954.145508	4455.191406	45.323288
655.856445	730.395752	8930.963867	4428.219238	45.092281
656.188660	751.646301	8909.194336	4417.073730	44.932957
656.520874	750.606140	8872.414063	4386.684082	44.769314
656.853088	748.897156	8860.154297	4379.476563	44.759762
657.185181	726.532043	8800.860352	4362.609863	45.032574
657.517212	720.513489	8821.665039	4378.213379	45.150372
657.849243	719.176025	8854.358398	4374.943848	44.937748
658.181274	719.919128	8941.738281	4394.856934	44.697380
658.513123	716.278259	8977.032227	4405.111328	44.654919
658.844971	712.265869	9031.049805	4445.680176	44.879326
659.176819	717.764343	9081.055664	4482.386230	45.013641
659.508667	724.525879	9172.299805	4507.945801	44.786003
659.840393	726.977844	9257.227539	4533.506348	44.623882
660.172058	729.206848	9327.741211	4532.614258	44.233208
660.503662	725.417480	9383.914063	4561.666504	44.306183
660.835266	728.835449	9434.290039	4579.202637	44.229362
661.166931	719.844727	9412.593750	4567.462891	44.262386
661.498413	721.850891	9368.829102	4539.153320	44.146084
661.829773	721.405090	9270.081055	4484.466309	44.019230
662.161194	728.092346	9165.314453	4435.055176	43.935825
662.492615	728.389465	9041.452148	4377.544434	43.896641
662.823975	741.020996	8878.803711	4324.343750	44.033157
663.155212	738.940613	8737.405273	4281.916992	44.295704
663.486450	740.575256	8580.032227	4218.833984	44.368618
663.817627	731.287415	8454.385742	4144.679688	44.197189
664.148743	729.727051	8314.176758	4059.677734	43.904976
664.479858	724.005676	8211.862305	4004.322266	43.808487
664.810913	712.191589	8110.513184	3953.870361	43.816406
665.141907	713.751953	8045.275391	3918.948242	43.718014
665.472778	717.467102	7966.291504	3892.719482	43.803688
665.803711	732.104736	7904.769531	3888.113037	44.000496
666.134583	730.544434	7853.722656	3864.707764	43.999508
666.465454	729.950012	7811.667480	3847.840576	44.027325
666.796143	719.101746	7779.865723	3802.590088	43.670746
667.126831	722.891174	7754.157715	3793.525391	43.671139
667.457458	729.132629	7736.324707	3771.383545	43.416122
667.788147	735.522644	7713.885254	3767.965576	43.454933
668.118774	731.584656	7681.711426	3760.312256	43.578018
668.449219	720.290588	7685.576172	3752.212891	43.529045
668.779663	720.736328	7691.074219	3758.380127	43.579578
669.110107	723.262695	7668.932129	3732.077148	43.319286
669.440552	732.624817	7618.480469	3722.789063	43.424732
669.770874	729.504150	7577.911621	3696.634766	43.325851
670.101135	724.823059	7561.268066	3689.724609	43.369057
670.431396	727.497864	7528.723145	3665.501953	43.198162
670.761597	729.058350	7469.875488	3636.523682	43.132236
671.091797	731.584656	7443.869629	3616.016357	42.972424
671.421875	720.067688	7411.845215	3606.654297	43.136322
671.751892	717.764343	7412.364746	3597.737549	43.019341
672.081909	717.764343	7369.863770	3583.768799	43.084206
672.411865	720.141907	7311.907715	3551.373047	42.951031
672.741821	716.352539	7256.329590	3523.360596	42.920765
673.071716	714.272156	7203.871582	3505.676758	43.013508
673.401550	717.169922	7182.250000	3495.497314	42.974369
673.731262	723.485596	7141.902832	3481.305420	42.967289
674.060974	727.052063	7130.460449	3453.218994	42.573689
674.390625	722.445313	7098.063965	3444.971436	42.702148
674.720276	716.798340	7061.656250	3423.646484	42.662075
675.049927	719.250305	7015.811035	3415.547607	42.821751
675.379395	726.383362	6991.886230	3383.671875	42.411415
675.708923	732.550537	6940.468750	3362.124023	42.358379
676.038330	733.219238	6901.459473	3342.433594	42.300789
676.367737	735.002502	6844.321777	3317.839844	42.277008
676.697083	741.095398	6801.151855	3320.291260	42.560589
677.026428	740.649597	6753.077637	3295.474609	42.492397
677.355652	731.287354	6733.238281	3278.533203	42.440296
677.684875	728.909668	6762.216309	3268.502686	42.092888
678.013977	718.655945	6739.554688	3270.731445	42.386951
678.343079	719.844727	6741.560547	3266.942139	42.298531
678.672180	708.179199	6725.808594	3251.189697	42.259342
679.001221	704.166809	6773.807129	3248.663330	41.921703
679.330139	709.145203	6781.683594	3259.734619	42.002029
679.659058	711.522766	6800.927734	3265.753174	41.945488
679.987976	720.216248	6823.887207	3283.362549	41.993519
680.316772	714.494934	6881.546387	3288.266846	41.734241
680.645630	711.820068	6925.087891	3308.179932	41.787350
680.974304	717.467102	6970.189941	3313.381104	41.516541
681.302979	722.519714	6996.493652	3329.950928	41.559483
681.631653	728.240967	7036.468262	3343.325439	41.455139
681.960266	721.553711	7078.820313	3346.148682	41.284962
682.288757	720.290588	7098.658691	3356.774170	41.334766
682.617249	717.244141	7088.107910	3356.699951	41.430111
682.945679	721.925293	7060.467285	3343.176758	41.354172
683.274109	733.070618	7037.656250	3326.458252	41.134945
683.602478	745.033386	7001.173340	3293.393799	40.733749
683.930725	733.516418	6926.500000	3264.267334	40.864811
684.259033	726.531982	6839.416504	3241.233398	41.137718
684.587280	721.033630	6775.665527	3216.639404	41.218124
684.915344	731.436035	6718.674316	3202.075439	41.265091
685.243469	733.962341	6664.359375	3168.788086	41.056705
685.571533	735.076843	6584.186035	3135.500732	41.039135
685.899536	733.590820	6517.611328	3100.132568	40.915169
686.227539	732.178955	6444.869629	3071.005859	40.940899
686.555420	733.442200	6408.609863	3058.448486	40.968067
686.883301	730.395752	6394.120605	3050.795654	40.969505
687.211121	725.937683	6400.957031	3044.108154	40.848679
687.538940	713.751953	6396.869629	3039.278564	40.919910
687.866638	718.061523	6373.539063	3032.739990	40.928082
688.194336	717.615662	6363.804688	3033.037109	41.008572
688.521973	725.268860	6344.783691	3032.888672	41.064400
688.849609	718.210144	6331.854980	3029.470703	41.172188
689.177063	716.798340	6328.363281	3020.257080	41.048420
689.504578	717.541321	6313.799316	2995.439697	40.703957
689.832031	715.981018	6279.769043	2970.771484	40.526176
690.159485	715.386658	6201.676270	2934.660156	40.451263
690.486816	706.024475	6115.410645	2902.932861	40.612896
690.814087	719.919128	6041.925293	2888.221436	40.742195
691.141296	721.330811	5934.261230	2865.633057	41.134293
691.468506	722.073914	5831.648926	2820.754639	41.073486
691.795715	716.872620	5719.451660	2755.665039	40.754826
692.122803	720.959290	5645.595215	2711.009277	40.410095
692.449829	730.990173	5592.691406	2682.477051	40.139999
692.776855	730.767273	5552.122559	2660.111816	40.016640
693.103821	723.336914	5502.116699	2622.663330	39.745007
693.430664	715.460876	5428.036621	2602.452881	40.041626
693.757568	710.482666	5344.892090	2580.459229	40.349838
694.084351	715.906738	5282.552246	2560.769287	40.398636
694.411133	722.891174	5256.843262	2540.335938	40.085224
694.737854	726.234863	5214.342285	2520.719971	39.983112
695.064575	722.519714	5198.292969	2512.472412	39.992031
695.391174	720.142029	5153.190918	2507.419678	40.317120
695.717773	729.132629	5136.621582	2506.230713	40.319969
696.044250	721.776611	5112.770020	2499.246338	40.479900
696.370789	720.959290	5115.519531	2486.540527	40.176521
696.697205	701.417725	5115.593262	2483.940186	40.381775
697.023621	708.699280	5146.726074	2494.639404	40.241760
697.349915	717.467041	5194.726074	2509.797363	40.031868
697.676208	728.761047	5280.174316	2526.738525	39.503723
698.002380	729.429871	5363.616211	2544.496826	39.166893
698.328674	724.451477	5459.317871	2582.465576	39.241112
698.654724	721.553711	5550.413574	2616.050049	39.232788
698.980896	724.525879	5634.078125	2658.997070	39.402191
699.306946	729.429871	5701.173340	2674.675049	39.126015
699.632935	737.603027	5769.160156	2692.433350	38.851398
699.958862	730.915833	5802.894043	2683.665771	38.500759
700.284729	720.810730	5816.268066	2693.176514	38.708313
700.610596	715.535156	5780.603027	2691.541748	39.012440
700.936340	726.829285	5709.792969	2681.659424	39.230267
701.262146	728.686768	5603.020020	2626.824219	38.941483
701.587830	728.835388	5501.818848	2571.171631	38.599258
701.913513	727.274963	5387.913086	2515.444336	38.367481
702.239075	727.646484	5261.375488	2472.571533	38.487633
702.564697	723.782776	5118.714355	2426.132568	38.734386
702.890137	716.129639	4995.223145	2378.058594	38.838341
703.215698	716.724121	4898.927246	2330.876465	38.595741
703.541016	713.974854	4804.859863	2281.465088	38.316654
703.866455	719.473206	4731.820313	2242.233398	37.951859
704.191711	719.473206	4645.777832	2212.735107	38.032249
704.517029	727.275085	4575.561523	2190.593018	38.025181
704.842163	729.429871	4519.982910	2163.918213	37.843773
705.167419	723.931396	4477.110840	2140.809814	37.751415
705.492493	720.067688	4436.243652	2121.862549	37.721436
705.817566	708.327820	4370.857910	2107.373779	38.198891
706.142578	710.556946	4345.148926	2089.169678	37.930332
706.467590	718.432922	4327.910645	2082.408203	37.788715
706.792480	724.674377	4323.601074	2075.869385	37.544388
707.117371	720.736328	4323.972656	2079.064453	37.697449
707.442200	718.730225	4327.464355	2080.773438	37.742962
707.766907	714.792175	4327.167480	2076.240967	37.688465
708.091675	718.358704	4304.876465	2071.857178	37.738514
708.416321	710.854065	4280.653809	2057.442383	37.721676
708.741028	716.203918	4290.981934	2058.036621	37.536114
709.065552	725.937561	4311.043457	2057.219482	37.133686
709.390137	726.754883	4349.384277	2064.055176	36.915184
709.714600	726.086182	4374.572754	2075.720703	36.991627
710.039063	712.117249	4406.522949	2092.884521	37.374546
710.363403	723.039795	4445.680176	2109.008301	37.230793
710.687744	722.073792	4486.546875	2118.667725	37.099323
711.012085	728.240906	4533.282715	2127.583984	36.776024
711.336304	724.674377	4567.165527	2137.986572	36.781143
711.660461	726.903503	4618.285645	2151.509521	36.609253
711.984619	729.949951	4648.378418	2156.636475	36.409660
712.308716	725.417480	4669.926270	2156.710693	36.285713
712.632751	722.668274	4659.226563	2161.317627	36.545868
712.956726	726.606262	4660.861328	2163.472412	36.521938
713.280701	725.343079	4623.783691	2153.070068	36.623028
713.604553	734.556641	4578.533691	2132.859619	36.376465
713.928467	731.287354	4508.837891	2109.231445	36.477184
714.252258	734.779602	4444.120117	2075.572266	36.146389
714.575989	728.315247	4385.791992	2042.210449	35.923542
714.899719	727.720886	4311.638184	2011.597656	35.823280
715.223267	724.525818	4276.493652	2007.956665	36.132954
715.546936	720.290527	4231.391113	1995.325195	36.314388
715.870422	720.513489	4191.788086	1985.294312	36.435631
716.193970	718.135803	4144.605957	1962.706421	36.322235
716.517395	723.708496	4117.336426	1956.984985	36.340946
716.840820	718.135742	4091.776367	1939.895508	36.214874
717.164124	723.039795	4060.940674	1923.103027	35.952633
717.487488	720.513489	4029.139404	1899.326172	35.628468
717.810730	718.655945	3993.622803	1890.335449	35.776833
718.133972	718.878845	3950.452881	1890.038208	36.241146
718.457092	717.244141	3893.239502	1873.914551	36.419147
718.780212	716.203918	3850.589844	1846.348267	36.056320
719.103210	714.123535	3798.875244	1818.559204	35.803066
719.426208	711.745789	3759.643311	1796.416870	35.587521
719.749207	728.538269	3719.965820	1787.574829	35.402382
720.072083	728.092346	3687.049805	1768.404785	35.158073
720.394958	728.315247	3647.000732	1749.011719	34.971100
720.717773	720.662109	3591.570313	1719.959351	34.807705
721.040527	717.021240	3535.769287	1699.897461	34.869247
721.363281	720.587830	3497.057617	1689.049438	34.881042
721.685913	724.897278	3470.977295	1681.321899	34.828724
722.008545	727.349304	3448.240967	1677.829712	34.932682
722.331055	718.804504	3412.500977	1668.021851	35.238468
722.653503	709.070862	3369.628174	1658.065308	35.669010
722.976013	705.875793	3360.860596	1649.966187	35.559162
723.298401	719.621887	3342.730713	1636.888794	34.968693
723.620789	723.931458	3336.935303	1635.997192	34.904873
723.943115	731.287354	3296.365967	1623.365845	34.777824
724.265381	722.891174	3291.833252	1623.663086	35.063923
724.587585	723.559875	3284.923584	1607.242188	34.500462
724.909790	724.228699	3302.756104	1608.876831	34.308270
725.231873	732.179016	3296.068604	1609.693970	34.225925
725.553894	732.253357	3305.133545	1622.994263	34.620380
725.875916	929.750000	3525.589844	1819.970703	34.294132
726.197937	931.013184	3533.020264	1823.834595	34.312798
726.519775	924.846008	3531.682617	1823.834595	34.485806
726.841675	720.290527	3323.337891	1617.347290	34.461792
727.163513	715.981018	3332.551514	1605.830444	34.008232
727.485291	721.182129	3349.120361	1595.056519	33.253231
727.806946	724.748718	3371.411377	1611.551758	33.506462
728.128662	719.398926	3401.429932	1625.297729	33.776596
728.450256	721.405090	3424.463623	1638.449219	33.926167
728.771790	720.736328	3436.203369	1629.235718	33.456470
729.093323	725.789001	3443.931396	1625.000488	33.081841
729.414795	723.485535	3455.151123	1627.898315	33.108475
729.736145	722.222412	3457.974365	1632.133423	33.259998
730.057495	718.432922	3454.184814	1633.322388	33.441975
730.378845	721.330811	3457.008545	1629.458618	33.195717
730.700134	727.423645	3454.482422	1630.201782	33.104462
731.021301	733.144958	3459.237549	1627.601196	32.810928
731.342468	733.367859	3449.355469	1625.074829	32.831776
731.663574	725.268860	3454.705078	1617.570190	32.691780
731.984680	719.919128	3447.125977	1621.508301	33.059071
732.305664	709.516785	3453.144775	1612.517578	32.912655
732.626648	710.779846	3458.494873	1622.771362	33.190907
732.947571	712.414490	3458.791748	1613.483521	32.809368
733.268433	714.866516	3462.581055	1627.452515	33.212547
733.589233	722.965515	3462.878174	1617.050171	32.631866
733.909973	731.138855	3450.692627	1615.935547	32.534630
734.230713	741.541199	3420.526123	1602.189453	32.125908
734.551331	737.083008	3367.696533	1591.044067	32.462429
734.871948	726.457703	3328.390381	1575.514771	32.631786
735.192505	721.330811	3292.724854	1559.762695	32.606121
735.513062	723.114075	3239.375732	1545.496460	32.682705
735.833435	727.497986	3191.747803	1526.252319	32.413692
736.153931	727.349304	3145.308594	1500.766235	31.986351
736.474304	728.538147	3121.828857	1476.246460	31.241850
736.794617	731.956055	3101.172607	1468.518921	31.088879
737.114807	736.488586	3072.268799	1468.593262	31.343046
737.434998	732.550476	3054.956299	1471.713867	31.827486
737.755188	732.327576	3040.393311	1471.342407	32.018795
738.075256	728.092285	3035.860596	1468.073120	32.064781
738.395325	728.240967	3035.786377	1463.912231	31.881117
738.715271	729.949951	3045.520264	1466.884277	31.825176
739.035278	728.984070	3064.169922	1467.330078	31.618298
739.355164	729.801331	3078.510498	1471.045288	31.559631
739.675049	720.587830	3095.674072	1464.729614	31.331148
739.994873	718.210144	3107.042236	1469.187622	31.437016
740.314636	717.987305	3112.094971	1461.980347	31.076006
740.634277	717.690002	3099.835205	1445.708008	30.561445
740.953979	715.460938	3069.222656	1434.934204	30.566954
741.273499	713.528992	3050.126953	1431.441895	30.724709
741.593140	713.603333	3006.288330	1435.825806	31.501163
741.912598	718.358704	2969.285156	1417.695923	31.068861
742.232117	711.968567	2911.106445	1399.566040	31.266682
742.551453	711.597168	2876.704102	1381.361816	30.934484
742.870850	708.253479	2843.713623	1369.399048	30.960333
743.190063	715.312256	2812.283447	1366.129883	31.036079
743.509338	720.141907	2783.528564	1356.173340	30.824635
743.828552	722.445313	2755.293701	1349.560303	30.849079
744.147705	722.296692	2740.135742	1339.975220	30.610891
744.466797	720.884949	2720.445557	1336.408691	30.782951
744.785828	723.485596	2699.120361	1332.693726	30.836071
745.104858	727.275085	2667.541748	1318.278809	30.459923
745.423706	734.408203	2647.703125	1312.557495	30.217468
745.742615	734.556702	2637.152100	1302.823853	29.867996
746.061401	731.956238	2636.929199	1306.241821	30.146654
746.380249	724.005798	2615.604492	1300.892090	30.497288
746.698975	724.674377	2601.115234	1289.003662	30.074450
747.017639	724.897278	2579.047607	1284.619751	30.187544
747.336304	724.823059	2555.493408	1279.789917	30.314953
747.654907	722.891113	2541.895996	1289.672241	31.158857
747.973389	720.587708	2541.524414	1284.916870	30.991146
748.291931	720.216309	2547.840088	1273.697266	30.284185
748.610352	724.823059	2556.162354	1263.369141	29.407225
748.928711	727.275085	2567.159180	1260.471313	28.979883
749.247070	728.538147	2574.218018	1263.740601	28.997576
749.565308	726.903564	2558.019775	1259.579712	29.090242
749.883545	729.949951	2533.574219	1251.629272	28.923946
750.201782	731.584656	2530.973633	1241.969849	28.364363
750.519836	724.005676	2521.982666	1240.112427	28.704857
750.837952	715.609436	2517.598877	1238.254761	29.003794
751.155884	710.482605	2493.896484	1236.694458	29.505875
751.473877	714.272156	2483.642822	1232.013428	29.261324
751.791809	716.649719	2469.376709	1225.029053	29.005049
752.109619	720.067688	2475.023682	1217.970337	28.371231
752.427490	719.324707	2469.079346	1211.877441	28.149817
752.745300	728.240967	2460.831787	1216.855591	28.201385
753.062988	729.281250	2445.302490	1222.279785	28.729162
753.380615	726.977783	2442.478760	1219.010498	28.681576
753.698303	721.999512	2438.837891	1218.044556	28.892939
754.015808	722.668213	2431.184814	1217.227173	28.946688
754.333374	726.680603	2413.575195	1218.861694	29.176756
754.650757	724.451477	2409.860107	1211.728760	28.911520
754.968262	721.702332	2405.104736	1212.100220	29.131353
755.285583	728.835388	2416.621826	1212.620361	28.663876
755.602905	734.853821	2404.733154	1199.394409	27.818811
755.920105	732.773438	2399.680664	1188.472046	27.337971
756.237305	727.572266	2391.804443	1182.453491	27.332798
756.554443	724.971680	2379.842041	1193.375977	28.304592
756.871582	722.668274	2365.575684	1182.156372	27.967983
757.188599	712.191589	2350.269287	1181.487549	28.649189
757.505615	709.516602	2364.386963	1184.459595	28.699711
757.822510	714.866455	2389.204102	1191.443970	28.463644
758.139465	718.655945	2413.798096	1190.775391	27.851320
758.456238	721.999512	2422.714600	1182.899292	27.100353
758.773010	726.606262	2437.723633	1185.128418	26.796650
759.089783	733.144958	2441.810303	1189.883789	26.730738
759.406433	727.646545	2452.510010	1199.097290	27.332640
759.723145	718.581604	2449.314941	1206.527588	28.193018
760.039673	717.095520	2457.116455	1214.700806	28.597660
760.356201	722.148132	2469.079346	1213.066284	28.101746
760.672668	728.686768	2472.868896	1212.546143	27.741333
760.989136	728.686768	2471.159912	1199.766113	27.035099
761.305481	723.337097	2452.955811	1196.422485	27.352005
761.621826	724.228699	2454.070313	1191.890015	27.034922
761.938049	727.275085	2461.797852	1200.137573	27.261822
762.254333	738.569031	2497.240234	1204.298462	26.481894
762.570496	731.733154	2528.075928	1220.050659	27.183983
762.886597	720.662109	2594.428223	1223.988770	26.861765
763.202637	711.820068	2665.461426	1244.793579	27.281031
763.518677	713.603333	2792.221924	1265.746948	26.563007
763.834656	719.696106	2929.681885	1304.755859	26.473461
764.150574	718.061462	3060.380615	1337.077515	26.427486
764.466370	719.844727	3155.859375	1367.838867	26.600584
764.782288	721.182190	3188.181396	1372.296997	26.392988
765.097961	727.275085	3222.137451	1376.309204	26.014828
765.413696	726.309082	3194.422607	1361.002930	25.715748
765.729309	723.708496	3134.534424	1344.879272	25.765890
766.044861	714.643616	3014.089844	1309.362671	25.863577
766.360474	713.677734	2872.766357	1277.932495	26.133932
766.675903	710.482666	2739.764404	1243.530273	26.267797
766.991394	713.677673	2615.827393	1215.889771	26.402344
767.306763	713.826355	2529.413086	1189.289429	26.187847
767.622131	718.284424	2440.547119	1170.862183	26.278091
767.937378	723.337097	2381.996582	1152.583862	25.879139
768.252625	727.052185	2314.901123	1132.596313	25.540474
768.567810	730.544250	2262.072021	1118.850464	25.354174
768.882996	731.436035	2214.221191	1101.166382	24.934856
769.197998	730.544434	2178.333008	1093.067261	25.039762
769.513062	724.674500	2153.961914	1086.380005	25.306704
769.828064	722.371094	2112.203613	1075.383301	25.399622
770.142944	719.250305	2084.042725	1065.203857	25.348436
770.457825	717.244141	2058.259766	1059.631104	25.531914
770.772705	716.129578	2033.590942	1055.767456	25.779720
771.087402	715.758118	2007.956665	1050.491821	25.904202
771.402100	717.169861	1979.349976	1037.786011	25.401773
771.716736	714.717957	1956.242065	1036.745728	25.938099
772.031372	714.197754	1933.876831	1028.275269	25.750832
772.345947	721.479431	1926.669434	1024.263062	25.123312
772.660461	728.686707	1919.907837	1020.325012	24.482296
772.974854	733.739319	1904.824585	1021.588135	24.579664
773.289246	730.767273	1887.066284	1018.913269	24.919678
773.603638	722.222412	1879.487305	1012.671814	25.097919
773.917908	718.581543	1875.177856	1012.746094	25.433641
774.232178	722.668213	1857.865234	1014.232117	25.683990
774.546265	723.634094	1838.472290	1011.854492	25.853117
774.860474	720.587830	1824.131836	1000.188965	25.336657
775.174561	713.454651	1810.831665	988.597717	25.072794
775.488586	718.210144	1802.955566	987.483154	24.823614
775.802551	721.627991	1788.392212	995.582092	25.680849
776.116516	729.429871	1783.414063	992.535706	24.962978
776.430359	724.377258	1764.466797	988.820618	25.425056
776.744202	728.761047	1759.116821	977.229431	24.114817
777.057922	715.535217	1747.599976	971.953857	24.845209
777.371704	717.987122	1740.318359	962.294434	23.897079
777.685303	716.426758	1729.916016	954.789978	23.519068
777.998962	726.011902	1724.491821	954.418457	22.875427
778.312500	723.634277	1719.216309	954.046936	23.143513
778.626038	723.857178	1709.110962	955.087219	23.469084
778.939453	724.897278	1701.680786	967.198486	24.806030
779.252869	731.807434	1710.374390	973.737122	24.722855
779.566223	731.138855	1710.225708	979.086914	25.324419
779.879578	726.977844	1715.946899	964.969421	24.064613
780.192749	721.182129	1703.166992	962.591797	24.583849
780.505920	728.835388	1703.984253	960.139832	23.719912
780.819031	729.504089	1690.015503	960.139832	24.011765
781.132141	749.268616	1702.572632	967.124207	22.852688
781.445190	745.702087	1698.931641	971.285156	23.665136
781.758118	754.395508	1695.736694	972.251160	23.143112
782.071045	734.259460	1674.560425	960.362610	24.045828
782.383911	729.652649	1656.579102	947.211121	23.470953
782.696838	719.547546	1638.449219	941.638367	24.169161
783.009583	718.135742	1620.616699	938.369080	24.403101
783.322266	710.928467	1611.700317	936.511414	25.043295
783.634888	708.625000	1610.734375	938.591980	25.492140
783.947510	712.043030	1607.762329	931.236023	24.471170
784.260132	720.290527	1602.412476	933.093567	24.123993
784.572571	726.457703	1594.907837	920.610657	22.356258
784.885010	728.315247	1583.168091	912.883118	21.590601
785.197449	731.213135	1568.530396	911.917297	21.581326
785.509766	727.498047	1557.756470	919.124695	23.080362
785.822083	728.315247	1553.446899	923.880066	23.701044
786.134277	725.937561	1546.462524	919.496155	23.589605
786.446533	732.550537	1540.369751	918.753174	23.050037
786.758606	730.024231	1542.747437	924.400208	23.916626
787.070740	727.423645	1561.397339	926.926514	23.921963
787.382690	717.987122	1569.347778	928.338196	24.707634
787.694641	717.318420	1570.090820	922.171082	24.021961
788.006653	715.312317	1579.898560	916.821289	23.306984
788.318481	719.696106	1594.536499	912.363098	22.023102
788.630310	718.061523	1618.387695	914.740784	21.845335
788.942017	720.587830	1627.972656	916.301086	21.568937
789.253784	723.559875	1656.876343	924.771667	21.558796
789.565430	727.943665	1663.117676	925.366028	21.110762
789.877014	734.779602	1653.384155	920.684998	20.237804
790.188538	735.522644	1638.226440	922.468262	20.709518
790.500061	731.584534	1620.393677	922.171082	21.442911
790.811462	730.247070	1611.625977	924.548767	22.045195
791.122925	728.240967	1592.010132	916.449768	21.789248
791.434204	728.315247	1569.793579	911.768738	21.801332
791.745483	726.903564	1551.069336	908.127869	21.988817
792.056702	722.445313	1524.394531	902.778076	22.486805
792.367920	719.621826	1508.196655	896.982422	22.491283
792.678955	715.683777	1482.636597	887.694641	22.427828
792.990112	719.175964	1477.360962	883.979492	21.736586
793.301086	722.891174	1467.627319	890.741028	22.538164
793.612122	728.092468	1473.125854	894.976257	22.399506
793.922974	728.686829	1456.853516	891.558289	22.367332
794.233826	727.869446	1450.463501	881.155945	21.213364
794.544556	727.423645	1448.234375	877.292236	20.791670
794.855286	723.931396	1452.395386	869.638977	20.002029
795.166016	734.110901	1461.905884	874.914551	19.346609
795.476624	726.086182	1464.209351	879.001160	20.716730
795.787292	724.451599	1462.500488	884.573914	21.695353
796.097778	714.866455	1467.032837	874.765930	21.258524
796.408264	725.268860	1476.543579	873.056946	19.671644
796.718689	732.624817	1500.840698	879.447021	19.112103
797.029053	734.705261	1506.487671	888.660583	19.948021
797.339355	726.977844	1506.413452	885.168274	20.295509
797.649658	726.754944	1506.339233	881.453125	19.843676
797.959839	724.005676	1505.001587	872.165344	18.970608
798.270020	725.343262	1503.292603	869.639099	18.548231
798.580078	729.652771	1497.720093	870.084778	18.283815
798.890137	726.606262	1492.295898	865.626709	18.156240
799.200195	725.714661	1473.497070	865.775391	18.730145
799.510071	717.690002	1444.742065	859.236633	19.468569
799.820007	718.581604	1426.537720	862.729004	20.361065
800.129883	720.885010	1422.376953	863.471924	20.326237
800.439575	722.742615	1420.222168	861.168518	19.846590
800.749329	721.999512	1420.667969	863.249023	20.216959
801.058960	720.662109	1411.603027	860.425476	20.227976
801.368591	725.566101	1401.720703	867.409973	20.978024
801.678162	725.566101	1387.380371	871.050842	21.982714
801.987671	722.816833	1381.287476	878.926941	23.707983
802.297119	715.238037	1379.950073	871.570984	23.518898
802.606506	716.278259	1368.878906	864.883728	22.771273
802.915894	721.107910	1360.334229	857.750671	21.376272
803.225159	716.501160	1365.758423	855.670105	21.435101
803.534424	715.163757	1371.999634	851.211975	20.712666
803.843628	716.501160	1364.792358	844.153137	19.690531
804.152771	722.371094	1357.733643	851.286316	20.290026
804.461792	727.943787	1359.219727	853.292480	19.856403
804.770874	721.628113	1366.575562	852.475098	20.288008
805.079773	720.587830	1370.290649	833.825134	17.429092
805.388733	721.330811	1372.519897	833.304993	17.195341
805.697571	726.532043	1377.423828	836.202820	16.849310
806.006470	730.470032	1381.807739	847.348328	17.944347
806.315125	725.863281	1382.179199	850.989075	19.064873
806.623901	724.674500	1390.946899	851.212097	18.991871
806.932495	714.049133	1389.163696	850.617615	20.228935
807.241150	719.993408	1392.209961	848.388489	19.100256
807.549622	717.838562	1390.129517	855.670105	20.501770
807.858154	725.788879	1380.544556	856.190247	19.916035
808.166565	721.850891	1369.547729	854.035461	20.408401
808.474915	722.742615	1355.950317	845.639343	19.408596
808.783264	726.754883	1352.606812	851.583496	19.945391
809.091492	726.977844	1346.068115	844.078918	18.915024
809.399719	730.841553	1334.476807	840.438049	18.156080
809.707825	725.789001	1322.588379	827.137878	16.982069
810.015930	726.309082	1314.192017	828.623840	17.403934
810.323975	715.832336	1316.124146	834.939697	19.841578
810.632080	712.934570	1308.991089	840.958191	21.478436
810.939880	714.717834	1301.709351	840.512390	21.430387
811.247864	719.101746	1302.303833	831.670349	19.301817
811.555664	724.451599	1301.114868	825.503174	17.523499
811.863464	725.566101	1295.913818	826.469177	17.691502
812.171143	728.909668	1281.722046	829.812805	18.252691
812.478882	730.247070	1279.344238	834.865295	19.052771
812.786438	729.504089	1278.155396	842.890137	20.666323
813.094055	729.355469	1272.136841	841.032532	20.574963
813.401489	725.417480	1271.542480	832.784912	19.659864
813.708984	720.067688	1266.341309	815.992493	17.559845
814.016357	724.451599	1266.118286	817.627197	17.201649
814.323730	724.005798	1264.037720	820.896484	17.941660
814.630981	724.748779	1270.279175	824.165833	18.223925
814.938232	719.547546	1273.920044	822.605408	18.590002
815.245361	716.352539	1267.975952	815.695251	18.009155
815.552490	722.371094	1261.065796	818.593079	17.862062
815.859619	723.039795	1260.545532	817.404297	17.556000
816.166565	735.151184	1261.511475	820.747864	16.261993
816.473572	727.349304	1267.752808	817.627136	16.705633
816.780457	725.194519	1266.935669	817.850098	17.103294
817.087341	718.878723	1265.821167	816.363953	17.823673
817.394043	717.615662	1272.434082	819.633301	18.387573
817.700806	712.860291	1275.777710	812.277283	17.661026
818.007507	714.346375	1284.396851	816.512634	17.922318
818.314209	709.739563	1287.963379	813.466125	17.938826
818.620667	714.494934	1298.737305	820.970703	18.224588
818.927246	715.535217	1304.681519	822.531067	18.161167
819.233704	722.519714	1319.839355	832.413391	18.397800
819.540161	725.268860	1351.417969	839.472107	18.238985
819.846497	721.405090	1401.126465	851.434875	19.129866
820.152832	724.748718	1445.633789	858.939453	18.614719
820.458984	726.903564	1488.432129	862.431702	17.796856
820.765259	722.296692	1542.301758	874.840271	18.602760
821.071350	722.073914	1629.978882	887.694641	18.242077
821.377502	715.758118	1776.429565	912.586121	18.556927
821.683472	719.919006	2043.547852	949.737488	17.362759
821.989441	714.717834	2474.949463	1019.284729	17.302660
822.295349	717.764343	3067.365234	1109.042480	16.652962
822.601196	722.073914	3710.751953	1207.493530	16.241951
822.907043	721.850891	4281.916992	1296.731079	16.148020
823.212769	727.646545	4648.898438	1360.259888	16.132942
823.518494	729.578430	4781.751465	1380.247437	16.057285
823.824097	737.603088	4709.529297	1347.405518	15.352814
824.129700	725.491760	4499.401367	1301.337769	15.258606
824.435242	716.724060	4227.898926	1249.251587	15.166648
824.740723	714.569275	3949.932373	1215.443848	15.481248
825.046082	717.467041	3678.430420	1177.772461	15.545799
825.351501	720.142029	3395.337158	1134.528320	15.489946
825.656799	720.810730	3091.141846	1081.699097	15.225230
825.962036	724.823059	2783.974365	1031.544678	14.895535
826.267212	728.389587	2546.205811	998.777161	14.874308
826.572449	728.018066	2378.727295	979.755615	15.250266
826.877502	730.618652	2334.814453	975.446106	15.261694
827.182495	735.671204	2395.965576	987.334473	15.157749
827.487488	735.374023	2511.134766	1001.080566	14.962970
827.792419	731.435974	2605.276123	1019.507568	15.373328
828.097290	722.891113	2629.721924	1019.507629	15.555471
828.402100	727.869446	2590.415771	1015.643860	15.450590
828.706848	732.699158	2517.450684	1003.606934	15.179020
829.011597	736.117004	2393.885010	983.545166	14.925379
829.316223	733.813660	2264.375732	964.597961	15.078403
829.620789	734.333801	2140.438477	941.341248	14.722051
829.925354	738.717590	2024.303345	922.393982	14.287371
830.229797	734.705322	1912.997681	898.988586	13.942488
830.534302	737.231628	1796.045288	883.236511	13.789477
830.838562	725.937561	1677.606812	862.357422	14.334798
831.142944	720.885010	1560.282837	853.292480	15.774102
831.447144	712.042969	1461.757324	835.682617	16.491568
831.751404	715.683838	1393.770508	824.462952	16.042067
832.055542	724.228699	1357.882324	825.949036	16.052988
832.359619	724.228699	1334.179688	820.896484	15.848452
832.663635	725.268860	1344.359253	827.658020	16.538645
832.967651	723.039734	1372.817017	820.747864	15.037172
833.271545	722.668274	1434.339844	827.063660	14.669040
833.575439	721.033508	1502.326782	836.871582	14.826452
833.879211	722.148132	1607.762329	853.589661	14.841849
834.183044	723.336975	1705.173218	873.056946	15.248976
834.486694	726.086182	1807.116577	878.852539	14.131551
834.790344	720.439209	1860.242798	889.180664	14.804433
835.093933	720.067688	1864.032349	892.524231	15.075339
835.397522	722.073914	1826.138062	890.963928	15.297119
835.700928	721.999512	1772.937378	868.450195	13.935237
836.004395	725.045959	1727.241211	865.032227	13.967963
836.307739	722.445313	1674.040405	861.985840	14.663856
836.611023	731.064453	1611.477173	870.530579	15.840994
836.914307	726.829163	1547.354126	849.131409	14.905366
837.217529	723.931458	1473.868652	835.088318	14.822156
837.520691	719.324707	1402.984009	813.986328	13.846315
837.823730	720.810730	1323.480103	805.367188	14.030323
838.126831	723.485657	1264.557983	791.175293	12.510275
838.429749	726.829285	1218.118774	791.546875	13.173005
838.732727	722.816895	1189.958130	787.980286	13.949398
839.035522	717.467102	1174.800293	796.599426	17.302992
839.338379	708.699402	1166.255493	791.844055	18.171467
839.641113	710.036804	1169.301880	795.113464	18.524523
839.943848	713.974854	1180.447266	797.565430	17.919725
840.246460	716.055359	1195.456421	800.240295	17.560440
840.549072	717.392761	1212.248901	802.915222	17.282288
840.851563	720.959290	1218.861938	800.314636	15.937924
841.154053	725.045898	1230.675903	801.503418	15.121239
841.456482	728.389587	1226.143555	796.599426	13.703525
841.758850	724.080017	1217.450073	797.491150	14.879527
842.061157	720.067627	1189.735107	796.079285	16.184143
842.363403	720.810608	1173.314331	799.571533	17.405586
842.665588	717.021240	1152.286621	792.512756	17.343790
842.967712	720.067688	1134.602539	788.054688	16.400793
843.269775	712.711731	1118.850342	786.271484	18.111982
843.571777	718.135803	1099.828979	778.618347	15.845854
843.873840	721.925232	1082.070557	782.779114	16.897036
844.175659	727.052063	1066.392578	780.698730	15.809096
844.477600	732.624817	1052.572266	791.844055	18.509052
844.779297	730.321472	1041.872681	784.339539	17.338423
845.081116	720.959290	1028.572510	777.875183	18.502420
845.382751	719.250427	1021.885315	769.256042	16.523415
845.684387	717.987244	1007.321960	761.825745	15.151484
845.985962	722.073792	991.421204	758.184998	13.406925
846.287537	720.216309	982.133301	750.754700	11.659569
846.588989	722.668213	979.458435	749.714539	10.532459
846.890381	732.773438	972.696960	748.599915	6.596467
847.191711	732.030457	970.839355	753.875427	9.147470
847.493042	728.463867	973.439941	764.203430	14.589002
847.794250	726.011902	977.080811	775.497559	19.709990
848.095459	723.485596	973.811462	776.537781	21.193249
848.396606	724.080017	967.495789	772.153870	19.749687
848.697693	719.101746	963.632019	769.776184	20.723175
848.998657	720.067688	960.214050	774.085754	22.493811
849.299622	730.172852	962.220215	772.599670	18.283689
849.600464	732.401917	963.037598	767.770020	15.335052
849.901367	725.714661	952.337952	755.732971	13.245907
850.202087	709.888184	944.313293	748.154114	16.323307
850.502808	710.408386	940.598145	741.021057	13.298884
850.803467	713.974854	947.136780	738.940613	10.707477
851.104065	722.668213	953.303955	747.559631	10.792524
851.404663	719.473206	949.960266	754.692688	15.280459
851.705139	721.999512	953.303955	751.720642	12.849356
852.005615	719.027405	953.749756	750.308899	13.327020
852.306030	722.148132	958.950928	740.500916	7.750239
852.606384	727.497864	953.155273	756.030212	12.644100
852.906616	728.761047	946.245178	758.259277	13.563395
853.206909	724.897400	941.564148	763.832031	17.969824
853.506958	723.857117	942.009949	755.584412	14.543609
853.807129	724.228699	937.625977	757.219055	15.459596
854.107178	731.807556	942.901550	763.386169	14.959503
854.407166	732.847839	938.666260	770.742126	18.411514
854.707092	735.151123	938.963440	762.717468	13.525358
855.007019	732.476257	937.848938	756.178772	11.541221
855.306763	726.457703	936.214294	749.491516	10.981211
855.606567	724.377197	936.585754	747.931213	11.099465
855.906250	729.429749	926.480652	751.869324	11.387705
856.205933	735.596924	926.034851	751.349121	8.271565
856.505493	736.934387	928.561096	751.126221	7.405979
856.805054	736.414307	936.808777	751.051941	7.304410
857.104492	736.191345	940.152344	752.760925	8.123897
857.403931	732.699158	940.523865	751.497742	9.045403
857.703308	719.473206	930.641602	750.754700	14.813530
858.002563	712.488770	933.093567	742.358459	13.539909
858.301819	714.197754	926.257751	746.890869	15.416918
858.601013	717.615723	926.777832	744.290344	12.753085
858.900208	725.566101	925.960449	753.578125	13.978450
859.199219	731.658875	925.366028	756.104492	12.619884
859.498291	737.454529	929.527039	750.383118	6.731098
859.797302	724.748779	928.338196	749.342957	12.080283
860.096191	720.513489	939.334961	752.909485	14.804761
860.395020	713.900574	943.050110	754.618408	17.769110
860.693787	719.770447	935.842773	750.160339	14.064685
860.992554	710.408386	923.880066	743.324402	15.419383
861.291260	715.386536	922.914063	750.011719	16.684622
861.589844	717.690002	930.492920	761.602844	20.635450
861.888428	724.154297	932.796326	761.602844	17.948708
862.186890	727.572266	931.830383	765.986755	18.806837
862.485413	728.538147	931.830383	758.705078	14.839195
862.783813	732.476257	928.858398	760.265442	14.150566
863.082153	730.098572	929.304138	748.525574	9.250244
863.380371	725.120300	925.514648	745.033386	9.936950
863.678589	728.092346	925.068909	745.330566	8.751407
863.976746	726.606262	915.781067	752.835144	13.864892
864.274902	724.154297	920.684998	753.206726	14.782641
864.572937	716.724060	930.567200	752.909485	16.921480
864.870911	725.863281	940.375244	750.531799	11.499833
865.168884	728.166687	935.174072	747.782532	9.475915
865.466736	730.098572	930.492981	745.479187	7.675172
865.764587	718.507324	927.892395	742.878601	11.639453
866.062317	720.736389	931.830383	749.714417	13.727547
866.360107	717.764343	938.666260	752.166443	15.573473
866.657715	717.912903	940.226563	749.491516	14.204532
866.955322	717.615723	943.495911	747.262451	13.124980
867.252808	716.946960	935.322693	746.222229	13.405916
867.550293	717.244141	938.294739	746.296570	13.142886
867.847717	715.981018	935.768494	745.107666	13.252188
868.145081	718.878906	936.660156	744.884766	11.941276
868.442383	720.364929	928.338196	747.559631	13.076056
868.739624	721.033630	930.195801	746.890930	12.362322
869.036804	716.278259	927.075012	746.296570	14.240405
869.333984	712.191589	926.183411	748.005554	16.736137
869.631042	710.928467	918.381653	747.262451	17.514305
869.928101	709.368103	920.090637	746.519348	17.630409
870.224976	714.569275	924.325867	745.107666	14.558966
870.521851	724.823059	950.703308	764.500671	17.565773
870.818726	728.686829	948.251282	762.123047	15.228430
871.115479	725.268860	953.601074	764.574951	17.214432
871.412231	720.810730	936.288574	745.553467	11.482729
871.708862	720.587830	939.632263	750.308899	13.568512
872.005493	721.627991	940.821106	750.606140	13.220374
872.302063	719.696106	933.910950	750.829041	14.533509
872.598572	721.107910	936.585876	750.754700	13.758617
872.895020	728.612488	927.372314	750.383118	10.953235
873.191406	734.259521	930.864563	758.556458	12.358247
873.487671	733.888000	933.910950	756.178711	11.144076
873.783997	726.309082	944.981995	757.962097	14.475051
874.080200	719.696106	948.920105	758.556458	16.953003
874.376343	718.507324	947.285461	757.070374	16.856091
874.672424	721.925293	937.551758	762.866028	18.986879
874.968445	721.033630	934.951172	761.751465	19.034359
875.264465	724.228577	942.232727	766.061035	19.188835
875.560364	724.823059	953.526855	748.525574	10.363849
875.856201	717.095520	953.303894	742.581360	10.789558
876.152039	715.609558	952.560852	744.141785	12.041389
876.447754	709.962463	954.864258	753.206726	17.657797
876.743469	724.451477	957.241943	752.315125	11.969411
877.039063	722.519714	951.966492	743.398743	9.099726
877.334595	730.395752	942.529968	732.699158	1.085825
877.630127	718.804504	945.279236	730.841492	5.314936
877.925537	720.959290	946.988220	734.779602	6.114400
878.221008	710.779785	954.418457	742.804382	13.144300
878.516296	721.330811	953.155273	743.175781	9.423065
878.811646	721.107910	963.483398	745.107666	9.901891
879.106812	725.788879	981.093201	753.503906	10.855682
879.401978	719.324524	998.108459	767.547119	17.297480
879.697083	717.392761	1019.433350	771.930969	18.056583
879.992126	720.216248	1031.024536	769.999084	16.017216
880.287109	717.690002	1071.965454	767.844299	14.156865
880.582031	714.123474	1138.466309	769.107422	12.957436
880.876892	705.652893	1249.920288	775.200256	12.778161
881.171753	713.157532	1431.441895	791.249695	10.872040
881.466492	719.250305	1685.780273	820.153381	10.439726
881.761230	726.309082	2018.953613	852.326477	9.748805
882.055786	719.547546	2341.501709	878.629700	9.808055
882.350403	717.912903	2597.548828	898.840027	9.625647
882.644958	714.420654	2729.881836	902.257996	9.319819
882.939453	711.820068	2766.884766	901.217773	9.216144
883.233826	707.138977	2722.005859	896.611023	9.403700
883.528137	709.888184	2644.656738	888.511902	9.232305
883.822449	719.027405	2564.261475	880.858704	8.770231
884.116577	724.971680	2476.212402	873.725769	8.494211
884.410828	720.216309	2372.262939	868.375916	8.968246
884.704956	718.135803	2225.292236	858.047852	9.283180
884.999023	722.593933	2037.454956	835.682800	8.600822
885.292969	733.516418	1823.314453	815.175232	7.493022
885.586914	738.717590	1618.684692	803.806824	7.396780
885.880798	731.213074	1465.918457	799.051453	9.233413
886.174622	732.253357	1359.739746	793.330139	9.733562
886.468384	730.470032	1278.155396	772.896912	7.746579
886.762085	731.435974	1222.354126	766.135315	7.068254
887.055664	718.804504	1172.571289	764.277832	10.021299
887.349304	718.284424	1143.147339	763.386169	10.615600
887.642822	722.296814	1108.968140	764.797913	10.991531
887.936340	725.640381	1094.553345	761.602844	9.748224
888.229736	716.649719	1069.959106	763.163269	13.165105
888.523071	715.237976	1050.491821	755.510010	12.012401
888.816284	718.358704	1036.522949	763.831970	14.292387
889.109619	724.600159	1028.201050	762.271545	12.408194
889.402710	724.451477	1021.736633	754.544128	10.122487
889.695862	718.581604	999.520203	738.346130	7.035177
889.988892	714.717834	979.755676	735.968445	8.017953
890.281921	715.312317	962.517456	740.723755	10.279494
>>>>>End Processed Spectral Data<<<<<
