Jaz Data File
++++++++++++++++++++++++++++++++++++
Date: Fri Jun 04 17:07:16 2021
User: jaz
Dark Spectrum Present: Yes
Reference Spectrum Present: Yes
Processed Spectrum Present: Yes
Spectrometers: JAZA3586
Integration Time (usec): 120000 (JAZA3586)
Spectra Averaged: 10 (JAZA3586)
Boxcar Smoothing: 1 (JAZA3586)
Correct for Electrical Dark: No (JAZA3586)
Strobe/Lamp Enabled: Yes (JAZA3586)
Correct for Detector Non-linearity: No (JAZA3586)
Correct for Stray Light: No (JAZA3586)
Number of Pixels in Processed Spectrum: 2048
>>>>>Begin Processed Spectral Data<<<<<
W	D	R	S	P
191.335022	0.000000	0.000000	0.000000	0.000000
191.713211	229.818314	229.892624	227.217728	-3499.630371
192.091385	460.082428	468.552979	457.036041	-35.964447
192.469528	686.408508	696.142273	691.163879	48.854389
192.847641	692.724304	707.659180	700.080261	49.253555
193.225739	702.606506	714.197754	708.996582	55.128456
193.603790	719.547546	727.423584	717.690002	-23.584753
193.981842	727.869446	730.915833	721.553711	-207.318878
194.359863	736.340027	734.408020	729.727051	342.285339
194.737854	738.791992	737.900208	729.578430	1033.159912
195.115829	739.163513	739.312012	736.117004	-2051.541260
195.493774	740.203796	734.631042	733.813660	114.667488
195.871704	741.615479	730.247131	738.643311	26.144239
196.249603	741.912659	727.200745	743.324402	-9.595918
196.627457	738.346191	728.166687	740.649475	-22.626678
197.005310	736.934387	731.658875	736.042725	16.901913
197.383133	741.169678	738.346130	728.835266	436.840973
197.760910	750.383118	746.445129	732.253235	460.384369
198.138687	758.556458	749.268738	735.151123	252.003021
198.516449	765.095154	740.203674	738.866272	105.372932
198.894180	755.064270	727.052185	737.305908	63.395359
199.271866	748.451355	730.544373	732.699158	87.966789
199.649536	735.819824	735.076843	735.225403	80.004929
200.027191	733.144958	743.324524	735.745605	25.547722
200.404816	728.909668	743.547363	743.324402	98.476799
200.782410	730.544373	754.989929	738.643311	33.130512
201.159988	727.200684	768.513000	735.671204	20.503618
201.537537	725.566101	774.308594	728.984070	7.012298
201.915070	721.702332	775.051758	723.411316	3.203379
202.292557	726.606262	771.930969	728.018066	3.114867
202.670029	730.470032	773.194153	734.036560	8.347810
203.047485	734.259460	771.633789	737.380188	8.349923
203.424911	728.389587	768.215820	728.909729	1.306028
203.802292	722.296692	763.163269	725.640381	8.181965
204.179688	716.872742	763.014648	725.789001	19.323561
204.557037	725.640381	759.819641	732.327637	19.565245
204.934357	727.052063	759.522461	734.259521	22.197014
205.311661	731.658875	760.934143	731.510254	-0.507666
205.688934	723.188416	759.225159	738.643372	42.886662
206.066177	728.389648	764.054871	732.030457	10.208286
206.443390	721.851013	758.184998	738.866211	46.829979
206.820587	725.045959	758.259277	731.138855	18.344736
207.197769	728.761169	754.915710	738.271790	36.363171
207.574921	732.773438	757.962097	731.138733	-6.489843
207.952042	733.219299	761.454285	732.104675	-3.947670
208.329147	719.101746	760.488342	723.188416	9.874380
208.706223	758.482178	803.212402	761.677246	7.142974
209.083267	762.717468	802.915222	761.157043	-3.881871
209.460297	767.547119	795.782166	761.900085	-20.000086
209.837280	729.132629	745.702148	723.039795	-36.771343
210.214264	718.061523	745.553528	720.662109	9.459427
210.591217	714.792236	749.045715	723.411316	25.162640
210.968124	715.981018	758.630798	728.835388	30.139359
211.345016	722.519714	766.432556	733.516418	25.042114
211.721893	724.971680	778.469666	736.711487	21.944391
212.098724	721.627991	778.469543	734.333801	22.353033
212.475555	712.860168	778.692566	732.179016	29.345503
212.852356	708.922180	769.850403	731.956116	37.805035
213.229126	712.117188	770.965027	734.185242	37.500195
213.605865	719.621826	762.048645	728.018066	19.789936
213.982590	725.120300	768.364441	728.018066	6.700945
214.359283	720.513489	757.590515	720.290527	-0.601347
214.735931	718.284424	757.218994	717.318420	-2.481094
215.112579	707.733459	751.274841	710.556885	6.484464
215.489197	701.343445	748.302734	715.460876	30.063129
215.865799	704.241211	744.216003	722.148132	44.795532
216.242355	718.284424	742.804260	725.120300	27.878963
216.618896	730.767273	749.417297	729.429871	-7.171049
216.995407	727.423645	758.184998	739.980774	40.821121
217.371902	721.702332	761.602844	736.562927	37.244122
217.748367	724.005676	764.352051	724.080078	0.184408
218.124802	723.039734	757.887695	710.408264	-36.247372
218.501236	722.593933	754.841309	713.603333	-27.880100
218.877609	714.197754	751.274841	723.708496	25.651266
219.253983	724.154297	754.767029	722.668274	-4.854264
219.630295	728.835449	757.590576	725.417480	-11.886467
220.006592	728.761047	758.927979	720.216309	-28.324852
220.382889	718.284363	751.126221	728.166687	30.090637
220.759140	717.169922	746.370850	729.875671	43.511459
221.135391	713.306152	746.965271	730.692932	51.655483
221.511581	715.906738	745.181946	729.652771	46.954517
221.887772	711.225586	747.931152	727.795166	45.141872
222.263931	717.764343	757.739197	731.436035	34.200729
222.640060	717.541321	772.599670	732.179016	26.585787
223.016159	724.748718	769.553223	731.064453	14.096205
223.392212	717.764343	758.556458	729.727051	29.326029
223.768265	719.324646	756.253113	730.470032	30.181013
224.144302	708.699402	757.293396	735.151062	54.434010
224.520294	707.807800	757.293396	736.339905	57.657394
224.896286	717.021301	761.528564	731.733215	33.055084
225.272217	722.965515	765.912415	726.754944	8.823521
225.648148	734.853943	771.336609	721.999512	-35.234352
226.024048	723.634094	767.695801	719.696106	-8.937439
226.399902	719.176025	770.370605	720.142029	1.886925
226.775772	702.235046	760.414063	715.906738	23.499352
227.151581	703.646790	756.401672	721.033508	32.957554
227.527374	703.721130	751.274841	718.210144	30.468735
227.903137	715.089355	760.636902	726.457703	24.959297
228.278870	718.433044	765.020813	726.160461	16.586794
228.654572	714.717957	763.609070	732.104736	35.562248
229.030273	711.002747	763.609070	729.950012	36.017086
229.405930	707.436279	760.636963	724.005676	31.145082
229.781555	708.402161	757.070374	719.696106	23.205999
230.157181	714.866516	755.807312	724.600098	23.774775
230.532761	711.597168	753.280945	729.429871	42.780918
230.908325	716.203918	762.568848	727.795166	25.000032
231.283859	715.089417	760.339783	731.064514	35.303799
231.659332	719.547546	759.671082	729.132568	23.888777
232.034821	715.535217	758.407898	731.956116	38.301544
232.410263	709.516663	755.732971	723.336975	29.903540
232.785690	702.978027	755.287109	715.535156	24.005638
233.161087	706.098816	748.377014	707.436218	3.163338
233.536469	708.773682	755.212891	710.854065	4.479799
233.911804	713.900574	747.411072	719.473328	16.629875
234.287140	713.751953	754.098328	721.182190	18.416121
234.662430	707.584778	751.943542	720.067627	28.140659
235.037704	703.795410	758.928040	728.612488	45.013412
235.412933	706.321594	760.339783	732.327637	48.143124
235.788162	715.906738	763.683411	724.971680	18.973572
236.163345	724.748779	773.416992	711.968689	-26.259624
236.538513	728.018066	774.977356	714.272034	-29.272234
236.913635	730.693054	774.531555	716.575439	-32.203690
237.288742	733.739441	767.844238	723.485596	-30.065697
237.663834	732.104736	759.373779	723.782776	-30.517977
238.038879	729.949951	753.058105	727.943665	-8.682158
238.413910	719.176025	747.039551	714.792175	-15.733293
238.788910	711.522888	746.593750	713.528992	5.720143
239.163879	712.191589	752.017822	715.460938	8.209032
239.538834	713.603333	758.259277	732.773438	42.928452
239.913757	722.445374	761.157043	744.067444	55.854141
240.288651	721.330872	759.150940	742.061218	54.813087
240.663528	720.290527	765.243713	735.151123	33.057938
241.038361	713.900574	773.491394	727.275085	22.443913
241.413177	710.111084	772.005310	731.807434	35.053917
241.787979	708.402161	763.980652	735.745605	49.197891
242.162735	710.556946	760.339661	726.977844	32.985142
242.537476	710.854187	761.602844	723.559875	25.036501
242.912170	719.993408	775.125977	725.640381	10.242535
243.286865	717.838623	773.342712	731.361633	24.363989
243.661514	715.980957	770.965027	724.897400	16.216412
244.036148	715.609558	767.472717	722.222473	12.750698
244.410751	718.878723	774.457275	723.262695	7.887885
244.785339	723.931396	775.125977	732.327637	16.400642
245.159882	714.346375	765.838135	727.200684	24.963818
245.534378	718.581604	760.488342	723.262695	11.170259
245.908890	720.290527	768.661621	716.352539	-8.141202
246.283356	720.290527	769.627625	725.863281	11.295261
246.657791	720.587830	765.243713	726.754883	13.810169
247.032196	718.061523	765.540955	730.618652	26.447514
247.406586	721.776672	764.797913	720.662109	-2.590727
247.780960	714.494934	769.627625	723.708496	16.711613
248.155289	714.494934	767.175598	720.810730	11.988832
248.529602	715.312317	774.011414	720.662048	9.113822
248.903870	719.770508	769.330383	721.553711	3.598078
249.278122	715.832336	759.671082	720.662109	11.017133
249.652344	715.535156	757.961975	723.337097	18.389172
250.026550	711.820068	763.906250	719.919128	15.549345
250.400711	717.764343	776.091980	725.640320	13.502993
250.774857	720.290588	769.999084	719.621765	-1.345491
251.148987	727.795227	771.113586	717.244141	-24.357079
251.523071	722.222473	764.426331	711.968567	-24.296135
251.897125	719.770447	771.039307	727.795105	15.652110
252.271164	710.705566	766.952637	725.789001	26.816393
252.645187	706.916077	769.330383	735.002441	44.999882
253.019165	703.126709	767.101318	717.912842	23.112501
253.393112	711.374268	776.091980	730.395691	29.391371
253.767044	715.980957	775.051758	717.392822	2.390124
254.140930	722.148132	772.376770	724.154297	3.994065
254.514801	718.878845	764.129211	725.714661	15.106652
254.888657	723.559875	768.958801	733.516418	21.931231
255.262466	722.296814	776.909241	733.367859	20.272026
255.636276	726.606384	776.537781	732.922058	12.648703
256.010010	723.782898	778.469543	732.179016	15.353142
256.383759	728.686768	769.627502	737.603088	21.778605
256.757446	720.216248	770.965027	733.070618	25.329418
257.131134	718.432922	764.872070	737.603088	41.280186
257.504791	709.591003	772.674011	733.590820	38.044819
257.878418	713.603271	777.503662	738.717590	39.302292
258.252014	725.714661	783.819397	734.556702	15.217419
258.625580	725.491760	782.853516	738.866211	23.315971
258.999115	723.485596	779.658508	733.144958	17.195766
259.372650	713.677673	777.206482	734.259460	32.397564
259.746124	715.238037	782.927734	729.132629	20.526894
260.119598	717.095520	791.695496	730.767273	18.326752
260.493042	725.640320	802.766602	724.451477	-1.541424
260.866425	730.098450	797.342468	726.829285	-4.861644
261.239838	732.476257	796.525146	719.176025	-20.765749
261.613159	721.256531	789.986572	721.553711	0.432388
261.986511	722.742493	800.240295	721.999573	-0.958634
262.359802	714.792175	795.930847	728.835388	17.307669
262.733063	716.575439	788.351868	728.092346	16.045528
263.106293	708.625061	780.995911	730.990173	30.903482
263.479523	711.671387	783.968018	733.144958	29.702036
263.852692	704.984192	789.020569	737.305908	38.461578
264.225861	710.333984	791.918396	730.618652	24.863411
264.598969	716.129639	793.181458	728.166687	15.622017
264.972076	722.296875	792.215637	730.544434	11.795917
265.345154	729.132629	795.262024	732.624817	5.280840
265.718201	726.829285	792.958679	731.510315	7.078592
266.091217	731.584534	803.286682	733.219238	2.279854
266.464203	731.435974	801.875000	738.866211	10.548466
266.837158	730.395691	803.286804	734.185242	5.198920
267.210114	724.079895	792.958679	736.191406	17.583805
267.583038	712.934570	788.054626	726.234802	17.705301
267.955902	711.151367	792.066956	727.572266	20.293863
268.328766	718.135742	808.859375	723.559875	5.978744
268.701569	716.129578	813.243225	721.702332	5.738384
269.074371	711.522888	814.729309	726.086121	14.110782
269.447144	708.402161	802.543701	727.572205	20.363003
269.819885	715.460938	807.596375	728.389587	14.032223
270.192596	723.337097	802.915222	724.080017	0.933573
270.565277	723.262695	816.809814	719.027405	-4.527441
270.937927	719.398926	818.147278	719.398926	0.000000
271.310577	717.615723	820.004883	719.398926	1.741594
271.683136	719.398926	820.970886	718.730225	-0.658352
272.055725	724.154297	819.261902	726.457703	2.421894
272.428284	729.206848	829.812805	726.754883	-2.437197
272.800812	725.714661	824.463074	722.148132	-3.611732
273.173279	721.330811	831.670410	722.742493	1.279397
273.545776	712.860291	826.989258	722.965515	8.854216
273.918152	711.448547	827.509460	737.305847	22.279078
274.290558	712.562988	822.308167	732.178955	17.874104
274.662964	713.231750	828.846863	736.785828	20.372835
275.035278	716.055359	826.394836	731.881775	14.343385
275.407593	712.488770	829.738464	728.538086	13.688152
275.779907	714.569275	833.082092	728.166687	11.473369
276.152161	708.847961	840.958191	723.708496	11.248588
276.524384	716.872620	842.147034	724.080078	5.753336
276.896606	717.244141	838.283386	722.073792	3.990153
277.268799	722.593994	847.273926	721.479431	-0.893939
277.640930	717.615723	853.366699	727.126404	7.005976
278.013031	727.720886	857.750671	725.491760	-1.714319
278.385162	729.949951	852.177917	726.011902	-3.221889
278.757233	731.881836	851.211914	717.615723	-11.955170
279.129272	721.405090	852.475098	719.621887	-1.360497
279.501282	723.857117	851.583496	717.987122	-4.595758
279.873230	727.052063	845.713562	726.606262	-0.375691
280.245178	732.550537	854.184082	721.850891	-8.796624
280.617126	722.371094	863.546204	722.965515	0.421053
280.988983	714.866455	879.967102	720.439209	3.375368
281.360870	713.826233	889.254883	730.470032	9.487503
281.732697	711.077087	898.096924	725.566101	7.747314
282.104492	722.965515	902.852295	727.572205	2.560883
282.476288	723.782715	899.731628	720.364929	-1.942487
282.848053	736.488586	900.325989	730.693054	-3.537368
283.219757	731.213074	909.985413	733.144958	1.080640
283.591461	733.070618	924.251465	737.008728	2.059887
283.963135	728.835388	929.601257	735.225403	3.182819
284.334747	730.767273	930.418640	733.813721	1.525884
284.706360	724.600098	924.623047	735.374023	5.386345
285.077942	727.943665	929.007019	732.179016	2.106476
285.449524	722.519714	935.842773	731.733215	4.319036
285.821014	722.371094	932.573425	723.262695	0.424163
286.192535	716.649719	941.638367	727.497986	4.821695
286.563995	718.210144	938.814880	723.708496	2.492400
286.935425	723.188293	948.251282	729.504150	2.806262
287.306824	726.383484	938.443359	725.194580	-0.560645
287.678223	722.222473	938.963440	730.544373	3.839560
288.049561	720.885010	944.610535	730.693054	4.383963
288.420898	717.615662	948.399902	735.076843	7.566020
288.792145	722.891113	953.675476	726.903503	1.738588
289.163452	722.965515	951.372070	726.680664	1.626551
289.534668	725.491760	963.632019	719.473206	-2.527315
289.905914	719.324707	972.845520	727.052063	3.048016
290.277039	727.943787	987.928955	721.999451	-2.286413
290.648193	739.089172	995.210632	735.968445	-1.218456
291.019318	737.677429	1002.195068	733.144958	-1.713485
291.390381	725.194580	1004.424133	734.110901	3.193187
291.761475	713.157532	1006.430359	720.662109	2.558907
292.132507	716.278259	1011.631531	713.826172	-0.830222
292.503510	713.900574	1015.198059	717.169861	1.085070
292.874481	718.284363	1024.337280	735.448425	5.608201
293.245422	723.188416	1017.872986	739.534973	5.547137
293.616364	727.720886	1024.634644	741.912781	4.779804
293.987213	723.708496	1019.953430	730.767273	2.382750
294.358093	723.114075	1037.043091	729.578430	2.059177
294.728943	720.810730	1046.182251	724.897278	1.255964
295.099731	717.095520	1072.188354	723.039734	1.673989
295.470490	709.219482	1087.717529	721.107910	3.140948
295.841248	709.442383	1092.250122	725.417480	4.173139
296.211975	710.482605	1101.314941	720.216248	2.490491
296.582642	720.959290	1111.420044	723.485535	0.646991
296.953308	722.148132	1133.710938	724.674500	0.613847
297.323883	723.188416	1133.413696	724.971619	0.434689
297.694519	718.358704	1148.274170	728.389587	2.333222
298.065063	714.494934	1153.698242	731.807434	3.941796
298.435608	717.764343	1157.710693	730.990173	3.006237
298.806122	718.061523	1144.782104	726.606262	2.002420
299.176575	726.309082	1126.503540	719.621826	-1.671002
299.547028	723.262695	1113.277710	721.702332	-0.400078
299.917450	715.089355	1100.274780	721.479431	1.658961
300.287872	709.219543	1100.274780	727.126465	4.579128
300.658234	713.454773	1107.704956	729.132629	3.976626
301.028564	720.439209	1107.184814	737.380188	4.380394
301.398865	724.228577	1106.887573	729.281250	1.320411
301.769135	722.222473	1100.720459	731.138733	2.355695
302.139374	726.606384	1109.042358	726.234863	-0.097146
302.509583	724.154358	1119.370483	726.606262	0.620396
302.879791	721.702332	1125.166138	723.708496	0.497235
303.249939	713.974854	1123.680054	717.838623	0.943061
303.620087	711.448547	1116.769897	714.420593	0.733257
303.990173	717.912903	1117.364258	715.832336	-0.520856
304.360260	724.005676	1121.079468	728.315247	1.085332
304.730286	726.011902	1127.618164	732.550476	1.628106
305.100281	714.717834	1132.522095	734.259521	4.677235
305.470276	710.705566	1134.379517	730.470032	4.665018
305.840179	710.705566	1140.398071	736.562927	6.017643
306.210144	713.677551	1148.125610	735.151123	4.942725
306.579987	717.838562	1160.014038	743.695984	5.847774
306.949890	713.157532	1164.472168	741.095398	6.190330
307.319702	718.358704	1171.308105	743.547363	5.561032
307.689484	717.169861	1182.899292	732.922058	3.382264
308.059265	725.045959	1204.447144	735.745544	2.231864
308.429016	722.593933	1220.348022	737.380188	2.970594
308.798737	721.776672	1239.592285	746.890930	4.850039
309.168396	720.364929	1248.434204	740.055115	3.728713
309.538055	718.358704	1267.158569	730.618652	2.233956
309.907684	719.844727	1272.359741	720.141907	0.053787
310.277313	714.494934	1280.904419	721.330811	1.206879
310.646851	719.621887	1293.164551	726.309143	1.165956
311.016388	713.974854	1309.808350	729.949951	2.681134
311.385895	717.838562	1319.839233	732.327637	2.406820
311.755371	714.717834	1317.015747	735.225403	3.404888
312.124817	720.067627	1321.473877	732.179016	2.013845
312.494232	720.885010	1326.823730	735.596985	2.427964
312.863617	719.250305	1321.251099	732.922058	2.271052
313.232971	724.600098	1317.461670	730.470032	0.990102
313.602295	726.234802	1308.099487	722.965515	-0.561864
313.971619	724.154297	1312.483276	715.683838	-1.439749
314.340820	721.627991	1308.025024	721.628113	0.000021
314.710083	721.850891	1326.154907	729.949951	1.340229
315.079285	722.222412	1347.479858	735.819824	2.174690
315.448486	725.566101	1369.696289	730.618652	0.784399
315.817596	716.649719	1372.817017	731.956055	2.332688
316.186707	720.439148	1360.408569	737.157288	2.612334
316.555786	706.841797	1348.445801	742.952881	5.628251
316.924866	712.042969	1333.139526	732.253357	3.253985
317.293884	709.962463	1328.978516	728.612488	3.012850
317.662872	716.575439	1323.182983	723.782898	1.188158
318.031830	714.569336	1328.532593	729.949951	2.505136
318.400757	719.101746	1335.071411	724.377258	0.856457
318.769684	719.027344	1350.303345	722.222473	0.506138
319.138550	720.513428	1358.996704	719.101746	-0.221099
319.507416	716.426819	1368.878906	728.240967	1.810730
319.876190	710.259705	1362.191650	731.807556	3.305230
320.244995	711.597168	1369.399048	739.832214	4.292333
320.613770	716.946960	1364.643677	736.711487	3.051509
320.982483	727.349304	1370.959473	732.624817	0.819675
321.351166	723.782776	1366.798462	721.850891	-0.300441
321.719818	719.473328	1366.872681	717.244141	-0.344330
322.088440	714.123474	1370.513672	724.377197	1.562138
322.457062	716.426819	1381.287598	729.429871	1.955756
322.825623	717.244141	1389.237915	735.374023	2.697924
323.194183	714.643555	1404.692993	736.637207	3.187258
323.562653	708.922302	1416.358398	736.042786	3.833630
323.931183	708.773682	1445.559448	739.089172	4.114560
324.299591	714.569336	1478.178223	735.002502	2.675868
324.668060	718.581726	1511.020142	730.767273	1.537728
325.036407	712.414490	1551.589355	721.405090	1.071362
325.404755	708.625000	1563.255005	721.850891	1.547558
325.773102	708.104919	1568.679077	730.841553	2.642031
326.141388	715.980957	1568.158813	738.791992	2.676793
326.509674	716.352539	1562.957642	743.027161	3.150775
326.877899	719.621887	1569.942261	735.596924	1.878708
327.246124	717.021301	1567.638672	737.677429	2.428369
327.614288	720.810730	1576.629395	739.163391	2.144457
327.982422	717.541321	1584.802734	738.123230	2.373207
328.350525	715.460938	1585.991577	732.179016	1.920447
328.718628	708.104980	1591.712891	722.668274	1.648162
329.086700	709.739563	1582.202148	728.761047	2.180206
329.454712	703.944031	1583.167969	730.172852	2.983179
329.822693	707.584778	1595.948120	730.247131	2.551023
330.190674	705.207092	1618.907715	730.247131	2.740508
330.558563	713.603333	1642.535767	731.361633	1.911689
330.926483	713.826172	1648.480103	739.906494	2.790372
331.294312	719.770508	1646.994141	733.070618	1.434402
331.662231	726.309082	1653.532715	725.714661	-0.064108
332.029999	722.816895	1672.405762	719.696228	-0.328633
332.397766	724.302917	1703.910156	726.531982	0.227547
332.765503	718.433044	1737.197632	732.624817	1.393037
333.133240	714.494934	1766.547241	736.042725	2.048167
333.500916	710.185364	1796.268188	733.813660	2.175552
333.868561	710.185364	1808.231079	736.785828	2.422528
334.236176	714.346375	1803.252808	727.943665	1.248711
334.603790	705.429993	1800.057739	730.024231	2.246813
334.971344	696.439453	1795.971191	725.417480	2.635488
335.338867	695.919250	1801.469604	727.572266	2.863101
335.706360	707.436218	1796.714233	720.885010	1.234652
336.073853	719.250305	1806.076294	718.135742	-0.102552
336.441284	724.005676	1819.748047	727.869446	0.352617
336.808655	716.501160	1825.989380	730.098572	1.225557
337.176086	711.745789	1811.351685	733.293640	1.959598
337.543396	708.922302	1769.890991	734.408020	2.402118
337.910706	716.055359	1744.702148	732.401855	1.589126
338.277954	711.225647	1752.206665	737.528809	2.526767
338.645264	708.922180	1823.240234	735.076843	2.347145
339.012421	710.482605	1903.635742	744.810486	2.877073
339.379669	714.940735	1971.548462	743.101563	2.241020
339.746796	721.702332	2014.792480	737.528809	1.223927
340.113953	719.176025	2035.820190	734.779602	1.185102
340.481018	716.055359	2041.987305	732.624817	1.249646
340.848114	711.225586	2034.111328	737.974609	2.022021
341.215118	712.414551	2032.773926	730.618652	1.378723
341.582153	713.380432	2045.851196	730.618652	1.293704
341.949066	712.488770	2055.510498	722.148132	0.719226
342.316010	708.030579	2070.742676	726.086243	1.324980
342.682922	711.448547	2076.686768	728.835449	1.273543
343.049835	714.123474	2112.649170	732.179016	1.291041
343.416656	722.668213	2147.348633	740.203674	1.230835
343.783478	722.222473	2193.267822	731.138733	0.606117
344.150269	727.943787	2226.481201	734.853943	0.461127
344.516998	722.668274	2272.251465	729.652649	0.450726
344.883728	729.504150	2316.015625	733.665039	0.262267
345.250427	721.107910	2354.801758	728.686768	0.463909
345.617065	722.816833	2369.364990	732.253357	0.573110
345.983704	714.792175	2363.941162	733.590759	1.139896
346.350281	710.111084	2358.814209	736.785828	1.617923
346.716827	710.408203	2339.569824	728.463928	1.108283
347.083405	707.064636	2339.421143	726.531982	1.192592
347.449860	728.538269	2336.003174	745.033386	1.026157
347.816376	724.080078	2347.148682	755.807312	1.954769
348.182770	730.990173	2339.198242	753.801086	1.418406
348.549194	718.804504	2327.012451	736.711487	1.113474
348.915558	726.531982	2333.476807	729.206848	0.166457
349.281921	727.869446	2333.774170	726.754883	-0.069404
349.648193	725.417480	2360.523193	725.491699	0.004539
350.014526	718.878845	2379.395752	727.052185	0.492217
350.380737	715.237976	2425.612305	730.692932	0.903601
350.746948	720.885010	2459.568604	734.259521	0.769232
351.113159	721.628113	2489.215576	726.680664	0.285845
351.479309	718.284424	2502.664307	729.281250	0.616283
351.845428	706.916016	2507.494141	724.525879	0.978012
352.211517	713.603333	2528.224365	730.990173	0.958153
352.577576	712.117249	2552.744141	730.321472	0.989023
352.943604	713.900574	2591.901611	732.030457	0.965382
353.309601	706.767517	2626.006836	736.117004	1.529225
353.675537	710.482666	2678.464600	730.395691	1.011850
354.041473	710.854187	2735.231689	736.488586	1.266286
354.407379	713.008972	2789.472900	732.401917	0.933941
354.773254	713.677673	2842.004883	742.952942	1.375506
355.139038	718.210144	2883.911377	737.603088	0.895458
355.504913	722.965515	2945.731445	741.615479	0.839043
355.870636	717.690002	3000.864014	736.117126	0.807084
356.236389	719.101746	3061.420654	737.900391	0.802566
356.602081	717.244141	3132.305420	733.070618	0.655324
356.967804	725.491760	3216.416016	733.144836	0.307238
357.333405	724.525879	3306.619873	727.646484	0.120856
357.699036	717.689941	3371.411865	721.999512	0.162397
358.064606	714.717834	3452.253174	721.702332	0.255138
358.430176	706.990417	3503.967529	721.033630	0.502085
358.795654	710.779785	3555.608154	723.931396	0.462299
359.161163	710.259705	3564.004639	727.497986	0.604058
359.526581	713.900574	3563.260986	730.024231	0.565869
359.892029	717.541321	3581.317139	740.798157	0.812104
360.257416	720.290527	3622.480469	739.980774	0.678462
360.622772	721.033630	3739.878906	735.151123	0.467645
360.988098	717.987122	3859.283203	726.086182	0.257825
361.353394	714.643616	4005.733643	725.640381	0.334137
361.718658	724.971680	4135.243652	733.367859	0.246203
362.083893	721.925293	4246.177246	732.773438	0.307814
362.449097	727.646545	4339.130371	731.510315	0.106986
362.814209	719.993408	4355.328125	725.714661	0.157379
363.179382	716.129578	4294.103027	725.343201	0.257510
363.544434	711.597168	4138.810059	726.011902	0.420596
363.909546	708.104980	3942.725342	725.343079	0.532925
364.274536	707.882080	3782.825928	731.064453	0.753912
364.639587	702.978027	3654.579346	736.191406	1.125266
365.004517	706.395996	3606.505127	739.534973	1.142680
365.369507	705.207214	3575.446533	741.169617	1.252941
365.734344	708.922302	3576.561523	733.665039	0.862826
366.099274	711.820068	3574.481201	735.002441	0.809819
366.464081	716.055359	3571.806396	724.600159	0.299214
366.828918	718.358704	3575.892822	730.692932	0.431639
367.193665	710.111084	3588.375732	732.624817	0.782198
367.558411	715.238037	3597.514893	739.460632	0.840398
367.923126	713.529053	3601.898682	739.906494	0.913229
368.287781	725.045959	3595.582764	741.243896	0.564282
368.652435	719.398926	3590.456055	743.398743	0.835923
369.017059	722.965515	3582.357178	743.250061	0.709401
369.381653	719.621887	3577.601563	742.209778	0.790345
369.746185	719.250305	3561.849609	736.191345	0.595970
370.110687	711.374268	3562.666992	738.420410	0.948557
370.475220	703.795410	3567.645264	736.117004	1.128606
370.839661	710.482666	3613.044189	740.872375	1.046996
371.204041	711.002747	3675.458740	741.466797	1.027644
371.568451	714.272034	3733.340088	742.135559	0.922918
371.932770	711.374207	3775.618408	743.993103	1.064501
372.297150	713.231750	3786.837891	741.318176	0.913794
372.661377	717.764343	3806.156982	738.049011	0.656803
373.025696	713.380432	3831.642578	730.098633	0.536138
373.389862	717.690002	3850.515625	721.182312	0.111475
373.754059	716.575439	3860.175049	725.640442	0.288364
374.118225	718.507324	3882.317139	729.578430	0.349930
374.482361	713.677551	3906.242432	740.946716	0.854146
374.846436	712.785950	3954.464844	734.333801	0.664713
375.210510	706.916016	4002.093018	736.711426	0.904213
375.574524	709.145203	4094.080078	733.813660	0.728772
375.938538	706.098816	4173.509766	740.278015	0.985727
376.302460	713.008972	4258.140625	738.717590	0.725181
376.666412	720.067688	4345.892090	739.460693	0.534858
377.030304	719.770508	4441.667969	746.445129	0.716694
377.394196	719.547546	4543.834473	744.959167	0.664480
377.757996	719.844727	4610.706543	743.918884	0.618736
378.121796	724.451477	4661.084473	731.956055	0.190634
378.485565	721.256531	4664.279297	734.853943	0.344847
378.849304	713.900574	4633.740723	732.847717	0.483365
379.212982	712.414551	4571.177734	732.327637	0.516048
379.576630	718.953186	4488.924805	735.076843	0.427686
379.940277	717.095642	4406.819824	738.866211	0.590032
380.303864	719.101746	4361.272949	738.866211	0.542656
380.667450	715.758118	4348.863770	736.042725	0.558327
381.030945	719.101746	4373.606934	729.429871	0.282614
381.394501	720.810730	4406.373535	730.024231	0.249989
381.757935	729.504089	4431.488770	730.915833	0.038135
382.121399	732.922058	4442.039551	733.367859	0.012019
382.484741	729.875671	4457.940918	737.900330	0.215250
382.848145	725.120300	4497.246582	739.089111	0.370317
383.211487	716.055359	4538.707520	742.432800	0.690030
383.574768	719.101746	4594.583496	741.095276	0.567504
383.938019	721.256531	4655.362793	737.528809	0.413621
384.301270	728.240967	4732.785645	736.340027	0.202247
384.664459	718.210144	4788.142090	736.711487	0.454586
385.027649	714.792175	4835.249512	730.172852	0.373276
385.390778	708.996582	4867.794434	733.144958	0.580658
385.753876	719.696106	4902.121582	740.500916	0.497434
386.116943	716.426819	4921.218262	750.085938	0.800494
386.479980	720.959290	4944.846191	750.383118	0.696606
386.842987	712.042969	4980.511719	751.646301	0.927811
387.205994	717.021240	5023.532715	753.206726	0.840250
387.568909	716.426819	5070.269043	754.321289	0.870368
387.931793	719.027405	5103.259277	756.476074	0.854167
388.294678	712.637390	5149.327148	751.274841	0.870862
388.657471	715.163757	5178.824707	753.206726	0.852282
389.020294	722.816895	5195.023438	757.367676	0.772567
389.383057	730.024231	5209.363770	771.633728	0.928920
389.745819	723.114075	5229.573730	772.896912	1.104699
390.108521	717.095520	5250.453125	772.525391	1.222711
390.471191	705.281433	5288.273438	773.268372	1.483462
390.833801	715.312317	5364.359863	779.658508	1.384073
391.196442	710.928406	5474.253418	778.395325	1.416383
391.558960	717.392761	5571.589844	792.289856	1.542935
391.921509	712.117371	5690.102051	803.658203	1.838913
392.284027	716.798340	5802.670410	820.376282	2.036582
392.646484	718.953125	5888.787598	822.159607	1.996321
393.008911	721.479431	5902.904785	829.887024	2.092235
393.371307	717.392761	5904.316895	848.908508	2.535525
393.733673	713.008972	5889.308594	864.437805	2.925426
394.096008	708.550781	5866.051270	886.208557	3.444649
394.458344	718.655945	5853.642578	900.474670	3.540783
394.820587	719.398987	5875.115723	916.375488	3.820545
395.182831	724.451477	5910.707031	929.972900	3.962810
395.545013	712.414490	5902.459473	949.217285	4.562635
395.907196	714.271973	5874.818848	973.960144	5.032183
396.269287	710.482605	5834.175781	991.941406	5.493279
396.631409	717.244202	5773.693359	1003.681152	5.664784
396.993469	717.689941	5700.950684	1028.201050	6.231083
397.355530	717.541321	5643.737793	1049.303101	6.734644
397.717499	717.318420	5634.449707	1074.045898	7.254788
398.079468	719.398987	5616.914551	1089.426392	7.555410
398.441376	718.284424	5627.539551	1111.940186	8.018646
398.803284	713.826233	5629.025879	1137.351807	8.616651
399.165131	704.389832	5662.907715	1162.911865	9.247159
399.526978	706.618896	5658.449219	1194.119019	9.844848
399.888763	713.157532	5685.718750	1215.072388	10.093689
400.250519	713.380371	5698.424316	1244.273315	10.649714
400.612244	711.522888	5735.427246	1283.208008	11.379299
400.973938	707.882019	5731.488770	1314.340820	12.072179
401.335602	714.272034	5740.182129	1345.176514	12.553040
401.697205	718.284485	5767.376953	1369.473511	12.897150
402.058807	715.906738	5818.645996	1402.463867	13.454678
402.420349	719.547607	5888.341797	1442.067383	13.978498
402.781860	716.203918	5955.140137	1472.531372	14.436662
403.143341	720.216309	6031.151855	1522.537109	15.106958
403.504822	720.810730	6139.634277	1561.843262	15.520574
403.866241	718.730225	6273.081543	1620.765259	16.240150
404.227631	714.792175	6397.687012	1660.517090	16.641605
404.588959	708.699402	6538.045410	1699.749023	17.001043
404.950287	711.225647	6646.527344	1726.052124	17.098145
405.311554	708.699402	6729.894531	1765.655396	17.553925
405.672821	703.944031	6768.086426	1807.190796	18.192957
406.034027	701.714844	6772.395996	1836.614624	18.694769
406.395203	702.458008	6747.429688	1842.558960	18.860319
406.756348	709.739563	6707.975098	1851.995239	19.043194
407.117493	710.333984	6669.857910	1870.348022	19.464878
407.478516	717.912903	6670.006348	1892.416016	19.732607
407.839600	718.953125	6679.591797	1918.347656	20.121914
408.200592	719.547546	6698.241699	1938.557983	20.389242
408.561554	715.535217	6709.164063	1972.068481	20.964481
408.922485	719.844727	6702.923340	1994.210815	21.299505
409.283417	718.284363	6705.746582	2017.170288	21.693430
409.644257	722.148132	6752.929199	2037.752319	21.814823
410.005096	718.284424	6833.695801	2069.851074	22.100994
410.365906	717.541443	6911.119141	2106.259521	22.421904
410.726715	711.968689	6998.424316	2142.445068	22.754894
411.087433	708.476379	7070.869629	2172.537354	23.011169
411.448120	711.745789	7143.983887	2202.109619	23.170219
411.808807	712.117249	7160.330078	2227.967041	23.508062
412.169434	713.974792	7133.507324	2224.029053	23.522806
412.530029	719.027405	7114.411621	2237.998047	23.751047
412.890564	719.324707	7116.491699	2257.242432	24.040606
413.251099	720.364929	7153.717285	2287.112305	24.353512
413.611572	717.987244	7191.537109	2308.436768	24.568428
413.972076	726.680664	7230.769531	2321.588623	24.521620
414.332489	724.748779	7259.673340	2338.677979	24.696981
414.692871	724.377258	7348.910645	2367.507568	24.803715
415.053223	710.928406	7440.005859	2404.733154	25.171425
415.413574	710.854187	7607.484375	2459.642822	25.357145
415.773834	707.807800	7715.445801	2498.206055	25.549238
416.134094	716.872620	7844.138184	2551.109619	25.735495
416.494263	717.467102	7919.257813	2587.517822	25.966471
416.854462	720.959290	8098.326660	2647.406006	26.112930
417.214630	721.702332	8296.046875	2694.885254	26.050873
417.574738	718.730225	8534.485352	2762.649414	26.151270
417.934784	722.965515	8746.098633	2827.515625	26.231024
418.294861	720.364807	8980.079102	2898.920654	26.375683
418.654846	727.869446	9246.528320	2975.823975	26.388596
419.014832	726.606262	9552.878906	3054.584961	26.375559
419.374756	726.457703	9887.463867	3151.030029	26.466223
419.734680	726.457703	10241.739258	3262.335205	26.650578
420.094543	720.067688	10582.714844	3364.278564	26.810356
420.454376	717.392761	10901.769531	3454.333740	26.873917
420.814148	712.191589	11229.370117	3533.912109	26.829634
421.173920	714.866516	11599.174805	3637.192627	26.848984
421.533691	719.250305	11943.196289	3735.272217	26.871315
421.893341	710.111084	12236.989258	3813.141357	26.919954
422.253021	704.241211	12446.225586	3870.354492	26.964039
422.612640	701.269104	12561.840820	3899.332764	26.963825
422.972260	707.956360	12570.905273	3929.573486	27.156967
423.331757	706.321716	12523.945313	3936.409424	27.332802
423.691315	714.792175	12524.094727	3953.573486	27.425676
424.050781	724.228577	12599.883789	3973.114990	27.357534
424.410248	727.275085	12638.372070	3993.399658	27.420855
424.769653	715.981018	12699.746094	4023.863525	27.603033
425.128998	711.002747	12749.901367	4041.622070	27.665483
425.488373	717.912903	12747.226563	4040.730469	27.622671
425.847656	728.315247	12663.635742	4017.176514	27.555702
426.206940	734.036621	12549.284180	4001.052734	27.650846
426.566193	735.299744	12366.276367	3951.270264	27.650047
426.925385	726.309082	12150.796875	3902.750244	27.803793
427.284576	719.919006	11821.710938	3810.391846	27.837605
427.643677	709.516602	11623.694336	3753.030518	27.885874
428.002777	716.129639	11403.832031	3698.789307	27.907398
428.361847	713.306152	11186.050781	3666.913330	28.202801
428.720856	714.643555	10937.805664	3615.050049	28.370934
429.079865	711.671387	10778.426758	3581.910889	28.512060
429.438812	713.454773	10680.421875	3523.434814	28.192930
429.797760	722.965515	10604.632813	3509.020264	28.194178
430.156616	720.216309	10479.804688	3473.875000	28.214907
430.515503	716.872620	10393.018555	3464.067139	28.391415
430.874268	715.089355	10357.056641	3459.237549	28.460461
431.233093	717.095520	10401.266602	3472.389404	28.451521
431.591827	718.210144	10461.823242	3503.596436	28.586790
431.950562	714.866516	10494.145508	3513.180908	28.614731
432.309204	707.956360	10523.420898	3526.555664	28.715902
432.667877	706.470215	10595.493164	3544.611328	28.699913
433.026459	700.971863	10707.616211	3579.162109	28.762791
433.385010	712.785950	10826.649414	3625.452881	28.798758
433.743561	712.860352	10941.817383	3678.579102	28.993364
434.102051	717.318420	11065.754883	3728.138916	29.094448
434.460510	716.724060	11202.472656	3760.237549	29.025236
434.818939	719.027344	11298.916992	3768.485352	28.823154
435.177338	716.278259	11341.567383	3771.383545	28.753149
435.535675	716.798340	11352.340820	3768.559814	28.693989
435.894012	711.522888	11318.757813	3787.358398	28.997522
436.252289	716.055359	11338.745117	3806.008545	29.088238
436.610535	706.395996	11322.472656	3803.927734	29.177746
436.968719	719.621826	11427.461914	3832.237061	29.068563
437.326935	719.176025	11507.485352	3851.184326	29.031502
437.685028	725.045898	11600.140625	3890.638916	29.108648
438.043152	718.507324	11664.932617	3890.193359	28.974627
438.401215	715.460938	11825.054688	3937.152588	28.999186
438.759277	715.832458	12000.558594	3991.914063	29.031111
439.117249	717.838623	12296.803711	4091.405029	29.135302
439.475250	722.371094	12504.850586	4170.537598	29.265203
439.833130	714.866455	12797.453125	4252.939453	29.282413
440.191071	714.197754	12995.395508	4308.146484	29.263830
440.548889	708.922302	13228.930664	4365.136230	29.202965
440.906708	715.312317	13456.296875	4426.212891	29.125698
441.264496	714.717957	13653.645508	4474.063965	29.054541
441.622223	723.336975	13831.452148	4522.509277	28.983360
441.979950	724.748718	13937.926758	4556.391113	28.998644
442.337616	718.210022	14000.862305	4579.425293	29.069611
442.695251	718.953125	13931.983398	4564.416504	29.103569
443.052887	713.826233	13806.932617	4527.710938	29.128952
443.410461	719.250305	13684.554688	4512.404785	29.256193
443.768005	707.659119	13583.502930	4484.912598	29.335968
444.125458	709.219482	13503.553711	4495.314941	29.591970
444.482941	713.008972	13487.429688	4506.236816	29.693932
444.840393	726.234863	13532.828125	4533.357910	29.727835
445.197754	731.584656	13727.206055	4580.763184	29.619041
445.555084	724.525879	13923.809570	4632.552246	29.607868
445.912415	716.649719	14221.391602	4722.606934	29.663338
446.269714	706.470215	14429.067383	4794.457520	29.790186
446.626953	707.436218	14668.026367	4872.475098	29.834263
446.984161	707.584778	14931.502930	4946.629395	29.802227
447.341309	715.758118	15143.042969	5006.442871	29.740068
447.698456	726.606262	15368.924805	5060.386719	29.597637
448.055542	719.101746	15474.583008	5087.581543	29.605812
448.412598	719.696106	15530.903320	5093.525879	29.530540
448.769653	711.002686	15442.781250	5084.089355	29.684719
449.126617	715.163635	15251.897461	5056.077637	29.861689
449.483582	720.810730	15078.696289	5030.888672	30.018892
449.840515	720.439148	14827.331055	4970.628906	30.128466
450.197388	724.971619	14690.613281	4914.827637	30.001171
450.554230	720.810608	14526.403320	4879.757324	30.125086
450.911041	720.141907	14434.789063	4845.280762	30.078342
451.267822	720.810730	14322.592773	4845.280762	30.323013
451.624573	718.507324	14221.465820	4795.645996	30.194408
451.981262	722.073792	14139.807617	4779.448242	30.238897
452.337921	725.789001	14008.663086	4727.139160	30.124128
452.694580	724.897278	13916.899414	4723.943848	30.314175
453.051147	723.188416	13910.881836	4718.668457	30.297035
453.407715	722.296692	13885.023438	4709.529297	30.291845
453.764221	732.847717	13982.804688	4733.380859	30.192801
454.120728	734.110901	13850.472656	4701.728027	30.249374
454.477142	732.847717	13859.834961	4730.482910	30.453562
454.833557	719.473328	13706.176758	4699.498535	30.646925
455.189911	717.095520	13602.598633	4689.170410	30.825920
455.546265	709.962463	13405.250977	4642.582520	30.977005
455.902557	710.111145	13280.273438	4625.121094	31.145262
456.258820	711.374207	13285.401367	4628.390625	31.151646
456.615051	712.637390	13368.321289	4650.681641	31.116804
456.971252	720.439209	13369.659180	4655.585449	31.109795
457.327393	717.764343	13481.039063	4695.040527	31.161879
457.683502	724.600098	13650.674805	4761.986816	31.234438
458.039612	723.559875	13995.437500	4864.970703	31.204407
458.395630	729.132629	14336.413086	4990.914063	31.319860
458.751648	724.897278	14651.679688	5096.274902	31.388281
459.107605	716.798340	15113.694336	5242.576660	31.435791
459.463562	716.278137	15583.657227	5378.104980	31.356075
459.819458	717.318420	16059.121094	5502.265625	31.188950
460.175323	714.643555	16490.892578	5609.410156	31.026175
460.531158	712.191589	16941.169922	5729.260254	30.914261
460.886932	707.584778	17254.875000	5828.899902	30.949568
461.242676	713.008972	17491.603516	5914.720215	31.002069
461.598419	713.900574	17470.724609	5927.500000	31.113293
461.954102	714.346375	17313.130859	5888.192871	31.170033
462.309723	712.563049	16884.847656	5752.441895	31.163681
462.665344	709.293762	16388.357422	5612.009277	31.269184
463.020905	718.507324	15981.178711	5481.607910	31.207516
463.376373	728.538269	15618.135742	5410.946777	31.447517
463.731873	735.596985	15345.592773	5319.926270	31.378031
464.087341	728.686768	15084.418945	5252.756348	31.514027
464.442749	728.315247	14968.358398	5202.974121	31.423071
464.798126	727.349304	14849.995117	5190.416504	31.602205
465.153503	730.915833	14889.002930	5216.273926	31.680536
465.508820	721.107849	14883.207031	5221.698242	31.779118
465.864105	722.371094	14995.032227	5250.378418	31.725039
466.219330	715.089355	15188.070313	5315.170410	31.783924
466.574524	711.002747	15354.805664	5381.077637	31.891134
466.929657	706.395996	15500.514648	5432.568848	31.946295
467.284790	720.290527	15632.698242	5474.625000	31.881735
467.639893	730.915833	15831.309570	5533.101074	31.801722
467.994934	725.417480	16075.245117	5610.821777	31.827095
468.349945	713.751953	16213.077148	5658.152344	31.900745
468.704926	716.575439	16264.346680	5669.074219	31.853434
469.059875	722.742493	16134.167969	5628.951172	31.834877
469.414764	729.206848	15961.116211	5601.459473	31.987143
469.769653	722.965515	15811.023438	5564.828125	32.090698
470.124451	723.559875	15728.995117	5554.351074	32.193607
470.479248	708.699402	15605.726563	5500.481934	32.166035
470.834015	700.377441	15492.786133	5476.556152	32.288040
471.188721	699.931641	15530.680664	5482.648926	32.248657
471.543365	711.894348	15587.596680	5502.785156	32.206146
471.898010	722.371033	15709.825195	5543.205566	32.165798
472.252625	728.835266	15817.713867	5582.363281	32.166260
472.607178	732.253235	16022.043945	5645.520996	32.134300
472.961700	728.835388	16192.272461	5688.244629	32.071842
473.316193	731.287415	16396.900391	5749.916016	32.035954
473.670654	729.281250	16576.789063	5807.871582	32.046619
474.025055	736.191345	16826.369141	5900.156250	32.093895
474.379456	725.343201	17046.677734	5964.205078	32.098244
474.733795	723.708496	17212.597656	6035.535645	32.214584
475.088104	721.182190	17339.580078	6074.544922	32.213470
475.442383	724.080078	17354.589844	6118.978027	32.439762
475.796570	727.869446	17448.730469	6133.095215	32.326241
476.150787	731.584656	17552.085938	6180.648926	32.395374
476.504944	735.894226	17716.220703	6208.884277	32.231361
476.859070	736.934387	17886.224609	6272.412598	32.278175
477.213135	735.374023	18069.306641	6314.616699	32.186825
477.567200	722.445313	18411.396484	6435.878906	32.299450
477.921173	711.894348	18778.080078	6554.540527	32.340229
478.275146	703.275208	19240.169922	6699.429688	32.347134
478.629089	710.854187	19547.263672	6788.444824	32.265121
478.983002	718.655945	19922.267578	6910.524902	32.243256
479.336823	718.730164	20216.656250	7034.833496	32.393719
479.690643	720.810730	20566.845703	7162.113770	32.456371
480.044403	720.364929	20941.851563	7288.725098	32.482086
480.398163	729.206848	21520.818359	7449.293457	32.321144
480.751862	724.005676	22252.921875	7692.931641	32.370071
481.105499	719.398926	23140.541016	7999.207520	32.468498
481.459137	719.027405	24271.130859	8406.014648	32.638218
481.812744	722.891113	25659.625000	8899.236328	32.788357
482.166290	728.612488	27348.080078	9511.565430	32.994473
482.519806	724.897278	29367.255859	10225.020508	33.168087
482.873291	724.377258	31705.341797	11022.511719	33.240200
483.226715	724.822998	34387.449219	11880.261719	33.138943
483.580139	723.262695	37057.144531	12742.026367	33.078667
483.933502	719.993347	39977.246094	13638.264648	32.906712
484.286804	727.275085	42839.312500	14477.440430	32.651386
484.640106	725.343079	45620.015625	15312.527344	32.492016
484.993347	723.485535	47723.156250	16012.086914	32.529167
485.346558	707.584778	48929.683594	16537.705078	32.827522
485.699738	706.916016	49084.972656	16680.513672	33.018272
486.052887	706.767395	48293.871094	16516.232422	33.222160
486.405975	710.631165	46882.863281	16105.487305	33.342239
486.759064	714.049133	45068.386719	15554.606445	33.459091
487.112061	730.098572	43296.121094	14943.243164	33.390820
487.464996	727.275085	41899.453125	14404.325195	33.219154
487.817963	721.479492	41166.160156	14058.668945	32.976376
488.170868	702.086426	40982.484375	13916.231445	32.805397
488.523743	705.429993	41161.851563	13940.083008	32.713356
488.876587	708.773682	41324.277344	13995.289063	32.712917
489.229401	715.312317	41310.082031	13999.821289	32.724682
489.582153	711.002747	40843.683594	13879.079102	32.811356
489.934845	712.265930	40112.917969	13696.442383	32.954216
490.287537	713.008850	39195.722656	13475.319336	33.163750
490.640198	718.507324	38341.910156	13254.195313	33.318855
490.992798	714.272034	37521.687500	12993.838867	33.361664
491.345337	704.241211	37024.453125	12782.372070	33.254574
491.697876	701.937805	36823.312500	12627.004883	33.013882
492.050354	711.225586	37062.566406	12681.691406	32.929916
492.402832	721.479431	37355.691406	12743.437500	32.816204
492.755219	727.720886	37559.578125	12774.124023	32.706478
493.107605	723.782776	37448.421875	12709.778320	32.637474
493.459930	727.126465	36953.269531	12555.450195	32.651348
493.812225	721.256531	35934.730469	12287.143555	32.845062
494.164490	715.163757	34496.527344	11863.395508	33.001129
494.516724	705.207214	32786.671875	11338.520508	33.144726
494.868896	707.510559	31028.296875	10795.887695	33.272148
495.221039	712.488770	29513.931641	10304.079102	33.302464
495.573120	720.662109	28248.187500	9918.150391	33.411968
495.925201	734.853943	27552.193359	9666.487305	33.305443
496.277222	737.900330	27067.587891	9505.546875	33.299469
496.629211	736.934387	26927.306641	9413.411133	33.128494
496.981140	713.008972	26779.517578	9359.021484	33.169048
497.333069	717.689941	26864.890625	9346.167969	32.999626
497.684967	724.377197	26923.591797	9365.783203	32.983456
498.036804	730.247070	27043.367188	9393.275391	32.922848
498.388580	717.987122	27032.218750	9395.132813	32.975105
498.740326	711.151367	26997.818359	9415.715820	33.113991
499.092072	714.643555	26801.658203	9400.557617	33.295929
499.443756	717.764343	26573.031250	9355.381836	33.407574
499.795410	713.900574	26276.638672	9284.570313	33.527981
500.147003	711.522888	26052.466797	9188.869141	33.453163
500.498566	716.575439	25720.333984	9081.352539	33.454082
500.850098	720.142029	25409.896484	8957.639648	33.364033
501.201599	722.668274	25101.093750	8850.122070	33.338715
501.553009	714.197754	24851.958984	8757.020508	33.320499
501.904449	714.494934	24669.617188	8699.139648	33.331676
502.255859	719.324646	24497.828125	8661.838867	33.402077
502.607178	725.937561	24435.041016	8641.926758	33.387974
502.958405	726.011902	24329.312500	8595.264648	33.339630
503.309692	719.621887	24229.820313	8570.819336	33.394855
503.660919	713.751953	24186.873047	8576.391602	33.496353
504.012115	713.826233	24188.431641	8588.651367	33.546146
504.363251	712.191589	24262.587891	8606.707031	33.521793
504.714294	718.507324	24321.806641	8628.775391	33.513401
505.065369	718.135742	24390.833984	8663.401367	33.562988
505.416443	727.200745	24454.289063	8675.436523	33.498573
505.767395	729.727051	24530.748047	8707.981445	33.520638
506.118317	722.296692	24532.974609	8707.758789	33.537315
506.469238	713.306152	24578.671875	8750.185547	33.675911
506.820160	708.327820	24557.271484	8741.567383	33.683838
507.170929	720.736389	24604.898438	8748.551758	33.611458
507.521729	727.126465	24616.568359	8738.148438	33.533733
507.872498	728.463867	24709.669922	8776.118164	33.558170
508.223236	722.816895	24875.806641	8844.773438	33.627125
508.573883	718.655945	25031.546875	8909.936523	33.691101
508.924500	720.216309	25186.095703	8948.053711	33.629848
509.275116	721.627991	25287.593750	9023.174805	33.792881
509.625702	723.857117	25526.476563	9095.470703	33.752941
509.976196	714.792175	25758.820313	9194.292969	33.858376
510.326660	715.609558	26026.087891	9278.330078	33.830734
510.677124	714.643555	26258.656250	9372.397461	33.893478
511.027557	732.402039	26482.083984	9454.055664	33.870918
511.377869	728.909668	26710.937500	9519.515625	33.833408
511.728180	729.058289	26833.462891	9589.434570	33.942074
512.078430	722.073792	26955.318359	9623.019531	33.930019
512.428650	723.931396	27047.677734	9635.502930	33.853737
512.778931	728.240967	27163.068359	9638.474609	33.706417
513.129028	721.256531	27206.833984	9687.142578	33.851955
513.479126	713.306152	27283.958984	9723.105469	33.908836
513.829285	705.281494	27295.476563	9718.871094	33.898170
514.179382	708.550781	27308.626953	9702.597656	33.812111
514.529297	717.244141	27276.751953	9705.496094	33.841938
514.879272	720.959290	27306.398438	9753.941406	33.977180
515.229187	722.593933	27204.380859	9713.074219	33.949673
515.579163	723.411316	27211.216797	9720.281250	33.966084
515.928955	724.228699	27226.671875	9695.316406	33.850040
516.278748	725.863281	27430.335938	9779.129883	33.901688
516.628540	728.835449	27629.095703	9871.933594	33.988884
516.978333	732.179016	27993.921875	10013.183594	34.044064
517.327942	728.984070	28433.646484	10185.416992	34.132999
517.677612	724.154297	28965.281250	10345.688477	34.069229
518.027222	721.925293	29419.568359	10486.492188	34.025673
518.376831	721.479492	30026.173828	10635.320313	33.830212
518.726379	719.547546	30598.751953	10818.031250	33.797699
519.075867	712.711670	31072.060547	11008.023438	33.911503
519.425293	709.665283	31522.853516	11175.351563	33.964958
519.774658	713.900452	31871.259766	11266.520508	33.868790
520.124084	720.439148	32157.623047	11333.023438	33.758060
520.473389	724.823059	32137.857422	11318.459961	33.723698
520.822693	723.262695	31971.642578	11279.450195	33.781551
521.171997	722.148132	31658.755859	11203.586914	33.880375
521.521240	719.101746	31316.962891	11112.938477	33.969162
521.870361	718.730225	30860.447266	10999.924805	34.109520
522.219482	714.197754	30531.656250	10891.961914	34.133572
522.568604	716.278137	30211.931641	10821.374023	34.259609
522.917664	714.643555	30045.943359	10758.514648	34.242844
523.266724	716.129578	30007.380859	10744.397461	34.236393
523.615662	714.717834	30135.255859	10774.711914	34.193783
523.964600	709.516602	30464.041016	10903.180664	34.259209
524.313538	712.340149	30863.494141	11072.219727	34.359814
524.662354	712.042969	31427.748047	11302.707031	34.479637
525.011169	726.531982	32110.068359	11550.135742	34.488155
525.359985	727.869446	32947.609375	11851.656250	34.524757
525.708740	724.080078	33925.511719	12185.424805	34.520638
526.057434	722.742676	35071.777344	12568.157227	34.485435
526.406067	724.005798	36418.214844	13034.331055	34.488297
526.754700	727.349304	37873.136719	13556.308594	34.536777
527.103333	724.971680	39587.597656	14187.881836	34.642307
527.451782	720.439209	41453.933594	14887.739258	34.780468
527.800293	722.445374	43406.980469	15611.448242	34.881493
528.148743	717.095520	45348.957031	16317.175781	34.952785
528.497131	715.460938	47227.625000	16963.310547	34.932472
528.845642	718.730225	48994.613281	17576.830078	34.920334
529.193909	721.256531	50521.761719	18142.794922	34.982655
529.542175	721.553711	51758.160156	18612.087891	35.054321
529.890503	720.736389	52567.464844	18959.826172	35.178864
530.238770	718.507324	52871.660156	19128.492188	35.299850
530.586914	723.262695	52737.324219	19122.771484	35.374104
530.934998	724.228699	52029.957031	18888.271484	35.403538
531.283142	726.532043	50914.230469	18439.705078	35.293854
531.631226	727.497864	49142.109375	17802.931641	35.269173
531.979248	723.336914	47148.421875	17049.724609	35.167168
532.327148	718.804504	45087.707031	16292.877930	35.101326
532.675110	712.265930	43406.906250	15634.926758	34.952072
533.023071	708.773682	42296.300781	15192.379883	34.826805
533.370850	712.191589	41753.449219	14956.468750	34.707214
533.718689	710.928406	41764.144531	14908.171875	34.582539
534.066467	713.157532	42032.378906	14952.085938	34.460785
534.414246	713.454773	42280.476563	14987.230469	34.339180
534.761963	715.163635	42492.832031	15065.991211	34.350475
535.109619	715.683838	42556.585938	15108.863281	34.399784
535.457153	718.581604	42291.250000	15102.473633	34.599396
535.804749	720.662109	41665.625000	14937.374023	34.721519
536.152344	719.621826	40842.199219	14687.270508	34.812439
536.499817	713.677551	39892.757813	14359.372070	34.829029
536.847229	712.563049	38922.660156	13975.153320	34.709648
537.194641	712.488770	38019.589844	13611.292969	34.574661
537.542114	720.364929	37388.906250	13336.893555	34.406952
537.889404	718.507324	36870.945313	13168.745117	34.438171
538.236694	720.364929	36469.933594	13040.053711	34.461082
538.583984	715.163757	36193.230469	12974.592773	34.554951
538.931213	716.501160	36103.621094	12952.450195	34.577408
539.278381	716.203918	35997.140625	12941.156250	34.650303
539.625488	716.872620	35928.781250	12950.221680	34.742077
539.972595	716.872620	35981.687500	13016.573242	34.878105
540.319641	718.433044	36286.480469	13161.538086	34.983944
540.666687	720.587708	36854.519531	13324.039063	34.879822
541.013611	725.863220	37734.414063	13589.670898	34.759014
541.360596	726.977844	38782.378906	13910.434570	34.642799
541.707458	723.931458	40076.437500	14319.545898	34.548279
542.054260	724.674500	41293.957031	14682.588867	34.405128
542.401062	713.900574	42513.488281	15067.179688	34.338329
542.747864	718.358704	43351.476563	15373.231445	34.374390
543.094666	713.306152	43804.644531	15554.976563	34.442348
543.441284	724.674500	43765.417969	15566.049805	34.482155
543.787903	720.810730	43305.558594	15420.491211	34.518654
544.134460	717.764221	42400.921875	15126.918945	34.568291
544.481079	724.228699	41146.246094	14741.734375	34.677898
544.827637	730.024231	39654.621094	14233.949219	34.692524
545.174072	732.253357	38064.316406	13691.093750	34.712364
545.520508	717.838562	36657.394531	13168.226563	34.642578
545.866943	704.018250	35460.972656	12769.963867	34.715199
546.213318	711.968750	34546.457031	12449.049805	34.689697
546.559631	717.244141	33745.324219	12149.088867	34.612503
546.905823	724.377197	33065.750000	11890.292969	34.525177
547.252136	721.256531	32524.458984	11679.570313	34.456635
547.598389	723.262695	32072.250000	11503.993164	34.389404
547.944458	719.919128	31692.708984	11392.316406	34.457333
548.290588	725.714661	31299.500000	11264.515625	34.470055
548.636658	728.166687	30846.552734	11140.354492	34.570866
548.982727	735.374023	30329.107422	10919.081055	34.411701
549.328735	725.045959	29772.208984	10725.968750	34.429947
549.674622	725.343201	29126.146484	10504.622070	34.433109
550.020569	725.343201	28487.884766	10304.598633	34.504246
550.366455	721.999573	27758.679688	10051.671875	34.507462
550.712280	715.906738	27119.228516	9837.977539	34.548950
551.058044	715.609558	26539.224609	9632.307617	34.529240
551.403748	724.228577	26106.929688	9480.805664	34.498207
551.749512	726.383301	25763.578125	9359.320313	34.480450
552.095154	723.634094	25500.916016	9286.874023	34.560856
552.440735	722.296692	25368.212891	9274.762695	34.701351
552.786316	720.662109	25329.423828	9255.889648	34.683693
553.131897	722.891174	25362.267578	9245.636719	34.589939
553.477417	719.844788	25388.646484	9211.829102	34.423985
553.822815	724.600098	25389.166016	9190.355469	34.323555
554.168213	724.080078	25361.599609	9183.370117	34.334991
554.513672	723.262695	25296.140625	9171.481445	34.380257
554.859009	715.089355	25214.626953	9138.268555	34.380974
555.204285	720.662109	25138.021484	9094.132813	34.293106
555.549500	724.525879	24990.009766	9054.083984	34.326778
555.894714	722.296692	24772.974609	9014.256836	34.477032
556.239990	710.556885	24452.281250	8946.196289	34.688465
556.585022	702.680847	24206.490234	8864.909180	34.727261
556.930115	706.618835	23968.718750	8751.225586	34.582462
557.275146	709.442383	23723.818359	8652.329102	34.512718
557.620178	707.807800	23499.427734	8570.893555	34.499901
557.965149	705.504395	23314.412109	8518.658203	34.557854
558.310059	703.349548	23207.490234	8470.881836	34.516014
558.654968	711.076965	23053.087891	8422.510742	34.515396
558.999756	711.076965	22917.931641	8379.191406	34.530392
559.344604	709.516663	22840.953125	8356.678711	34.553394
559.689331	710.705566	22779.208984	8317.000977	34.466747
560.033997	712.265869	22735.742188	8281.855469	34.370548
560.378723	719.473328	22697.994141	8265.954102	34.335709
560.723389	718.210144	22719.095703	8265.137695	34.302837
561.067932	718.655945	22712.412109	8294.041016	34.443344
561.412476	721.033630	22693.015625	8296.418945	34.477478
561.757019	722.965515	22686.478516	8300.133789	34.498890
562.101501	722.519592	22727.716797	8301.917969	34.443676
562.445862	723.485535	22747.181641	8305.558594	34.426891
562.790222	716.575439	22759.740234	8301.917969	34.411316
563.134644	716.649719	22760.705078	8290.995117	34.360035
563.478943	708.253601	22774.601563	8292.852539	34.371792
563.823181	717.467102	22761.599609	8284.010742	34.324524
564.167358	723.559875	22783.666016	8298.871094	34.339413
564.511536	727.423584	22809.968750	8295.675781	34.272552
564.855774	725.714600	22804.470703	8307.639648	34.340363
565.199768	720.959290	22864.728516	8319.452148	34.314358
565.543823	716.724060	22969.718750	8355.117188	34.325237
565.887817	712.265869	23166.474609	8406.386719	34.265831
566.231812	715.609558	23345.396484	8466.572266	34.251152
566.575745	710.482605	23544.156250	8517.394531	34.190346
566.919617	704.018311	23737.861328	8592.514648	34.247414
567.263428	697.554016	23935.208984	8644.082031	34.196774
567.607239	704.538391	24105.140625	8684.129883	34.099941
567.950989	714.792175	24210.873047	8718.979492	34.066055
568.294678	724.302917	24245.869141	8742.681641	34.089478
568.638367	724.748779	24190.068359	8734.879883	34.136040
568.981995	723.857117	24066.056641	8698.916992	34.165848
569.325623	723.931458	23938.107422	8637.246094	34.088284
569.669128	724.005676	23769.365234	8582.930664	34.101986
570.012573	721.479431	23629.453125	8528.837891	34.081398
570.356140	718.210144	23518.966797	8518.212891	34.209404
570.699524	718.730225	23457.515625	8477.123047	34.119644
571.042908	717.541321	23513.541016	8489.160156	34.092030
571.386230	715.015137	23564.212891	8498.522461	34.064686
571.729492	715.386536	23709.031250	8570.150391	34.160587
572.072815	713.306152	23846.046875	8606.557617	34.121559
572.416016	711.225647	23978.083984	8632.043945	34.043354
572.759094	716.872742	24119.181641	8663.399414	33.956165
573.102234	716.426819	24194.005859	8682.645508	33.931179
573.445374	724.228699	24239.406250	8707.165039	33.948017
573.788391	721.330872	24265.560547	8717.790039	33.963562
574.131409	728.389587	24305.833984	8728.489258	33.931156
574.474365	725.194580	24319.281250	8719.795898	33.883923
574.817261	726.829285	24206.119141	8703.002930	33.971104
575.160156	725.194519	24058.849609	8652.403320	33.973286
575.502930	719.176086	23837.576172	8575.351563	33.982349
575.845703	716.129639	23644.759766	8495.327148	33.927876
576.188477	718.655945	23373.478516	8417.012695	33.981094
576.531250	726.531982	23154.212891	8349.694336	33.989971
576.873901	724.377258	22906.859375	8239.577148	33.878983
577.216431	724.377258	22711.818359	8158.810059	33.812176
577.559082	718.878906	22495.521484	8055.751953	33.691479
577.901611	713.231750	22252.328125	7979.814453	33.736710
578.244080	703.721008	21997.320313	7875.791016	33.681808
578.586487	703.795410	21710.140625	7805.798340	33.808846
578.928955	750.977600	21566.587891	7861.005371	34.157192
579.271301	755.287170	21221.898438	7777.637207	34.311249
579.613647	757.293274	20829.060547	7649.687988	34.338753
579.955872	713.900574	20368.753906	7390.000000	33.966671
580.298157	716.501160	20097.326172	7280.031738	33.866108
580.640320	717.541443	19890.169922	7198.298828	33.802132
580.982483	716.649719	19665.402344	7141.308594	33.905445
581.324524	717.021301	19486.705078	7073.470703	33.865509
581.666626	718.433105	19350.582031	7025.322754	33.849503
582.008728	720.364929	19234.892578	6982.598145	33.823349
582.350647	722.668274	19065.484375	6949.756348	33.948376
582.692566	726.086243	18980.630859	6902.053223	33.832489
583.034424	727.052185	18874.525391	6859.924316	33.794636
583.376343	713.677673	18836.408203	6815.640137	33.670216
583.718201	705.727234	18800.519531	6808.135254	33.724663
584.059937	709.442383	18725.101563	6764.445313	33.609665
584.401611	716.872620	18656.966797	6758.649902	33.677513
584.743347	726.383301	18545.365234	6726.848145	33.674564
585.085022	718.135742	18471.136719	6698.910156	33.688808
585.426514	719.101746	18391.931641	6665.251465	33.645714
585.768127	706.916077	18303.806641	6620.074707	33.603428
586.109619	709.962585	18241.763672	6600.013184	33.596382
586.451172	712.711731	18169.615234	6557.958496	33.483868
586.792542	720.290527	18141.974609	6560.484375	33.522556
587.133850	725.566101	18088.328125	6536.187500	33.466000
587.475220	722.816833	18065.220703	6532.621094	33.500568
587.816589	722.371094	18042.853516	6517.611328	33.458885
588.157776	732.104736	18112.328125	6541.611816	33.425964
588.498962	734.928223	18151.041016	6555.729004	33.421928
588.840210	731.658875	18195.250000	6584.261719	33.513168
589.181335	729.949951	18225.638672	6598.156250	33.540867
589.522400	727.646545	18284.857422	6611.010254	33.509670
589.863403	727.349365	18342.369141	6607.666504	33.382408
590.204407	720.290527	18355.373047	6610.118652	33.398361
590.545410	720.885010	18385.240234	6616.062500	33.373295
590.886353	730.618652	18388.361328	6600.979004	33.245251
591.227112	725.714661	18395.125000	6579.134277	33.127419
591.567932	720.736389	18339.025391	6551.048340	33.092384
591.908752	708.104980	18278.841797	6542.949219	33.207737
592.249512	711.745789	18265.912109	6545.623535	33.233582
592.590149	719.547546	18237.306641	6514.564941	33.080814
592.930786	724.005676	18163.966797	6508.918457	33.170444
593.271423	712.265808	18016.923828	6481.648926	33.340057
593.612000	705.652893	17905.990234	6474.218750	33.537514
593.952576	711.448547	17877.978516	6427.631348	33.298416
594.292969	718.210144	17887.636719	6423.321777	33.228321
594.633484	716.203918	17931.251953	6421.166504	33.139393
594.973877	707.362000	17988.539063	6458.095215	33.277439
595.314209	715.089417	18114.335938	6489.971191	33.190414
595.654480	719.770508	18282.259766	6544.435059	33.165371
595.994812	720.142029	18439.408203	6579.877441	33.069855
596.335022	713.454773	18631.109375	6620.446777	32.967442
596.675171	715.535217	18798.513672	6674.984375	32.956127
597.015320	719.101807	18986.869141	6734.427246	32.928627
597.355408	726.160461	19077.224609	6779.826172	32.988091
597.695496	724.302917	19174.929688	6786.810547	32.858006
598.035461	719.919128	19216.689453	6769.349609	32.705338
598.375366	710.854065	19253.767578	6765.783203	32.653603
598.715271	705.281433	19244.998047	6750.699219	32.607929
599.055176	718.507324	19116.677734	6735.393066	32.703720
599.395081	721.553711	18955.218750	6676.693848	32.660141
599.734802	730.321472	18682.007813	6617.251465	32.793190
600.074524	719.621826	18420.982422	6526.156738	32.802761
600.414246	720.439209	18041.369141	6419.978027	32.905502
600.753906	725.343201	17676.541016	6294.554688	32.854385
601.093506	728.166687	17308.373047	6164.896484	32.790482
601.433044	732.922058	17063.025391	6077.517090	32.728485
601.772583	725.714661	16902.384766	6016.588379	32.706814
602.112122	732.030334	16836.998047	6011.981934	32.784615
602.451538	727.869446	16833.951172	5994.520996	32.699768
602.790894	727.275085	16883.212891	6004.626465	32.665089
603.130310	717.912903	16992.958984	6037.095703	32.683056
603.469604	719.696106	17147.505859	6075.584473	32.602570
603.808838	727.572266	17346.341797	6135.027344	32.538239
604.148010	725.417480	17590.648438	6177.974121	32.330162
604.487305	719.027405	17824.554688	6251.979004	32.345985
604.826416	712.488770	18035.498047	6323.384766	32.389847
605.165527	715.089417	18248.673828	6397.315918	32.407673
605.504456	714.049255	18466.232422	6447.692871	32.298244
605.843445	711.002747	18640.919922	6484.695801	32.201447
606.182434	710.408386	18717.896484	6488.708496	32.088318
606.521423	723.485596	18665.958984	6481.203125	32.089878
606.860229	727.497864	18554.578125	6447.916504	32.088364
607.199036	729.727051	18369.935547	6418.343750	32.248013
607.537903	719.696106	18194.283203	6364.102051	32.300652
607.876648	718.953125	17919.662109	6295.595215	32.421001
608.215271	723.411316	17624.679688	6202.345215	32.417297
608.553955	728.463867	17313.128906	6099.361816	32.384727
608.892578	735.596924	17037.687500	5997.566895	32.277882
609.231140	730.321472	16876.376953	5916.354004	32.119503
609.569641	726.680664	16753.333984	5869.320313	32.088043
609.908081	718.135742	16774.509766	5862.113281	32.036980
610.246521	721.999512	16771.462891	5858.621094	32.004944
610.584961	717.392822	16808.687500	5855.054688	31.928207
610.923340	708.773682	16797.244141	5854.162598	31.981838
611.261597	702.457947	16773.990234	5848.441406	32.019245
611.599854	703.721008	16707.560547	5826.373047	32.008892
611.938110	709.591003	16648.119141	5795.017578	31.906502
612.276245	721.628113	16500.181641	5731.414063	31.750605
612.614319	723.485596	16288.196289	5662.164063	31.729975
612.952393	728.240967	15962.453125	5545.658203	31.622358
613.290466	715.015076	15658.183594	5460.209473	31.754940
613.628479	712.785950	15355.176758	5385.312500	31.910954
613.966370	711.299988	15091.848633	5313.238770	32.001137
614.304260	716.203918	14847.094727	5236.930176	31.991798
614.642151	718.433044	14607.840820	5155.494141	31.945644
614.979980	718.655945	14435.831055	5085.724121	31.836500
615.317749	717.169861	14226.073242	5039.359375	31.995117
615.655396	726.977783	14133.121094	5000.275879	31.875668
615.993164	718.358704	14046.334961	4968.399902	31.888119
616.330811	724.377197	14047.969727	4948.412598	31.703424
616.668396	714.123474	14017.133789	4924.412598	31.649145
617.005859	723.485596	13989.567383	4928.722168	31.699158
617.343445	717.541321	13956.948242	4910.369629	31.669304
617.680908	720.439209	13937.333008	4904.053223	31.653536
618.018311	729.652771	13967.871094	4898.406738	31.490294
618.355652	735.894226	14018.397461	4913.490234	31.451876
618.692993	742.358459	14059.559570	4928.425293	31.433533
619.030273	733.293640	14047.820313	4923.595215	31.471655
619.367554	727.126465	14041.729492	4910.592285	31.420130
619.704712	724.525879	14017.135742	4893.057129	31.359766
620.041870	720.290527	14009.778320	4891.645020	31.388376
620.379028	719.696106	13986.893555	4864.673340	31.242296
620.716064	715.535156	13932.206055	4846.766602	31.257730
621.053040	715.906738	13886.659180	4835.918457	31.281523
621.389954	716.724060	13795.339844	4821.206543	31.383156
621.726929	713.751953	13719.551758	4809.912598	31.494877
622.063843	715.535156	13649.335938	4778.854004	31.416279
622.400635	716.278259	13607.875000	4756.043457	31.336422
622.737427	716.872620	13586.996094	4738.879395	31.250725
623.074219	725.640381	13506.153320	4719.188965	31.247169
623.410889	725.343201	13462.092773	4702.990723	31.229689
623.747559	730.098572	13440.618164	4692.736816	31.176052
624.084167	723.262695	13408.148438	4679.065430	31.185167
624.420715	720.216309	13389.348633	4678.916504	31.246813
624.757324	716.501160	13384.965820	4655.288574	31.091276
625.093750	721.256531	13433.858398	4654.842285	30.942413
625.430176	721.925232	13455.256836	4649.046875	30.841272
625.766602	730.692932	13461.424805	4659.151855	30.858078
626.102905	723.411316	13539.070313	4654.471191	30.673880
626.439209	726.977783	13622.363281	4656.179688	30.469828
626.775452	719.398926	13741.543945	4665.393066	30.302183
627.111694	722.148132	13822.164063	4688.130371	30.274637
627.447876	717.764343	13880.937500	4721.640625	30.417257
627.783997	723.931396	13934.063477	4750.692871	30.482372
628.120056	720.810730	13984.664063	4777.516113	30.584665
628.456055	732.699158	14017.729492	4779.671387	30.462648
628.792053	722.668274	14023.598633	4771.646484	30.441315
629.128052	726.977844	13976.045898	4741.405273	30.299696
629.463928	722.073914	13917.495117	4733.975098	30.403738
629.799744	724.228577	13799.129883	4699.350098	30.402689
630.135559	718.581726	13672.147461	4663.238770	30.452288
630.471375	710.779846	13542.636719	4609.146484	30.380379
630.807068	717.541321	13394.997070	4547.995117	30.214689
631.142700	721.776611	13265.413086	4506.608887	30.173325
631.478333	721.553711	13098.678711	4450.064453	30.124207
631.813965	715.312256	12954.308594	4420.120117	30.270521
632.149475	706.395996	12813.430664	4384.306152	30.378290
632.484924	716.575439	12713.270508	4361.644043	30.383940
632.820435	709.591003	12661.778320	4306.734375	30.096109
633.155884	718.953125	12587.921875	4270.771484	29.925249
633.491150	717.318420	12522.979492	4240.456543	29.842787
633.826477	724.674500	12457.742188	4248.778320	30.035656
634.161804	719.547546	12391.166992	4219.205566	29.984341
634.497009	713.306152	12338.858398	4192.456543	29.926752
634.832153	710.259705	12238.921875	4157.236816	29.899195
635.167297	713.751953	12179.776367	4134.872559	29.837025
635.502380	708.327820	12093.213867	4101.287109	29.802313
635.837463	705.058533	12017.350586	4074.315430	29.784033
636.172424	704.464172	11912.805664	4041.622314	29.773880
636.507324	701.640625	11821.191406	4017.548096	29.820517
636.842224	710.036804	11721.476563	3987.975830	29.768488
637.177124	712.637390	11621.762695	3955.802734	29.728922
637.511963	718.804504	11531.411133	3915.902100	29.568243
637.846741	707.882019	11434.891602	3880.682373	29.577677
638.181396	699.040039	11298.398438	3834.688721	29.583382
638.516113	706.395935	11182.484375	3803.259033	29.561253
638.850769	713.454773	11066.795898	3776.584717	29.585907
639.185303	721.776611	10993.086914	3760.832275	29.587809
639.519836	723.039795	10903.850586	3730.293701	29.538452
639.854370	727.423645	10827.689453	3683.111328	29.263466
640.188843	723.857117	10714.674805	3646.034180	29.248629
640.523254	714.197754	10628.038086	3617.353516	29.283869
640.857605	722.593933	10533.376953	3598.183594	29.310499
641.191895	728.984070	10472.894531	3582.654053	29.286701
641.526184	729.949951	10400.003906	3559.397461	29.259895
641.860413	719.919128	10333.948242	3530.419678	29.233326
642.194580	711.820068	10280.524414	3505.750977	29.198635
642.528748	710.854065	10210.084961	3490.072998	29.257307
642.862793	712.860291	10161.194336	3474.395264	29.227745
643.196838	714.940735	10111.113281	3456.785400	29.180441
643.530823	723.336914	10054.792969	3437.243896	29.083424
643.864746	719.324646	10019.424805	3422.606201	29.067228
644.198669	721.925232	9973.133789	3405.665283	29.009613
644.532532	719.324707	9921.641602	3381.071045	28.924742
644.866333	722.891174	9845.555664	3366.061523	28.973669
645.200073	724.228699	9790.125977	3360.786133	29.082144
645.533813	720.364929	9775.860352	3364.204346	29.195967
645.867554	713.900574	9773.928711	3349.938232	29.095247
646.201172	708.625061	9787.006836	3318.136719	28.744238
646.534729	714.792175	9820.665039	3316.501953	28.571777
646.868225	719.919128	9842.956055	3316.353516	28.460197
647.201782	714.643555	9848.008789	3319.622803	28.521570
647.535217	707.436218	9858.856445	3297.926514	28.306976
647.868591	709.293762	9880.331055	3298.892334	28.236704
648.201965	717.987244	9901.952148	3303.647461	28.154074
648.535278	719.547607	9877.432617	3297.851563	28.153925
648.868591	716.724060	9848.305664	3297.926025	28.266754
649.201782	721.107910	9794.064453	3277.121094	28.171776
649.534912	726.383362	9750.522461	3278.979248	28.286312
649.868103	724.674316	9709.434570	3254.310547	28.154745
650.201172	717.987122	9690.338867	3252.378662	28.246681
650.534180	716.649719	9644.344727	3230.979492	28.163258
650.867188	719.919006	9599.317383	3214.038330	28.088833
651.200134	727.869446	9557.782227	3198.509033	27.980339
651.533020	731.956116	9530.586914	3176.069580	27.778339
651.865845	736.414307	9461.930664	3160.094482	27.776924
652.198608	735.448425	9412.965820	3149.989502	27.825251
652.531433	725.937561	9387.256836	3142.113281	27.896164
652.864136	720.364929	9377.375000	3128.144531	27.813063
653.196777	1313.226196	10037.034180	3721.823486	27.609472
653.529358	1344.284790	9984.502930	3727.322021	27.580753
653.861938	1339.380859	9936.799805	3712.981201	27.608290
654.194519	737.380188	9178.836914	3070.857178	27.643061
654.526978	708.476379	9114.416992	3031.179443	27.631687
654.859375	713.454773	9060.176758	3006.808350	27.476099
655.191833	720.959290	9016.413086	3010.746094	27.602911
655.524170	715.906738	8967.000977	2999.898193	27.681074
655.856445	715.460938	8943.075195	2998.040283	27.742907
656.188660	735.076843	8947.905273	2986.746338	27.416492
656.520874	742.729980	8928.883789	2962.226563	27.112814
656.853088	743.398682	8908.672852	2947.663330	26.995598
657.185181	723.485596	8878.209961	2928.196045	27.035990
657.517212	721.553711	8879.397461	2933.842773	27.118551
657.849243	723.708496	8898.122070	2938.895264	27.099030
658.181274	722.816895	8950.059570	2946.177002	27.024366
658.513123	714.420593	9005.563477	2948.554932	26.946035
658.844971	710.111084	9074.813477	2965.496094	26.963123
659.176819	716.129639	9124.894531	2980.653564	26.930519
659.508667	730.544434	9192.287109	2989.792969	26.699568
659.840393	737.008728	9270.899414	2995.513916	26.465128
660.172058	729.578430	9337.474609	3002.647217	26.406786
660.503662	730.024231	9396.619141	3027.538818	26.510004
660.835266	731.287415	9436.372070	3035.786133	26.473019
661.166931	735.819885	9427.826172	3035.043213	26.452162
661.498413	736.934387	9392.383789	3027.910156	26.468596
661.829773	734.853821	9276.991211	2992.393311	26.428274
662.161194	737.528809	9161.599609	2961.929443	26.405294
662.492615	719.696228	9011.731445	2911.106201	26.427889
662.823975	723.782776	8880.140625	2876.406982	26.391979
663.155212	719.027405	8739.114258	2830.710693	26.329931
663.486450	727.126465	8624.911133	2786.128906	26.070633
663.817627	713.900574	8477.272461	2741.176025	26.113335
664.148743	711.820068	8337.656250	2698.971924	26.058151
664.479858	705.504395	8203.614258	2667.913574	26.172052
664.810913	710.333984	8113.114746	2639.158203	26.055401
665.141907	712.488770	8039.554688	2614.415527	25.957550
665.472778	720.364929	7959.307129	2588.632568	25.808571
665.803711	736.488586	7919.332520	2578.601807	25.646017
666.134583	735.894104	7863.902344	2564.112549	25.648378
666.465454	736.934387	7836.856934	2554.378906	25.598091
666.796143	722.519714	7777.711426	2528.670166	25.600302
667.126831	726.903564	7763.816895	2525.103516	25.553818
667.457458	724.302917	7740.485840	2520.942627	25.607080
667.788147	719.250305	7706.083496	2522.725830	25.812490
668.118774	715.089355	7681.860840	2511.655029	25.787636
668.449219	721.330811	7661.427734	2494.713867	25.552713
668.779663	726.680603	7668.634766	2491.518799	25.422787
669.110107	720.662109	7648.796875	2468.559326	25.228973
669.440552	712.414551	7643.372559	2466.924805	25.314108
669.770874	708.699402	7613.502441	2448.869385	25.202311
670.101135	714.643555	7587.423340	2448.423340	25.226761
670.431396	718.878906	7557.478516	2429.104492	25.008419
670.761597	717.838623	7512.228027	2412.237793	24.938210
671.091797	715.460938	7478.939941	2397.525879	24.869818
671.421875	718.655945	7420.984863	2389.798584	24.933760
671.751892	729.281250	7393.343750	2373.600342	24.674425
672.081909	732.996338	7361.914063	2368.027588	24.665131
672.411865	733.070618	7338.359375	2342.764648	24.369778
672.741821	723.634216	7305.146484	2337.340576	24.518778
673.071716	711.076965	7241.097656	2316.833252	24.590372
673.401550	709.145203	7177.271484	2308.288330	24.723434
673.731262	715.981018	7112.404785	2297.217285	24.720631
674.060974	727.126465	7069.308594	2279.310303	24.473970
674.390625	725.194519	7073.990234	2281.539307	24.514013
674.720276	718.507324	7067.822754	2271.731445	24.462860
675.049927	715.683777	7044.195313	2267.867432	24.526834
675.379395	714.643555	7004.814941	2249.960693	24.408192
675.708923	719.696106	6954.511719	2226.258057	24.163698
676.038330	717.987244	6927.316895	2207.088135	23.981668
676.367737	722.073792	6846.400879	2192.301758	24.006361
676.697083	721.553711	6826.190918	2190.295654	24.059446
677.026428	721.033630	6785.175781	2174.097412	23.961571
677.355652	714.717834	6767.492188	2154.555908	23.788069
677.684875	718.061523	6760.804688	2149.354736	23.686150
678.013977	713.306152	6755.603027	2155.670654	23.871130
678.343079	718.804504	6765.411621	2160.797363	23.847969
678.672180	713.306091	6737.993652	2144.599365	23.757135
679.001221	723.634094	6761.175781	2138.803711	23.439503
679.330139	722.073792	6794.166504	2145.936768	23.449297
679.659058	713.529053	6837.931152	2154.407227	23.526836
679.987976	716.872620	6857.249512	2160.277100	23.506775
680.316772	719.770508	6896.853027	2166.593018	23.422424
680.645630	731.584656	6928.653809	2161.094727	23.067516
680.974304	725.789001	6984.604004	2169.193604	23.061947
681.302979	722.222473	7007.191895	2162.432129	22.915144
681.631653	714.346375	7024.950684	2172.463135	23.105816
681.960266	715.386658	7037.953613	2174.766357	23.082075
682.288757	714.420715	7051.773438	2161.020508	22.826565
682.617249	717.689941	7074.732910	2156.116455	22.627289
682.945679	717.764343	7044.937988	2149.652100	22.630762
683.274109	722.371094	7017.817871	2157.007813	22.788481
683.602478	724.228577	6959.118652	2152.995361	22.915670
683.930725	730.247070	6906.363281	2133.751221	22.724705
684.259033	728.018066	6849.447754	2111.608887	22.602413
684.587280	727.349304	6790.525879	2085.231689	22.395559
684.915344	724.451477	6747.578613	2076.761230	22.451956
685.243469	728.612488	6688.285156	2061.974854	22.373079
685.571533	724.600098	6613.164551	2046.742798	22.452717
685.899536	722.148132	6520.509277	2018.879272	22.363752
686.227539	715.535156	6431.049316	2008.030884	22.613813
686.555420	716.798340	6392.263184	1989.975464	22.433002
686.883301	715.460938	6378.591309	1968.278931	22.122358
687.211121	720.587830	6363.730469	1960.997437	21.980831
687.538940	725.640381	6369.972168	1961.220215	21.890631
687.866638	722.965515	6368.485840	1968.501953	22.062384
688.194336	721.999512	6376.064941	1956.762207	21.838493
688.521973	719.473328	6377.476563	1960.031616	21.925726
688.849609	720.141907	6368.263672	1947.623047	21.732555
689.177063	720.736328	6353.476563	1939.524048	21.637564
689.504578	712.042969	6303.025391	1915.227051	21.520084
689.832031	717.689941	6258.964355	1909.728638	21.511995
690.159485	715.460876	6187.781738	1891.004395	21.481625
690.486816	716.352539	6103.745605	1871.239868	21.436850
690.814087	719.770508	6034.791504	1850.806641	21.279993
691.141296	723.559875	5959.003418	1831.562012	21.163483
691.468506	733.442200	5871.326660	1817.072876	21.090990
691.795715	727.052185	5755.042969	1797.531372	21.290398
692.122803	723.931396	5676.653809	1781.333374	21.349913
692.449829	718.210144	5616.319824	1761.568848	21.301250
692.776855	716.129639	5549.150391	1731.550659	21.010071
693.103821	713.454773	5475.887207	1713.643555	21.001637
693.430664	717.615662	5402.996582	1688.455078	20.720608
693.757568	712.934570	5351.579590	1682.287964	20.897339
694.084351	711.448547	5320.966309	1661.334595	20.607059
694.411133	708.402161	5281.585449	1653.458374	20.665173
694.737854	716.203918	5250.527344	1638.523560	20.340845
695.064575	714.197754	5197.177734	1624.926147	20.315245
695.391174	712.637390	5173.772461	1622.102661	20.386410
695.717773	707.659119	5150.367676	1617.421509	20.477652
696.044250	715.758118	5144.125977	1616.975708	20.351011
696.370789	711.522888	5132.237793	1608.208008	20.283712
696.697205	712.637390	5139.445313	1600.332031	20.052702
697.023621	707.510498	5169.017090	1602.041016	20.049965
697.349915	721.405090	5217.017090	1617.644531	19.935873
697.676208	724.302917	5287.753418	1640.009766	20.066107
698.002380	721.330872	5357.523438	1646.548340	19.956408
698.328674	718.135803	5452.110840	1652.344116	19.734119
698.654724	714.643555	5525.968262	1657.767944	19.602177
698.980896	720.662109	5632.146484	1686.002930	19.654768
699.306946	718.284424	5701.396484	1702.423950	19.749495
699.632935	718.878723	5777.333984	1706.584961	19.525848
699.958862	718.507324	5795.910156	1695.588257	19.243715
700.284729	718.061523	5796.578125	1695.216797	19.240959
700.610596	719.101746	5770.720703	1684.071289	19.102182
700.936340	717.764221	5717.000000	1681.619263	19.280048
701.262146	711.299988	5637.718750	1648.405884	19.022051
701.587830	709.813965	5516.530762	1622.399780	18.985638
701.913513	713.603333	5390.810547	1591.564331	18.771053
702.239075	721.925293	5250.007324	1570.313599	18.736151
702.564697	721.182190	5125.179199	1549.880493	18.816959
702.890137	724.377197	4996.337891	1519.490601	18.612375
703.215698	719.398926	4907.991699	1490.140991	18.400978
703.541016	720.513489	4794.605957	1465.249634	18.279804
703.866455	709.219543	4709.752441	1448.680054	18.484051
704.191711	713.157532	4633.443359	1440.135376	18.544001
704.517029	706.321594	4561.741211	1422.228516	18.568846
704.842163	709.739563	4502.224609	1403.950073	18.304897
705.167419	711.225586	4435.500977	1379.578491	17.945850
705.492493	715.089355	4415.439453	1378.538452	17.929359
705.817566	707.213318	4368.257324	1371.628296	18.148239
706.142578	699.560120	4337.792969	1369.324829	18.409067
706.467590	702.086426	4320.777344	1360.036987	18.182005
706.792480	707.436218	4306.957031	1358.550903	18.088926
707.117371	711.002747	4306.437012	1359.962769	18.049559
707.442200	719.696228	4290.461426	1364.123657	18.047321
707.766907	718.061523	4288.158691	1369.622070	18.250500
708.091675	717.912903	4282.883301	1364.866577	18.147518
708.416321	713.380371	4295.812012	1352.309448	17.835068
708.741028	710.928406	4317.433594	1343.467529	17.538839
709.065552	712.042969	4336.678223	1344.284790	17.442909
709.390137	709.516663	4348.641113	1348.965942	17.571514
709.714600	720.736389	4360.380859	1342.798706	17.091293
710.039063	718.878845	4392.999512	1337.003052	16.823732
710.363403	724.525818	4434.535156	1345.696533	16.743105
710.687744	713.231750	4489.741699	1348.148560	16.812263
711.012085	710.779785	4519.388184	1355.058716	16.916388
711.336304	702.160645	4550.520996	1355.950317	16.988785
711.660461	710.631165	4581.951172	1378.166626	17.243097
711.984619	712.563049	4609.517578	1394.439087	17.497663
712.308716	717.764343	4638.198730	1400.903320	17.425083
712.632751	725.120300	4650.235840	1382.476440	16.747435
712.956726	735.596924	4654.693848	1366.501465	16.098213
713.280701	737.157288	4622.000488	1356.024780	15.930308
713.604553	734.556702	4575.709961	1354.092896	16.128910
713.928467	731.064453	4493.902832	1343.987671	16.288853
714.252258	729.206970	4430.448242	1321.473877	16.001846
714.575989	722.816895	4365.210449	1306.241821	16.017624
714.899719	718.135803	4327.167480	1289.746582	15.838342
715.223267	715.163757	4285.186523	1285.882935	15.986430
715.546936	717.912842	4228.642090	1292.347290	16.362255
715.870422	718.655945	4173.806641	1283.430908	16.345886
716.193970	716.352539	4142.896973	1280.013062	16.449823
716.517395	712.785950	4123.652344	1260.917114	16.070145
716.840820	710.259766	4108.568848	1254.155640	16.004898
717.164124	717.021240	4058.489014	1244.124634	15.774607
717.487488	723.336975	4026.538818	1235.877075	15.516463
717.810730	725.417419	3990.501953	1233.127930	15.549690
718.133972	726.383301	3942.576904	1224.360229	15.483425
718.457092	724.302917	3880.905518	1212.917603	15.479133
718.780212	720.290527	3844.719727	1197.908569	15.286570
719.103210	706.247375	3795.382813	1183.790894	15.458808
719.426208	700.377441	3746.268311	1171.679688	15.473379
719.749207	713.677551	3691.210205	1176.583618	15.546633
720.072083	721.256531	3646.628906	1169.450562	15.320923
720.394958	727.943665	3607.991455	1165.215332	15.182792
720.717773	718.655945	3557.911377	1145.376465	15.029311
721.040527	715.460938	3514.815674	1133.859497	14.946250
721.363281	713.454773	3478.704834	1130.441528	15.079532
721.685913	722.816833	3446.754639	1128.881226	14.907257
722.008545	728.389587	3435.906494	1130.738770	14.860450
722.331055	722.891113	3414.656006	1115.803955	14.596848
722.653503	719.250305	3389.095703	1101.166382	14.304801
722.976013	715.535156	3357.294189	1098.788574	14.507508
723.298401	722.222473	3333.294189	1094.330444	14.251159
723.620789	717.169922	3315.239014	1097.376953	14.634215
723.943115	721.330811	3305.579834	1092.695801	14.370325
724.265381	717.912903	3302.755859	1097.599854	14.688975
724.587585	719.473206	3311.152100	1092.324219	14.386466
724.909790	712.191589	3297.480469	1088.014771	14.536990
725.231873	712.191589	3296.143311	1079.692749	14.222447
725.553894	711.076965	3298.149170	1089.129272	14.613132
725.875916	852.400696	3461.837891	1284.693970	16.566532
726.197937	865.552307	3482.123047	1285.362671	16.044296
726.519775	860.276855	3470.754639	1269.090454	15.660489
726.841675	722.371094	3337.975586	1061.562988	12.968012
727.163513	708.030579	3339.461670	1061.191406	13.420865
727.485291	708.922302	3352.389893	1067.135620	13.550888
727.806946	712.414551	3371.708984	1077.166504	13.716118
728.128662	715.609558	3395.188477	1071.668213	13.287859
728.450256	722.668274	3417.330811	1080.881714	13.293443
728.771790	723.188416	3420.822998	1082.293457	13.311850
729.093323	722.148132	3410.717529	1085.859985	13.528082
729.414795	714.792236	3424.389404	1074.491577	13.275012
729.736145	718.061462	3436.203369	1074.120117	13.099340
730.057495	718.061462	3458.717041	1070.627930	12.864311
730.378845	727.349304	3457.677002	1072.931274	12.657161
730.700134	724.674500	3449.503906	1066.987183	12.562720
731.021301	725.566101	3433.603271	1068.547485	12.665314
731.342468	729.206848	3434.345947	1064.312134	12.387728
731.663574	732.699158	3427.956055	1063.271973	12.264984
731.984680	734.556641	3433.454346	1058.888062	12.017181
732.305664	720.662109	3428.921875	1055.990356	12.381687
732.626648	716.872742	3448.166260	1055.395874	12.394242
732.947571	714.792175	3457.305664	1054.504272	12.386889
733.268433	718.953125	3453.144775	1065.203979	12.663737
733.589233	714.049133	3434.197510	1059.705444	12.707259
733.909973	717.615662	3423.498047	1059.259644	12.625974
734.230713	724.525818	3411.832275	1052.423706	12.201731
734.551331	729.058289	3383.820313	1043.358765	11.839121
734.871948	718.581543	3340.501709	1035.854126	12.100772
735.192505	710.631165	3295.919922	1022.182556	12.050932
735.513062	715.015076	3261.963623	1018.764648	11.926020
735.833435	724.377197	3215.970459	1014.380798	11.639283
736.153931	729.206848	3166.113281	1004.424255	11.293720
736.474304	724.228577	3124.429688	997.439697	11.382843
736.794617	724.822998	3085.123291	983.693665	10.967700
737.114807	723.931396	3059.266357	980.201477	10.973590
737.434998	717.912903	3035.637939	970.244934	10.887056
737.755188	714.272034	3031.328125	976.709290	11.326323
738.075256	705.430115	3026.647217	981.316101	11.885403
738.395325	711.299988	3034.523193	986.220032	11.833562
738.715271	714.866516	3045.296875	989.415039	11.781022
739.035278	719.324707	3070.559814	978.863953	11.038422
739.355164	712.042969	3082.076904	974.851746	11.088820
739.675049	704.612610	3095.748291	974.034363	11.267522
739.994873	711.894348	3096.268555	978.789734	11.193519
740.314636	720.959290	3105.407959	990.306641	11.296000
740.634277	724.897278	3098.348877	985.179749	10.966412
740.953979	713.157532	3072.268799	985.105469	11.527558
741.273499	711.151367	3044.851318	974.926025	11.302853
741.593140	714.569275	2998.783203	972.994141	11.313515
741.912598	719.176025	2964.009766	966.009705	10.995633
742.232117	718.061523	2906.053711	953.898376	10.778688
742.551453	713.008972	2868.159424	945.130615	10.770555
742.870850	723.931396	2843.639404	944.981934	10.428349
743.190063	724.823059	2820.457031	947.582581	10.629696
743.509338	720.216309	2796.680420	945.056335	10.828024
743.828552	715.535156	2757.819580	936.660156	10.827336
744.147705	713.157532	2722.451904	927.743835	10.679685
744.466797	727.200684	2683.145508	923.137024	10.017478
744.785828	727.646484	2656.545166	920.610779	10.003859
745.104858	738.940613	2643.913818	922.542542	9.638032
745.423706	734.259460	2640.941650	924.251526	9.964538
745.742615	733.516418	2630.316406	924.325867	10.059545
746.061401	727.275085	2612.335205	929.081238	10.705556
746.380249	724.525879	2605.053467	920.759277	10.435019
746.698975	718.210022	2589.301270	912.808899	10.400288
747.017639	715.163635	2579.864746	903.521057	10.101213
747.336304	708.922180	2549.474854	901.143372	10.443666
747.654907	709.888184	2556.607910	899.360168	10.259921
747.973389	713.677551	2556.087891	893.638855	9.767710
748.291931	714.197754	2573.846436	892.747253	9.601249
748.610352	719.919128	2569.239502	899.954590	9.735223
748.928711	716.649719	2568.645264	902.555176	10.038116
749.247070	725.863281	2560.100342	906.716064	9.859837
749.565308	722.519592	2557.945313	893.490173	9.315037
749.883545	723.634094	2541.449951	891.781250	9.249955
750.201782	724.525818	2530.527588	889.626465	9.141777
750.519836	721.256531	2509.500000	890.592346	9.469394
750.837952	718.433044	2502.515869	890.220886	9.628917
751.155884	709.368103	2476.286865	885.316895	9.957945
751.473877	706.544617	2464.769775	885.762695	10.193125
751.791809	718.210144	2455.927734	880.190002	9.321415
752.109619	730.915833	2460.385986	872.239746	8.171515
752.427490	741.392578	2454.887451	868.301575	7.406442
752.745300	734.556641	2445.228271	873.874329	8.144034
753.062988	725.343079	2449.463379	871.347961	8.468369
753.380615	711.820068	2447.160156	866.444031	8.910297
753.698303	719.398926	2450.429443	858.939453	8.061125
754.015808	719.547546	2436.683350	859.385254	8.143661
754.333374	727.497986	2424.646484	860.128235	7.814888
754.650757	721.628113	2417.884766	856.859070	7.972317
754.968262	726.680603	2407.036865	861.763000	8.038915
755.285583	732.847717	2408.522705	863.917786	7.821927
755.602905	730.767273	2407.928467	869.118958	8.249159
755.920105	724.080078	2404.064697	863.843445	8.319324
756.237305	726.160461	2394.033936	864.363525	8.286183
756.554443	724.971680	2385.711914	865.032227	8.433621
756.871582	726.977844	2379.916260	862.060120	8.172251
757.188599	716.129639	2378.950195	852.623718	8.208588
757.505615	717.764343	2375.309326	841.181091	7.445756
757.822510	725.937561	2395.073975	843.112976	7.020122
758.139465	728.092346	2402.801514	852.772278	7.444870
758.456238	725.789001	2411.197510	864.512146	8.230832
758.773010	716.872742	2419.816650	863.546204	8.612936
759.089783	720.513489	2445.079590	858.642273	8.009480
759.406433	716.278320	2459.122803	850.394592	7.695252
759.723145	712.934570	2461.723633	852.400818	7.975019
760.039673	712.414551	2464.918457	858.270691	8.322728
760.356201	715.758118	2462.317871	863.694824	8.470177
760.672668	719.250305	2460.237305	865.255188	8.386328
760.989136	713.603333	2438.912842	864.809387	8.763995
761.305481	709.516663	2437.500732	864.214905	8.952527
761.621826	708.327820	2435.420166	870.010559	9.361558
761.938049	716.724060	2448.423584	873.205566	9.036297
762.254333	724.005676	2471.754395	877.069336	8.757761
762.570496	732.550537	2508.237061	869.118896	7.691018
762.886597	727.795166	2574.069092	865.998230	7.485512
763.202637	722.593994	2660.780518	862.357422	7.211041
763.518677	717.615662	2786.129150	865.849670	7.166210
763.834656	716.946960	2920.988525	868.673096	6.883996
764.150574	716.798340	3056.368164	879.149841	6.939374
764.466370	715.312256	3155.116455	888.883484	7.114146
764.782288	713.306152	3206.162109	901.069153	7.532044
765.097961	713.900574	3211.660889	903.000977	7.570799
765.413696	714.569336	3175.029297	903.818298	7.691609
765.729309	720.736389	3102.287109	896.833801	7.394233
766.044861	727.052185	3003.687500	883.013489	6.850518
766.360474	726.680664	2879.156250	865.998230	6.472434
766.675903	721.925232	2755.145264	844.078918	6.007893
766.991394	716.426819	2624.743652	837.986084	6.369973
767.306763	717.541321	2521.239990	838.060364	6.681772
767.622131	718.432922	2423.754639	837.763184	6.997522
767.937378	714.123352	2358.071045	831.447449	7.136729
768.252625	715.535156	2310.368652	827.286438	7.007082
768.567810	707.584778	2261.031982	824.983093	7.557277
768.882996	713.306152	2225.218018	824.314453	7.342247
769.197998	711.820129	2177.738525	814.580750	7.009982
769.513062	716.501160	2145.565430	810.122620	6.551242
769.828064	715.163757	2106.482178	810.865540	6.878496
770.142944	710.333984	2076.464111	815.249512	7.679761
770.457825	712.934570	2061.157471	815.918213	7.638473
770.772705	707.361877	2031.436523	807.521973	7.564535
771.087402	704.761292	2008.030884	805.292908	7.713801
771.402100	705.653015	1981.727905	801.652100	7.522997
771.716736	706.841797	1966.198608	803.435364	7.670072
772.031372	713.231750	1940.712769	796.896667	6.815985
772.345947	711.448547	1929.047241	797.788391	7.090994
772.660461	710.705505	1913.294922	792.512878	6.802602
772.974854	711.597168	1905.641968	792.587158	6.782827
773.289246	715.832336	1883.202515	788.128967	6.193120
773.603638	722.742493	1861.283081	789.763611	5.886582
773.917908	718.730225	1846.868286	786.494324	6.006721
774.232178	714.940735	1845.308105	791.546875	6.777101
774.546265	723.188416	1845.828247	785.528320	5.552974
774.860474	725.120300	1840.478516	781.367432	5.042966
775.174561	724.451477	1823.537476	775.868958	4.678204
775.488586	718.655945	1800.131958	780.327148	5.702503
775.802551	720.959290	1788.169312	785.899902	6.085083
776.116516	729.355469	1775.834961	784.785339	5.296795
776.430359	722.222473	1776.429565	781.367432	5.610374
776.744202	725.491760	1773.457397	784.785339	5.657970
777.057922	718.804443	1769.370605	782.704895	6.082478
777.371704	714.792175	1762.906250	788.351807	7.018285
777.685303	706.618896	1750.423462	783.745117	7.388952
777.998962	704.464172	1737.791992	779.807068	7.291286
778.312500	710.334045	1728.207031	774.977356	6.350823
778.626038	709.665344	1712.826172	774.382996	6.451374
778.939453	713.306152	1713.792114	778.395325	6.505756
779.252869	720.513489	1719.587891	780.772949	6.031529
779.566223	723.262695	1716.690063	778.469543	5.557210
779.879578	726.234802	1706.807983	778.766846	5.357279
780.192749	717.318420	1691.427124	774.085754	5.827618
780.505920	710.408386	1685.705933	771.336609	6.247142
780.819031	705.504333	1674.114624	765.838196	6.228910
781.132141	721.627991	1676.715210	786.345703	6.776105
781.445190	733.516418	1670.696655	792.438538	6.287170
781.758118	737.603088	1673.520142	797.862610	6.438554
782.071045	732.104675	1665.124023	773.862854	4.475596
782.383911	727.572266	1654.350098	773.491394	4.954707
782.696838	725.343201	1640.752563	777.949463	5.746747
783.009583	717.987122	1613.557983	787.088684	7.715923
783.322266	717.244141	1590.003906	783.968018	7.645160
783.634888	711.894348	1586.883179	773.119812	6.997285
783.947510	711.671387	1584.208374	767.101379	6.352738
784.260132	718.581543	1594.313477	772.228210	6.125924
784.572571	724.674500	1582.722290	769.330383	5.204359
784.885010	717.021301	1575.960571	766.729736	5.787189
785.197449	715.609558	1562.363281	763.534729	5.659871
785.509766	719.473206	1553.669922	768.661621	5.896501
785.822083	729.949951	1539.626587	767.547058	4.643472
786.134277	727.497864	1540.666992	771.782288	5.445906
786.446533	719.993347	1536.283081	769.627502	6.080458
786.758606	715.832458	1551.366577	772.525391	6.785233
787.070740	722.593994	1548.840210	765.169373	5.152868
787.382690	719.324707	1555.304565	762.345886	5.146198
787.694641	715.832458	1559.168335	756.178772	4.784133
788.006653	703.498230	1579.155762	755.732971	5.965202
788.318481	708.104980	1599.514648	759.745361	5.793114
788.630310	711.299988	1615.935547	766.952637	6.151941
788.942017	712.414490	1633.916870	763.757629	5.571677
789.253784	718.135742	1649.891724	771.113708	5.685820
789.565430	722.148132	1657.990845	766.952698	4.787617
789.877014	723.485596	1656.950562	770.890808	5.078413
790.188538	714.494934	1639.266602	764.575012	5.415399
790.500061	712.488770	1616.084106	760.042480	5.262722
790.811462	718.432922	1600.257690	758.928040	4.592196
791.122925	725.788879	1586.957397	760.562683	4.037979
791.434204	728.389587	1569.793457	765.095154	4.362420
791.745483	732.624817	1542.970215	760.562683	3.447649
792.056702	729.281189	1510.351196	759.076599	3.814691
792.367920	723.336914	1501.212280	755.212830	4.097818
792.678955	725.566101	1479.812988	759.373840	4.482317
792.990112	731.881836	1480.184448	756.327393	3.266801
793.301086	736.562927	1465.769897	755.658691	2.618703
793.612122	723.559875	1470.302368	750.160339	3.562200
793.922974	713.603333	1460.717285	750.457458	4.932866
794.233826	715.683838	1461.163086	752.240723	4.903810
794.544556	723.188416	1462.872070	753.801086	4.138617
794.855286	724.228699	1463.540649	747.411133	3.135677
795.166016	725.120300	1467.999023	757.664856	4.380871
795.476624	723.039734	1457.224976	754.469788	4.280943
795.787292	724.451477	1466.438477	754.915588	4.105747
796.097778	716.055359	1472.531250	746.816650	4.066394
796.408264	712.637390	1493.336060	752.835205	5.148954
796.718689	713.751953	1500.914917	760.488281	5.937313
797.029053	718.878845	1503.367065	756.921814	4.849400
797.339355	716.946960	1502.401001	754.321228	4.758301
797.649658	714.940735	1497.794434	758.928040	5.618841
797.959839	716.872620	1498.165894	761.008484	5.649078
798.270020	718.581543	1503.069824	762.791687	5.635539
798.580078	725.343079	1498.017212	754.395508	3.759985
798.890137	716.426819	1477.138062	745.702148	3.848416
799.200195	712.265869	1453.212524	742.878601	4.131570
799.510071	708.996582	1447.045532	742.284180	4.510215
799.820007	715.609558	1443.553223	746.073547	4.184938
800.129883	725.491760	1432.259277	741.318176	2.239268
800.439575	719.770508	1411.454468	744.959045	3.641625
800.749329	719.621887	1400.383423	746.890930	4.005667
801.058960	716.872742	1395.999634	745.776428	4.256007
801.368591	720.662109	1390.724121	746.965271	3.925482
801.678162	723.262695	1390.278320	750.754700	4.121643
801.987671	733.144958	1385.745728	753.801086	3.165201
802.297119	740.946716	1385.745728	747.411133	1.002548
802.606506	739.386292	1381.882202	743.473083	0.636081
802.915894	719.250305	1381.361938	747.633972	4.286840
803.225159	710.259705	1369.250610	750.977539	6.178816
803.534424	708.253601	1356.098999	753.132385	6.927391
803.843628	722.296692	1351.343628	751.200500	4.594857
804.152771	723.411316	1351.566528	755.212891	5.062694
804.461792	734.408020	1349.634644	763.163330	4.673938
804.770874	726.606384	1347.702759	755.287170	4.617767
805.079773	724.748718	1346.811157	746.668152	3.523671
805.388733	708.253479	1358.476685	734.408142	4.022413
805.697571	716.278259	1366.278320	741.392578	3.863741
806.006470	721.553711	1372.296875	737.454529	2.443486
806.315125	724.080078	1379.132813	733.739319	1.474575
806.623901	717.912903	1384.408203	728.984070	1.661102
806.932495	709.888184	1386.934570	733.070618	3.424054
807.241150	718.210144	1380.098755	739.832214	3.266723
807.549622	716.501160	1373.040039	744.438965	4.255316
807.858154	721.925293	1372.742798	745.256287	3.584875
808.166565	715.386658	1364.940918	745.776428	4.678558
808.474915	721.850891	1350.674927	743.027161	3.367599
808.783264	720.439148	1352.681030	746.890930	4.183807
809.091492	720.067688	1347.628418	745.702148	4.084778
809.399719	715.609558	1351.715088	744.736145	4.578892
809.707825	715.386536	1334.699707	745.033447	4.787063
810.015930	723.039795	1330.018677	740.946777	2.950182
810.323975	724.897278	1321.102417	745.776367	3.501997
810.632080	719.101746	1310.922852	740.129395	3.553041
810.939880	712.488770	1292.867310	736.785828	4.186416
811.247864	711.745789	1293.461792	730.247253	3.180498
811.555664	710.928406	1287.146118	725.194641	2.475841
811.863464	715.980957	1283.653809	729.429871	2.369131
812.171143	709.665344	1270.947998	731.733215	3.931686
812.478882	719.621887	1270.205078	738.346130	3.400802
812.786438	715.683838	1276.149170	752.909485	6.641918
813.094055	721.033691	1258.613770	755.584290	6.427061
813.401489	713.529053	1261.734497	756.624695	7.861221
813.708984	711.448547	1258.539429	739.312073	5.093034
814.016357	719.250305	1270.353638	743.770203	4.449238
814.323730	729.875671	1265.375366	740.426575	1.970291
814.630981	733.813721	1264.855225	743.027283	1.734998
814.938232	724.228699	1263.443481	733.070618	1.639777
815.245361	721.405212	1257.127808	730.098450	1.622712
815.552490	717.318542	1253.635498	726.977783	1.801032
815.859619	715.238037	1249.326050	724.525818	1.738998
816.166565	719.101746	1250.737671	735.671326	3.116716
816.473572	714.123474	1254.973022	739.980774	4.780868
816.780457	721.405090	1264.855103	745.256348	4.388859
817.087341	720.141907	1274.663208	737.528809	3.135479
817.394043	722.445374	1274.737549	736.637207	2.569624
817.700806	721.182129	1271.988281	737.083008	2.886837
818.007507	711.671448	1281.053223	733.739441	3.875782
818.314209	719.027405	1297.028320	736.339905	2.995238
818.620667	719.176025	1309.213989	742.209900	3.903795
818.927246	724.228577	1317.833130	742.804382	3.129323
819.233704	720.885010	1334.105347	744.513245	3.853139
819.540161	711.374268	1354.092773	735.151123	3.699420
819.846497	715.163757	1386.860229	743.547363	4.225659
820.152832	718.135742	1423.119751	748.154053	4.258013
820.458984	728.538147	1470.896484	756.921814	3.823446
820.765259	727.497864	1531.973511	752.092224	3.057191
821.071350	728.538147	1613.929321	746.370850	2.014104
821.377502	722.445313	1764.392456	743.844543	2.053773
821.683472	723.337097	2009.294312	748.154053	1.929843
821.989441	715.312317	2443.370605	763.311829	2.777656
822.295349	721.925232	3021.371826	782.779114	2.646458
822.601196	716.872620	3675.086914	805.441467	2.993997
822.907043	718.135803	4255.837402	818.667297	2.841718
823.212769	715.535217	4641.170898	824.537292	2.776673
823.518494	715.386658	4797.875488	825.577454	2.699108
823.824097	721.256531	4690.879395	818.593079	2.452035
824.129700	713.603333	4468.194336	815.918152	2.725059
824.435242	714.717773	4187.404297	811.905762	2.798640
824.740723	711.448547	3939.827393	797.565430	2.667496
825.046082	717.169922	3677.167236	785.082520	2.294347
825.351501	712.860352	3395.485596	770.147705	2.135496
825.656799	710.779846	3083.636963	775.868958	2.743069
825.962036	718.061523	2791.553467	772.228210	2.612341
826.267212	718.135803	2530.082031	775.051697	3.141147
826.572449	719.770508	2386.157715	771.559387	3.107854
826.877502	711.374207	2339.644043	773.788574	3.833171
827.182495	716.798340	2418.553467	772.376770	3.265948
827.487488	712.042969	2515.221436	769.776184	3.201747
827.792419	707.659119	2608.248291	765.169434	3.025920
828.097290	700.748962	2625.486816	768.661621	3.528411
828.402100	705.652893	2586.477783	770.073425	3.425121
828.706848	712.711670	2494.045166	768.141418	3.111700
829.011597	716.872620	2384.077148	758.407898	2.491313
829.316223	712.563171	2267.422119	753.652527	2.642642
829.620789	711.225769	2155.967773	747.113831	2.484046
829.925354	718.358704	2034.631470	754.395508	2.737792
830.229797	727.795166	1910.843140	752.166443	2.060041
830.534302	734.333801	1778.212769	771.113586	3.523377
830.838562	730.395752	1644.022095	756.550293	2.862717
831.142944	726.903564	1532.419312	751.869202	3.099336
831.447144	723.559875	1441.026978	730.767273	1.004561
831.751404	723.931396	1395.925171	732.476257	1.271568
832.055542	725.714661	1357.585083	728.909668	0.505643
832.359619	721.033508	1346.885376	729.875671	1.412820
832.663635	724.525818	1338.266235	729.132629	0.750612
832.967651	725.491760	1365.163940	726.309082	0.127772
833.271545	729.504089	1409.671265	729.429871	-0.010912
833.575439	727.423645	1492.295898	725.937561	-0.194292
833.879211	717.244141	1590.895508	734.482422	1.973130
834.183044	712.785950	1705.396118	736.042786	2.342998
834.486694	705.429993	1785.494507	746.965332	3.845635
834.790344	721.925293	1851.178101	759.448181	3.322807
835.093933	717.318542	1851.178101	764.054871	4.121880
835.397522	718.878906	1840.924316	759.076660	3.582542
835.700928	712.711731	1771.897095	748.525635	3.381269
836.004395	728.909668	1722.337036	749.342957	2.056848
836.307739	734.185120	1663.415039	745.924988	1.263398
836.611023	729.875549	1601.520874	740.872375	1.261617
836.914307	716.055359	1528.852661	723.559875	0.923295
837.217529	719.696106	1456.258911	733.070618	1.815801
837.520691	714.940735	1393.547485	732.178955	2.540237
837.823730	720.587830	1326.823730	746.073547	4.203928
838.126831	714.197754	1265.821167	743.918762	5.387917
838.429749	726.754944	1225.697632	742.804382	3.216690
838.732727	718.730225	1200.063110	730.321472	2.408156
839.035522	717.467041	1179.852905	722.519592	1.092713
839.338379	713.231873	1161.945923	721.627930	1.871137
839.641113	720.736511	1153.847046	721.776550	0.240132
839.943848	725.566101	1171.233765	722.668213	-0.650235
840.246460	720.513489	1192.410034	724.525818	0.850256
840.549072	717.689941	1209.128296	730.841553	2.676147
840.851563	714.494934	1218.416138	726.011902	2.285470
841.154053	708.253479	1218.118896	725.937561	3.468382
841.456482	713.306152	1213.437744	728.761169	3.090190
841.758850	712.265930	1197.016846	737.528809	5.211517
842.061157	721.405090	1182.750732	745.553528	5.234348
842.363403	713.677673	1179.481445	751.274902	8.071474
842.665588	717.244141	1158.676636	745.999329	6.514062
842.967712	719.398926	1146.119507	740.278015	4.892918
843.269775	719.621826	1115.135254	734.779602	3.832430
843.571777	714.420654	1096.856812	731.213074	4.390908
843.873840	718.135742	1074.343140	727.349304	2.586572
844.175659	721.479431	1059.110962	727.795105	1.870582
844.477600	726.829285	1052.869507	739.312073	3.828604
844.779297	724.228699	1040.312378	735.745422	3.643568
845.081116	724.897400	1032.139038	731.138733	2.031409
845.382751	719.101807	1020.102051	728.240906	3.036243
845.684387	710.111145	1006.578918	728.686768	6.265646
845.985962	708.327820	1000.411865	732.179016	8.165868
846.287537	705.801575	995.582214	729.429871	8.153856
846.588989	702.457947	997.068298	724.005798	7.314017
846.890381	702.160706	986.963074	708.847961	2.348034
847.191711	707.807800	971.879578	707.733398	-0.028175
847.493042	717.987122	970.913635	721.850891	1.527625
847.794250	721.033630	972.548340	731.435974	4.135879
848.095459	724.748718	973.068359	733.070618	3.351285
848.396606	724.748718	955.904480	726.606262	0.803590
848.697693	721.702332	948.102722	734.110840	5.480781
848.998657	722.816895	940.969727	733.442139	4.870551
849.299622	724.674377	950.777649	734.185242	4.206425
849.600464	727.720886	952.932434	728.389587	0.296921
849.901367	718.432922	956.944763	724.971680	2.741481
850.202087	714.272034	952.412292	721.182190	2.901717
850.502808	713.380432	953.080872	717.689941	1.797873
850.803467	714.643555	956.424561	715.312317	0.276598
851.104065	730.247253	959.396667	724.377258	-2.561645
851.404663	732.104736	949.142883	731.436035	-0.308103
851.705139	738.940613	946.170898	732.327637	-3.191124
852.005615	726.011902	940.895325	727.572266	0.726144
852.306030	722.371094	943.718933	715.758118	-2.987595
852.606384	725.120300	936.139954	717.467102	-3.626770
852.906616	731.510254	934.282410	717.095520	-7.108833
853.206909	727.869446	931.681824	727.200745	-0.328096
853.506958	716.649719	941.787048	722.742493	2.706248
853.807129	712.637390	933.093567	714.940735	1.044808
854.107178	719.621887	936.734436	715.683777	-1.813857
854.407166	725.268860	935.396973	717.987122	-3.465380
854.707092	724.748718	939.780823	719.621826	-2.384245
855.007019	716.055359	933.465088	715.015076	-0.478490
855.306763	716.872620	926.109131	710.556946	-3.018438
855.606567	713.157532	930.790222	714.123535	0.443869
855.906250	718.953125	930.195801	710.631165	-3.939526
856.205933	716.872620	926.109070	721.256531	2.095195
856.505493	717.764221	927.372253	726.829163	4.324711
856.805054	718.878845	935.396973	736.711426	8.236068
857.104492	712.934631	935.619934	731.807434	8.475101
857.403931	714.792175	928.115234	733.516418	8.777411
857.703308	709.368103	922.691162	728.018066	8.742592
858.002563	714.272034	927.075012	725.343201	5.202543
858.301819	710.705566	934.059570	717.021240	2.827652
858.601013	717.541443	932.053284	716.649719	-0.415699
858.900208	715.683838	920.016296	722.519714	3.345468
859.199219	716.426819	921.428040	728.612488	5.944193
859.498291	721.033508	922.022461	723.782898	1.367931
859.797302	722.222412	938.220459	724.080078	0.860038
860.096191	727.423645	934.505310	732.847717	2.619291
860.395020	718.581726	934.356689	731.807434	6.129399
860.693787	716.426941	923.880066	730.098572	6.590227
860.992554	713.826233	923.508484	706.247375	-3.614449
861.291260	716.798340	921.056458	711.225647	-2.728260
861.589844	717.244141	933.836609	710.631165	-3.053188
861.888428	716.352539	927.892395	722.965515	3.126114
862.186890	725.343201	937.700378	723.188416	-1.014699
862.485413	728.018066	934.059509	722.965515	-2.452201
862.783813	724.451477	938.146179	720.959290	-1.634195
863.082153	714.569275	930.715881	724.377258	4.537653
863.380371	719.919128	922.988464	730.024231	4.976183
863.678589	725.863281	925.589050	736.488586	5.319947
863.976746	729.058289	926.629333	727.869446	-0.601729
864.274902	727.720886	929.229797	720.513489	-3.576714
864.572937	719.919128	932.945007	718.581726	-0.627812
864.870911	720.290527	935.917175	722.668274	1.102715
865.168884	711.745789	933.910950	725.343201	6.120407
865.466736	713.974854	925.291809	722.519714	4.043623
865.764587	718.135742	917.118591	723.857117	2.875310
866.062317	725.268799	928.412537	729.652771	2.158064
866.360107	734.630920	927.446533	728.909729	-2.967183
866.657715	722.965393	931.458923	733.813660	5.203167
866.955322	720.662109	924.920227	727.423645	3.310290
867.252808	712.711731	927.966614	728.389587	7.283392
867.550293	721.851013	936.808655	720.142029	-0.795033
867.847717	717.095520	932.201965	729.355530	5.699508
868.145081	717.392822	930.641602	735.596985	8.536585
868.442383	711.448547	929.972839	744.884766	15.300916
868.739624	721.553711	934.653870	732.773438	5.265001
869.036804	718.878845	931.830383	730.395752	5.408229
869.333984	718.878845	932.647705	717.095520	-0.834231
869.631042	710.705566	930.492920	721.628113	4.969597
869.928101	718.210144	929.378418	716.724060	-0.703744
870.224976	715.906738	918.158691	731.510254	7.714890
870.521851	734.185120	934.059570	739.980774	2.899647
870.818726	728.909668	945.725098	743.621643	6.785483
871.115479	732.773438	954.046936	734.705322	0.873076
871.412231	717.467041	939.112122	734.259521	7.576293
871.708862	716.203918	930.641602	732.699036	7.692266
872.005493	716.055359	933.316589	729.949890	6.395311
872.302063	724.228699	933.613708	720.216309	-1.916274
872.598572	732.550537	933.242188	719.027405	-6.738264
872.895020	732.624817	929.155518	723.262695	-4.763694
873.191406	728.538269	934.728210	724.971680	-1.729759
873.487671	719.770508	944.684814	720.587830	0.363393
873.783997	724.005676	944.387695	720.142029	-1.753159
874.080200	716.055359	944.016113	715.386536	-0.293394
874.376343	719.547546	941.266846	716.352539	-1.441015
874.672424	718.135742	956.944641	716.055237	-0.871201
874.968445	724.600159	968.758789	721.033508	-1.460792
875.264465	724.080078	971.136536	721.330811	-1.112809
875.560364	718.210144	959.619629	723.931396	2.369937
875.856201	709.145203	946.542419	730.618652	9.045367
876.152039	710.259766	942.678711	733.739319	10.102255
876.447754	713.900574	942.604431	732.030457	7.927231
876.743469	714.569275	952.486633	718.804504	1.780126
877.039063	713.677673	952.709534	713.454773	-0.093251
877.334595	715.089417	956.944824	713.974792	-0.460864
877.630127	723.634094	952.115051	726.457703	1.235818
877.925537	723.336914	952.338074	735.374023	5.256353
878.221008	715.386536	953.526855	730.470032	6.333869
878.516296	707.584717	953.972656	719.993347	5.036217
878.811646	702.903748	958.728027	716.426941	5.286126
879.106812	709.070801	971.582458	721.925293	4.896732
879.401978	710.482605	984.659668	719.844788	3.414648
879.697083	711.299988	1009.551025	717.838562	2.192306
879.992126	709.070984	1025.303223	712.042969	0.939811
880.287109	711.374268	1064.312134	710.408386	-0.273669
880.582031	712.934570	1121.079468	716.203918	0.801026
880.876892	719.993347	1236.322876	723.485596	0.676360
881.171753	725.045959	1416.135376	725.566101	0.075264
881.466492	734.631042	1685.111328	728.463867	-0.648848
881.761230	728.835449	2002.978394	729.429749	0.046643
882.055786	730.693054	2330.133301	738.791931	0.506357
882.350403	723.782898	2584.545654	740.723816	0.910429
882.644958	722.965515	2725.052490	739.089172	0.805342
882.939453	711.225647	2750.240967	737.603210	1.293642
883.233826	704.464111	2704.544922	738.420471	1.697749
883.528137	703.349609	2650.229248	746.593750	2.221203
883.822449	706.024414	2579.641846	747.113953	2.193059
884.116577	705.058533	2501.103760	742.061279	2.060235
884.410828	707.436218	2385.489014	733.293518	1.540911
884.704956	705.801575	2228.561279	738.643372	2.156729
884.999023	711.448547	2029.578735	732.104736	1.567083
885.292969	711.374268	1815.066895	733.665039	2.019654
885.586914	714.123535	1616.901489	718.210144	0.452670
885.880798	713.603333	1467.850220	716.724121	0.413762
886.174622	716.649658	1351.715088	719.101746	0.386116
886.468384	712.637390	1273.994507	722.148132	1.694241
886.762085	709.888245	1214.700928	720.290527	2.060622
887.055664	709.665344	1177.178101	715.609558	1.271455
887.349304	715.460938	1147.977051	723.336975	1.820981
887.642822	719.844788	1116.026855	729.949951	2.550636
887.936340	715.981018	1089.129272	721.107910	1.373956
888.229736	713.529053	1063.346313	706.767395	-1.932911
888.523071	708.922302	1049.526001	705.578613	-0.981695
888.816284	710.631165	1034.368164	721.330811	3.305043
889.109619	716.278137	1027.680786	738.271790	7.062770
889.402710	715.015076	1011.780090	741.169617	8.813216
889.695862	712.340149	992.461426	731.658875	6.896558
889.988892	706.767517	981.241699	718.878845	4.412557
890.281921	709.516724	983.916626	709.516602	-0.000044
>>>>>End Processed Spectral Data<<<<<
