Jaz Data File
++++++++++++++++++++++++++++++++++++
Date: Fri Jun 04 17:02:33 2021
User: jaz
Dark Spectrum Present: Yes
Reference Spectrum Present: Yes
Processed Spectrum Present: Yes
Spectrometers: JAZA3586
Integration Time (usec): 121000 (JAZA3586)
Spectra Averaged: 10 (JAZA3586)
Boxcar Smoothing: 1 (JAZA3586)
Correct for Electrical Dark: No (JAZA3586)
Strobe/Lamp Enabled: Yes (JAZA3586)
Correct for Detector Non-linearity: No (JAZA3586)
Correct for Stray Light: No (JAZA3586)
Number of Pixels in Processed Spectrum: 2048
>>>>>Begin Processed Spectral Data<<<<<
W	D	R	S	P
191.335022	0.000000	0.000000	0.000000	0.000000
191.713211	225.805969	227.812134	226.400391	29.629742
192.091385	456.738800	461.791412	453.618073	-61.764633
192.469528	686.482849	693.913086	684.550964	-26.000313
192.847641	699.188538	708.030579	695.622070	-40.335339
193.225739	716.501160	719.696106	714.569336	-60.464985
193.603790	733.145020	731.584656	734.928223	-114.281242
193.981842	736.117004	733.962341	744.513245	-389.677643
194.359863	734.779602	737.157227	746.890930	509.387756
194.737854	737.380188	747.931152	751.646301	135.211456
195.115829	753.281067	748.154114	751.720642	30.435715
195.493774	759.596680	749.268616	750.234619	90.646812
195.871704	762.791748	744.810547	742.952942	110.330818
196.249603	761.082825	753.726807	748.525574	170.707184
196.627457	756.178772	751.051941	744.884766	220.292145
197.005310	760.191162	749.640137	742.878601	164.084152
197.383133	755.361511	742.358459	741.912659	103.428429
197.760910	755.955872	743.918762	748.748535	59.875973
198.138687	748.376953	747.188171	753.726807	-450.028229
198.516449	743.324402	750.383240	751.497742	115.788742
198.894180	742.729980	741.764099	750.011719	-753.895752
199.271866	743.101563	731.138855	747.931213	-40.372559
199.649536	742.878601	726.606262	739.980774	17.808302
200.027191	743.324402	733.293518	739.089172	42.221897
200.404816	737.603088	736.191406	741.243958	-257.909973
200.782410	740.649597	748.525635	746.073669	68.868034
201.159988	736.934387	759.225281	745.107666	36.666447
201.537537	738.197571	773.937195	740.054993	5.197094
201.915070	729.058289	768.513000	738.494690	23.917046
202.292557	726.606262	768.587341	738.717590	28.849493
202.670029	726.531982	763.609070	737.083008	28.456997
203.047485	732.104675	771.187988	742.952942	27.756773
203.424911	730.692932	768.215820	743.101501	33.069336
203.802292	724.600098	763.386169	739.906433	39.463486
204.179688	724.377197	762.420227	741.987000	46.289169
204.557037	733.219238	762.568848	744.736145	39.240410
204.934357	733.070618	769.404602	758.928040	71.165939
205.311661	728.612488	767.175598	750.160339	55.876850
205.688934	716.575439	765.540833	746.593750	61.305157
206.066177	720.216309	764.575012	733.442139	29.815638
206.443390	713.900574	759.225281	731.287415	38.360626
206.820587	721.850891	755.435730	737.157288	45.575317
207.197769	727.646667	755.732910	748.005554	72.487045
207.574921	733.962341	758.482117	752.092102	73.939346
207.952042	727.646545	761.900085	750.606140	67.028381
208.329147	724.897400	759.522461	747.039551	63.948338
208.706223	763.757629	806.853210	795.113464	72.758820
209.083267	769.627625	809.156555	792.438660	57.707191
209.460297	771.039368	811.014160	794.370422	58.364418
209.837280	735.076843	764.946533	748.154114	43.781071
210.214264	730.247131	769.107422	743.473145	34.034779
210.591217	728.538147	770.444885	730.172852	3.900816
210.968124	728.983948	771.559509	730.470032	3.490463
211.345016	731.733215	767.472839	736.711487	13.929277
211.721893	731.361633	758.853699	738.791992	27.027285
212.098724	732.773438	756.030273	736.860107	17.571909
212.475555	732.847717	755.510071	733.442200	2.623216
212.852356	728.686768	758.779358	739.609314	36.296463
213.229126	726.829285	765.912415	742.358582	39.734016
213.605865	724.154297	762.643066	735.671204	29.922771
213.982590	721.776672	765.020813	733.145020	26.288757
214.359283	715.237976	762.494446	727.275085	25.471876
214.735931	709.591003	762.791748	733.888000	45.670406
215.112579	714.346375	757.367676	738.494812	56.131351
215.489197	719.250305	755.732910	743.250061	65.784103
215.865799	725.120300	759.819641	741.689697	47.751331
216.242355	716.575439	762.197266	735.745422	42.019325
216.618896	717.764221	760.785583	735.819824	41.968925
216.995407	718.135742	763.163269	730.172852	26.732779
217.371902	723.411316	764.129150	728.092346	11.496265
217.748367	732.922058	762.791687	722.445374	-35.074707
218.124802	731.138855	753.503906	727.200745	-17.608322
218.501236	730.024231	756.327393	729.875671	-0.564797
218.877609	718.878845	755.881592	728.240967	25.301153
219.253983	718.433044	758.705078	729.206848	26.752569
219.630295	725.491760	755.361511	737.677429	40.796017
220.006592	728.835449	750.903320	741.318176	56.565163
220.382889	730.024231	746.073669	737.157288	44.444275
220.759140	717.541321	745.107727	729.652771	43.935543
221.135391	716.426819	742.952942	729.578430	49.579849
221.511581	715.535156	752.760925	732.327637	45.109829
221.887772	723.485596	756.253113	732.699158	28.117973
222.263931	724.080078	772.079590	743.844543	41.176388
222.640060	724.005676	766.581238	749.417297	59.685932
223.016159	717.095520	767.621399	750.828918	66.764595
223.392212	719.919006	757.813477	740.798096	55.097984
223.768265	726.011902	767.398438	741.987000	38.599747
224.144302	732.773376	768.958801	743.250183	28.953112
224.520294	721.182129	773.788574	739.832214	35.452091
224.896286	716.055237	773.565613	741.020996	43.410877
225.272217	717.467102	775.868958	738.346130	35.750626
225.648148	727.052185	778.766785	737.231628	19.683887
226.024048	724.971619	770.890686	731.956055	15.210318
226.399902	719.621826	769.256104	729.949951	20.808453
226.775772	711.225586	763.237549	730.618652	37.285782
227.151581	718.433044	765.318054	730.247131	25.198004
227.527374	715.015137	761.825867	736.191406	45.238068
227.903137	718.730164	761.454346	744.661865	60.695606
228.278870	716.798340	758.184875	749.565735	79.174049
228.654572	717.392761	757.887695	743.770203	65.137634
229.030273	717.764343	762.271667	736.934387	43.071663
229.405930	715.683777	765.838135	731.287354	31.111109
229.781555	728.166687	768.736023	729.801270	4.029109
230.157181	736.562927	762.568848	729.429749	-27.429056
230.532761	736.934387	764.723633	728.835266	-29.144804
230.908325	730.767273	770.221985	732.327576	3.954668
231.283859	726.383484	775.348877	735.968445	19.574970
231.659332	727.572266	772.674011	729.875671	5.107132
232.034821	728.612488	765.838135	732.253235	9.780211
232.410263	719.696228	766.432556	728.092346	17.964865
232.785690	721.033630	767.844238	731.361633	22.063381
233.161087	721.925293	768.067200	733.962219	26.086756
233.536469	724.377197	763.980652	735.076843	27.016951
233.911804	722.816895	763.757629	734.928223	29.582586
234.287140	721.776611	764.277832	722.148193	0.874286
234.662430	727.646484	768.661621	720.736328	-16.847820
235.037704	723.782898	774.234375	733.813660	19.881998
235.412933	725.268860	773.937073	742.729980	35.877876
235.788162	720.067688	769.479004	748.154114	56.842091
236.163345	718.730286	764.649231	742.284180	51.294502
236.538513	716.724060	769.776123	743.473083	50.420326
236.913635	716.575439	768.290100	742.432800	50.000057
237.288742	720.884949	764.500671	740.500977	44.974670
237.663834	718.655945	757.070496	747.485352	75.048141
238.038879	724.302917	762.717468	748.674255	63.442986
238.413910	719.547546	763.906311	743.547302	54.103752
238.788910	719.324646	766.135437	733.144958	29.523775
239.163879	718.432922	767.175598	728.761047	21.189081
239.538834	713.751953	763.311829	733.739441	40.329979
239.913757	718.655945	764.575012	735.671204	37.054886
240.288651	715.015076	763.757629	737.008728	45.122078
240.663528	723.782776	773.268372	740.575195	33.933956
241.038361	720.513489	777.355042	735.002502	25.490179
241.413177	722.593994	773.417053	735.522644	25.438551
241.787979	725.640320	766.061035	730.693054	12.500359
242.162735	728.092346	765.466614	730.915833	7.554626
242.537476	725.937500	770.444885	731.658936	12.855025
242.912170	720.884949	777.949463	740.352295	34.114628
243.286865	718.135742	779.212646	748.971436	50.486668
243.661514	713.157532	780.104309	740.723877	41.176510
244.036148	719.176025	779.212646	737.825989	31.064312
244.410751	725.417480	776.389160	732.179016	13.265279
244.785339	735.076843	776.166260	742.878601	18.987268
245.159882	736.711487	776.983582	734.333801	-5.904052
245.534378	732.476135	785.231140	743.101501	20.140963
245.908890	726.160461	784.859619	734.185120	13.670823
246.283356	726.457703	777.652283	729.058289	5.079807
246.657791	725.343201	766.878418	722.668274	-6.440142
247.032196	731.510254	772.228210	720.067627	-28.102163
247.406586	725.640320	783.522217	726.457703	1.412156
247.780960	728.463867	787.311707	730.915833	4.166619
248.155289	727.795166	783.002136	736.191406	15.208660
248.529602	722.965515	777.726563	731.658936	15.875190
248.903870	724.674500	784.339539	725.863281	1.992426
249.278122	717.095520	784.265320	726.829285	14.491282
249.652344	720.513489	784.116638	736.711487	25.467289
250.026550	713.751892	774.085754	735.374023	35.837471
250.400711	712.785950	780.178528	744.216064	46.637352
250.774857	713.900452	777.726563	740.352295	41.443607
251.148987	719.027405	783.968018	740.203674	32.608669
251.523071	724.674377	777.726563	734.408020	18.347298
251.897125	728.686829	783.447937	738.271790	17.503227
252.271164	723.559875	778.766785	742.878601	34.993313
252.645187	725.120300	776.389160	739.386414	27.826078
253.019165	726.234863	769.924805	734.110840	18.026979
253.393112	733.888000	777.132141	730.544250	-7.732261
253.767044	729.652771	771.930969	730.247131	1.405832
254.140930	727.349304	781.293152	733.367859	11.157073
254.514801	722.148132	776.537781	741.392578	35.382553
254.888657	725.045898	782.110413	740.278015	26.692801
255.262466	731.287354	775.051697	734.482422	7.300620
255.636276	731.064453	781.441711	733.367859	4.572313
256.010010	732.922058	781.738953	736.860107	8.066980
256.383759	724.080017	780.847351	738.197510	24.869043
256.757446	730.098450	773.194092	733.219238	7.241541
257.131134	724.451477	775.646057	733.516418	17.706839
257.504791	724.228577	776.983459	737.677490	25.493212
257.878418	715.460938	775.720398	735.671326	33.538948
258.252014	723.782776	780.550049	739.534973	27.748730
258.625580	720.885010	788.797668	741.764099	30.744032
258.999115	729.875671	794.073242	737.825989	12.384141
259.372650	726.680603	793.701660	737.900330	16.740599
259.746124	727.274963	791.546875	737.974609	16.647469
260.119598	728.463867	791.398254	747.931152	30.932669
260.493042	729.281250	796.822449	750.085938	30.802959
260.866425	728.166687	803.806824	749.045715	27.603107
261.239838	717.318420	810.048340	749.788757	35.016029
261.613159	708.922302	806.556152	741.689758	33.561573
261.986511	712.340149	801.800720	733.367859	23.505003
262.359802	720.513489	792.067078	727.052185	9.138181
262.733063	728.761169	789.020569	730.395813	2.712678
263.106293	725.937683	777.726563	740.426697	27.977076
263.479523	719.398926	785.008240	747.782532	43.261551
263.852692	719.696106	791.026855	748.748535	40.729179
264.225861	719.844788	802.172180	741.912659	26.805016
264.598969	730.990173	798.085632	731.658875	0.996641
264.972076	724.674500	792.587158	729.652771	7.330403
265.345154	726.531982	796.896729	730.544434	5.702360
265.718201	715.906738	803.509583	735.002625	21.798248
266.091217	729.801331	809.676758	745.627747	19.813873
266.464203	733.590820	815.323730	753.280945	24.090815
266.837158	739.014893	813.391846	749.342957	13.886107
267.210114	724.748718	820.673523	740.500916	16.421402
267.583038	719.770508	827.360779	726.680664	6.422659
267.955902	717.689941	834.419617	728.018066	8.847900
268.328766	722.965515	824.463074	726.457703	3.440662
268.701569	727.052063	813.168945	732.550476	6.384826
269.074371	719.473206	808.710754	738.420410	21.232323
269.447144	712.488770	815.992493	743.695984	30.150814
269.819885	709.591003	820.896484	750.606140	36.849163
270.192596	716.129700	825.577454	754.544128	35.098415
270.565277	730.767334	831.670349	754.841309	23.858528
270.937927	739.609375	831.150208	747.708252	8.847283
271.310577	735.671326	834.419617	739.312073	3.686896
271.683136	726.011902	824.165771	742.507080	16.805428
272.055725	717.690002	829.812805	742.507080	22.133837
272.428284	717.764343	830.555847	743.027161	22.397802
272.800812	720.364929	841.849854	741.095398	17.064232
273.173279	726.977783	836.351379	742.655762	14.334335
273.545776	735.522644	833.527893	743.472961	8.112134
273.918152	729.281250	831.075989	738.346130	8.905058
274.290558	719.621887	832.339111	734.110840	12.854249
274.662964	713.528992	837.094482	735.151123	17.498520
275.035278	720.439148	836.648621	734.408020	12.020425
275.407593	725.045898	836.500000	740.798096	14.133349
275.779907	724.822998	845.787842	748.525574	19.594599
276.152161	716.278259	852.846497	748.674255	23.721472
276.524384	712.934570	862.654541	752.537903	26.451603
276.896606	713.157410	861.242859	750.234558	25.037672
277.268799	719.027344	865.775391	745.999329	18.379791
277.640930	724.525818	863.026123	748.228333	17.113691
278.013031	731.138733	860.351257	745.107666	10.810820
278.385162	730.321472	854.704285	746.222168	12.783676
278.757233	722.296692	855.372864	739.906494	13.232874
279.129272	719.844727	859.608154	737.900391	12.918733
279.501282	718.953125	863.026062	736.117126	11.913411
279.873230	723.559875	869.861877	731.436035	5.383494
280.245178	724.971680	875.806152	728.166687	2.118221
280.617126	721.182312	877.589355	736.785828	9.976223
280.988983	715.015137	878.258118	738.643372	14.474273
281.360870	716.724060	885.465515	745.702148	17.173071
281.732697	721.702332	894.679016	747.262451	14.776628
282.104492	731.138733	902.778015	750.680359	11.385287
282.476288	730.544373	901.960754	748.154114	10.273080
282.848053	732.253357	908.945129	753.949707	12.279208
283.219757	730.321472	915.409485	759.076599	15.535921
283.591461	725.194519	924.474426	758.333679	16.629454
283.963135	726.086121	923.954285	752.760925	13.481100
284.334747	736.637146	924.845947	749.863037	7.027244
284.706360	734.779602	925.291809	749.565918	7.761348
285.077942	734.333801	936.362976	743.993225	4.781202
285.449524	715.460876	947.359680	741.912659	11.406606
285.821014	713.157532	955.235779	744.810547	13.075531
286.192535	711.225647	957.687805	749.863037	15.676805
286.563995	715.609436	967.198547	741.987000	10.484382
286.935425	715.832458	964.300781	742.581482	10.765567
287.306824	719.027527	964.597961	742.135559	9.409941
287.678223	713.751953	954.418457	749.120056	14.695898
288.049561	726.011963	955.235779	756.698914	13.387331
288.420898	724.154358	952.783752	755.212891	13.584663
288.792145	732.327637	952.486572	755.361511	10.462384
289.163452	729.504150	958.876526	735.894104	2.785843
289.534668	737.454529	966.975586	729.801270	-3.334448
289.905914	737.380188	972.548340	724.823059	-5.339638
290.277039	735.745544	985.105469	739.014893	1.311096
290.648193	735.299744	1001.229187	746.073547	4.051377
291.019318	731.881836	1010.591248	744.513245	4.532107
291.390381	724.451599	1006.727539	735.076843	3.764134
291.761475	708.996582	995.582214	736.339905	9.541065
292.132507	712.042969	994.616211	744.513184	11.490902
292.503510	715.758118	1004.126953	748.079773	11.208443
292.874481	729.727051	1021.439453	759.745300	10.290358
293.245422	727.572266	1028.126709	760.191101	10.852887
293.616364	724.600159	1034.442383	762.420166	12.206215
293.987213	717.912903	1029.464233	746.890930	9.301205
294.358093	718.061523	1047.073975	749.417175	9.530232
294.728943	714.940857	1060.448364	744.067383	8.430070
295.099731	711.745789	1076.720825	742.581360	8.448680
295.470490	717.467041	1094.776245	744.364746	7.128823
295.841248	720.736328	1105.773193	742.655701	5.692799
296.211975	722.073792	1118.999146	741.987000	5.016865
296.582642	719.547546	1123.902954	733.442139	3.436233
296.953308	719.770508	1133.116577	740.723816	5.069192
297.323883	724.005676	1144.410400	744.438965	4.860385
297.694519	720.364929	1144.113281	744.290344	5.646138
298.065063	719.993408	1146.565308	744.067383	5.643591
298.435608	721.107910	1139.952271	732.179016	2.643250
298.806122	729.429871	1132.447754	736.117004	1.659265
299.176575	731.584534	1129.252808	735.894104	1.083710
299.547028	728.761047	1123.680054	743.324402	3.687681
299.917450	722.148132	1121.525269	741.764099	4.911640
300.287872	721.702332	1114.317993	733.888000	3.103714
300.658234	725.937561	1115.952515	735.745605	2.514787
301.028564	727.795166	1120.782227	741.541199	3.497833
301.398865	726.977844	1122.714111	741.764099	3.736391
301.769135	722.891113	1129.995728	735.299744	3.048020
302.139374	716.575439	1132.893555	727.126404	2.534352
302.509583	716.129639	1126.354980	734.036560	4.365143
302.879791	713.454773	1118.850464	738.569031	6.194999
303.249939	715.832458	1116.026855	736.785828	5.235798
303.620087	718.804504	1127.172241	731.287415	3.056782
303.990173	720.810730	1130.367310	728.686768	1.923065
304.360260	721.182190	1138.837891	735.225403	3.362390
304.730286	724.600159	1140.472412	742.507141	4.305885
305.100281	722.891174	1142.552856	750.457520	6.568707
305.470276	728.166687	1135.345581	742.729980	3.576633
305.840179	722.668274	1137.203125	739.014832	3.943349
306.210144	719.621887	1140.249634	737.380127	4.221842
306.579987	719.473328	1152.658081	739.683594	4.665507
306.949890	714.049133	1159.345337	735.225403	4.755547
307.319702	718.878845	1177.846680	736.340027	3.804446
307.689484	714.494934	1184.905396	739.460693	5.307229
308.059265	725.789001	1204.298462	745.850769	4.192554
308.429016	727.497986	1212.174683	739.832092	2.544811
308.798737	726.531982	1233.722412	744.810486	3.603874
309.168396	725.863281	1243.456055	742.284180	3.172552
309.538055	714.346375	1256.533325	744.438965	5.550224
309.907684	719.324646	1268.793213	738.717590	3.529400
310.277313	714.569336	1281.796143	743.621643	5.121815
310.646851	723.559875	1294.353394	747.708252	4.230668
311.016388	717.764343	1306.241821	756.847473	6.641398
311.385895	724.525818	1312.483276	756.921814	5.509922
311.755371	723.931396	1314.415039	759.819641	6.077771
312.124817	722.148132	1313.300537	751.200500	4.914531
312.494232	719.993347	1310.254272	748.302734	4.796080
312.863617	721.330811	1307.876343	748.451355	4.623775
313.232971	724.377258	1304.978638	753.801086	5.067819
313.602295	719.473328	1306.910522	748.599915	4.958247
313.971619	717.095520	1316.049805	742.061279	4.168224
314.340820	721.702332	1320.359253	733.070618	1.898965
314.710083	729.058350	1331.430542	735.596985	1.085481
315.079285	730.618652	1344.433472	735.374023	0.774724
315.448486	729.652649	1366.204102	745.181946	2.439598
315.817596	717.838562	1358.328003	746.742371	4.512769
316.186707	719.621765	1352.532349	744.438965	3.921123
316.555786	717.169739	1331.950684	736.339905	3.118211
316.924866	724.080017	1334.551147	738.420410	2.349070
317.293884	713.083191	1332.322144	748.079773	5.651547
317.662872	709.293762	1336.557251	756.624573	7.545603
318.031830	709.739563	1343.393066	754.692688	7.094275
318.400757	724.154297	1354.538574	749.863098	4.078275
318.769684	724.897278	1368.730469	744.364746	3.023682
319.138550	717.244141	1373.188599	744.661865	4.179885
319.507416	713.306152	1378.092407	746.965332	5.063158
319.876190	713.603333	1378.909790	742.507080	4.344426
320.244995	717.541321	1387.157593	749.714417	4.804707
320.613770	719.547546	1381.064819	743.472961	3.616748
320.982483	724.228699	1377.869629	751.869202	4.228698
321.351166	727.572266	1367.690063	743.250061	2.449205
321.719818	725.120178	1363.826294	747.856934	3.559815
322.088440	727.646545	1368.730347	736.637207	1.402416
322.457062	730.395752	1385.225586	734.185242	0.578698
322.825623	721.925232	1408.705200	727.126465	0.757336
323.194183	717.021179	1418.884766	736.785706	2.816007
323.562653	710.408264	1439.912476	746.668030	4.970467
323.931183	719.621826	1457.596558	752.537903	4.460326
324.299591	719.398926	1492.741821	744.364685	3.228291
324.668060	724.228699	1513.100586	731.807434	0.960705
325.036407	724.302917	1536.654663	732.550476	1.015269
325.404755	725.937683	1552.555298	737.528809	1.402236
325.773102	721.702332	1549.954712	738.420410	2.018476
326.141388	728.463867	1556.864868	739.757874	1.363350
326.509674	732.401917	1556.270508	740.278015	0.955990
326.877899	739.683594	1577.744141	745.850647	0.735872
327.246124	736.117126	1581.087769	742.432800	0.747443
327.614288	734.556641	1586.511719	748.451233	1.630907
327.982422	733.962219	1578.561401	747.856873	1.645118
328.350525	738.643311	1576.406616	749.565857	1.303775
328.718628	739.460632	1575.589233	744.216064	0.568744
329.086700	739.089172	1588.963745	751.274841	1.433820
329.454712	735.225403	1590.895508	750.457520	1.780139
329.822693	736.934387	1598.177246	747.782532	1.259592
330.190674	735.968445	1604.047241	742.878601	0.796029
330.558563	732.253235	1618.461792	741.541199	1.048056
330.926483	724.079895	1628.418457	741.838379	1.963699
331.294312	719.175964	1638.672241	740.723816	2.343441
331.662231	718.135742	1660.145630	744.290344	2.776468
332.029999	713.751953	1687.860718	748.674255	3.585052
332.397766	713.603333	1714.906860	746.816650	3.317008
332.765503	713.008972	1738.906616	745.702148	3.186787
333.133240	720.513489	1757.779419	738.940491	1.776497
333.500916	720.959290	1788.169312	740.055115	1.789322
333.868561	720.067627	1800.131958	739.683594	1.816185
334.236176	710.854065	1804.144409	753.578308	3.907859
334.603790	711.745789	1798.720337	755.361511	4.012580
334.971344	712.117249	1805.927612	754.098328	3.838058
335.338867	719.993347	1810.608765	744.364685	2.234641
335.706360	715.089417	1810.757202	736.934387	1.993759
336.073853	719.696228	1814.843872	734.705322	1.370509
336.441284	716.426819	1826.806641	736.488525	1.806743
336.808655	718.581604	1826.509399	741.466797	2.065585
337.176086	719.993408	1801.246582	746.816650	2.480755
337.543396	730.247131	1762.460571	746.296570	1.554857
337.910706	730.544373	1733.928223	745.033386	1.444015
338.277954	733.219238	1758.373657	750.977600	1.732262
338.645264	727.869446	1824.354614	752.835144	2.276884
339.012421	725.714661	1905.716187	755.287109	2.506137
339.379669	721.999512	1972.217163	751.423401	2.353501
339.746796	726.086182	2016.798706	751.051941	1.934262
340.113953	735.225403	2035.820313	750.606140	1.182592
340.481018	733.219238	2043.919067	745.925049	0.969391
340.848114	728.612488	2029.578735	748.079834	1.496376
341.215118	721.850891	2030.618774	751.200500	2.242537
341.582153	725.640320	2033.219604	759.076660	2.557117
341.949066	724.971680	2051.498047	749.491516	1.848424
342.316010	725.120300	2061.454834	746.222168	1.579086
342.682922	724.228699	2072.971680	739.832214	1.156893
343.049835	726.680664	2091.993408	748.005554	1.561905
343.416656	733.590820	2141.924561	758.036377	1.735779
343.783478	736.117004	2193.416260	754.841309	1.284863
344.150269	746.222229	2248.846191	765.986755	1.315334
344.516998	748.005432	2288.895264	767.175598	1.244097
344.883728	740.798096	2322.628662	769.924805	1.841329
345.250427	725.268860	2357.848145	750.308838	1.533768
345.617065	719.696106	2377.835693	734.333801	0.882778
345.983704	721.107910	2385.414307	734.853943	0.825932
346.350281	722.668213	2383.928467	741.466858	1.131589
346.716827	717.838562	2357.996826	743.918884	1.590110
347.083405	716.278259	2350.046631	745.776367	1.805526
347.449860	733.145020	2346.108398	761.231262	1.741282
347.816376	738.123230	2348.040283	774.457275	2.256889
348.182770	742.209900	2340.312744	781.664612	2.468847
348.549194	731.658875	2322.851563	768.587341	2.320804
348.915558	732.624817	2330.281982	762.123047	1.846343
349.281921	727.423645	2331.396240	751.051941	1.473111
349.648193	721.999512	2351.086670	744.513367	1.381992
350.014526	722.965515	2371.074219	740.426575	1.059461
350.380737	725.194519	2401.017822	741.541199	0.975442
350.746948	730.841553	2438.986572	750.903320	1.174477
351.113159	726.457703	2464.026611	753.875427	1.577936
351.479309	723.708496	2482.528076	756.476074	1.863044
351.845428	722.816895	2496.943115	748.822754	1.465840
352.211517	730.841553	2537.289063	745.702148	0.822642
352.577576	727.200745	2572.508789	739.163391	0.648274
352.943604	727.869446	2598.886475	741.689758	0.738652
353.309601	723.782898	2627.121582	743.547302	1.038407
353.675537	730.470032	2678.241699	749.417297	0.972766
354.041473	727.423645	2737.832275	744.661926	0.857452
354.407379	730.990173	2779.664795	740.500977	0.464242
354.773254	733.813660	2830.339111	738.271912	0.212650
355.139038	725.491760	2874.177734	747.039551	1.002836
355.504913	725.268860	2949.074951	752.092102	1.206186
355.870636	720.142029	3007.997070	751.572021	1.373776
356.236389	725.566101	3068.776611	748.748535	0.989345
356.602081	718.432922	3120.714111	744.661865	1.091835
356.967804	720.587708	3175.401123	747.262451	1.086630
357.333405	720.959290	3246.285889	747.336731	1.044516
357.699036	715.906738	3330.545166	747.188171	1.196396
358.064606	716.203918	3415.398682	749.194336	1.222232
358.430176	717.615723	3485.391846	744.438965	0.969126
358.795654	727.275085	3517.193604	745.999268	0.671137
359.161163	727.052063	3540.153320	743.473083	0.583734
359.526581	727.497864	3544.239502	744.216064	0.593530
359.892029	732.179016	3581.837158	747.336731	0.531913
360.257416	729.875671	3638.306885	747.782532	0.615688
360.622772	731.510254	3736.163818	753.429626	0.729514
360.988098	723.411316	3836.992188	753.578125	0.968878
361.353394	722.816895	3967.913330	756.104492	1.025782
361.718658	721.850891	4110.352051	752.537903	0.905622
362.083893	720.364929	4258.511719	745.107727	0.699315
362.449097	719.844727	4351.093262	747.485352	0.761188
362.814209	714.272034	4358.969238	752.240723	1.041752
363.179382	721.776672	4269.285645	761.231445	1.112182
363.544434	723.857117	4122.834961	757.590576	0.992459
363.909546	731.881836	3960.409180	745.107727	0.409657
364.274536	726.680664	3817.302002	739.609314	0.418319
364.639587	728.835388	3710.157959	736.637207	0.261690
365.004517	726.829163	3639.421143	742.507080	0.538281
365.369507	730.841553	3597.589111	742.284180	0.399150
365.734344	726.011902	3582.951416	740.575195	0.509752
366.099274	726.754883	3580.128174	749.342957	0.791627
366.464081	724.005676	3585.923828	754.321228	1.059274
366.828918	731.584534	3583.322998	757.516174	0.909327
367.193665	730.841553	3585.329102	752.315002	0.752270
367.558411	728.761047	3586.072266	760.042542	1.094788
367.923126	728.909668	3585.106201	763.311829	1.204475
368.287781	737.008728	3590.233154	766.729797	1.041666
368.652435	735.968445	3580.945313	768.067200	1.128261
369.017059	736.711487	3578.790771	768.958923	1.134642
369.381653	728.835388	3566.159180	770.593567	1.471745
369.746185	731.064514	3574.629639	757.887695	0.943294
370.110687	724.451599	3585.923584	758.853699	1.202252
370.475220	725.491760	3618.022461	755.361511	1.032651
370.839661	720.141907	3652.573242	760.636902	1.380936
371.204041	723.039795	3705.253906	764.500671	1.390272
371.568451	716.724060	3745.600342	763.237488	1.535666
371.932770	722.073792	3782.157471	766.209656	1.442309
372.297150	719.324646	3791.519531	760.711243	1.347134
372.661377	720.662109	3808.608643	765.318054	1.446137
373.025696	714.420654	3827.258789	758.630798	1.420252
373.389862	720.736389	3841.748047	756.698914	1.152271
373.754059	721.702332	3844.719971	750.457458	0.920748
374.118225	731.807434	3860.917969	749.342957	0.560400
374.482361	727.423645	3887.221436	740.649597	0.418570
374.846436	727.497986	3932.174561	743.621643	0.503129
375.210510	720.587830	3974.155518	745.107666	0.753629
375.574524	722.222473	4056.705811	759.076599	1.105242
375.938538	721.330811	4155.156738	754.395508	0.962911
376.302460	727.720886	4245.806152	756.996094	0.832135
376.666412	727.943665	4338.164551	764.203430	1.004364
377.030304	728.686768	4413.582031	778.766785	1.359062
377.394196	721.776672	4515.970703	783.299255	1.621493
377.757996	723.039795	4579.351074	770.816406	1.238920
378.121796	722.965515	4624.898926	763.831970	1.047339
378.485565	729.875671	4628.911133	759.299500	0.754644
378.849304	719.324646	4609.072266	761.454285	1.083094
379.212982	717.912842	4559.883789	757.441895	1.028874
379.576630	714.272034	4475.624512	767.027039	1.402554
379.940277	717.764343	4411.204102	777.949463	1.629514
380.303864	726.086182	4368.183105	784.265320	1.597408
380.667450	725.640320	4379.327637	779.509949	1.474391
381.030945	725.714661	4390.547363	774.457275	1.330009
381.394501	724.228699	4421.532227	776.834961	1.422828
381.757935	730.767273	4436.021484	780.995850	1.355604
382.121399	733.962219	4445.977539	782.853455	1.317108
382.484741	733.293640	4468.640137	786.048523	1.412316
382.848145	723.782776	4501.779297	790.729553	1.772018
383.211487	724.451477	4539.673340	788.872009	1.688513
383.574768	716.649719	4596.218262	792.735779	1.961199
383.938019	719.324646	4655.065430	796.079346	1.950197
384.301270	718.507324	4729.442871	808.116394	2.234119
384.664459	722.742615	4785.541016	813.020325	2.222057
385.027649	721.107910	4818.085449	817.106995	2.343168
385.390778	725.045898	4877.750488	828.475403	2.490654
385.753876	725.194580	4892.091309	843.112976	2.829885
386.116943	732.104736	4928.722168	849.948914	2.808075
386.479980	727.869446	4926.716309	853.812561	2.999469
386.842987	733.665039	4987.719238	850.766174	2.752695
387.205994	730.767273	5037.278809	857.676331	2.946911
387.568909	725.045959	5100.139160	861.168640	3.111309
387.931793	718.804504	5130.454590	866.444031	3.346583
388.294678	718.135742	5167.902832	870.530701	3.424785
388.657471	720.513489	5171.766113	884.796692	3.690719
389.020294	726.309082	5179.939453	916.449707	4.269340
389.383057	727.646484	5178.825195	942.604309	4.829234
389.745819	730.767273	5207.951660	951.892273	4.938930
390.108521	727.423645	5228.607910	956.201721	5.082620
390.471191	726.011902	5286.415527	968.684570	5.321298
390.833801	721.925232	5363.987793	981.241760	5.586235
391.196442	716.798340	5472.395020	998.628662	5.926287
391.558960	708.625000	5561.484375	1015.049500	6.314308
391.921509	708.625000	5656.665527	1050.120239	6.901626
392.284027	706.544617	5756.826172	1079.544189	7.385718
392.646484	713.306152	5859.884277	1109.339600	7.695083
393.008911	719.101746	5897.704590	1129.624268	7.927283
393.371307	722.816895	5889.084473	1155.110107	8.367612
393.733673	734.408142	5845.543457	1178.144043	8.681748
394.096008	736.117004	5824.812988	1211.951660	9.350818
394.458344	736.414246	5844.726563	1246.502563	9.985456
394.820587	726.457703	5876.007813	1276.892212	10.688982
395.182831	726.234802	5914.273438	1297.994141	11.020722
395.545013	729.281189	5898.075684	1310.477051	11.244322
395.907196	732.550476	5876.750488	1341.015381	11.828173
396.269287	735.374023	5824.144531	1375.640503	12.581948
396.631409	735.002502	5767.154297	1409.448242	13.402730
396.993469	731.138733	5708.009277	1435.008301	14.142815
397.355530	725.566101	5642.103027	1465.918335	15.058409
397.717499	720.364929	5626.499512	1499.726196	15.885444
398.079468	719.324646	5612.232910	1528.258301	16.532778
398.441376	720.290527	5618.845703	1560.728638	17.156857
398.803284	726.011902	5621.595215	1594.164673	17.733387
399.165131	727.572205	5639.279785	1633.842407	18.451225
399.526978	727.126404	5651.093750	1670.102173	19.150732
399.888763	723.262695	5661.941406	1710.077148	19.981346
400.250519	724.302917	5684.455078	1750.423462	20.687281
400.612244	729.652771	5726.807129	1791.290039	21.244835
400.973938	726.086182	5731.117188	1818.113281	21.818586
401.335602	724.823059	5727.699219	1850.732056	22.505234
401.697205	725.343079	5768.417480	1891.747437	23.128834
402.058807	731.361633	5843.166016	1936.328979	23.572250
402.420349	728.983948	5940.725098	1991.089966	24.216589
402.781860	724.302917	6006.037109	2041.615845	24.940918
403.143341	719.250305	6070.309082	2107.893799	25.950819
403.504822	717.987244	6137.479004	2165.032959	26.700764
403.866241	711.151367	6247.669434	2225.589355	27.353619
404.227631	712.488770	6360.460938	2286.963135	27.876808
404.588959	715.312317	6501.933594	2351.160889	28.269497
404.950287	715.683838	6629.585938	2403.841797	28.545584
405.311554	717.987244	6712.582031	2454.144531	28.962046
405.672821	719.844727	6754.265625	2499.989502	29.499844
406.034027	719.696106	6745.126465	2526.292725	29.982866
406.395203	720.959290	6715.257324	2538.849854	30.326998
406.756348	718.953125	6665.919922	2565.747314	31.054388
407.117493	724.600098	6634.044434	2606.242432	31.841274
407.478516	723.262695	6638.725098	2634.328857	32.306286
407.839600	725.045898	6689.994141	2659.368652	32.428158
408.200592	726.234802	6708.049316	2688.718262	32.807495
408.561554	725.046082	6693.560547	2722.823242	33.471931
408.922485	721.553772	6674.539063	2744.148193	33.976139
409.283417	718.953125	6681.671875	2764.283936	34.301983
409.644257	717.169922	6756.644043	2803.887451	34.551311
410.005096	720.959290	6853.162598	2850.772705	34.731621
410.365906	722.148132	6922.339355	2904.270752	35.194439
410.726715	727.795166	7015.217285	2945.285889	35.268681
411.087433	725.120178	7061.804688	2988.678467	35.721493
411.448120	725.714661	7138.782715	3033.854492	35.991196
411.808807	721.553711	7166.052246	3080.962646	36.611210
412.169434	717.615723	7154.162598	3100.207031	37.016609
412.530029	719.621887	7150.670410	3110.683350	37.179966
412.890564	732.104675	7135.142090	3122.794922	37.336815
413.251099	735.448303	7156.540527	3147.537354	37.565090
413.611572	730.767273	7194.880859	3163.438232	37.633480
413.972076	724.971680	7225.568359	3197.394531	38.033783
414.332489	722.965515	7262.645996	3223.920654	38.242771
414.692871	722.296814	7324.391113	3289.975830	38.891888
415.053223	719.473328	7422.099121	3348.823486	39.228657
415.413574	725.343201	7568.921387	3426.618164	39.471676
415.773834	728.018066	7688.027832	3473.652100	39.448711
416.134094	727.052185	7808.026855	3530.716797	39.594330
416.494263	724.525879	7887.382324	3585.031982	39.935272
416.854462	724.080078	8059.838379	3679.916748	40.293541
417.214630	726.903503	8273.162109	3772.349609	40.357033
417.574738	722.445374	8500.305664	3867.902588	40.441166
417.934784	725.863281	8692.898438	3948.223877	40.446171
418.294861	732.996399	8928.438477	4062.575439	40.627205
418.654846	737.900330	9249.500000	4185.397949	40.503521
419.014832	739.832214	9575.762695	4344.034668	40.790298
419.374756	730.098450	9917.407227	4475.179199	40.763634
419.734680	726.160461	10268.117188	4651.647949	41.139229
420.094543	717.318542	10637.030273	4794.829102	41.105129
420.454376	716.203918	10928.147461	4948.412598	41.443714
420.814148	721.479431	11216.813477	5069.229004	41.425549
421.173920	720.216309	11521.602539	5211.221191	41.578041
421.533691	719.101746	11896.459961	5342.811035	41.366745
421.893341	717.541443	12194.785156	5473.138184	41.435005
422.253021	724.971680	12432.034180	5567.577637	41.364826
422.612640	728.315247	12524.614258	5631.626465	41.566521
422.972260	726.903503	12556.269531	5657.186035	41.678333
423.331757	725.417480	12493.260742	5663.725098	41.964420
423.691315	729.801270	12497.940430	5682.449219	42.085228
424.050781	732.178955	12553.148438	5714.101563	42.144791
424.410248	730.618652	12631.760742	5753.333496	42.203636
424.769653	720.736328	12724.563477	5802.893066	42.337803
425.128998	717.095520	12766.842773	5829.419434	42.426815
425.488373	717.987122	12744.997070	5824.218750	42.456367
425.847656	722.222473	12655.315430	5780.528809	42.388893
426.206940	724.302917	12541.407227	5753.408691	42.557854
426.566193	719.176086	12383.218750	5696.046875	42.668488
426.925385	716.426941	12157.784180	5625.310547	42.904732
427.284576	712.265930	11863.840820	5483.614746	42.786320
427.643677	717.021301	11630.456055	5377.882324	42.707554
428.002777	720.439148	11410.891602	5280.694336	42.657272
428.361847	726.680603	11180.479492	5212.855957	42.914307
428.720856	727.200684	10941.670898	5144.720215	43.247662
429.079865	726.903503	10762.675781	5086.244141	43.438019
429.438812	725.268860	10633.313477	5042.107910	43.569027
429.797760	728.092468	10543.779297	5029.773926	43.824562
430.156616	725.789063	10446.590820	4993.068848	43.898434
430.515503	728.984070	10378.975586	4976.944824	44.020359
430.874268	732.699219	10349.476563	4964.165039	44.000870
431.233093	735.745605	10364.932617	4991.062500	44.191856
431.591827	729.206848	10415.458008	5021.229004	44.310455
431.950562	726.903503	10448.894531	5035.718750	44.320297
432.309204	721.405090	10492.287109	5047.606934	44.276470
432.667877	724.154297	10552.546875	5089.513672	44.415802
433.026459	721.702332	10658.131836	5146.354980	44.529606
433.385010	725.194580	10750.042969	5208.249512	44.719425
433.743561	726.383484	10903.626953	5263.976563	44.585682
434.102051	722.445374	11035.291992	5323.715332	44.616875
434.460510	730.247253	11185.606445	5411.764160	44.776241
434.818939	722.816895	11271.203125	5453.968262	44.851894
435.177338	718.433044	11331.387695	5483.837402	44.901768
435.535675	712.265930	11346.247070	5485.175781	44.883564
435.894012	714.643616	11312.218750	5488.667969	45.048271
436.252289	710.928467	11329.233398	5506.426270	45.162560
436.610535	706.841797	11311.846680	5494.314941	45.143524
436.968719	712.860352	11409.331055	5554.351563	45.262512
437.326935	718.284363	11488.538086	5594.400879	45.273926
437.685028	722.371094	11608.387695	5661.718750	45.373325
438.043152	715.980957	11684.176758	5682.152344	45.277927
438.401215	717.987122	11849.500000	5743.748535	45.148952
438.759277	713.529053	12044.842773	5825.481934	45.113510
439.117249	721.107910	12344.430664	5998.681641	45.405037
439.475250	724.600098	12549.804688	6128.711426	45.699936
439.833130	730.767273	12814.024414	6271.595703	45.855423
440.191071	734.779602	12992.648438	6332.820801	45.668957
440.548889	730.915833	13226.924805	6428.299316	45.593624
440.906708	730.321472	13462.539063	6534.998535	45.590466
441.264496	720.662109	13657.657227	6629.808594	45.676346
441.622223	728.538147	13836.058594	6699.950684	45.557148
441.979950	724.897278	13927.301758	6725.287598	45.449223
442.337616	730.321472	13985.778320	6747.132813	45.391205
442.695251	723.411316	13912.144531	6723.281250	45.492390
443.052887	725.789063	13795.859375	6700.544434	45.713261
443.410461	719.324646	13699.563477	6676.841797	45.896820
443.768005	718.210144	13602.301758	6648.384277	46.027103
444.125458	717.764343	13520.643555	6616.508301	46.073578
444.482941	726.383484	13514.178711	6641.845703	46.258659
444.840393	738.049011	13601.039063	6707.306152	46.406452
445.197754	740.203796	13754.696289	6819.578125	46.712345
445.555084	736.117126	13909.246094	6900.121582	46.792259
445.912415	726.011902	14179.411133	7035.724609	46.900509
446.269714	724.451477	14453.661133	7158.843750	46.866440
446.626953	723.262695	14740.991211	7291.623047	46.857521
446.984161	716.426819	14963.230469	7410.804688	46.988632
447.341309	709.293762	15168.676758	7497.887207	46.949398
447.698456	711.820007	15332.664063	7600.425293	47.114964
448.055542	715.832458	15455.559570	7649.539551	47.040943
448.412598	723.411316	15442.557617	7646.567871	47.035042
448.769653	724.451477	15393.666992	7582.592285	46.751923
449.126617	733.293640	15197.284180	7489.863281	46.713043
449.483582	733.219238	15048.604492	7441.491699	46.860580
449.840515	726.457764	14786.687500	7357.678223	47.162964
450.197388	719.176025	14614.007813	7302.916504	47.382656
450.554230	722.668274	14483.235352	7215.908691	47.187302
450.911041	725.491760	14394.815430	7170.361328	47.148418
451.267822	725.937683	14322.293945	7138.708496	47.165363
451.624573	724.674500	14185.801758	7119.017578	47.502289
451.981262	716.575439	14086.012695	7081.717285	47.609646
452.337921	717.615662	13967.351563	7028.517090	47.630394
452.694580	714.123474	13902.187500	6998.722168	47.653683
453.051147	716.649719	13931.536133	7018.560547	47.687965
453.407715	716.501160	13896.762695	7006.375000	47.721920
453.764221	719.696106	13948.179688	7015.068359	47.589523
454.120728	723.411316	13827.364258	6957.409668	47.573418
454.477142	721.627991	13806.784180	6963.205566	47.699680
454.833557	722.816895	13694.808594	6914.239746	47.729160
455.189911	723.857178	13571.093750	6876.717285	47.892483
455.546265	727.497986	13421.523438	6824.705078	48.032101
455.902557	727.646545	13309.549805	6800.259277	48.264660
456.258820	720.959290	13323.964844	6811.999512	48.330059
456.615051	718.061462	13378.429688	6847.813965	48.416859
456.971252	722.965515	13363.493164	6863.788574	48.580437
457.327393	730.990234	13458.601563	6933.261719	48.730835
457.683502	733.962341	13635.291992	7019.972656	48.723740
458.039612	729.429871	13994.174805	7198.225098	48.766827
458.395630	728.983948	14305.651367	7366.520996	48.889297
458.751648	728.538086	14641.424805	7557.106934	49.080891
459.107605	721.256531	15080.406250	7803.494629	49.322128
459.463562	720.662109	15574.221680	8048.842285	49.336189
459.819458	717.392822	16056.594727	8267.514648	49.221088
460.175323	716.798340	16471.501953	8449.483398	49.081757
460.531158	718.432922	16925.490234	8648.762695	48.931335
460.886932	719.919006	17259.408203	8797.887695	48.840500
461.242676	719.547546	17508.248047	8886.456055	48.645267
461.598419	716.501160	17497.845703	8872.413086	48.601067
461.954102	716.724060	17263.123047	8759.696289	48.608597
462.309723	729.949951	16859.138672	8591.846680	48.743286
462.665344	733.888000	16372.602539	8370.721680	48.832870
463.020905	737.380188	15941.277344	8195.813477	49.056061
463.376373	730.841614	15580.389648	8045.275879	49.256947
463.731873	726.829285	15266.014648	7936.273438	49.586300
464.087341	726.011902	15035.081055	7833.958496	49.674416
464.442749	726.160583	14889.745117	7775.110840	49.768120
464.798126	726.234863	14784.085938	7723.990234	49.778271
465.153503	723.336914	14841.372070	7746.429688	49.745541
465.508820	716.426819	14851.776367	7754.751953	49.792366
465.864105	712.117249	14946.734375	7808.621094	49.853844
466.219330	714.494934	15146.238281	7925.796875	49.968334
466.574524	718.581543	15344.477539	7998.687500	49.775452
466.929657	722.891113	15539.226563	8083.689941	49.680290
467.284790	725.640381	15693.403320	8177.015137	49.782825
467.639893	724.154297	15821.204102	8264.840820	49.948078
467.994934	724.897278	16082.971680	8378.524414	49.834549
468.349945	723.411316	16210.698242	8433.804688	49.785309
468.704926	720.736328	16287.899414	8470.881836	49.785213
469.059875	719.176025	16139.516602	8422.733398	49.957115
469.414764	715.089355	15990.243164	8346.647461	49.960594
469.769653	719.547546	15840.820313	8276.208008	49.973709
470.124451	720.067627	15734.937500	8230.958008	50.023014
470.479248	717.541321	15620.437500	8158.290527	49.928207
470.834015	717.169922	15533.429688	8139.640625	50.096790
471.188721	722.371094	15553.342773	8152.123535	50.096195
471.543365	726.234863	15604.834961	8204.877930	50.264427
471.898010	729.058350	15686.195313	8240.023438	50.216595
472.252625	724.080078	15822.838867	8316.852539	50.287395
472.607178	726.903503	15983.183594	8402.226563	50.309269
472.961700	726.011902	16173.622070	8518.065430	50.441807
473.316193	728.166687	16413.619141	8634.718750	50.406914
473.670654	727.572266	16589.494141	8733.245117	50.471016
474.025055	728.389465	16808.685547	8849.379883	50.502743
474.379456	726.457581	17004.919922	8946.567383	50.496841
474.733795	718.878845	17188.669922	9053.489258	50.605442
475.088104	713.306091	17378.886719	9140.498047	50.566452
475.442383	713.826233	17377.845703	9167.247070	50.728584
475.796570	721.776672	17457.572266	9191.692383	50.609585
476.150787	725.566101	17524.371094	9239.320313	50.680714
476.504944	723.114075	17705.447266	9347.059570	50.781860
476.859070	719.473206	17901.310547	9474.192383	50.953331
477.213135	726.606262	18121.320313	9607.194336	51.053368
477.567200	729.875549	18423.955078	9764.121094	51.058010
477.921173	728.315247	18732.904297	9925.284180	51.081245
478.275146	721.256531	19141.123047	10102.124023	50.927986
478.629089	722.371094	19444.353516	10255.856445	50.921345
478.983002	723.262695	19814.753906	10461.897461	51.010338
479.336823	722.816895	20138.861328	10635.542969	51.054302
479.690643	721.925232	20502.349609	10814.983398	51.025494
480.044403	724.823059	20908.710938	11013.000977	50.972229
480.398163	723.559875	21426.675781	11308.725586	51.128372
480.751862	720.587708	22152.166016	11711.668945	51.284515
481.105499	722.742493	23046.326172	12213.362305	51.473007
481.459137	727.200684	24208.419922	12846.495117	51.612717
481.812744	728.018066	25597.287109	13636.778320	51.906471
482.166290	723.782898	27302.978516	14583.171875	52.143749
482.519806	724.005676	29321.337891	15759.458008	52.576416
482.873291	727.869446	31688.771484	17046.976563	52.708759
483.226715	729.206970	34352.972656	18487.705078	52.815315
483.580139	718.878723	37052.539063	19860.525391	52.682957
483.933502	721.999512	39992.996094	21359.656250	52.551903
484.286804	731.435974	42836.859375	22806.849609	52.428909
484.640106	737.305847	45566.074219	24186.724609	52.308861
484.993347	730.693054	47640.675781	25248.658203	52.265984
485.346558	721.033630	48884.656250	25871.687500	52.219193
485.699738	721.479492	49043.066406	25975.486328	52.262375
486.052887	718.804504	48244.457031	25572.023438	52.294323
486.405975	719.473206	46833.300781	24846.978516	52.321629
486.759064	719.993347	45016.156250	23898.578125	52.326389
487.112061	732.699158	43216.621094	22958.648438	52.316143
487.464996	729.652649	41803.679688	22200.462891	52.273449
487.817963	725.789001	41069.566406	21736.517578	52.079231
488.170868	712.934570	40851.710938	21595.193359	52.025146
488.523743	718.210144	40998.085938	21643.119141	51.948792
488.876587	710.408386	41222.480469	21729.906250	51.884533
489.229401	716.426758	41287.644531	21704.121094	51.730503
489.582153	705.058411	40882.699219	21471.035156	51.685406
489.934845	710.631165	40110.468750	21170.552734	51.928951
490.287537	706.990417	39139.625000	20754.384766	52.162430
490.640198	718.061523	38262.410156	20346.314453	52.280182
490.992798	718.953125	37500.656250	19940.322266	52.257965
491.345337	727.497986	37025.417969	19685.244141	52.228188
491.697876	732.253357	36762.089844	19535.152344	52.187023
492.050354	746.222229	36981.800781	19556.773438	51.911827
492.402832	745.033386	37332.363281	19636.351563	51.633499
492.755219	742.878601	37589.671875	19685.466797	51.409054
493.107605	729.504150	37402.425781	19615.769531	51.499210
493.459930	722.222473	36855.933594	19333.269531	51.506050
493.812225	718.655945	35841.402344	18822.513672	51.544540
494.164490	717.838562	34416.058594	18081.566406	51.527142
494.516724	723.857117	32655.154297	17229.833984	51.692158
494.868896	720.513489	30925.312500	16381.148438	51.848167
495.221039	725.714661	29468.830078	15632.178711	51.860989
495.573120	717.244141	28261.708984	15003.355469	51.865635
495.925201	732.401855	27520.837891	14639.346680	51.913990
496.277222	737.305847	27037.943359	14411.829102	51.993126
496.629211	739.757874	26861.177734	14326.976563	52.015621
496.981140	722.816895	26752.470703	14218.641602	51.847881
497.333069	722.371094	26822.835938	14240.636719	51.793198
497.684967	727.646545	26881.833984	14270.284180	51.779999
498.036804	726.754883	26952.867188	14324.301758	51.847359
498.388580	722.891174	26927.009766	14352.387695	52.012798
498.740326	713.529053	26929.833984	14332.473633	51.948376
499.092072	712.117249	26795.937500	14272.140625	51.986340
499.443756	715.015076	26567.607422	14105.034180	51.793720
499.795410	721.999512	26296.103516	13973.963867	51.817905
500.147003	733.665100	25981.208984	13816.070313	51.816547
500.498566	728.538147	25673.001953	13675.340820	51.902512
500.850098	731.956116	25353.275391	13517.077148	51.927036
501.201599	732.773438	25087.794922	13386.304688	51.954506
501.553009	739.980774	24815.921875	13270.838867	52.047222
501.904449	736.265625	24599.701172	13172.164063	52.112774
502.255859	736.191345	24443.812500	13092.882813	52.121178
502.607178	730.470032	24357.546875	13070.887695	52.229984
502.958405	734.110840	24267.865234	13012.635742	52.174103
503.309692	722.816895	24186.353516	12961.514648	52.160496
503.660919	719.324707	24213.025391	12925.329102	51.954369
504.012115	717.021301	24239.330078	12942.715820	51.974892
504.363251	728.761047	24314.080078	13010.332031	52.072952
504.714294	727.646545	24314.822266	13054.022461	52.258804
505.065369	728.835388	24387.119141	13119.036133	52.371513
505.416443	726.160461	24451.390625	13137.835938	52.314247
505.767395	736.117126	24518.783203	13156.410156	52.224140
506.118317	733.813660	24511.947266	13143.481445	52.189415
506.469238	727.423584	24516.259766	13154.554688	52.239342
506.820160	718.433044	24515.068359	13154.479492	52.259686
507.170929	726.606262	24578.896484	13176.993164	52.197865
507.521729	727.497864	24640.044922	13226.553711	52.269863
507.872498	722.891113	24748.677734	13295.208008	52.328426
508.223236	715.832336	24864.439453	13376.273438	52.427212
508.573883	715.015137	25005.763672	13417.882813	52.295086
508.924500	725.268860	25156.968750	13492.704102	52.257664
509.275116	728.761047	25318.650391	13594.351563	52.320656
509.625702	729.429871	25512.138672	13737.829102	52.489819
509.976196	729.949890	25750.203125	13885.023438	52.577698
510.326660	728.983948	26007.291016	13999.004883	52.495686
510.677124	732.624756	26257.837891	14117.590820	52.438213
511.027557	736.860046	26456.822266	14258.321289	52.571854
511.377869	733.888000	26658.257813	14372.672852	52.609901
511.728180	736.265625	26780.853516	14453.069336	52.666618
512.078430	728.909668	26911.775391	14489.550781	52.555901
512.428650	722.891174	26987.416016	14566.379883	52.707932
512.778931	715.535217	27081.853516	14616.682617	52.723125
513.129028	716.724060	27152.072266	14674.416992	52.799355
513.479126	718.581604	27236.554688	14673.153320	52.623070
513.829285	726.160461	27317.244141	14692.100586	52.521141
514.179382	727.943665	27342.880859	14659.257813	52.343967
514.529297	729.206848	27331.810547	14667.950195	52.396160
514.879272	721.256409	27344.068359	14695.442383	52.489517
515.229187	715.683777	27276.826172	14693.511719	52.625099
515.579163	719.324646	27295.400391	14711.940430	52.651173
515.928955	715.535156	27295.548828	14722.043945	52.695641
516.278748	718.210144	27469.937500	14814.476563	52.692924
516.628540	715.238037	27678.281250	14921.769531	52.688900
516.978333	720.959290	27983.740234	15108.268555	52.772713
517.327942	725.194519	28340.468750	15329.171875	52.883698
517.677612	726.309082	28801.218750	15597.924805	52.971195
518.027222	724.971680	29323.939453	15869.796875	52.955845
518.376831	725.640381	29946.375000	16157.422852	52.811069
518.726379	724.748718	30522.517578	16462.880859	52.816475
519.075867	724.302917	31028.445313	16704.439453	52.732517
519.425293	727.052063	31512.078125	16923.855469	52.612606
519.774658	724.600159	31866.724609	17072.537109	52.494610
520.124084	730.247131	32076.781250	17167.792969	52.438160
520.473389	725.640381	32032.201172	17177.005859	52.549259
520.822693	727.869446	31863.531250	17081.601563	52.524120
521.171997	730.395691	31540.763672	16950.158203	52.643848
521.521240	731.733154	31202.312500	16760.466797	52.603966
521.870361	732.550476	30808.734375	16599.970703	52.757423
522.219482	729.058289	30542.802734	16421.939453	52.636398
522.568604	725.566101	30234.447266	16278.981445	52.707573
522.917664	715.832336	30026.994141	16158.687500	52.685921
523.266724	715.237976	29900.751953	16134.389648	52.831524
523.615662	715.683777	30034.718750	16223.776367	52.894279
523.964600	728.315247	30330.443359	16405.744141	52.960476
524.313538	726.309082	30793.351563	16676.578125	53.049011
524.662354	732.773438	31304.033203	16992.142578	53.185146
525.011169	737.008728	32028.562500	17380.001953	53.186855
525.359985	741.020996	32827.984375	17834.734375	53.273079
525.708740	736.414246	33832.332031	18354.181641	53.232449
526.057434	738.643311	34949.773438	19005.148438	53.393463
526.406067	730.692932	36279.269531	19730.271484	53.446800
526.754700	724.748779	37780.261719	20604.591797	53.648819
527.103333	720.067688	39501.332031	21576.025391	53.778435
527.451782	721.182190	41415.371094	22670.726563	53.937790
527.800293	732.773438	43362.917969	23764.015625	54.025719
528.148743	722.148132	45291.449219	24874.693359	54.190990
528.497131	720.736328	47091.136719	25922.880859	54.349640
528.845642	714.940735	48792.449219	26908.134766	54.481178
529.193909	716.946960	50341.136719	27804.523438	54.585426
529.542175	711.597168	51640.390625	28547.328125	54.656174
529.890503	707.733398	52523.328125	29080.451172	54.757103
530.238770	714.197754	52831.531250	29243.693359	54.740898
530.586914	727.200684	52720.824219	29105.564453	54.580467
530.934998	722.593933	51970.144531	28593.171875	54.384216
531.283142	722.445313	50811.105469	27847.992188	54.155067
531.631226	722.222412	49007.175781	26833.462891	54.077385
531.979248	732.847717	47010.144531	25650.193359	53.843563
532.327148	732.401917	44964.074219	24500.578125	53.735649
532.675110	730.915833	43314.472656	23539.250000	53.561363
533.023071	730.544250	42253.281250	22955.156250	53.523952
533.370850	731.213074	41752.777344	22627.927734	53.378548
533.718689	723.114075	41808.730469	22590.552734	53.224075
534.066467	718.135925	42037.582031	22672.880859	53.134171
534.414246	719.176086	42262.347656	22764.570313	53.066227
534.761963	724.600098	42373.429688	22821.041016	53.054173
535.109619	731.881836	42431.609375	22823.492188	52.977829
535.457153	734.110840	42218.363281	22680.978516	52.904091
535.804749	739.534973	41639.246094	22364.968750	52.874294
536.152344	733.813660	40845.320313	21940.554688	52.869465
536.499817	728.686829	39882.875000	21457.212891	52.940762
536.847229	724.451477	38920.878906	20933.529297	52.908295
537.194641	722.148132	37995.363281	20431.390625	52.877762
537.542114	720.662109	37349.750000	20038.849609	52.740021
537.889404	720.513489	36892.714844	19757.021484	52.627449
538.236694	722.371094	36538.363281	19548.154297	52.562508
538.583984	725.566101	36284.691406	19426.148438	52.590107
538.931213	726.086182	36114.761719	19392.416016	52.746620
539.278381	722.891113	36002.714844	19406.236328	52.957592
539.625488	718.210144	35900.921875	19412.552734	53.135025
539.972595	717.467102	35950.035156	19471.474609	53.229183
540.319641	709.888184	36259.953125	19662.060547	53.311214
540.666687	710.556946	36799.242188	19955.478516	53.326748
541.013611	710.408386	37688.347656	20452.638672	53.389214
541.360596	717.095520	38732.746094	20991.408203	53.331486
541.707458	715.981018	40031.851563	21665.855469	53.286049
542.054260	718.210144	41243.730469	22263.619141	53.165039
542.401062	724.451599	42419.644531	22858.562500	53.085526
542.747864	726.160461	43312.097656	23298.212891	53.003536
543.094666	726.309082	43824.343750	23519.337891	52.886471
543.441284	728.092346	43770.027344	23452.093750	52.795029
543.787903	727.572266	43307.937500	23183.490234	52.737728
544.134460	728.389587	42395.277344	22698.218750	52.727314
544.481079	722.668274	41192.460938	22058.025391	52.719215
544.827637	726.829285	39689.691406	21235.939453	52.637581
545.174072	723.857117	38105.480469	20392.900391	52.616875
545.520508	723.485596	36716.839844	19601.355469	52.448204
545.866943	718.730225	35478.957031	18961.830078	52.482685
546.213318	722.296692	34539.097656	18450.777344	52.425068
546.559631	723.262695	33726.527344	18062.396484	52.537628
546.905823	723.337097	33061.441406	17704.630859	52.511715
547.252136	720.736389	32523.861328	17420.273438	52.509106
547.598389	718.507324	32056.275391	17138.294922	52.396160
547.944458	716.575500	31740.859375	16937.455078	52.284462
548.290588	715.089355	31368.306641	16702.285156	52.155033
548.636658	719.473328	30905.771484	16471.427734	52.182461
548.982727	726.680664	30299.685547	16160.915039	52.190281
549.328735	730.841614	29731.789063	15859.320313	52.165462
549.674622	726.903503	29099.916016	15510.321289	52.103802
550.020569	726.531982	28502.748047	15185.916992	52.056709
550.366455	729.578430	27778.072266	14821.015625	52.096939
550.712280	728.538147	27131.341797	14469.711914	52.044376
551.058044	726.903503	26562.703125	14200.364258	52.150356
551.403748	721.405090	26057.443359	13968.913086	52.287209
551.749512	723.782776	25730.140625	13813.543945	52.345730
552.095154	722.371094	25497.275391	13666.424805	52.246635
552.440735	732.699158	25416.880859	13584.247070	52.063900
552.786316	733.219238	25338.492188	13525.843750	51.991394
553.131897	732.624817	25334.330078	13508.606445	51.931286
553.477417	717.318420	25356.396484	13521.980469	51.968918
553.822815	716.575439	25389.833984	13549.473633	52.011368
554.168213	718.061523	25414.650391	13538.997070	51.913788
554.513672	721.330872	25383.517578	13490.921875	51.778015
554.859009	719.324646	25273.177734	13446.637695	51.834282
555.204285	719.621887	25099.906250	13387.864258	51.961010
555.549500	715.758118	24898.544922	13319.432617	52.118370
555.894714	724.302917	24720.218750	13202.331055	52.000633
556.239990	722.816895	24462.685547	13072.448242	52.020638
556.585022	730.395752	24209.015625	12946.579102	52.031097
556.930115	724.525879	23925.552734	12812.909180	52.102791
557.275146	728.538269	23680.203125	12687.635742	52.105579
557.620178	724.377258	23486.125000	12589.109375	52.125751
557.965149	723.039734	23303.193359	12488.875000	52.106972
558.310059	720.439148	23138.312500	12389.161133	52.050976
558.654968	723.039795	22969.201172	12294.648438	52.016201
558.999756	718.210144	22886.130859	12236.098633	51.957462
559.344604	722.222473	22848.013672	12204.965820	51.897549
559.689331	724.971680	22796.890625	12158.377930	51.800694
560.033997	729.578430	22684.916016	12114.612305	51.855427
560.378723	725.789001	22645.015625	12125.237305	52.006618
560.723389	720.736389	22634.687500	12122.934570	52.031685
561.067932	718.433044	22713.896484	12132.371094	51.892239
561.412476	721.627991	22689.599609	12088.829102	51.744431
561.757019	726.011902	22717.460938	12068.026367	51.574657
562.101501	731.956055	22710.179688	12070.403320	51.589462
562.445862	730.098450	22733.437500	12085.262695	51.606548
562.790222	728.389465	22733.958984	12100.346680	51.677628
563.134644	728.463806	22720.955078	12124.122070	51.816128
563.478943	734.036438	22735.146484	12108.296875	51.698578
563.823181	727.200684	22770.664063	12126.500977	51.712841
564.167358	727.349304	22807.740234	12129.622070	51.639812
564.511536	721.999512	22849.796875	12165.734375	51.716557
564.855774	731.956055	22830.476563	12178.959961	51.799870
565.199768	729.132568	22896.531250	12194.117188	51.720028
565.543823	721.850891	22951.960938	12248.135742	51.849880
565.887817	717.912903	23140.244141	12304.605469	51.674786
566.231812	719.919128	23267.525391	12385.372070	51.736992
566.575745	728.315247	23499.646484	12449.421875	51.473083
566.919617	724.154297	23689.787109	12527.141602	51.394131
567.263428	725.714661	23885.351563	12612.664063	51.326149
567.607239	721.702332	24058.404297	12718.174805	51.406036
567.950989	724.525818	24132.408203	12785.566406	51.525555
568.294678	719.844727	24209.757813	12823.239258	51.525921
568.638367	717.689941	24096.521484	12777.691406	51.585136
568.981995	716.129639	24022.218750	12708.886719	51.457611
569.325623	726.234802	23867.000000	12610.137695	51.354839
569.669128	733.813660	23757.923828	12560.355469	51.365906
570.012573	734.482422	23614.000000	12479.885742	51.335888
570.356140	727.200745	23580.562500	12438.348633	51.244747
570.699524	717.987122	23511.906250	12375.266602	51.142056
571.042908	723.782776	23520.677734	12429.953125	51.349846
571.386230	718.358704	23580.640625	12487.166992	51.476967
571.729492	727.275085	23690.310547	12573.877930	51.589882
572.072815	721.850891	23848.646484	12627.003906	51.477749
572.416016	726.086243	23908.978516	12649.889648	51.433632
572.759094	723.336975	24048.671875	12686.075195	51.286461
573.102234	722.816895	24117.548828	12698.335938	51.188957
573.445374	718.878906	24194.376953	12719.362305	51.119186
573.788391	715.906738	24226.177734	12742.174805	51.153248
574.131409	717.169861	24279.083984	12744.997070	51.047752
574.474365	719.250305	24297.138672	12751.015625	51.029869
574.817261	721.256531	24192.890625	12678.570313	50.943676
575.160156	721.330811	24023.630859	12622.843750	51.074409
575.502930	718.433044	23805.775391	12527.437500	51.149261
575.845703	720.810730	23636.734375	12423.489258	51.067890
576.188477	735.002502	23419.177734	12290.635742	50.941383
576.531250	734.036621	23223.242188	12154.215820	50.780716
576.873901	728.389587	22974.548828	12043.727539	50.864231
577.216431	715.609558	22722.439453	11946.987305	51.035873
577.559082	716.649719	22459.705078	11833.823242	51.129768
577.901611	717.541321	22224.017578	11695.397461	51.044422
578.244080	718.061523	22005.345703	11536.760742	50.822353
578.586487	726.977844	21728.271484	11392.464844	50.784908
578.928955	767.472839	21454.093750	11277.221680	50.804569
579.271301	763.460449	21100.857422	11118.065430	50.914116
579.613647	755.658691	20740.341797	10932.605469	50.923737
579.955872	716.278259	20392.455078	10713.561523	50.809071
580.298157	717.912903	20104.978516	10557.823242	50.755024
580.640320	721.033508	19884.968750	10432.623047	50.676384
580.982483	723.559875	19662.728516	10336.549805	50.757195
581.324524	723.336975	19465.677734	10232.896484	50.738380
581.666626	729.058289	19282.892578	10167.361328	50.869823
582.008728	727.646484	19133.544922	10081.096680	50.817677
582.350647	730.470032	19011.169922	10031.015625	50.876312
582.692566	727.423645	18953.435547	9970.607422	50.714241
583.034424	723.782776	18910.042969	9950.694336	50.735619
583.376343	720.959290	18843.023438	9927.066406	50.800545
583.718201	719.027527	18774.662109	9883.004883	50.754116
584.059937	719.993347	18675.466797	9840.875000	50.797226
584.401611	715.015137	18606.218750	9777.420898	50.652863
584.743347	712.191589	18529.685547	9744.653320	50.694344
585.085022	707.882019	18476.189453	9689.817383	50.550320
585.426514	715.015137	18363.916016	9642.338867	50.582893
585.768127	714.643555	18261.898438	9605.782227	50.669685
586.109619	714.420654	18156.537109	9582.153320	50.840916
586.451172	708.625061	18144.873047	9546.190430	50.685017
586.792542	711.448547	18121.466797	9493.956055	50.445141
587.133850	721.999573	18121.914063	9456.432617	50.198135
587.475220	725.045959	18100.216797	9462.081055	50.284603
587.816589	725.491760	18054.966797	9484.445313	50.543674
588.157776	722.668274	18072.353516	9506.141602	50.626125
588.498962	729.132629	18123.400391	9507.627930	50.467747
588.840210	720.142029	18153.492188	9514.091797	50.443260
589.181335	726.754883	18217.320313	9532.593750	50.346218
589.522400	724.377197	18224.525391	9552.953125	50.448578
589.863403	729.875671	18306.408203	9563.875000	50.260189
590.204407	726.754883	18288.576172	9563.577148	50.318375
590.545410	729.132568	18367.039063	9583.637695	50.201565
590.886353	741.987000	18389.849609	9615.291992	50.279766
591.227112	737.825989	18399.210938	9606.747070	50.216454
591.567932	732.179016	18358.269531	9572.717773	50.155987
591.908752	728.240967	18278.171875	9493.064453	49.942207
592.249512	730.470032	18282.705078	9493.436523	49.925079
592.590149	731.436035	18207.064453	9451.008789	49.895615
592.930786	729.504150	18162.111328	9436.519531	49.946720
593.271423	723.559875	18046.568359	9355.827148	49.831230
593.612000	723.411316	17934.818359	9327.666992	49.991592
593.952576	718.804504	17897.814453	9301.808594	49.962158
594.292969	719.250305	17882.732422	9312.136719	50.064938
594.633484	717.541321	17962.904297	9324.396484	49.908230
594.973877	718.358704	18033.791016	9345.870117	49.825565
595.314209	728.761169	18145.615234	9385.250977	49.701801
595.654480	729.652771	18286.642578	9474.859375	49.810398
595.994812	731.361755	18443.496094	9558.599609	49.837234
596.335022	725.566101	18642.626953	9640.480469	49.756565
596.675171	727.275085	18764.037109	9691.230469	49.698250
597.015320	722.519714	18923.044922	9768.727539	49.703003
597.355408	728.315247	19015.031250	9835.376953	49.801514
597.695496	722.073914	19173.148438	9882.188477	49.645424
598.035461	720.142029	19187.044922	9878.175781	49.591610
598.375366	711.299988	19227.539063	9871.489258	49.471115
598.715271	720.810730	19185.484375	9852.245117	49.453537
599.055176	730.841492	19076.556641	9793.618164	49.399963
599.395081	730.098450	18905.212891	9723.700195	49.483051
599.734802	731.956055	18651.990234	9579.404297	49.371822
600.074524	726.680603	18374.691406	9461.633789	49.495396
600.414246	730.395691	18018.560547	9278.848633	49.446854
600.753906	728.166687	17672.457031	9119.767578	49.524647
601.093506	726.531982	17320.412109	8946.715820	49.537437
601.433044	728.761047	17075.287109	8808.958984	49.430672
601.772583	732.996399	16888.710938	8702.483398	49.329212
602.112122	739.014893	16850.072266	8657.010742	49.146347
602.451538	730.395813	16836.402344	8663.399414	49.254936
602.790894	728.315369	16900.005859	8727.597656	49.464725
603.130310	728.315247	16994.962891	8795.733398	49.594841
603.469604	732.104736	17149.812500	8849.007813	49.439934
603.808838	720.513489	17357.933594	8938.246094	49.393070
604.148010	723.708496	17604.693359	9064.040039	49.406670
604.487305	727.943787	17835.626953	9190.726563	49.467731
604.826416	734.110840	18046.349609	9291.035156	49.427021
605.165527	725.789001	18246.296875	9358.426758	49.271618
605.504456	723.485596	18442.380859	9433.918945	49.159012
605.843445	726.309082	18580.064453	9488.754883	49.079002
606.182434	729.504150	18687.208984	9507.329102	48.880550
606.521423	732.104736	18645.228516	9504.358398	48.971104
606.860229	729.578430	18548.337891	9456.061523	48.973572
607.199036	730.024231	18376.994141	9391.864258	49.084003
607.537903	728.761047	18198.966797	9275.877930	48.923965
607.876648	727.572266	17945.294922	9137.452148	48.844322
608.215271	720.885010	17642.212891	8973.614258	48.771168
608.553955	717.615723	17330.960938	8831.993164	48.842525
608.892578	725.937683	17085.689453	8700.997070	48.748047
609.231140	726.234863	16892.947266	8619.116211	48.821808
609.569641	725.491699	16780.304688	8568.440430	48.851078
609.908081	716.352539	16749.988281	8558.112305	48.908180
610.246521	724.525818	16790.185547	8549.344727	48.705242
610.584961	728.463867	16829.123047	8541.618164	48.526920
610.923340	726.754883	16829.492188	8527.277344	48.442215
611.261597	723.559875	16762.546875	8498.819336	48.477245
611.599854	718.135742	16723.091797	8466.944336	48.415058
611.938110	721.627991	16651.166016	8420.727539	48.332222
612.276245	720.364807	16511.031250	8351.105469	48.324375
612.614319	723.782776	16244.061523	8227.540039	48.348083
612.952393	723.782898	15944.843750	8078.935059	48.322208
613.290466	728.612488	15622.742188	7929.214844	48.345238
613.628479	722.891174	15321.518555	7805.353027	48.514576
613.966370	727.795105	15020.666992	7683.718750	48.667084
614.304260	720.959290	14788.543945	7554.877441	48.579185
614.642151	722.073914	14581.686523	7431.386719	48.409096
614.979980	715.015137	14417.699219	7330.260254	48.277004
615.317749	714.420654	14259.210938	7260.044434	48.325771
615.655396	723.114075	14167.968750	7200.750488	48.179295
615.993164	718.953125	14052.575195	7177.643066	48.439125
616.330811	724.823059	14006.879883	7160.925293	48.457119
616.668396	711.820129	13922.916992	7140.863281	48.663960
617.005859	723.559875	13938.745117	7108.764160	48.317173
617.343445	720.662109	13938.000977	7079.117676	48.106926
617.680908	730.990173	13984.515625	7075.253906	47.868500
618.018311	726.531982	13994.843750	7070.052246	47.809555
618.355652	724.005676	14019.140625	7074.361816	47.764511
618.692993	725.789001	14038.980469	7085.804688	47.772285
619.030273	727.497864	14045.370117	7101.482910	47.860386
619.367554	733.665039	14033.182617	7114.187988	47.975597
619.704712	729.875671	13996.625977	7098.139160	48.001686
620.041870	733.144958	13989.566406	7087.438965	47.933704
620.379028	727.572266	13983.920898	7074.584473	47.879040
620.716064	730.544373	13966.534180	7069.903809	47.894863
621.053040	720.662109	13905.233398	7021.161621	47.786911
621.389954	718.284363	13814.137695	6991.589355	47.902988
621.726929	714.494934	13728.765625	6944.109375	47.867565
622.063843	719.176025	13662.188477	6931.626465	47.998486
622.400635	723.782776	13623.254883	6888.679688	47.791855
622.737427	727.275085	13600.444336	6873.595703	47.745205
623.074219	724.600159	13540.928711	6838.005371	47.700130
623.410889	728.092346	13486.539063	6810.216309	47.671352
623.747559	722.891174	13466.328125	6785.548340	47.574745
624.084167	734.333801	13464.768555	6770.910156	47.418461
624.420715	725.343201	13444.112305	6774.922363	47.564186
624.757324	727.646545	13421.151367	6747.727051	47.426464
625.093750	723.039734	13433.411133	6754.191406	47.450634
625.430176	728.686768	13456.073242	6757.312500	47.367352
625.766602	736.340027	13462.463867	6782.872559	47.512760
626.102905	729.652649	13516.036133	6792.829590	47.419010
626.439209	724.377197	13601.929688	6813.411621	47.284096
626.775452	716.055359	13714.276367	6847.664551	47.172684
627.111694	715.237976	13789.171875	6879.688965	47.150700
627.447876	718.581604	13858.424805	6908.295410	47.106453
627.783997	716.203918	13925.445313	6933.781250	47.069904
628.120056	719.324646	14022.112305	6968.927246	46.979645
628.456055	721.627991	14068.625977	6982.821777	46.910877
628.792053	721.182190	14053.022461	6960.976563	46.803699
629.128052	719.398926	13962.596680	6931.774902	46.909939
629.463928	718.730225	13858.200195	6894.847168	47.004311
629.799744	726.011902	13752.690430	6873.001953	47.187702
630.135559	722.891113	13635.812500	6798.625000	47.051582
630.471375	718.433044	13492.706055	6699.431152	46.820652
630.807068	721.256531	13346.477539	6611.530762	46.654823
631.142700	724.080078	13236.731445	6551.419434	46.571579
631.478333	729.652771	13102.838867	6507.580566	46.697166
631.813965	719.993408	12986.109375	6434.986816	46.591709
632.149475	715.683838	12792.997070	6364.473145	46.771900
632.484924	717.615723	12713.641602	6307.706543	46.599525
632.820435	723.485596	12605.828125	6274.121582	46.713310
633.155884	732.699158	12558.942383	6246.853027	46.626419
633.491150	742.284180	12498.534180	6228.574219	46.667007
633.826477	745.776428	12454.027344	6189.788574	46.497227
634.161804	736.265686	12386.040039	6163.633301	46.587749
634.497009	722.593994	12286.252930	6106.123535	46.555588
634.832153	708.253601	12186.834961	6070.160156	46.712280
635.167297	707.882080	12130.586914	6044.897949	46.722870
635.502380	711.597168	12080.136719	6007.671875	46.585358
635.837463	718.878845	12008.359375	5973.418457	46.543678
636.172424	725.343079	11925.289063	5915.239746	46.338585
636.507324	726.309082	11832.485352	5886.484375	46.462215
636.842224	727.720886	11761.229492	5838.187500	46.317692
637.177124	730.470032	11660.401367	5774.733887	46.150917
637.511963	726.309082	11538.840820	5715.959473	46.146923
637.846741	721.330811	11405.020508	5655.997559	46.188789
638.181396	709.813904	11251.808594	5610.153809	46.483990
638.516113	707.882019	11151.278320	5547.144531	46.338017
638.850769	717.689941	11029.421875	5496.692871	46.345295
639.185303	726.532043	10980.827148	5444.085938	46.005638
639.519836	725.566101	10914.475586	5402.699219	45.904160
639.854370	715.683838	10826.872070	5368.148438	46.013035
640.188843	717.764343	10715.715820	5326.019043	46.091991
640.523254	720.067688	10588.954102	5291.022949	46.316826
640.857605	723.931396	10525.575195	5241.239746	46.087257
641.191895	716.055359	10454.319336	5220.138184	46.251396
641.526184	716.352539	10411.965820	5179.940430	46.037189
641.860413	712.340149	10340.040039	5154.008301	46.134258
642.194580	713.454773	10264.995117	5115.593750	46.088264
642.528748	715.312317	10165.206055	5081.785645	46.206585
642.862793	720.662109	10119.956055	5036.312500	45.914623
643.196838	723.039795	10083.547852	4995.892090	45.647659
643.530823	730.544373	10049.815430	4985.563965	45.658283
643.864746	730.247131	9970.831055	4957.997559	45.751984
644.198669	736.117004	9907.896484	4932.660645	45.754955
644.532532	728.983948	9873.642578	4902.270996	45.636337
644.866333	732.327637	9840.354492	4903.459473	45.796215
645.200073	732.179016	9838.794922	4896.103027	45.724159
645.533813	729.058289	9816.503906	4871.063477	45.579426
645.867554	723.411316	9814.051758	4853.379395	45.430992
646.201172	721.033508	9775.636719	4834.729004	45.432087
646.534729	724.080017	9797.333008	4840.673828	45.370647
646.868225	721.627991	9813.011719	4836.512695	45.261368
647.201782	712.265930	9816.950195	4836.289551	45.295620
647.535217	713.008972	9790.944336	4837.850098	45.438099
647.868591	718.953125	9795.253906	4848.252441	45.495399
648.201965	729.281189	9812.268555	4839.930664	45.256580
648.535278	728.612488	9807.364258	4818.011230	45.043621
648.868591	728.761047	9783.736328	4792.599609	44.879620
649.201782	720.662109	9746.734375	4784.649414	45.024982
649.534912	722.742493	9721.992188	4774.544434	45.023773
649.868103	717.392761	9695.390625	4766.891113	45.104691
650.201172	719.993408	9674.437500	4749.207031	44.996803
650.534180	718.953125	9636.541992	4733.306152	45.016125
650.867188	720.959290	9607.563477	4702.173340	44.800171
651.200134	724.080017	9568.407227	4696.154785	44.910988
651.533020	721.107910	9532.816406	4675.721191	44.879074
651.865845	730.544434	9493.659180	4666.284668	44.912571
652.198608	735.225403	9461.411133	4635.449219	44.695633
652.531433	735.968445	9429.015625	4612.489746	44.593353
652.864136	729.058289	9357.833008	4590.273438	44.748127
653.196777	1342.947388	9988.440430	5225.561523	44.909111
653.529358	1369.473511	9957.307617	5224.447266	44.888779
653.861938	1370.216431	9914.658203	5191.011230	44.716732
654.194519	754.246887	9174.602539	4491.971191	44.389153
654.526978	740.872375	9110.851563	4453.259277	44.353596
654.859375	737.083008	9049.774414	4441.593750	44.564518
655.191833	733.665100	9017.675781	4444.565918	44.795944
655.524170	725.863281	8954.145508	4394.485840	44.585522
655.856445	730.395752	8930.963867	4359.637695	44.255981
656.188660	751.646301	8909.194336	4343.291016	44.028484
656.520874	750.606140	8872.414063	4332.220703	44.098732
656.853088	748.897156	8860.154297	4327.019043	44.113037
657.185181	726.532043	8800.860352	4312.901367	44.416939
657.517212	720.513489	8821.665039	4316.988281	44.394615
657.849243	719.176025	8854.358398	4337.124023	44.472855
658.181274	719.919128	8941.738281	4368.702637	44.379269
658.513123	716.278259	8977.032227	4403.550781	44.636028
658.844971	712.265869	9031.049805	4411.501465	44.468464
659.176819	717.764343	9081.055664	4425.321289	44.331314
659.508667	724.525879	9172.299805	4445.977051	44.052448
659.840393	726.977844	9257.227539	4484.094238	44.044624
660.172058	729.206848	9327.741211	4503.115723	43.890144
660.503662	725.417480	9383.914063	4541.976563	44.078777
660.835266	728.835449	9434.290039	4543.982910	43.824791
661.166931	719.844727	9412.593750	4530.979492	43.842686
661.498413	721.850891	9368.829102	4495.760254	43.644257
661.829773	721.405090	9270.081055	4447.983887	43.592468
662.161194	728.092346	9165.314453	4396.565918	43.479641
662.492615	728.389465	9041.452148	4337.495605	43.414883
662.823975	741.020996	8878.803711	4298.634766	43.717236
663.155212	738.940613	8737.405273	4241.421875	43.789417
663.486450	740.575256	8580.032227	4170.017090	43.745911
663.817627	731.287415	8454.385742	4085.535156	43.431377
664.148743	729.727051	8314.176758	4007.071533	43.211369
664.479858	724.005676	8211.862305	3950.452881	43.089066
664.810913	712.191589	8110.513184	3904.236328	43.145523
665.141907	713.751953	8045.275391	3879.642334	43.181889
665.472778	717.467102	7966.291504	3858.168945	43.327053
665.803711	732.104736	7904.769531	3852.819092	43.508434
666.134583	730.544434	7853.722656	3828.967773	43.497765
666.465454	729.950012	7811.667480	3813.141357	43.537342
666.796143	719.101746	7779.865723	3778.516357	43.329792
667.126831	722.891174	7754.157715	3765.661865	43.274860
667.457458	729.132629	7736.324707	3742.999756	43.011055
667.788147	735.522644	7713.885254	3737.947021	43.024765
668.118774	731.584656	7681.711426	3726.058594	43.085167
668.449219	720.290588	7685.576172	3716.473389	43.015938
668.779663	720.736328	7691.074219	3709.489258	42.878162
669.110107	723.262695	7668.932129	3695.074219	42.786537
669.440552	732.624817	7618.480469	3684.374756	42.866859
669.770874	729.504150	7577.911621	3658.368408	42.767086
670.101135	724.823059	7561.268066	3637.341064	42.602818
670.431396	727.497864	7528.723145	3623.818115	42.585274
670.761597	729.058350	7469.875488	3612.449951	42.775105
671.091797	731.584656	7443.869629	3610.220703	42.886082
671.421875	720.067688	7411.845215	3582.951416	42.782112
671.751892	717.764343	7412.364746	3557.985596	42.425552
672.081909	717.764343	7369.863770	3541.936279	42.455345
672.411865	720.141907	7311.907715	3532.202393	42.660202
672.741821	716.352539	7256.329590	3504.264893	42.628780
673.071716	714.272156	7203.871582	3476.326904	42.561249
673.401550	717.169922	7182.250000	3444.822510	42.190548
673.731262	723.485596	7141.902832	3426.915771	42.119888
674.060974	727.052063	7130.460449	3406.408203	41.842659
674.390625	722.445313	7098.063965	3401.801514	42.025040
674.720276	716.798340	7061.656250	3396.302979	42.231121
675.049927	719.250305	7015.811035	3377.950439	42.224644
675.379395	726.383362	6991.886230	3352.539063	41.914524
675.708923	732.550537	6940.468750	3323.189453	41.731205
676.038330	733.219238	6901.459473	3316.576172	41.881588
676.367737	735.002502	6844.321777	3290.347412	41.827000
676.697083	741.095398	6801.151855	3290.421875	42.067699
677.026428	740.649597	6753.077637	3260.700439	41.914028
677.355652	731.287354	6733.238281	3259.437500	42.122139
677.684875	728.909668	6762.216309	3248.069092	41.754208
678.013977	718.655945	6739.554688	3239.078857	41.861237
678.343079	719.844727	6741.560547	3219.165283	41.505123
678.672180	708.179199	6725.808594	3216.044922	41.675312
679.001221	704.166809	6773.807129	3228.378906	41.587509
679.330139	709.145203	6781.683594	3248.886475	41.823387
679.659058	711.522766	6800.927734	3252.007080	41.719749
679.987976	720.216248	6823.887207	3260.848877	41.624664
680.316772	714.494934	6881.546387	3270.954346	41.453514
680.645630	711.820068	6925.087891	3275.783936	41.265949
680.974304	717.467102	6970.189941	3293.839844	41.204014
681.302979	722.519714	6996.493652	3306.694092	41.188793
681.631653	728.240967	7036.468262	3325.195313	41.167736
681.960266	721.553711	7078.820313	3327.350342	40.989262
682.288757	720.290588	7098.658691	3327.870361	40.881615
682.617249	717.244141	7088.107910	3334.557617	41.082554
682.945679	721.925293	7060.467285	3322.149170	41.022430
683.274109	733.070618	7037.656250	3317.616211	40.994698
683.602478	745.033386	7001.173340	3285.963135	40.614975
683.930725	733.516418	6926.500000	3256.911133	40.746029
684.259033	726.531982	6839.416504	3224.143799	40.858154
684.587280	721.033630	6775.665527	3188.701172	40.756691
684.915344	731.436035	6718.674316	3155.116211	40.480770
685.243469	733.962341	6664.359375	3121.828857	40.264866
685.571533	735.076843	6584.186035	3085.940430	40.191822
685.899536	733.590820	6517.611328	3069.519531	40.385899
686.227539	732.178955	6444.869629	3031.773682	40.254147
686.555420	733.442200	6408.609863	3027.761719	40.427345
686.883301	730.395752	6394.120605	2999.749268	40.068218
687.211121	725.937683	6400.957031	2995.959961	40.000256
687.538940	713.751953	6396.869629	2989.124023	40.037392
687.866638	718.061523	6373.539063	2986.523438	40.110882
688.194336	717.615662	6363.804688	2983.031250	40.122913
688.521973	725.268860	6344.783691	2969.210938	39.931244
688.849609	718.210144	6331.854980	2974.709229	40.196682
689.177063	716.798340	6328.363281	2972.926514	40.204971
689.504578	717.541321	6313.799316	2966.907471	40.194115
689.832031	715.981018	6279.769043	2954.276123	40.229698
690.159485	715.386658	6201.676270	2922.326172	40.226448
690.486816	706.024475	6115.410645	2879.973633	40.188465
690.814087	719.919128	6041.925293	2846.388672	39.956161
691.141296	721.330811	5934.261230	2813.249268	40.129414
691.468506	722.073914	5831.648926	2775.578125	40.189331
691.795715	716.872620	5719.451660	2722.302979	40.087929
692.122803	720.959290	5645.595215	2693.844971	40.061558
692.449829	730.990173	5592.691406	2668.804932	39.858780
692.776855	730.767273	5552.122559	2649.560547	39.797794
693.103821	723.336914	5502.116699	2605.350586	39.382725
693.430664	715.460876	5428.036621	2581.425049	39.595421
693.757568	710.482666	5344.892090	2556.905273	39.841595
694.084351	715.906738	5282.552246	2542.862061	40.006508
694.411133	722.891174	5256.843262	2527.184326	39.795155
694.737854	726.234863	5214.342285	2490.107178	39.301025
695.064575	722.519714	5198.292969	2481.190674	39.293118
695.391174	720.142029	5153.190918	2459.568604	39.237701
695.717773	729.132629	5136.621582	2455.779297	39.175297
696.044250	721.776611	5112.770020	2447.159912	39.293690
696.370789	720.959290	5115.519531	2445.005127	39.231365
696.697205	701.417725	5115.593262	2459.568604	39.829651
697.023621	708.699280	5146.726074	2468.113525	39.644066
697.349915	717.467041	5194.726074	2490.404541	39.598728
697.676208	728.761047	5280.174316	2507.122559	39.072735
698.002380	729.429871	5363.616211	2526.812744	38.785294
698.328674	724.451477	5459.317871	2549.400635	38.542782
698.654724	721.553711	5550.413574	2587.146240	38.634224
698.980896	724.525879	5634.078125	2637.672119	38.967834
699.306946	729.429871	5701.173340	2667.170654	38.975075
699.632935	737.603027	5769.160156	2692.433594	38.851402
699.958862	730.915833	5802.894043	2685.300537	38.532990
700.284729	720.810730	5816.268066	2680.322266	38.456047
700.610596	715.535156	5780.603027	2644.359619	38.080921
700.936340	726.829285	5709.792969	2617.833740	37.949390
701.262146	728.686768	5603.020020	2590.564697	38.197594
701.587830	728.835388	5501.818848	2558.985840	38.343952
701.913513	727.274963	5387.913086	2509.648682	38.243126
702.239075	727.646484	5261.375488	2451.172607	38.015640
702.564697	723.782776	5118.714355	2391.507324	37.946541
702.890137	716.129639	4995.223145	2330.950684	37.737453
703.215698	716.724121	4898.927246	2292.016113	37.666557
703.541016	713.974854	4804.859863	2252.709961	37.613747
703.866455	719.473206	4731.820313	2225.218018	37.527782
704.191711	719.473206	4645.777832	2194.456787	37.566715
704.517029	727.275085	4575.561523	2164.884033	37.357117
704.842163	729.429871	4519.982910	2150.692383	37.494858
705.167419	723.931396	4477.110840	2130.110352	37.466339
705.492493	720.067688	4436.243652	2115.992920	37.563488
705.817566	708.327820	4370.857910	2087.609131	37.659248
706.142578	710.556946	4345.148926	2073.566162	37.501026
706.467590	718.432922	4327.910645	2070.296875	37.453175
706.792480	724.674377	4323.601074	2083.374023	37.752914
707.117371	720.736328	4323.972656	2074.234619	37.563408
707.442200	718.730225	4327.464355	2075.200684	37.588539
707.766907	714.792175	4327.167480	2049.194824	36.939754
708.091675	718.358704	4304.876465	2042.359009	36.916039
708.416321	710.854065	4280.653809	2020.142456	36.676800
708.741028	716.203918	4290.981934	2030.173218	36.756664
709.065552	725.937561	4311.043457	2033.368164	36.468395
709.390137	726.754883	4349.384277	2047.337280	36.453697
709.714600	726.086182	4374.572754	2052.241211	36.348087
710.039063	712.117249	4406.522949	2063.238037	36.572075
710.363403	723.039795	4445.680176	2081.293701	36.486305
710.687744	722.073792	4486.546875	2099.274658	36.584160
711.012085	728.240906	4533.282715	2115.249756	36.451866
711.336304	724.674377	4567.165527	2135.460205	36.715397
711.660461	726.903503	4618.285645	2144.227783	36.422131
711.984619	729.949951	4648.378418	2149.503174	36.227615
712.308716	725.417480	4669.926270	2136.054443	35.762043
712.632751	722.668274	4659.226563	2130.035889	35.751221
712.956726	726.606262	4660.861328	2121.862549	35.464310
713.280701	725.343079	4623.783691	2116.512939	35.685291
713.604553	734.556641	4578.533691	2105.515869	35.665127
713.928467	731.287354	4508.837891	2101.132080	36.262775
714.252258	734.779602	4444.120117	2074.829102	36.126354
714.575989	728.315247	4385.791992	2057.071045	36.329849
714.899719	727.720886	4311.638184	2016.278687	35.953896
715.223267	724.525818	4276.493652	2000.154907	35.913307
715.546936	720.290527	4231.391113	1977.938477	35.819195
715.870422	720.513489	4191.788086	1978.012817	36.225864
716.193970	718.135803	4144.605957	1957.876587	36.181278
716.517395	723.708496	4117.336426	1943.313110	35.938076
716.840820	718.135742	4091.776367	1922.285645	35.692890
717.164124	723.039795	4060.940674	1903.784302	35.373863
717.487488	720.513489	4029.139404	1894.273438	35.475754
717.810730	718.655945	3993.622803	1873.691772	35.268627
718.133972	718.878845	3950.452881	1856.602051	35.206470
718.457092	717.244141	3893.239502	1828.589966	34.992046
718.780212	716.203918	3850.589844	1813.432251	35.006165
719.103210	714.123535	3798.875244	1803.104126	35.302052
719.426208	711.745789	3759.643311	1793.296265	35.485134
719.749207	728.538269	3719.965820	1781.556519	35.201199
720.072083	728.092346	3687.049805	1765.061157	35.045071
720.394958	728.315247	3647.000732	1737.049194	34.561241
720.717773	720.662109	3591.570313	1711.637329	34.517830
721.040527	717.021240	3535.769287	1688.900879	34.479126
721.363281	720.587830	3497.057617	1671.885620	34.262856
721.685913	724.897278	3470.977295	1663.117798	34.165810
722.008545	727.349304	3448.240967	1656.504883	34.148937
722.331055	718.804504	3412.500977	1646.845581	34.452324
722.653503	709.070862	3369.628174	1635.031372	34.803253
722.976013	705.875793	3360.860596	1629.830200	34.800739
723.298401	719.621887	3342.730713	1628.121216	34.634449
723.620789	723.931458	3336.935303	1624.257446	34.455593
723.943115	731.287354	3296.365967	1610.437134	34.273796
724.265381	722.891174	3291.833252	1601.743774	34.210682
724.587585	723.559875	3284.923584	1601.223633	34.265488
724.909790	724.228699	3302.756104	1609.991333	34.351494
725.231873	732.179016	3296.068604	1614.969727	34.431698
725.553894	732.253357	3305.133545	1601.966797	33.803108
725.875916	929.750000	3525.589844	1800.057617	33.527016
726.197937	931.013184	3533.020264	1802.063843	33.476105
726.519775	924.846008	3531.682617	1800.206421	33.579411
726.841675	720.290527	3323.337891	1594.090454	33.568344
727.163513	715.981018	3332.551514	1590.003906	33.403374
727.485291	721.182129	3349.120361	1603.006958	33.555767
727.806946	724.748718	3371.411377	1622.325684	33.913540
728.128662	719.398926	3401.429932	1628.641479	33.901268
728.450256	721.405090	3424.463623	1635.254272	33.807968
728.771790	720.736328	3436.203369	1629.087280	33.451004
729.093323	725.789001	3443.931396	1639.043579	33.598484
729.414795	723.485535	3455.151123	1632.133423	33.263512
729.736145	722.222412	3457.974365	1640.752563	33.575054
730.057495	718.432922	3454.184814	1635.997192	33.539745
730.378845	721.330811	3457.008545	1639.563843	33.565102
730.700134	727.423645	3454.482422	1627.601196	33.009098
731.021301	733.144958	3459.237549	1625.817749	32.745506
731.342468	733.367859	3449.355469	1620.542358	32.664894
731.663574	725.268860	3454.705078	1616.529907	32.653667
731.984680	719.919128	3447.125977	1619.576294	32.988228
732.305664	709.516785	3453.144775	1618.238892	33.121185
732.626648	710.779846	3458.494873	1625.372070	33.285557
732.947571	712.414490	3458.791748	1615.712769	32.890541
733.268433	714.866516	3462.581055	1612.814941	32.679829
733.589233	722.965515	3462.878174	1608.059570	32.303734
733.909973	731.138855	3450.692627	1607.613647	32.228626
734.230713	741.541199	3420.526123	1591.638550	31.732069
734.551331	737.083008	3367.696533	1578.412598	31.982258
734.871948	726.457703	3328.390381	1559.465454	32.014961
735.192505	721.330811	3292.724854	1558.871094	32.571449
735.513062	723.114075	3239.375732	1530.413086	32.083267
735.833435	727.497986	3191.747803	1511.688843	31.822702
736.153931	727.349304	3145.308594	1486.277344	31.387131
736.474304	728.538147	3121.828857	1476.246460	31.241850
736.794617	731.956055	3101.172607	1467.998901	31.066931
737.114807	736.488586	3072.268799	1465.695435	31.218983
737.434998	732.550476	3054.956299	1461.460327	31.385983
737.755188	732.327576	3040.393311	1456.481934	31.374947
738.075256	728.092285	3035.860596	1452.246704	31.378992
738.395325	728.240967	3035.786377	1449.720337	31.266096
738.715271	729.949951	3045.520264	1456.407593	31.372730
739.035278	728.984070	3064.169922	1455.515991	31.112381
739.355164	729.801331	3078.510498	1462.574707	31.198982
739.675049	720.587830	3095.674072	1452.246582	30.805567
739.994873	718.210144	3107.042236	1454.921509	30.839815
740.314636	717.987305	3112.094971	1450.389038	30.591846
740.634277	717.690002	3099.835205	1446.599609	30.598873
740.953979	715.460938	3069.222656	1439.095093	30.743731
741.273499	713.528992	3050.126953	1424.457397	30.425791
741.593140	713.603333	3006.288330	1416.284180	30.648817
741.912598	718.358704	2969.285156	1400.457642	30.303030
742.232117	711.968567	2911.106445	1394.736328	31.047064
742.551453	711.597168	2876.704102	1373.337280	30.563854
742.870850	708.253479	2843.713623	1369.696411	30.974257
743.190063	715.312256	2812.283447	1353.423950	30.430161
743.509338	720.141907	2783.528564	1355.504517	30.792221
743.828552	722.445313	2755.293701	1350.080444	30.874664
744.147705	722.296692	2740.135742	1351.194946	31.166918
744.466797	720.884949	2720.445557	1348.520142	31.388657
744.785828	723.485596	2699.120361	1331.802124	30.790941
745.104858	727.275085	2667.541748	1315.975586	30.341217
745.423706	734.408203	2647.703125	1306.836304	29.918446
745.742615	734.556702	2637.152100	1296.211060	29.520430
746.061401	731.956238	2636.929199	1293.313110	29.467972
746.380249	724.005798	2615.604492	1282.093384	29.503489
746.698975	724.674377	2601.115234	1282.242065	29.714108
747.017639	724.897278	2579.047607	1274.960327	29.666582
747.336304	724.823059	2555.493408	1276.149292	30.116083
747.654907	722.891113	2541.895996	1279.121216	30.578814
747.973389	720.587708	2541.524414	1280.830200	30.766718
748.291931	720.216309	2547.840088	1267.827271	29.963003
748.610352	724.823059	2556.162354	1255.864624	28.997442
748.928711	727.275085	2567.159180	1261.957397	29.060654
749.247070	728.538147	2574.218018	1263.369141	28.977451
749.565308	726.903564	2558.019775	1271.319458	29.731367
749.883545	729.949951	2533.574219	1257.945068	29.274118
750.201782	731.584656	2530.973633	1250.886230	28.859884
750.519836	724.005676	2521.982666	1236.471558	28.502359
750.837952	715.609436	2517.598877	1235.431396	28.847115
751.155884	710.482605	2493.896484	1235.282837	29.426722
751.473877	714.272156	2483.642822	1230.675903	29.185732
751.791809	716.649719	2469.376709	1220.793823	28.763412
752.109619	720.067688	2475.023682	1226.515015	28.858120
752.427490	719.324707	2469.079346	1226.143555	28.965137
752.745300	728.240967	2460.831787	1224.286011	28.630247
753.062988	729.281250	2445.302490	1205.561646	27.754925
753.380615	726.977783	2442.478760	1201.549316	27.663729
753.698303	721.999512	2438.837891	1199.394531	27.806637
754.015808	722.668213	2431.184814	1200.657715	27.976871
754.333374	726.680603	2413.575195	1199.988892	28.057966
754.650757	724.451477	2409.860107	1197.982788	28.095934
754.968262	721.702332	2405.104736	1188.620605	27.736582
755.285583	728.835388	2416.621826	1180.670288	26.770859
755.602905	734.853821	2404.733154	1178.887085	26.590738
755.920105	732.773438	2399.680664	1185.797119	27.177498
756.237305	727.572266	2391.804443	1184.088257	27.431028
756.554443	724.971680	2379.842041	1183.790894	27.725388
756.871582	722.668274	2365.575684	1179.184204	27.787075
757.188599	712.191589	2350.269287	1179.258423	28.513107
757.505615	709.516602	2364.386963	1181.710449	28.533585
757.822510	714.866455	2389.204102	1191.369751	28.459211
758.139465	718.655945	2413.798096	1199.766113	28.381702
758.456238	721.999512	2422.714600	1197.016846	27.930447
758.773010	726.606262	2437.723633	1205.412964	27.982107
759.089783	733.144958	2441.810303	1206.601929	27.709169
759.406433	727.646545	2452.510010	1209.722656	27.948652
759.723145	718.581604	2449.314941	1201.920776	27.926842
760.039673	717.095520	2457.116455	1201.623657	27.846109
760.356201	722.148132	2469.079346	1199.765991	27.340393
760.672668	728.686768	2472.868896	1193.747437	26.663538
760.989136	728.686768	2471.159912	1191.444092	26.557501
761.305481	723.337097	2452.955811	1189.958008	26.978254
761.621826	724.228699	2454.070313	1195.159302	27.223915
761.938049	727.275085	2461.797852	1201.697876	27.351778
762.254333	738.569031	2497.240234	1206.379028	26.600197
762.570496	731.733154	2528.075928	1219.159058	27.134348
762.886597	720.662109	2594.428223	1219.307739	26.611946
763.202637	711.820068	2665.461426	1243.827637	27.231588
763.518677	713.603333	2792.221924	1261.288696	26.348526
763.834656	719.696106	2929.681885	1303.789795	26.429749
764.150574	718.061462	3060.380615	1333.065063	26.256184
764.466370	719.844727	3155.859375	1357.213501	26.164406
764.782288	721.182190	3188.181396	1369.845093	26.293600
765.097961	727.275085	3222.137451	1376.829468	26.035681
765.413696	726.309082	3194.422607	1370.142212	26.086042
765.729309	723.708496	3134.534424	1347.108276	25.858349
766.044861	714.643616	3014.089844	1318.056030	26.241640
766.360474	713.677734	2872.766357	1282.985107	26.367949
766.675903	710.482666	2739.764404	1251.852173	26.677887
766.991394	713.677673	2615.827393	1217.152954	26.468752
767.306763	713.826355	2529.413086	1195.084961	26.507057
767.622131	718.284424	2440.547119	1168.558960	26.144360
767.937378	723.337097	2381.996582	1146.713867	25.525238
768.252625	727.052185	2314.901123	1128.286743	25.269064
768.567810	730.544250	2262.072021	1110.305542	24.796238
768.882996	731.436035	2214.221191	1093.587402	24.423725
769.197998	730.544434	2178.333008	1076.646362	23.905558
769.513062	724.674500	2153.961914	1067.135620	23.960270
769.828064	722.371094	2112.203613	1057.327637	24.100496
770.142944	719.250305	2084.042725	1047.742676	24.069035
770.457825	717.244141	2058.259766	1047.296875	24.612146
770.772705	716.129578	2033.590942	1045.885132	25.029617
771.087402	715.758118	2007.956665	1049.674438	25.840946
771.402100	717.169861	1979.349976	1036.671509	25.313475
771.716736	714.717957	1956.242065	1034.814087	25.782513
772.031372	714.197754	1933.876831	1027.903931	25.720387
772.345947	721.479431	1926.669434	1034.739746	25.992609
772.660461	728.686707	1919.907837	1028.201172	25.143480
772.974854	733.739319	1904.824585	1025.674805	24.928629
773.289246	730.767273	1887.066284	1027.012207	25.620096
773.603638	722.222412	1879.487305	1026.343384	26.279287
773.917908	718.581543	1875.177856	1020.176331	26.076063
774.232178	722.668213	1857.865234	1005.612976	24.924726
774.546265	723.634094	1838.472290	996.176575	24.446821
774.860474	720.587830	1824.131836	991.346924	24.535416
775.174561	713.454651	1810.831665	991.346863	25.323315
775.488586	718.210144	1802.955566	990.380859	25.090748
775.802551	721.627991	1788.392212	990.455261	25.200253
776.116516	729.429871	1783.414063	983.619324	24.117010
776.430359	724.377258	1764.466797	977.600830	24.346323
776.744202	728.761047	1759.116821	974.257263	23.826355
777.057922	715.535217	1747.599976	966.901184	24.355640
777.371704	717.987122	1740.318359	958.505066	23.526421
777.685303	716.426758	1729.916016	950.926270	23.137838
777.998962	726.011902	1724.491821	946.616699	22.094065
778.312500	723.634277	1719.216309	958.802307	23.621161
778.626038	723.857178	1709.110962	966.901184	24.668163
778.939453	724.897278	1701.680786	973.142761	25.414585
779.252869	731.807434	1710.374390	970.616394	24.403946
779.566223	731.138855	1710.225708	961.774414	23.556190
779.879578	726.977844	1715.946899	963.409119	23.906843
780.192749	721.182129	1703.166992	959.396790	24.258486
780.505920	728.835388	1703.984253	966.604187	24.382820
780.819031	729.504089	1690.015503	955.607361	23.539885
781.132141	749.268616	1702.572632	980.424377	24.247854
781.445190	745.702087	1698.931641	968.833252	23.407915
781.758118	754.395508	1695.736694	978.418213	23.798248
782.071045	734.259460	1674.560425	950.331787	22.979061
782.383911	729.652649	1656.579102	948.622864	23.623257
782.696838	719.547546	1638.449219	937.997559	23.772947
783.009583	718.135742	1620.616699	938.146179	24.378403
783.322266	710.928467	1611.700317	934.653870	24.837078
783.634888	708.625000	1610.734375	931.310242	24.684950
783.947510	712.043030	1607.762329	924.697327	23.741177
784.260132	720.290527	1602.412476	928.709778	23.627033
784.572571	726.457703	1594.907837	927.075134	23.100628
784.885010	728.315247	1583.168091	922.691162	22.737938
785.197449	731.213135	1568.530396	915.929688	22.060522
785.509766	727.498047	1557.756470	922.468262	23.483076
785.822083	728.315247	1553.446899	923.508484	23.656012
786.134277	725.937561	1546.462524	926.257629	24.413647
786.446533	732.550537	1540.369751	921.130859	23.344372
786.758606	730.024231	1542.747437	921.056458	23.505201
787.070740	727.423645	1561.397339	919.273254	23.004276
787.382690	717.987122	1569.347778	917.638672	23.450878
787.694641	717.318420	1570.090820	915.929688	23.290068
788.006653	715.312317	1579.898560	917.489990	23.384327
788.318481	719.696106	1594.536499	927.446533	23.747238
788.630310	718.061523	1618.387695	928.635437	23.388626
788.942017	720.587830	1627.972656	934.356689	23.558786
789.253784	723.559875	1656.876343	928.338196	21.940931
789.565430	727.943665	1663.117676	939.037781	22.572710
789.877014	734.779602	1653.384155	924.400146	20.642239
790.188538	735.522644	1638.226440	929.898499	21.532629
790.500061	731.584534	1620.393677	922.171082	21.442911
790.811462	730.247070	1611.625977	924.697327	22.062050
791.122925	728.240967	1592.010132	914.294922	21.539778
791.434204	728.315247	1569.793579	900.846191	20.503313
791.745483	726.903564	1551.069336	897.279602	20.672544
792.056702	722.445313	1524.394531	887.100159	20.531830
792.367920	719.621826	1508.196655	889.477844	21.539619
792.678955	715.683777	1482.636597	886.654480	22.292206
792.990112	719.175964	1477.360962	895.050598	23.196796
793.301086	722.891174	1467.627319	895.645020	23.196651
793.612122	728.092468	1473.125854	896.090820	22.549105
793.922974	728.686829	1456.853516	880.858887	20.897970
794.233826	727.869446	1450.463501	877.292297	20.678671
794.544556	727.423645	1448.234375	877.515137	20.822594
794.855286	723.931396	1452.395386	884.871094	22.093019
795.166016	734.110901	1461.905884	886.877258	20.990301
795.476624	726.086182	1464.209351	881.007385	20.988529
795.787292	724.451599	1462.500488	881.676086	21.302719
796.097778	714.866455	1467.032837	884.573914	22.562489
796.408264	725.268860	1476.543579	891.929871	22.183764
796.718689	732.624817	1500.840698	888.586243	20.301771
797.029053	734.705261	1506.487671	885.837097	19.582182
797.339355	726.977844	1506.413452	874.171570	18.884655
797.649658	726.754944	1506.339233	876.400635	19.195576
797.959839	724.005676	1505.001587	878.555420	19.788803
798.270020	725.343262	1503.292603	888.437683	20.964659
798.580078	729.652771	1497.720093	882.716370	19.928410
798.890137	726.606262	1492.295898	875.583252	19.456577
799.200195	725.714661	1473.497070	870.233459	19.326317
799.510071	717.690002	1444.742065	874.988831	21.635153
799.820007	718.581604	1426.537720	873.577087	21.893375
800.129883	720.885010	1422.376953	876.474854	22.179848
800.439575	722.742615	1420.222168	871.050781	21.263443
800.749329	721.999512	1420.667969	871.793762	21.439962
801.058960	720.662109	1411.603027	867.484192	21.249586
801.368591	725.566101	1401.720703	871.942383	21.648346
801.678162	725.566101	1387.380371	874.097168	22.443014
801.987671	722.816833	1381.287476	876.029114	23.267899
802.297119	715.238037	1379.950073	878.332458	24.536102
802.606506	716.278259	1368.878906	863.323242	22.532154
802.915894	721.107910	1360.334229	863.026062	22.201550
803.225159	716.501160	1365.758423	857.230469	21.675430
803.534424	715.163757	1371.999634	864.586426	22.748859
803.843628	716.501160	1364.792358	855.967285	21.512882
804.152771	722.371094	1357.733643	852.475098	20.477129
804.461792	727.943787	1359.219727	845.639221	18.644054
804.770874	721.628113	1366.575562	845.044861	19.135939
805.079773	720.587830	1370.290649	847.868347	19.590574
805.388733	721.330811	1372.519897	855.075684	20.538561
805.697571	726.532043	1377.423828	860.722656	20.616425
806.006470	730.470032	1381.807739	859.533875	19.815195
806.315125	725.863281	1382.179199	856.636047	19.925278
806.623901	724.674500	1390.946899	846.307922	18.255810
806.932495	714.049133	1389.163696	848.016907	19.843710
807.241150	719.993408	1392.209961	849.057129	19.199724
807.549622	717.838562	1390.129517	857.527649	20.778070
807.858154	725.788879	1380.544556	854.258362	19.620981
808.166565	721.850891	1369.547729	844.896301	18.997377
808.474915	722.742615	1355.950317	847.496826	19.701942
808.783264	726.754883	1352.606812	845.564941	18.983732
809.091492	726.977844	1346.068115	852.697998	20.307241
809.399719	730.841553	1334.476807	844.599060	18.845406
809.707825	725.789001	1322.588379	839.917969	19.123507
810.015930	726.309082	1314.192017	835.831360	18.629948
810.323975	715.832336	1316.124146	835.831360	19.990114
810.632080	712.934570	1308.991089	838.283386	21.029686
810.939880	714.717834	1301.709351	833.453613	20.227852
811.247864	719.101746	1302.303833	831.967529	19.352774
811.555664	724.451599	1301.114868	834.493835	19.082581
811.863464	725.566101	1295.913818	838.729065	19.841047
812.171143	728.909668	1281.722046	836.054260	19.381727
812.478882	730.247070	1279.344238	833.082092	18.728020
812.786438	729.504089	1278.155396	834.122375	19.068266
813.094055	729.355469	1272.136841	835.311218	19.520889
813.401489	725.417480	1271.542480	826.915039	18.585041
813.708984	720.067688	1266.341309	813.614807	17.124590
814.016357	724.451599	1266.118286	824.165710	18.408758
814.323730	724.005798	1264.037720	829.144043	19.468895
814.630981	724.748779	1270.279175	835.979919	20.389540
814.938232	719.547546	1273.920044	829.366943	19.809677
815.245361	716.352539	1267.975952	827.137939	20.083521
815.552490	722.371094	1261.065796	831.744629	20.303436
815.859619	723.039795	1260.545532	826.840637	19.311579
816.166565	735.151184	1261.511475	826.692078	17.391300
816.473572	727.349304	1267.752808	832.562012	19.469286
816.780457	725.194519	1266.935669	831.967529	19.709230
817.087341	718.878723	1265.821167	837.094421	21.613920
817.394043	717.615662	1272.434082	824.834473	19.325027
817.700806	712.860291	1275.777710	824.685852	19.865358
818.007507	714.346375	1284.396851	815.546631	17.752859
818.314209	709.739563	1287.963379	820.822083	19.210991
818.620667	714.494934	1298.737305	825.206055	18.949520
818.927246	715.535217	1304.681519	837.614563	20.721397
819.233704	722.519714	1319.839355	842.221375	20.039801
819.540161	725.268860	1351.417969	841.478333	18.559393
819.846497	721.405090	1401.126465	843.335938	17.938356
820.152832	724.748718	1445.633789	853.366699	17.841677
820.458984	726.903564	1488.432129	867.335693	18.440823
820.765259	722.296692	1542.301758	880.264343	19.264229
821.071350	722.073914	1629.978882	895.570801	19.109587
821.377502	715.758118	1776.429565	913.180481	18.612963
821.683472	719.919006	2043.547852	945.056335	17.009098
821.989441	714.717834	2474.949463	1006.504700	16.576616
822.295349	717.764343	3067.365234	1105.401733	16.498011
822.601196	722.073914	3710.751953	1223.542969	16.778959
822.907043	721.850891	4281.916992	1315.306885	16.669802
823.212769	727.646545	4648.898438	1375.714844	16.527077
823.518494	729.578430	4781.751465	1387.083130	16.225977
823.824097	737.603088	4709.529297	1365.238159	15.801781
824.129700	725.491760	4499.401367	1311.963135	15.540154
824.435242	716.724060	4227.898926	1258.316650	15.424826
824.740723	714.569275	3949.932373	1207.493530	15.235516
825.046082	717.467041	3678.430420	1169.302002	15.259728
825.351501	720.142029	3395.337158	1123.531494	15.078880
825.656799	720.810730	3091.141846	1081.476196	15.215827
825.962036	724.823059	2783.974365	1035.334106	15.079564
826.267212	728.389587	2546.205811	994.616272	14.645413
826.572449	728.018066	2378.727295	971.210938	14.732629
826.877502	730.618652	2334.814453	966.381165	14.696617
827.182495	735.671204	2395.965576	979.904297	14.710228
827.487488	735.374023	2511.134766	1000.411804	14.925309
827.792419	731.435974	2605.276123	1018.913269	15.341613
828.097290	722.891113	2629.721924	1033.476563	16.288044
828.402100	727.869446	2590.415771	1029.315674	16.184629
828.706848	732.699158	2517.450684	1006.727600	15.353871
829.011597	736.117004	2393.885010	982.059082	14.835735
829.316223	733.813660	2264.375732	957.316223	14.602647
829.620789	734.333801	2140.438477	944.833313	14.970401
829.925354	738.717590	2024.303345	928.115295	14.732406
830.229797	734.705322	1912.997681	913.403320	15.165846
830.534302	737.231628	1796.045288	899.880188	15.361395
830.838562	725.937561	1677.606812	886.134277	16.833235
831.142944	720.885010	1560.282837	865.255188	17.199255
831.447144	712.042969	1461.757324	841.478333	17.264624
831.751404	715.683838	1393.770508	822.456848	15.746219
832.055542	724.228699	1357.882324	825.949036	16.052988
832.359619	724.228699	1334.179688	828.252441	17.054443
832.663635	725.268860	1344.359253	834.048035	17.570807
832.967651	723.039734	1372.817017	834.345215	17.129789
833.271545	722.668274	1434.339844	844.450439	17.112131
833.575439	721.033508	1502.326782	854.555664	17.089890
833.879211	722.148132	1607.762329	871.050781	16.813490
834.183044	723.336975	1705.173218	880.190002	15.975477
834.486694	726.086182	1807.116577	887.843262	14.963231
834.790344	720.439209	1860.242798	891.112549	14.973926
835.093933	720.067688	1864.032349	889.552246	14.815542
835.397522	722.073914	1826.138062	886.357178	14.879865
835.700928	721.999512	1772.937378	873.799988	14.444286
836.004395	725.045959	1727.241211	873.205566	14.783507
836.307739	722.445313	1674.040405	860.202637	14.476464
836.611023	731.064453	1611.477173	854.184082	13.984308
836.914307	726.829163	1547.354126	841.775574	14.008886
837.217529	723.931458	1473.868652	843.558838	15.951653
837.520691	719.324707	1402.984009	829.589905	16.128677
837.823730	720.810730	1323.480103	811.682922	15.078282
838.126831	723.485657	1264.557983	792.364258	12.730018
838.429749	726.829285	1218.118774	789.689392	12.794922
838.732727	722.816895	1189.958130	790.283752	14.442497
839.035522	717.467102	1174.800293	791.398254	16.165709
839.338379	708.699402	1166.255493	788.203308	17.375772
839.641113	710.036804	1169.301880	788.574890	17.100819
839.943848	713.974854	1180.447266	792.958679	16.932154
840.246460	716.055359	1195.456421	797.193848	16.924971
840.549072	717.392761	1212.248901	799.571594	16.606611
840.851563	720.959290	1218.861938	789.392090	13.744213
841.154053	725.045898	1230.675903	798.382751	14.504055
841.456482	728.389587	1226.143555	796.376526	13.658744
841.758850	724.080017	1217.450073	799.348633	15.256016
842.061157	720.067627	1189.735107	787.237305	14.301539
842.363403	720.810608	1173.314331	787.757385	14.794746
842.665588	717.021240	1152.286621	787.014404	16.080572
842.967712	720.067688	1134.602539	781.144531	14.733826
843.269775	712.711731	1118.850342	772.896973	14.818892
843.571777	718.135803	1099.828979	774.531555	14.775153
843.873840	721.925232	1082.070557	781.887512	16.649467
844.175659	727.052063	1066.392578	782.481934	16.334587
844.477600	732.624817	1052.572266	790.952454	18.230381
844.779297	730.321472	1041.872681	781.293152	16.360611
845.081116	720.959290	1028.572510	780.624329	19.396124
845.382751	719.250427	1021.885315	768.884521	16.400652
845.684387	717.987244	1007.321960	769.479004	17.796606
845.985962	722.073792	991.421204	773.268372	19.006895
846.287537	720.216309	982.133301	772.971191	20.141832
846.588989	722.668213	979.458435	777.429382	21.325254
846.890381	732.773438	972.696960	775.274597	17.714460
847.191711	732.030457	970.839355	775.868958	18.357147
847.493042	728.463867	973.439941	770.519226	17.167130
847.794250	726.011902	977.080811	773.862793	19.058868
848.095459	723.485596	973.811462	764.500671	16.384674
848.396606	724.080017	967.495789	759.968262	14.743599
848.697693	719.101746	963.632019	746.742371	11.303559
848.998657	720.067688	960.214050	745.776367	10.705421
849.299622	730.172852	962.220215	751.349121	9.125839
849.600464	732.401917	963.037598	751.646301	8.344062
849.901367	725.714661	952.337952	751.720642	11.475423
850.202087	709.888184	944.313293	748.079773	16.291595
850.502808	710.408386	940.598145	752.389343	18.237543
850.803467	713.974854	947.136780	758.853699	19.247931
851.104065	722.668213	953.303955	755.212891	14.110856
851.404663	719.473206	949.960266	753.058105	14.571274
851.705139	721.999512	953.303955	752.092102	13.009949
852.005615	719.027405	953.749756	753.280945	14.593216
852.306030	722.148132	958.950928	750.011719	11.766579
852.606384	727.497864	953.155273	747.708313	8.956253
852.906616	728.761047	946.245178	742.432861	6.286350
853.206909	724.897400	941.564148	752.092102	12.551396
853.506958	723.857117	942.009949	752.909424	13.317410
853.807129	724.228699	937.625977	759.076599	16.330059
854.107178	731.807556	942.901550	752.760925	9.926085
854.407166	732.847839	938.666260	749.268616	7.978283
854.707092	735.151123	938.963440	752.612305	8.567285
855.007019	732.476257	937.848938	752.909485	9.949341
855.306763	726.457703	936.214294	749.120056	10.804120
855.606567	724.377197	936.585754	746.073547	10.224070
855.906250	729.429749	926.480652	744.810547	7.805495
856.205933	735.596924	926.034851	746.890930	5.930545
856.505493	736.934387	928.561096	744.884766	4.148889
856.805054	736.414307	936.808777	754.321228	8.935836
857.104492	736.191345	940.152344	752.389343	7.941713
857.403931	732.699158	940.523865	756.698914	11.548077
857.703308	719.473206	930.641602	742.581360	10.942999
858.002563	712.488770	933.093567	752.612305	18.187971
858.301819	714.197754	926.257751	757.070496	20.217270
858.601013	717.615723	926.777832	771.039307	25.541712
858.900208	725.566101	925.960449	765.466614	19.910997
859.199219	731.658875	925.366028	768.587402	19.064102
859.498291	737.454529	929.527039	765.392273	14.545415
859.797302	724.748779	928.338196	767.695618	21.094828
860.096191	720.513489	939.334961	765.392334	20.509342
860.395020	713.900574	943.050110	757.144714	18.871582
860.693787	719.770447	935.842773	753.652527	15.680898
860.992554	710.408386	923.880066	736.414246	12.182346
861.291260	715.386536	922.914063	738.123230	10.955990
861.589844	717.690002	930.492920	737.380188	9.252780
861.888428	724.154297	932.796326	746.296570	10.612566
862.186890	727.572266	931.830383	753.058105	12.477271
862.485413	728.538147	931.830383	755.881653	13.450344
862.783813	732.476257	928.858398	756.624695	12.296657
863.082153	730.098572	929.304138	752.612244	11.301728
863.380371	725.120300	925.514648	748.971436	11.902100
863.678589	728.092346	925.068909	750.383118	11.316459
863.976746	726.606262	915.781067	751.423401	13.118628
864.274902	724.154297	920.684998	757.367676	16.899843
864.572937	716.724060	930.567200	753.058044	16.990952
864.870911	725.863281	940.375244	751.720642	12.054042
865.168884	728.166687	935.174072	746.593689	8.901616
865.466736	730.098572	930.492981	748.302673	9.084136
865.764587	718.507324	927.892395	743.621582	11.994292
866.062317	720.736389	931.830383	738.271790	8.306916
866.360107	717.764343	938.666260	743.770203	11.772582
866.657715	717.912903	940.226563	744.364685	11.898406
866.955322	717.615723	943.495911	753.726807	15.986831
867.252808	716.946960	935.322693	754.246887	17.080620
867.550293	717.244141	938.294739	767.027039	22.521042
867.847717	715.981018	935.768494	761.751465	20.824865
868.145081	718.878906	936.660156	759.076660	18.457857
868.442383	720.364929	928.338196	755.212891	16.755981
868.739624	721.033630	930.195801	759.893982	18.579054
869.036804	716.278259	927.075012	757.144714	19.386663
869.333984	712.191589	926.183411	747.931152	16.701368
869.631042	710.928467	918.381653	747.708313	17.729227
869.928101	709.368103	920.090637	741.615479	15.303240
870.224976	714.569275	924.325867	743.101501	13.602541
870.521851	724.823059	950.703308	748.525574	10.493399
870.818726	728.686829	948.251282	753.280945	11.201320
871.115479	725.268860	953.601074	757.887695	14.285691
871.412231	720.810730	936.288574	751.646301	14.310321
871.708862	720.587830	939.632263	747.708252	12.381243
872.005493	721.627991	940.821106	747.559753	11.830555
872.302063	719.696106	933.910950	753.726807	15.886248
872.598572	721.107910	936.585876	759.522461	17.827600
872.895020	728.612488	927.372314	763.980530	17.794361
873.191406	734.259521	930.864563	766.506836	16.402079
873.487671	733.888000	933.910950	762.048645	14.078707
873.783997	726.309082	944.981995	758.333679	14.644977
874.080200	719.696106	948.920105	751.423401	13.841175
874.376343	718.507324	947.285461	753.726807	15.394602
874.672424	721.925293	937.551758	760.488281	17.884163
874.968445	721.033630	934.951172	756.847473	16.741892
875.264465	724.228577	942.232727	752.835144	13.122028
875.560364	724.823059	953.526855	744.364685	8.544513
875.856201	717.095520	953.303894	744.290344	11.513065
876.152039	715.609558	952.560852	748.079773	13.703329
876.447754	709.962463	954.864258	746.147949	14.775509
876.743469	724.451477	957.241943	755.064270	13.150364
877.039063	722.519714	951.966492	755.064270	14.183924
877.334595	730.395752	942.529968	760.636963	14.255697
877.630127	718.804504	945.279236	754.915710	15.944916
877.925537	720.959290	946.988220	755.510071	15.285999
878.221008	710.779785	954.418457	747.411133	15.035112
878.516296	721.330811	953.155273	743.547302	9.583325
878.811646	721.107910	963.483398	735.522644	5.947274
879.106812	725.788879	981.093201	740.278015	5.675241
879.401978	719.324524	998.108459	741.169617	7.835851
879.697083	717.392761	1019.433350	755.807312	12.718341
879.992126	720.216248	1031.024536	760.265442	12.885497
880.287109	717.690002	1071.965454	765.838135	13.590592
880.582031	714.123474	1138.466309	764.723633	11.924358
880.876892	705.652893	1249.920288	778.172424	13.324246
881.171753	713.157532	1431.441895	796.005066	11.534085
881.466492	719.250305	1685.780273	830.778748	11.539057
881.761230	726.309082	2018.953613	855.893066	10.024719
882.055786	719.547546	2341.501709	890.963928	10.568510
882.350403	717.912903	2597.548828	909.911133	10.214649
882.644958	714.420654	2729.881836	918.976074	10.149311
882.939453	711.820068	2766.884766	912.288818	9.754863
883.233826	707.138977	2722.005859	901.514954	9.647087
883.528137	709.888184	2644.656738	893.415955	9.485774
883.822449	719.027405	2564.261475	881.973328	8.830637
884.116577	724.971680	2476.212402	869.787598	8.269333
884.410828	720.216309	2372.262939	860.425476	8.486999
884.704956	718.135803	2225.292236	853.218201	8.962732
884.999023	722.593933	2037.454956	840.661072	8.979438
885.292969	733.516418	1823.314453	827.435120	8.617990
885.586914	738.717590	1618.684692	816.141113	8.798456
885.880798	731.213074	1465.918457	806.407471	10.234632
886.174622	732.253357	1359.739746	794.741882	9.958547
886.468384	730.470032	1278.155396	780.327148	9.103241
886.762085	731.435974	1222.354126	775.200195	8.914769
887.055664	718.804504	1172.571289	771.187927	11.544129
887.349304	718.284424	1143.147339	771.782410	12.591823
887.642822	722.296814	1108.968140	766.952637	11.548780
887.936340	725.640381	1094.553345	764.054871	10.412887
888.229736	716.649719	1069.959106	760.191101	12.323868
888.523071	715.237976	1050.491821	752.017822	10.970745
888.816284	718.358704	1036.522949	754.544189	11.373209
889.109619	724.600159	1028.201050	757.144714	10.719520
889.402710	724.451477	1021.736633	758.556458	11.472144
889.695862	718.581604	999.520203	745.627747	9.627066
889.988892	714.717834	979.755676	732.401917	6.672286
890.281921	715.312317	962.517456	727.349304	4.869230
>>>>>End Processed Spectral Data<<<<<
