Jaz Data File
++++++++++++++++++++++++++++++++++++
Date: Fri Jun 04 16:52:48 2021
User: jaz
Dark Spectrum Present: Yes
Reference Spectrum Present: Yes
Processed Spectrum Present: Yes
Spectrometers: JAZA3586
Integration Time (usec): 24600 (JAZA3586)
Spectra Averaged: 10 (JAZA3586)
Boxcar Smoothing: 1 (JAZA3586)
Correct for Electrical Dark: No (JAZA3586)
Strobe/Lamp Enabled: Yes (JAZA3586)
Correct for Detector Non-linearity: No (JAZA3586)
Correct for Stray Light: No (JAZA3586)
Number of Pixels in Processed Spectrum: 2048
>>>>>Begin Processed Spectral Data<<<<<
W	D	R	S	P
191.335022	0.000000	0.000000	0.000000	0.000000
191.713211	227.812149	233.756348	236.654175	148.750504
192.091385	455.401367	470.633423	471.153564	103.414780
192.469528	695.027649	713.083191	709.145203	78.189590
192.847641	705.281433	715.386536	713.306152	79.412544
193.225739	723.634216	724.748718	721.256531	-213.340637
193.603790	731.584534	727.275085	730.470032	25.861824
193.981842	739.757813	742.507080	732.996338	-245.937302
194.359863	740.649475	740.798096	737.528809	-2099.753662
194.737854	744.141785	746.890930	739.089172	-183.788467
195.115829	742.284241	741.243958	741.764160	49.994133
195.493774	742.655762	746.445129	747.039551	115.686562
195.871704	739.609314	740.055176	747.708313	1816.481812
196.249603	745.256348	746.222229	747.262451	207.696686
196.627457	745.702148	748.674133	744.513245	-40.003696
197.005310	744.439026	752.835144	740.946716	-41.594337
197.383133	741.689758	753.875427	741.541199	-1.219133
197.760910	735.076843	761.602844	749.714539	55.182442
198.138687	738.049011	765.838196	749.714539	41.978661
198.516449	736.191345	752.983826	754.395508	108.406631
198.894180	749.788757	743.398743	747.188171	40.697651
199.271866	750.085999	743.472961	745.925049	62.920406
199.649536	751.274902	751.497742	733.739441	-7869.104492
200.027191	749.342957	753.132385	724.228699	-662.745239
200.404816	752.760925	750.457520	727.275085	1106.441650
200.782410	750.308899	760.265381	735.448425	-149.254257
201.159988	742.952881	773.119812	745.776428	9.359743
201.537537	735.671204	777.206482	747.708252	28.980301
201.915070	735.151184	784.116699	745.627869	21.396048
202.292557	731.064453	777.578064	742.655762	24.920252
202.670029	735.522644	780.772949	743.547363	17.734066
203.047485	736.042786	774.234375	746.445129	27.237263
203.424911	739.832214	775.571777	748.599915	24.532198
203.802292	732.030457	776.686340	744.661865	28.286102
204.179688	728.686768	769.924805	744.810486	39.099140
204.557037	725.566101	758.184998	735.894226	31.663012
204.934357	724.451477	759.225281	736.785706	35.469887
205.311661	722.816895	760.116882	737.677429	39.840588
205.688934	724.377258	763.163269	740.946716	42.720192
206.066177	725.120300	758.036377	731.733215	20.090229
206.443390	730.544434	759.002258	728.240967	-8.094317
206.820587	728.761169	761.825745	728.018066	-2.247430
207.197769	722.965515	764.203430	734.928223	29.009003
207.574921	721.553711	757.813477	733.367859	32.581974
207.952042	718.210144	756.847473	729.132568	28.269098
208.329147	721.330811	761.602844	728.835388	18.634712
208.706223	727.126465	778.543884	736.785828	18.786167
209.083267	733.813721	777.875183	746.668030	29.173588
209.460297	745.404968	764.426453	743.250183	-11.328165
209.837280	734.853943	752.686523	736.117004	7.082887
210.214264	733.219238	755.510071	731.956055	-5.666830
210.591217	719.547546	763.460449	739.757874	46.023666
210.968124	720.513489	763.831970	734.556641	32.418385
211.345016	714.123474	763.906250	734.779602	41.492519
211.721893	713.677551	762.123047	725.937561	25.306810
212.098724	713.528992	764.723633	732.922058	37.881046
212.475555	717.764221	758.482239	734.036621	39.963634
212.852356	718.507324	753.875427	745.553528	76.470612
213.229126	714.420593	755.435730	752.686523	93.297096
213.605865	713.900574	759.076599	748.897156	77.467155
213.982590	721.553711	764.352051	737.157288	36.458370
214.359283	731.733215	758.630676	723.559875	-30.387032
214.735931	737.900330	759.002258	724.674377	-62.676510
215.112579	735.299744	759.448059	729.429871	-24.307589
215.489197	728.909668	757.664856	729.132629	0.775378
215.865799	715.906738	747.559631	730.618652	46.478893
216.242355	709.516663	740.129395	731.435974	71.601944
216.618896	705.950134	738.866211	731.584656	77.878426
216.995407	700.154541	745.776367	726.160461	57.003242
217.371902	698.594238	745.479187	722.816895	51.664036
217.748367	703.200989	746.445129	725.268860	51.030891
218.124802	713.008850	748.302734	731.733154	53.052547
218.501236	716.426819	754.915588	728.092346	30.308912
218.877609	716.724060	761.825745	727.349304	23.558420
219.253983	721.553711	768.141541	719.919128	-3.508604
219.630295	725.863220	773.416992	722.445313	-7.187459
220.006592	727.423584	768.810242	726.086182	-3.231482
220.382889	724.897278	761.231445	731.956055	19.427380
220.759140	723.634094	762.048767	733.367859	25.338663
221.135391	721.999512	764.946533	737.677429	36.505249
221.511581	719.250305	757.962097	737.751770	47.792839
221.887772	714.792175	749.342957	740.203674	73.548264
222.263931	707.287598	745.404846	735.968506	75.243912
222.640060	707.436218	755.881592	738.346191	63.803768
223.016159	711.968689	757.219055	734.482422	49.753704
223.392212	718.953125	762.866028	737.454590	42.132183
223.768265	726.829163	756.030212	736.562927	33.333611
224.144302	725.714661	758.853699	732.401917	20.179390
224.520294	732.104675	760.191162	725.863281	-22.222054
224.896286	724.080078	766.061035	717.912903	-14.690412
225.272217	725.417480	767.101318	723.336975	-4.991156
225.648148	720.513489	765.020813	718.655945	-4.173569
226.024048	723.931396	771.633789	721.107910	-5.918962
226.399902	724.005676	766.358215	720.364929	-8.596290
226.775772	721.033630	769.033203	729.429871	17.492323
227.151581	722.965515	763.534729	736.637207	33.699673
227.527374	724.674500	762.717468	738.569092	36.523418
227.903137	724.302979	759.745361	739.980774	44.234596
228.278870	721.776672	766.135437	737.603088	35.678215
228.654572	716.946960	772.153992	739.906494	41.588062
229.030273	719.027405	773.119812	737.751709	34.615402
229.405930	718.730164	768.215820	730.915833	24.624649
229.781555	712.637390	773.045471	728.984070	27.060419
230.157181	708.699402	778.469666	726.383362	25.345984
230.532761	705.429993	778.618164	733.590820	38.477295
230.908325	713.900574	770.073425	739.980774	46.428478
231.283859	718.284424	765.763855	737.825989	41.157959
231.659332	720.885010	767.398499	732.179016	24.281141
232.034821	718.432922	766.283997	727.869446	19.720610
232.410263	717.095520	760.042664	735.225403	42.214409
232.785690	724.377197	762.791809	740.426575	41.779358
233.161087	725.789001	770.965088	741.689758	35.197289
233.536469	723.411316	775.125977	735.076843	22.557486
233.911804	717.318420	764.054871	734.110901	35.930157
234.287140	717.764343	755.658691	725.417480	20.195986
234.662430	718.655945	761.602844	727.795166	21.280281
235.037704	714.346375	766.729797	726.531982	23.262337
235.412933	710.779785	777.206543	729.801270	28.635275
235.788162	711.299988	767.101318	729.355469	32.356720
236.163345	718.581726	767.621399	733.442200	30.302963
236.538513	722.371094	756.773193	733.590820	32.613495
236.913635	728.463867	759.448059	725.937561	-8.153532
237.288742	724.674500	762.717468	720.290527	-11.523738
237.663834	728.612549	767.844299	717.912903	-27.272924
238.038879	728.389648	769.627625	725.640381	-6.666834
238.413910	733.219238	771.633789	727.200684	-15.667382
238.788910	730.247070	770.370605	733.442139	7.963078
239.163879	721.925232	776.834961	730.172852	15.020325
239.538834	719.919006	779.658508	730.767273	18.159285
239.913757	715.386536	777.578064	734.853943	31.302345
240.288651	724.005676	777.503662	737.157288	24.583376
240.663528	716.946960	767.472839	732.996399	31.764788
241.038361	717.318420	772.674011	726.829285	17.181398
241.413177	712.117188	772.674011	736.637207	40.490929
241.787979	715.460876	777.652344	742.358398	43.249538
242.162735	724.748718	775.868958	746.519348	42.587105
242.537476	723.485596	767.324219	740.649597	39.152695
242.912170	726.903564	772.674011	738.717712	25.811739
243.286865	717.615723	778.618225	739.906555	36.540848
243.661514	722.222473	795.039063	732.030457	13.469436
244.036148	727.275085	798.308411	731.956116	6.589907
244.410751	724.971680	802.320801	727.349365	3.073966
244.785339	716.798340	791.323975	735.819885	25.523493
245.159882	710.705505	785.676941	738.494812	37.066525
245.534378	718.433044	780.624329	737.528809	30.704887
245.908890	725.417480	791.769836	730.470032	7.614728
246.283356	724.748718	791.769836	725.120300	0.554425
246.657791	712.860291	796.227966	725.640381	15.329791
247.032196	712.042969	794.518982	733.813660	26.396391
247.406586	710.556946	803.955383	735.448425	26.650852
247.780960	717.987244	811.088562	735.225403	18.515484
248.155289	720.810730	816.661194	735.002625	14.806287
248.529602	720.885071	813.020447	734.631042	14.919320
248.903870	724.600159	798.605652	733.590820	12.148641
249.278122	727.572205	786.494324	727.052063	-0.882761
249.652344	734.185120	787.831787	723.708496	-19.528936
250.026550	732.624756	794.890442	720.662048	-19.212360
250.400711	728.463867	803.435364	721.405090	-9.415280
250.774857	722.668274	797.788330	729.949890	9.693305
251.148987	726.754883	800.240295	728.761047	2.730017
251.523071	720.513489	798.382813	721.702332	1.526715
251.897125	717.541321	803.732605	720.513489	3.448339
252.271164	715.460938	803.658203	724.748718	10.530690
252.645187	718.358704	800.834717	737.603088	23.333311
253.019165	718.878845	801.800598	739.386414	24.731228
253.393112	715.386536	806.184509	744.661926	32.242340
253.767044	712.265869	811.014160	733.516418	21.519917
254.140930	713.231750	811.905762	726.754944	13.704919
254.514801	708.699402	804.475586	722.148132	14.041832
254.888657	707.436218	806.481750	729.504089	22.280531
255.262466	707.584778	808.190674	727.275085	19.571724
255.636276	714.569336	814.209167	729.206970	14.690545
256.010010	725.045959	819.707520	732.699158	8.084801
256.383759	726.977783	818.147278	739.832214	14.099487
256.757446	725.268860	815.695251	741.912659	18.405909
257.131134	726.457703	807.967834	743.250183	20.601709
257.504791	732.922058	807.744873	739.014893	8.143017
257.878418	729.727051	818.221619	732.922058	3.610399
258.252014	721.033630	830.630127	731.881836	9.898314
258.625580	713.083191	857.527771	737.825989	17.129614
258.999115	723.336975	870.010559	737.380127	9.574425
259.372650	727.572266	890.369446	735.968445	5.157447
259.746124	730.915833	907.979309	736.265686	3.021433
260.119598	730.172852	925.589050	738.717712	4.372647
260.493042	724.674377	937.700378	738.940613	6.696946
260.866425	719.547546	929.527039	730.172852	5.060163
261.239838	716.798340	920.462097	729.281250	6.129176
261.613159	716.575439	903.892578	726.531982	5.315340
261.986511	723.782776	898.617004	735.151062	6.502323
262.359802	720.587830	898.171204	735.076843	8.158992
262.733063	726.457703	888.586243	726.160461	-0.183337
263.106293	723.336975	890.815369	710.408264	-7.719629
263.479523	724.080078	880.413025	713.008850	-7.081827
263.852692	720.216309	882.121887	728.166687	4.910503
264.225861	717.021301	872.165344	741.689758	15.900357
264.598969	716.798340	875.731934	736.711487	12.529224
264.972076	717.318420	881.378906	722.519714	3.170352
265.345154	720.884949	885.539795	713.826355	-4.286903
265.718201	720.290527	884.425293	712.711731	-4.617423
266.091217	722.296692	894.679016	725.789001	2.025909
266.464203	723.782898	904.189880	731.733215	4.406879
266.837158	725.640381	917.192871	739.460693	7.214896
267.210114	720.662109	921.502380	737.900330	8.583050
267.583038	718.730164	932.944885	735.002502	7.596275
267.955902	725.789001	940.672424	733.516418	3.596097
268.328766	732.030457	944.313293	734.408142	1.120055
268.701569	735.448303	944.536133	737.008728	0.746301
269.074371	728.389587	953.898254	743.844543	6.853375
269.447144	730.098450	965.192383	743.844543	5.847064
269.819885	727.126465	967.793030	736.191406	3.766598
270.192596	719.844727	974.926086	725.343262	2.155601
270.565277	716.501160	986.888855	734.185242	6.540269
270.937927	712.488770	1007.470642	742.804260	10.277069
271.310577	719.919128	1027.829590	747.708313	9.025086
271.683136	716.129639	1046.999634	737.974609	6.602282
272.055725	719.324707	1070.330688	739.906494	5.863657
272.428284	714.866455	1080.287476	735.448303	5.632366
272.800812	714.272034	1081.104614	732.401855	4.942261
273.173279	706.841797	1075.829224	728.240967	5.799431
273.545776	706.990417	1074.714478	731.510254	6.667999
273.918152	706.544617	1070.925049	727.275085	5.689238
274.290558	719.324646	1062.974609	728.835449	2.767585
274.662964	722.668274	1060.076904	733.813660	3.303231
275.035278	724.674500	1062.231812	735.745605	3.279771
275.407593	720.736389	1069.587524	737.825989	4.898823
275.779907	722.519714	1082.070557	731.733154	2.562486
276.152161	725.714661	1096.633911	734.408142	2.343767
276.524384	719.547546	1100.348999	734.333801	3.882930
276.896606	716.278259	1099.308716	731.213074	3.899119
277.268799	713.008850	1101.612183	733.813721	5.353755
277.640930	718.730225	1120.262085	730.544434	2.942284
278.013031	721.405090	1126.280640	736.785828	3.798880
278.385162	727.423645	1124.051636	739.757874	3.109773
278.757233	720.290527	1112.088867	740.500916	5.158365
279.129272	720.885010	1121.451050	735.745544	3.709884
279.501282	714.940735	1126.503540	727.200684	2.978877
279.873230	721.405090	1142.181396	725.194519	0.900580
280.245178	721.627991	1153.772705	726.309082	1.083223
280.617126	732.922058	1182.527832	736.265686	0.743680
280.988983	735.819824	1211.357300	742.581360	1.421872
281.360870	737.083008	1240.558228	742.804382	1.136377
281.732697	730.024231	1264.335083	742.730042	2.377981
282.104492	731.881836	1286.031372	747.262451	2.775535
282.476288	725.120300	1307.802124	748.971436	4.093338
282.848053	727.572266	1337.597534	743.250183	2.570044
283.219757	718.358704	1344.433350	736.785828	2.943279
283.591461	728.240967	1338.712036	735.151184	1.131948
283.963135	723.857117	1319.319092	734.631042	1.809339
284.334747	733.442200	1323.703003	732.030457	-0.239173
284.706360	726.234802	1343.616211	739.237793	2.106152
285.077942	718.655823	1375.789185	738.717712	3.052940
285.449524	711.968689	1407.739380	741.318176	4.218270
285.821014	713.380432	1428.395508	740.575195	3.803383
286.192535	727.349365	1448.234375	743.993164	2.308801
286.563995	730.024231	1464.655273	744.661865	1.992515
286.935425	731.584534	1477.732544	736.934387	0.716996
287.306824	727.423645	1477.583984	738.048889	1.416396
287.678223	721.999512	1468.593384	738.420410	2.199442
288.049561	723.708496	1459.082520	746.445129	3.091846
288.420898	724.600159	1445.708008	745.553528	2.905719
288.792145	725.714661	1431.813354	737.825989	1.715246
289.163452	725.268860	1439.689453	732.401917	0.998439
289.534668	724.005676	1458.933960	731.361755	1.000925
289.905914	731.807434	1497.497070	743.250183	1.494437
290.277039	730.470032	1524.617554	745.627869	1.908693
290.648193	727.275085	1567.267212	742.432800	1.804507
291.019318	723.931396	1603.675781	736.340027	1.410481
291.390381	724.823059	1622.845703	732.922058	0.901870
291.761475	731.584534	1625.372070	736.785828	0.581939
292.132507	732.996399	1606.573364	736.117126	0.357236
292.503510	726.457703	1592.604492	740.500977	1.621350
292.874481	727.052063	1575.737793	741.615479	1.715996
293.245422	719.844727	1582.053589	746.519348	3.093754
293.616364	719.324646	1606.647827	743.250183	2.696372
293.987213	713.083191	1643.724976	739.386414	2.826353
294.358093	717.689941	1684.962891	733.070618	1.590107
294.728943	724.228699	1731.848022	726.457703	0.221215
295.099731	726.531982	1778.807129	727.646484	0.105914
295.470490	727.646484	1814.398071	728.909668	0.116235
295.841248	726.680603	1831.562134	732.476257	0.524550
296.211975	727.497864	1847.537231	730.395691	0.258725
296.582642	731.807434	1883.351196	731.807434	0.000000
296.953308	724.822998	1932.688110	735.894226	0.916595
297.323883	720.885010	1981.281860	740.055176	1.520963
297.694519	716.129639	2010.185669	745.999329	2.308222
298.065063	721.479431	2014.866821	744.290344	1.763657
298.435608	728.389587	2000.229126	741.689758	1.045743
298.806122	725.194519	1953.790039	735.076843	0.804359
299.176575	720.959290	1911.065918	736.860107	1.336083
299.547028	708.699402	1871.239624	740.723816	2.754693
299.917450	714.494934	1845.308105	734.036621	1.728109
300.287872	721.553711	1829.927368	732.253357	0.965346
300.658234	731.584656	1815.289917	719.993347	-1.069600
301.028564	724.971680	1811.871704	729.578369	0.423837
301.398865	719.027405	1805.036011	729.578430	0.971542
301.769135	715.386536	1811.723267	737.231628	1.992553
302.139374	715.460938	1829.333008	725.194580	0.873856
302.509583	714.643555	1839.735352	726.531982	1.056663
302.879791	717.392761	1835.500122	723.559875	0.551567
303.249939	720.290527	1818.336304	729.429871	0.832328
303.620087	723.039795	1810.757324	729.801270	0.621620
303.990173	716.872620	1802.658203	729.801331	1.190724
304.360260	723.336975	1796.862671	733.219238	0.920543
304.730286	726.903503	1796.342407	735.522644	0.805950
305.100281	727.349365	1810.311401	736.117004	0.809598
305.470276	719.919128	1833.419556	740.872375	1.881746
305.840179	715.535156	1838.694946	736.117004	1.832495
306.210144	717.912903	1843.301758	739.089172	1.881685
306.579987	721.479492	1844.936523	736.711487	1.355815
306.949890	718.730286	1864.552368	736.860046	1.582249
307.319702	725.268860	1883.351074	735.671204	0.898239
307.689484	724.451477	1908.985718	734.928223	0.884461
308.059265	728.538147	1936.923462	737.231628	0.719430
308.429016	722.445313	1974.520508	741.987000	1.560744
308.798737	725.120178	2012.340698	737.603088	0.969757
309.168396	727.423584	2054.693359	730.024231	0.195940
309.538055	730.841553	2085.157471	727.720886	-0.230424
309.907684	726.903503	2120.525391	734.853943	0.570488
310.277313	725.120300	2145.788330	744.810547	1.385985
310.646851	726.903503	2160.723145	743.101501	1.129710
311.016388	725.640381	2176.103760	745.999329	1.403617
311.385895	722.668213	2179.967529	742.135559	1.335851
311.755371	726.680664	2209.985840	740.500977	0.931724
312.124817	723.039795	2198.543213	728.092346	0.342429
312.494232	731.807556	2200.920654	731.733215	-0.005060
312.863617	725.268860	2176.920898	727.869446	0.179147
313.232971	727.943787	2170.531006	728.686829	0.051508
313.602295	721.256531	2157.825439	723.708496	0.170682
313.971619	718.581604	2158.642578	725.045898	0.448890
314.340820	718.953125	2167.038818	723.114075	0.287341
314.710083	730.618652	2188.735352	726.680664	-0.270074
315.079285	730.544250	2212.958008	724.674500	-0.395959
315.448486	737.751709	2256.350830	732.253235	-0.362075
315.817596	725.417480	2253.155518	727.126465	0.111864
316.186707	731.881775	2239.186768	729.652649	-0.147888
316.555786	724.005676	2196.165283	720.810730	-0.217024
316.924866	723.931396	2165.849854	720.736328	-0.221585
317.293884	717.615723	2137.986328	720.959290	0.235401
317.662872	720.885010	2133.454102	728.538147	0.541789
318.031830	725.194580	2139.621338	729.281189	0.288923
318.400757	725.120300	2152.549805	732.401917	0.510121
318.769684	723.039795	2168.004639	733.590759	0.730188
319.138550	721.776672	2195.868164	737.974609	1.098842
319.507416	732.550537	2220.759766	740.278015	0.519247
319.876190	730.618652	2229.601807	733.813660	0.213145
320.244995	733.070618	2225.738037	733.962341	0.059740
320.613770	720.959290	2201.589600	733.070618	0.817985
320.982483	719.324646	2194.531006	739.312012	1.354886
321.351166	711.448547	2178.184326	739.014832	1.879431
321.719818	720.959290	2177.441406	736.265625	1.050911
322.088440	726.086182	2167.633057	738.494812	0.860786
322.457062	722.891174	2195.422607	740.723877	1.211024
322.825623	715.386536	2224.326416	740.203674	1.644674
323.194183	718.210144	2265.861572	732.699158	0.936194
323.562653	729.058289	2304.796143	727.795105	-0.080165
323.931183	727.572266	2363.272461	726.011902	-0.095394
324.299591	722.965515	2415.061279	735.522644	0.742105
324.668060	722.073914	2481.636475	734.036621	0.679868
325.036407	722.965515	2527.184326	739.237793	0.901902
325.404755	719.398926	2564.187012	737.008606	0.954564
325.773102	716.203918	2558.614258	743.547363	1.484113
326.141388	714.569275	2571.097168	742.804260	1.520849
326.509674	717.689941	2575.927002	737.900330	1.087611
326.877899	719.621826	2592.793457	733.739319	0.753668
327.246124	719.324707	2599.480713	733.070618	0.731105
327.614288	718.730286	2601.338135	738.940613	1.073528
327.982422	716.798340	2592.644775	739.757874	1.223956
328.350525	713.008972	2571.691406	744.587585	1.698978
328.718628	709.293762	2549.623291	738.197571	1.570578
329.086700	707.733398	2543.159180	739.089172	1.708365
329.454712	712.934570	2553.561768	736.191345	1.263524
329.822693	715.535156	2574.589600	733.590759	0.971225
330.190674	721.553711	2598.589111	730.172791	0.459186
330.558563	719.919006	2604.830322	723.188293	0.173445
330.926483	728.538147	2623.257568	732.104675	0.188235
331.294312	725.268860	2641.907471	729.058289	0.197712
331.662231	732.476257	2689.535400	734.036560	0.079727
332.029999	728.240906	2738.723877	727.349365	-0.044345
332.397766	729.578369	2785.088867	737.305908	0.375943
332.765503	730.247131	2825.806641	733.590759	0.159558
333.133240	729.801270	2875.069580	730.841553	0.048492
333.500916	727.869446	2931.836914	732.699158	0.219137
333.868561	726.977844	2969.731201	740.426575	0.599653
334.236176	726.606262	2979.836182	744.141663	0.778234
334.603790	728.835449	2976.195313	747.113831	0.813327
334.971344	716.946960	2976.864014	742.209778	1.117865
335.338867	714.420654	2983.254639	737.231628	1.005405
335.706360	714.420654	2985.037842	727.200684	0.562844
336.073853	722.371033	2984.888916	725.937561	0.157635
336.441284	724.005676	2986.746338	732.550537	0.377633
336.808655	718.953125	2983.105713	736.191406	0.761357
337.176086	720.141907	2943.353516	743.547363	1.052777
337.543396	721.256531	2877.892822	745.925049	1.143842
337.910706	720.810730	2811.391846	736.860046	0.767696
338.277954	723.411316	2826.401123	732.996338	0.455781
338.645264	718.210144	2888.444092	734.631042	0.756642
339.012421	724.897400	3024.566406	741.466797	0.720512
339.379669	721.627991	3144.936768	741.763977	0.830929
339.746796	726.532043	3270.657227	737.603088	0.435161
340.113953	720.959290	3336.712158	737.380188	0.627769
340.481018	715.683838	3368.291016	737.751709	0.831931
340.848114	715.386536	3358.037109	736.414307	0.795708
341.215118	720.662109	3339.833008	736.414246	0.601417
341.582153	724.377258	3353.356201	736.414307	0.457860
341.949066	722.816895	3378.544678	734.333801	0.433663
342.316010	724.971680	3415.696045	735.299805	0.383842
342.682922	736.637207	3437.615234	735.819824	-0.030262
343.049835	744.290344	3440.141357	742.061279	-0.082685
343.416656	741.020996	3481.379639	745.553528	0.165399
343.783478	732.773438	3527.967529	749.863037	0.611392
344.150269	735.225403	3643.434326	751.274719	0.551863
344.516998	730.321472	3749.760986	747.633972	0.573368
344.883728	728.315247	3853.933594	748.005432	0.629961
345.250427	724.377197	3931.654297	736.191406	0.368356
345.617065	729.875671	3971.331787	733.219238	0.103150
345.983704	733.887939	3978.687500	731.287354	-0.080146
346.350281	725.566101	3960.186279	741.392578	0.489284
346.716827	718.507324	3918.576904	743.770264	0.789450
347.083405	703.944031	3888.929932	736.785706	1.031140
347.449860	708.625000	3838.626953	738.940613	0.968549
347.816376	711.299988	3789.661377	736.488586	0.818247
348.182770	714.717834	3742.479248	737.900330	0.765665
348.549194	714.123474	3723.383545	735.374023	0.706172
348.915558	716.872620	3742.999268	735.151184	0.604025
349.281921	722.296692	3774.281006	739.312073	0.557519
349.648193	719.919006	3814.032471	734.110840	0.458672
350.014526	719.696106	3860.026367	741.615417	0.697994
350.380737	728.389587	3907.431641	743.175781	0.465115
350.746948	728.166687	3976.607422	752.983826	0.763971
351.113159	731.064453	4026.687500	752.092102	0.638048
351.479309	726.754944	4061.386719	748.748535	0.659551
351.845428	725.640381	4066.811279	742.284180	0.498143
352.211517	721.628113	4090.736328	736.711487	0.447696
352.577576	723.857178	4130.934082	732.476257	0.252976
352.943604	728.686829	4177.447754	724.971680	-0.107724
353.309601	727.646545	4233.694824	725.045959	-0.074174
353.675537	720.142029	4314.833496	731.361633	0.312116
354.041473	721.999573	4426.807129	739.014893	0.459277
354.407379	715.535217	4538.039063	738.717590	0.606471
354.773254	718.433044	4645.703125	735.596924	0.437044
355.139038	718.358704	4738.284668	735.299744	0.421427
355.504913	722.519714	4839.187988	745.256287	0.552305
355.870636	728.166687	4935.335449	747.856934	0.468017
356.236389	719.621887	5037.724609	753.058105	0.774327
356.602081	725.789001	5152.225098	750.680420	0.562335
356.967804	717.912903	5290.056152	751.349121	0.731303
357.333405	726.977844	5431.677734	750.234558	0.494329
357.699036	719.770447	5594.103516	747.411072	0.567065
358.064606	715.906738	5751.402344	749.565857	0.668437
358.430176	714.940735	5869.840332	746.222229	0.606830
358.795654	716.798340	5904.763184	744.438965	0.532784
359.161163	721.628113	5881.878418	739.534973	0.347015
359.526581	722.073914	5857.432129	738.569092	0.321208
359.892029	724.822998	5874.224121	734.482422	0.187583
360.257416	724.451599	5962.718750	734.110840	0.184398
360.622772	719.324646	6160.290527	734.556702	0.279951
360.988098	717.764343	6441.674316	743.027161	0.441356
361.353394	716.352539	6748.692871	742.729980	0.437267
361.718658	720.364807	7013.879395	750.308838	0.475792
362.083893	734.036621	7220.367188	742.581360	0.131735
362.449097	737.751770	7347.498535	741.318298	0.053959
362.814209	734.036621	7372.241699	730.024231	-0.060444
363.179382	725.268860	7190.942871	728.315247	0.047116
363.544434	723.336975	6863.788574	729.727051	0.104065
363.909546	725.937561	6474.962402	728.240967	0.040066
364.274536	720.662109	6182.357910	737.677429	0.311539
364.639587	727.720886	5956.774902	737.528809	0.187566
365.004517	730.544373	5828.974121	744.810486	0.279814
365.369507	726.160461	5739.514160	745.404846	0.383863
365.734344	719.473206	5704.442871	745.181946	0.515725
366.099274	712.042969	5662.312988	741.838379	0.601895
366.464081	724.302917	5635.192871	737.305908	0.264779
366.828918	720.959290	5621.817871	741.392578	0.416933
367.193665	719.473206	5625.459473	750.829041	0.639134
367.558411	713.677734	5643.812012	755.435730	0.846995
367.923126	717.244202	5645.595215	758.705017	0.841272
368.287781	725.417480	5625.310547	751.571960	0.533777
368.652435	727.795166	5577.904785	747.485352	0.405974
369.017059	724.897400	5551.007813	743.027161	0.375660
369.381653	722.073914	5520.915527	743.473083	0.445924
369.746185	716.724060	5498.772949	745.107666	0.593545
370.110687	720.142029	5512.518066	743.027283	0.477535
370.475220	714.569275	5574.858887	739.534973	0.513667
370.839661	716.649719	5646.040527	740.798157	0.489887
371.204041	709.962585	5718.114746	742.135559	0.642412
371.568451	718.210144	5768.640137	746.073669	0.551706
371.932770	719.621887	5823.400879	738.346130	0.366870
372.297150	721.182190	5852.378906	737.231628	0.312782
372.661377	713.974854	5880.316895	738.048889	0.465978
373.025696	707.882019	5898.372559	737.825989	0.576901
373.389862	713.974854	5889.902344	741.541199	0.532588
373.754059	720.439209	5883.437988	745.033447	0.476356
374.118225	725.863281	5906.620605	754.024109	0.543566
374.482361	720.810730	5960.936035	751.943542	0.594123
374.846436	720.959290	6026.768066	746.147949	0.474737
375.210510	720.513489	6113.554199	740.203796	0.365106
375.574524	726.680664	6223.893066	747.188171	0.373053
375.938538	728.835449	6378.740234	749.640137	0.368231
376.302460	729.058289	6518.949219	754.544128	0.440178
376.666412	729.281189	6685.685059	747.039551	0.298139
377.030304	730.618652	6841.645996	749.565918	0.310050
377.394196	737.305908	7020.195313	745.404968	0.128907
377.757996	734.482422	7163.079590	743.993164	0.147944
378.121796	720.736389	7226.013672	738.643372	0.275269
378.485565	713.008972	7218.286621	743.918762	0.475149
378.849304	717.912903	7128.007813	753.652527	0.557552
379.212982	725.268860	6988.542480	752.686523	0.437753
379.576630	724.748718	6807.912598	753.578186	0.473922
379.940277	715.238037	6667.108887	744.290344	0.488121
380.303864	715.683838	6580.546387	747.633972	0.544772
380.667450	715.758118	6573.784668	742.432800	0.455353
381.030945	723.039795	6572.224609	738.123230	0.257872
381.394501	725.863281	6608.558105	743.101501	0.293033
381.757935	724.302979	6632.632324	750.160156	0.437639
382.121399	720.067688	6641.919922	760.116760	0.676293
382.484741	718.804504	6668.817871	763.757629	0.755513
382.848145	715.163635	6682.935059	755.212891	0.671092
383.211487	714.866455	6736.285156	756.401672	0.689791
383.574768	709.145081	6836.816406	751.794922	0.696020
383.938019	718.210022	6955.626465	757.887695	0.636124
384.301270	720.959290	7095.910156	752.240723	0.490693
384.664459	727.869446	7151.711426	757.293396	0.458043
385.027649	729.132629	7211.079590	755.658691	0.409230
385.390778	727.572266	7262.942871	757.887756	0.463868
385.753876	724.674377	7306.410156	748.525635	0.362386
386.116943	717.912903	7343.264160	749.417236	0.475512
386.479980	717.764221	7360.501953	748.971436	0.469794
386.842987	719.919006	7413.925781	750.457520	0.456207
387.205994	721.107910	7461.182129	758.705078	0.557815
387.568909	724.897278	7515.794922	761.974426	0.545983
387.931793	720.364807	7561.639160	769.850525	0.723341
388.294678	717.764221	7616.771973	770.444885	0.763598
388.657471	711.522888	7630.369629	771.633789	0.868799
389.020294	710.779846	7651.992188	780.847229	1.009440
389.383057	718.358704	7665.662598	782.481934	0.922994
389.745819	718.210144	7693.601074	797.119568	1.131254
390.108521	722.445313	7696.350098	804.326965	1.174115
390.471191	721.702332	7751.482910	820.822205	1.409999
390.833801	729.132629	7873.414063	827.806641	1.381161
391.196442	733.293640	8062.216797	841.181152	1.472079
391.558960	731.510254	8251.093750	851.434875	1.594831
391.921509	726.680664	8436.478516	866.592590	1.814729
392.284027	719.621887	8611.165039	877.663757	2.002674
392.646484	716.946960	8707.312500	892.375671	2.195503
393.008911	726.234863	8699.511719	912.065918	2.330673
393.371307	733.590820	8640.811523	928.709717	2.467604
393.733673	735.819824	8573.344727	945.650696	2.677259
394.096008	725.714661	8554.843750	964.672180	3.052160
394.458344	716.649719	8556.329102	994.541992	3.544689
394.820587	716.129639	8594.819336	1024.857544	3.918519
395.182831	720.067688	8641.183594	1043.878906	4.087950
395.545013	724.154297	8600.911133	1069.290527	4.381705
395.907196	725.863281	8514.571289	1090.243774	4.678318
396.269287	729.058289	8346.573242	1115.506714	5.073156
396.631409	728.463867	8225.831055	1132.893555	5.394289
396.993469	722.816833	8100.185059	1158.527954	5.906051
397.355530	718.655945	8030.711426	1195.010742	6.514649
397.717499	712.637390	8000.024902	1228.223999	7.075054
398.079468	718.061523	7967.926270	1268.867554	7.597466
398.441376	715.163635	7987.765625	1301.709473	8.065145
398.803284	721.702332	7984.644531	1336.854614	8.469739
399.165131	724.302979	8040.148438	1363.677979	8.739591
399.526978	723.931396	8039.257324	1394.587891	9.167828
399.888763	722.073914	8040.148926	1429.881714	9.672049
400.250519	716.946960	8029.672363	1467.776001	10.267431
400.612244	721.627991	8067.937988	1509.014038	10.718116
400.973938	722.371094	8098.328125	1548.171509	11.195841
401.335602	726.011902	8112.148438	1586.065796	11.644164
401.697205	725.045898	8122.402344	1630.276001	12.237211
402.058807	724.748718	8189.646484	1679.241577	12.786415
402.420349	721.925232	8296.196289	1738.980957	13.427771
402.781860	715.832336	8416.640625	1784.454102	13.876749
403.143341	718.581604	8552.541016	1832.453735	14.218507
403.504822	720.439148	8695.796875	1876.515137	14.495600
403.866241	726.160461	8881.627930	1943.759155	14.929845
404.227631	718.061523	9036.102539	2000.675171	15.419660
404.588959	717.467102	9221.042969	2065.541260	15.853027
404.950287	719.176025	9366.006836	2111.683350	16.104250
405.311554	730.098633	9478.649414	2170.010986	16.458868
405.672821	730.247253	9530.883789	2210.654541	16.821592
406.034027	725.417480	9512.382813	2248.325928	17.331450
406.395203	721.702332	9427.975586	2260.511475	17.674715
406.756348	720.290527	9332.570313	2284.734375	18.165270
407.117493	719.770508	9259.976563	2305.018799	18.562178
407.478516	719.696106	9255.220703	2334.442871	18.917957
407.839600	720.959290	9253.511719	2353.538818	19.133543
408.200592	719.398926	9244.446289	2375.458252	19.425810
408.561554	717.541321	9219.036133	2407.259766	19.875546
408.922485	712.563049	9246.454102	2431.705322	20.144884
409.283417	720.439148	9276.100586	2471.977295	20.472271
409.644257	720.884949	9389.412109	2505.190674	20.583723
410.005096	724.005676	9488.680664	2566.341553	21.020014
410.365906	720.216248	9602.660156	2616.347412	21.346952
410.726715	724.897278	9701.780273	2672.000000	21.690187
411.087433	721.479431	9792.058594	2714.724365	21.974836
411.448120	714.643555	9863.166016	2749.349365	22.240814
411.808807	710.779785	9877.952148	2792.667969	22.710257
412.169434	709.813965	9836.862305	2795.863037	22.855680
412.530029	713.826172	9798.670898	2809.311523	23.065725
412.890564	715.237976	9763.081055	2793.187744	22.966244
413.251099	721.702393	9739.303711	2813.769531	23.199818
413.611572	726.309143	9764.418945	2838.289795	23.367506
413.972076	728.761047	9810.485352	2879.601807	23.683176
414.332489	733.367859	9881.221680	2911.477783	23.810064
414.692871	733.665039	10022.694336	2958.957031	23.956131
415.053223	721.999573	10160.451172	3004.356201	24.181475
415.413574	717.615723	10383.953125	3086.311768	24.504585
415.773834	718.655945	10528.545898	3151.624268	24.801178
416.134094	724.080017	10698.550781	3223.995117	25.063135
416.494263	723.039856	10823.602539	3273.629150	25.251953
416.854462	717.244202	11072.516602	3345.925781	25.384958
417.214630	713.454773	11340.824219	3431.448242	25.575411
417.574738	716.724121	11634.541992	3523.286377	25.706255
417.934784	713.529053	11936.805664	3625.601563	25.946724
418.294861	721.553711	12295.465820	3721.823486	25.922693
418.654846	717.541321	12759.116211	3842.342529	25.950104
419.014832	725.937561	13188.957031	3967.839600	26.012173
419.374756	726.977844	13673.855469	4121.943359	26.222273
419.734680	733.219238	14153.034180	4274.858398	26.391119
420.094543	730.395752	14662.825195	4419.303223	26.477129
420.454376	726.829163	15142.894531	4549.332520	26.515581
420.814148	721.999512	15613.304688	4676.093262	26.553038
421.173920	719.919128	16106.304688	4822.989746	26.666891
421.533691	727.275085	16547.810547	4965.205078	26.787527
421.893341	728.092346	16913.380859	5103.705566	27.034510
422.253021	728.389587	17128.486328	5167.605469	27.068228
422.612640	719.398926	17195.062500	5202.082031	27.207905
422.972260	717.318542	17112.955078	5202.602051	27.356569
423.331757	714.494934	17018.962891	5221.178223	27.640787
423.691315	716.575439	17007.447266	5264.867676	27.919266
424.050781	724.302917	17158.208984	5312.644043	27.919968
424.410248	732.550537	17304.361328	5368.148438	27.972790
424.769653	736.265686	17446.947266	5403.813477	27.931522
425.128998	730.544373	17451.257813	5436.135254	28.142286
425.488373	730.470032	17344.927734	5427.664551	28.271729
425.847656	735.076843	17134.353516	5374.167480	28.288385
426.206940	733.516418	16917.318359	5336.347168	28.440971
426.566193	725.491760	16592.837891	5255.951660	28.552097
426.925385	718.655945	16248.742188	5197.921387	28.842505
427.284576	713.231873	15763.916992	5074.727051	28.978714
427.643677	711.299988	15407.413086	5001.687500	29.194031
428.002777	703.349548	15061.829102	4916.388184	29.341816
428.361847	705.652893	14736.086914	4842.977051	29.488214
428.720856	715.312317	14431.074219	4770.829102	29.568295
429.079865	715.460938	14183.645508	4709.231934	29.653374
429.438812	714.569336	14023.078125	4687.387207	29.851713
429.797760	715.386536	13928.045898	4669.405762	29.925991
430.156616	720.662109	13767.551758	4649.641113	30.114296
430.515503	724.674500	13684.257813	4614.867676	30.017887
430.874268	716.798340	13642.945313	4613.529785	30.146118
431.233093	715.980957	13667.687500	4635.375000	30.261602
431.591827	720.067688	13740.504883	4660.118164	30.260508
431.950562	722.742493	13731.514648	4679.213867	30.413872
432.309204	717.838562	13814.808594	4694.000488	30.359404
432.667877	716.129639	13917.643555	4735.089844	30.443178
433.026459	723.782898	14078.210938	4782.123535	30.389475
433.385010	728.389587	14207.051758	4842.308594	30.521715
433.743561	731.510254	14368.882813	4905.020020	30.603474
434.102051	723.262695	14487.171875	4960.449707	30.784765
434.460510	734.259521	14663.641602	5026.504883	30.814325
434.818939	733.367859	14753.698242	5067.074219	30.910160
435.177338	733.739319	14825.770508	5086.764648	30.889978
435.535675	721.999512	14773.015625	5077.848145	31.000240
435.894012	716.203918	14697.003906	5055.111328	31.034758
436.252289	714.866455	14687.343750	5063.730469	31.124504
436.610535	717.689941	14692.620117	5077.922363	31.200390
436.968719	716.426819	14805.262695	5120.200684	31.257189
437.326935	722.371033	14910.772461	5177.190918	31.397615
437.685028	723.336914	15027.799805	5217.166016	31.415573
438.043152	730.024170	15131.897461	5267.097168	31.503355
438.401215	733.144958	15346.409180	5335.158691	31.492029
438.759277	729.355469	15591.756836	5427.293457	31.609549
439.117249	721.033630	15954.057617	5559.404297	31.762377
439.475250	719.176025	16259.885742	5642.474609	31.680012
439.833130	721.850891	16671.970703	5762.398926	31.601942
440.191071	725.937561	16969.033203	5839.153809	31.479321
440.548889	722.593933	17250.935547	5956.923828	31.668816
440.906708	718.655945	17557.583984	6065.851563	31.754967
441.264496	723.262695	17786.361328	6162.742188	31.878616
441.622223	719.250305	17979.251953	6224.339355	31.895065
441.979950	716.724121	17990.546875	6255.768066	32.066116
442.337616	719.101746	17957.406250	6258.740723	32.135639
442.695251	720.810730	17800.255859	6224.115723	32.221802
443.052887	730.692871	17596.296875	6151.001953	32.138245
443.410461	718.061523	17433.720703	6119.349121	32.312740
443.768005	721.776611	17322.044922	6107.386719	32.442913
444.125458	725.491760	17208.734375	6111.398926	32.675049
444.482941	733.516541	17241.873047	6122.841309	32.646038
444.840393	734.036621	17359.046875	6159.992676	32.637310
445.197754	727.349365	17687.912109	6262.902344	32.637791
445.555084	725.714661	17960.900391	6354.294434	32.657494
445.912415	727.423645	18352.029297	6476.894531	32.621841
446.269714	724.451477	18621.453125	6571.481934	32.670444
446.626953	723.857117	18976.693359	6706.563965	32.776863
446.984161	717.838562	19285.646484	6824.407715	32.887939
447.341309	720.439209	19537.603516	6921.818848	32.955975
447.698456	723.411316	19677.068359	6989.285156	33.058918
448.055542	728.166687	19721.279297	7035.501465	33.208538
448.412598	732.847717	19696.685547	7025.099121	33.180264
448.769653	732.922058	19526.681641	6987.725098	33.281277
449.126617	729.875671	19226.869141	6903.019531	33.373768
449.483582	723.559875	18941.845703	6866.091309	33.716297
449.840515	719.473328	18613.576172	6777.521973	33.855000
450.197388	716.872620	18350.841797	6715.702637	34.018604
450.554230	714.123474	18143.236328	6645.263672	34.030075
450.911041	716.203918	17994.335938	6596.669922	34.034149
451.267822	715.312317	17855.091797	6544.806152	34.011486
451.624573	720.513489	17644.220703	6480.088379	34.032585
451.981262	712.414551	17537.001953	6447.470215	34.087349
452.337921	710.928467	17388.025391	6396.943848	34.094757
452.694580	709.293762	17338.615234	6391.222656	34.168133
453.051147	715.238037	17306.369141	6395.532715	34.236935
453.407715	717.838623	17248.857422	6411.061035	34.439632
453.764221	720.513489	17268.919922	6438.777344	34.554771
454.120728	718.730225	17061.466797	6373.167969	34.599087
454.477142	723.411316	16993.478516	6348.350098	34.572315
454.833557	722.593933	16784.912109	6274.195313	34.562889
455.189911	729.281250	16638.906250	6224.784668	34.542004
455.546265	728.761047	16449.062500	6167.720703	34.598316
455.902557	732.476257	16347.491211	6128.934082	34.559418
456.258820	730.767273	16341.397461	6158.804199	34.771416
456.615051	730.544373	16441.408203	6196.697754	34.792187
456.971252	721.553711	16418.451172	6194.320801	34.865280
457.327393	714.494934	16588.677734	6254.951660	34.902309
457.683502	715.089355	16796.798828	6332.673340	34.931511
458.039612	722.519714	17250.269531	6490.491699	34.898712
458.395630	720.141907	17698.388672	6648.384277	34.916695
458.751648	717.615723	18156.615234	6803.603027	34.898716
459.107605	716.724060	18813.298828	7042.263184	34.954346
459.463562	730.544373	19462.705078	7267.251465	34.895638
459.819458	731.361633	20101.486328	7515.720215	35.024857
460.175323	735.745544	20652.812500	7718.119629	35.057240
460.531158	727.646545	21158.814453	7925.572754	35.230125
460.886932	723.188477	21447.035156	8045.795410	35.334206
461.242676	717.021301	21531.962891	8091.269043	35.427666
461.598419	718.135803	21283.568359	8031.604004	35.561947
461.954102	716.055359	20847.857422	7904.025879	35.704556
462.309723	712.785950	20175.419922	7703.557129	35.918934
462.665344	712.340149	19538.496094	7502.939941	36.070026
463.020905	723.039734	19019.861328	7329.443359	36.106838
463.376373	723.114075	18599.828125	7186.261719	36.153999
463.731873	717.244141	18275.646484	7050.436035	36.069294
464.087341	711.894348	18008.601563	6940.319824	36.009312
464.442749	715.312317	17880.652344	6889.794434	35.970634
464.798126	722.816895	17796.095703	6866.611328	35.984852
465.153503	727.572266	17878.943359	6896.630371	35.968307
465.508820	727.497864	17942.398438	6916.468750	35.951244
465.864105	725.937561	18096.427734	6953.992188	35.854225
466.219330	720.810730	18362.876953	7055.191895	35.904984
466.574524	723.634094	18563.644531	7147.029785	36.005562
466.929657	730.618652	18728.224609	7242.360840	36.181160
467.284790	733.962219	18844.656250	7293.554688	36.219444
467.639893	733.293518	18976.025391	7354.334473	36.294128
467.994934	725.566101	19131.761719	7421.950684	36.381145
468.349945	720.587830	19186.373047	7448.030762	36.431934
468.704926	718.730225	19129.011719	7445.801270	36.539753
469.059875	714.049133	18902.166016	7364.068848	36.562439
469.414764	719.473206	18664.769531	7298.087402	36.659267
469.769653	719.621887	18504.943359	7232.255371	36.618023
470.124451	719.993408	18460.806641	7213.011230	36.599323
470.479248	714.272034	18297.341797	7168.652344	36.707924
470.834015	712.414490	18190.716797	7143.834473	36.796593
471.188721	716.946960	18201.861328	7174.299316	36.930992
471.543365	721.553711	18329.216797	7198.373535	36.784096
471.898010	722.965515	18502.492188	7220.367188	36.544289
472.252625	720.513489	18641.140625	7274.905762	36.574570
472.607178	718.878845	18901.125000	7379.671875	36.633499
472.961700	720.662109	19088.443359	7476.636719	36.781658
473.316193	728.463867	19372.056641	7556.511719	36.624096
473.670654	728.018066	19514.197266	7618.108887	36.676380
474.025055	721.107910	19741.119141	7724.808105	36.822796
474.379456	715.535156	19908.447266	7818.355469	37.007519
474.733795	717.764343	20046.949219	7867.840332	36.991089
475.088104	722.296814	20184.259766	7898.304688	36.871964
475.442383	720.513489	20222.525391	7884.335938	36.733761
475.796570	714.494934	20321.423828	7931.964355	36.810806
476.150787	710.259705	20495.810547	7996.087402	36.823982
476.504944	720.364929	20729.046875	8092.309082	36.843727
476.859070	729.281250	21023.955078	8179.392090	36.709686
477.213135	737.380188	21324.287109	8290.399414	36.688461
477.567200	730.767273	21723.960938	8447.401367	36.757793
477.921173	727.869446	22134.408203	8614.211914	36.840809
478.275146	716.872742	22579.406250	8787.412109	36.914932
478.629089	718.953125	22896.531250	8889.131836	36.839813
478.983002	718.284424	23329.494141	9028.152344	36.751102
479.336823	721.330811	23668.912109	9155.432617	36.753769
479.690643	724.080078	24107.296875	9334.129883	36.821495
480.044403	718.655945	24575.625000	9515.355469	36.872662
480.398163	724.228699	25257.126953	9768.282227	36.865002
480.751862	715.980957	26127.882813	10079.239258	36.845955
481.105499	711.002686	27231.279297	10493.178711	36.885647
481.459137	708.550781	28680.927734	11006.090820	36.813248
481.812744	717.021301	30518.654297	11653.043945	36.696053
482.166290	730.470032	32763.931641	12452.616211	36.593445
482.519806	734.482361	35505.183594	13422.265625	36.489868
482.873291	732.401855	38694.777344	14585.401367	36.491394
483.226715	732.847717	42302.621094	15925.672852	36.547771
483.580139	730.172852	45790.609375	17368.185547	36.923767
483.933502	724.451477	49108.675781	18828.162109	37.416557
484.286804	716.426819	51761.062500	20204.693359	38.178871
484.640106	714.494934	53774.593750	21387.888672	38.962223
484.993347	716.129639	54840.390625	22196.154297	39.686501
485.346558	721.850891	55034.324219	22491.208984	40.081692
485.699738	719.919128	54350.957031	22205.294922	40.061455
486.052887	724.377197	53019.894531	21505.806641	39.738453
486.405975	724.748718	51417.042969	20626.955078	39.260815
486.759064	723.262695	49846.128906	19795.062500	38.824688
487.112061	718.061523	48611.140625	19138.523438	38.461636
487.464996	712.117371	47915.894531	18733.054688	38.176899
487.817963	715.386536	47776.425781	18612.087891	38.028698
488.170868	715.460938	47816.402344	18583.183594	37.934959
488.523743	716.055359	47902.519531	18640.396484	37.986195
488.876587	720.290588	47686.968750	18588.384766	38.044193
489.229401	724.228699	47258.093750	18478.044922	38.152466
489.582153	717.095520	46388.156250	18147.326172	38.164715
489.934845	711.968689	45325.175781	17735.093750	38.157143
490.287537	710.333984	44272.828125	17270.701172	38.015198
490.640198	715.832458	43422.363281	16899.781250	37.895725
490.992798	718.358704	42808.917969	16608.365234	37.751949
491.345337	719.844910	42628.730469	16550.187500	37.773235
491.697876	726.680664	42745.093750	16608.886719	37.798206
492.050354	729.355530	43172.335938	16809.132813	37.885597
492.402832	724.377258	43438.417969	16913.751953	37.901764
492.755219	723.411316	43265.808594	16902.679688	38.030926
493.107605	723.782776	42554.953125	16661.642578	38.100437
493.459930	723.634216	41241.203125	16266.723633	38.361359
493.812225	730.618652	39500.964844	15673.342773	38.541634
494.164490	730.024231	37490.476563	14960.926758	38.712532
494.516724	728.686768	35486.457031	14127.547852	38.549255
494.868896	719.250305	33689.445313	13366.985352	38.361118
495.221039	717.615723	32265.585938	12751.684570	38.145302
495.573120	728.092346	31122.212891	12328.902344	38.167938
495.925201	730.321472	30505.353516	12085.040039	38.135036
496.277222	730.841492	30159.548828	11947.952148	38.116219
496.629211	720.662109	30147.806641	11904.558594	38.005375
496.981140	714.866455	30137.109375	11892.668945	37.990997
497.333069	708.996582	30245.070313	11933.463867	38.002567
497.684967	717.021301	30323.384766	11974.625977	38.024273
498.036804	716.501160	30364.548828	11983.691406	38.003147
498.388580	718.210144	30251.537109	11944.309570	38.011635
498.740326	707.584778	30042.599609	11871.122070	38.055332
499.092072	711.077087	29740.033203	11766.579102	38.084393
499.443756	712.860352	29411.099609	11670.059570	38.180737
499.795410	717.615723	29090.927734	11547.088867	38.167812
500.147003	718.210144	28750.771484	11422.780273	38.186203
500.498566	718.655945	28391.812500	11271.500000	38.133865
500.850098	719.919006	27986.640625	11166.583008	38.312874
501.201599	716.575439	27647.521484	11047.179688	38.359608
501.553009	714.569275	27288.416016	10939.589844	38.477757
501.904449	715.238037	27052.208984	10835.566406	38.426319
502.255859	720.959290	26829.302734	10739.566406	38.373203
502.607178	721.702332	26765.625000	10701.152344	38.317772
502.958405	725.417480	26692.804688	10656.421875	38.244141
503.309692	725.566101	26650.228516	10657.016602	38.308891
503.660919	725.640381	26601.931641	10648.323242	38.346619
504.012115	725.863281	26664.867188	10664.000977	38.313492
504.363251	720.736328	26739.248047	10699.072266	38.350910
504.714294	723.262695	26847.134766	10729.089844	38.301472
505.065369	720.290527	26861.322266	10775.901367	38.466774
505.416443	724.302917	26867.416016	10802.575195	38.550392
505.767395	726.829285	26904.718750	10801.833008	38.486694
506.118317	720.141907	26887.554688	10773.894531	38.420891
506.469238	715.386536	26915.640625	10767.207031	38.365356
506.820160	710.482605	26896.990234	10775.530273	38.436005
507.170929	720.810730	26932.876953	10809.782227	38.489799
507.521729	727.646545	27030.437500	10822.860352	38.380772
507.872498	730.098450	27080.962891	10847.379883	38.394493
508.223236	729.578430	27270.513672	10918.413086	38.389133
508.573883	720.364807	27376.021484	10990.635742	38.529423
508.924500	721.627991	27575.599609	11071.105469	38.539841
509.275116	717.764343	27754.296875	11122.523438	38.484070
509.625702	722.593994	28013.984375	11204.924805	38.408928
509.976196	720.364929	28302.501953	11340.750000	38.504578
510.326660	719.770508	28551.265625	11454.804688	38.571529
510.677124	722.891113	28804.712891	11578.295898	38.656338
511.027557	722.445313	29004.662109	11647.769531	38.629662
511.377869	722.073914	29217.984375	11721.997070	38.601761
511.728180	723.708496	29340.880859	11780.472656	38.636814
512.078430	719.844788	29480.421875	11849.128906	38.696320
512.428650	720.067688	29596.333984	11904.856445	38.733501
512.778931	712.042969	29734.685547	11956.718750	38.744492
513.129028	723.634216	29793.830078	11961.252930	38.656841
513.479126	725.417480	29807.947266	11983.988281	38.712486
513.829285	731.881836	29757.197266	11974.254883	38.732990
514.179382	726.829163	29688.767578	11972.026367	38.827503
514.529297	724.525696	29584.443359	11958.206055	38.924854
514.879272	724.897278	29573.447266	11952.558594	38.919323
515.229187	721.776611	29480.494141	11923.877930	38.952023
515.579163	726.234802	29538.525391	11932.421875	38.893776
515.928955	724.600098	29535.625000	11924.769531	38.874596
516.278748	717.912903	29804.380859	12004.570313	38.803806
516.628540	711.374268	30066.146484	12099.010742	38.793137
516.978333	710.408386	30555.580078	12274.958008	38.748478
517.327942	719.993408	31088.037109	12456.554688	38.647736
517.677612	720.439209	31709.353516	12668.316406	38.555325
518.027222	718.581604	32332.607422	12889.367188	38.498055
518.376831	712.563171	33026.519531	13172.609375	38.559330
518.726379	716.352539	33713.222656	13441.882813	38.565868
519.075867	722.742493	34272.652344	13679.799805	38.620247
519.425293	727.052063	34653.968750	13864.887695	38.723930
519.774658	728.686829	34802.652344	13975.971680	38.878025
520.124084	724.600159	34757.699219	14034.151367	39.107666
520.473389	718.878906	34467.621094	13931.315430	39.149418
520.822693	715.609558	34089.863281	13780.480469	39.146557
521.171997	717.021240	33657.570313	13610.473633	39.141579
521.521240	719.844727	33229.214844	13448.940430	39.155159
521.870361	718.135742	32823.375000	13311.628906	39.225666
522.219482	719.101746	32466.945313	13145.488281	39.140884
522.568604	724.748718	32231.478516	13033.291992	39.066391
522.917664	726.309082	32088.671875	12969.688477	39.038445
523.266724	726.383362	32173.078125	12978.828125	38.962582
523.615662	723.485596	32415.755859	13068.139648	38.951626
523.964600	730.247131	32853.468750	13212.510742	38.857449
524.313538	723.114075	33369.722656	13411.864258	38.866978
524.662354	724.154297	34054.496094	13669.026367	38.838100
525.011169	714.346375	34932.535156	14002.346680	38.833149
525.359985	720.810730	36002.492188	14426.393555	38.846176
525.708740	724.302917	37282.652344	14902.526367	38.782452
526.057434	732.030457	38654.800781	15423.833008	38.741375
526.406067	727.497986	40217.160156	16016.398438	38.716209
526.754700	726.754883	41854.792969	16705.109375	38.850269
527.103333	728.018066	43783.394531	17477.261719	38.901634
527.451782	730.692932	45926.511719	18333.451172	38.947758
527.800293	729.652771	48109.152344	19294.261719	39.182789
528.148743	728.835449	50213.187500	20330.562500	39.611969
528.497131	733.070618	52009.378906	21354.302734	40.215908
528.845642	718.953125	53560.519531	22270.158203	40.784569
529.193909	716.203918	54727.667969	23082.880859	41.410980
529.542175	711.671387	55507.031250	23711.781250	41.974556
529.890503	721.405090	55802.160156	24015.828125	42.291405
530.238770	718.953125	55556.000000	23970.208984	42.400635
530.586914	717.615723	54788.300781	23582.716797	42.287430
530.934998	718.284424	53497.511719	22877.435547	41.984608
531.283142	713.380432	51917.980469	21987.437500	41.547157
531.631226	713.529053	50084.417969	20970.605469	41.030403
531.979248	715.312256	48289.484375	20053.337891	40.648159
532.327148	720.290527	46704.093750	19212.529297	40.214676
532.675110	724.302917	45583.902344	18629.328125	39.913479
533.023071	721.702332	45033.468750	18291.767578	39.651012
533.370850	725.343079	44908.046875	18217.986328	39.591606
533.718689	730.098572	45118.843750	18276.759766	39.529530
534.066467	737.751770	45379.792969	18390.890625	39.543751
534.414246	740.649597	45451.718750	18429.673828	39.562962
534.761963	742.507080	45341.230469	18428.337891	39.655464
535.109619	742.061279	44932.417969	18328.103516	39.796112
535.457153	735.819885	44332.269531	18131.349609	39.901253
535.804749	725.268860	43502.753906	17793.718750	39.900543
536.152344	719.101807	42613.132813	17389.660156	39.792206
536.499817	721.033630	41679.667969	16975.794922	39.685802
536.847229	723.782776	40795.832031	16601.234375	39.622257
537.194641	726.531982	39982.964844	16273.929688	39.604713
537.542114	724.377197	39376.285156	16020.632813	39.574390
537.889404	724.674500	38812.699219	15790.887695	39.556301
538.236694	728.686768	38361.089844	15623.557617	39.579910
538.583984	724.822998	37935.105469	15467.746094	39.620564
538.931213	722.148132	37733.816406	15365.208008	39.563362
539.278381	716.946960	37568.566406	15296.032227	39.561584
539.625488	719.993347	37569.316406	15290.235352	39.540054
539.972595	719.324646	37863.105469	15402.804688	39.531464
540.319641	718.953125	38562.519531	15619.992188	39.375355
540.666687	724.822998	39601.421875	15954.057617	39.173271
541.013611	726.903503	40894.878906	16440.146484	39.118832
541.360596	721.182312	42318.964844	16998.826172	39.131039
541.707458	721.405090	43731.828125	17594.736328	39.230797
542.054260	717.392822	44878.988281	18097.542969	39.355804
542.401062	723.114075	45824.343750	18564.535156	39.558613
542.747864	718.358704	46370.917969	18837.671875	39.689587
543.094666	721.405090	46319.125000	18940.357422	39.955845
543.441284	719.176086	45637.699219	18751.183594	40.143814
543.787903	720.364929	44561.644531	18381.974609	40.285339
544.134460	713.603333	43309.125000	17832.132813	40.188564
544.481079	714.271973	41910.894531	17231.916016	40.094658
544.827637	715.906738	40306.179688	16569.728516	40.044739
545.174072	725.343079	38691.136719	15903.011719	39.977222
545.520508	728.092346	37330.652344	15294.472656	39.796070
545.866943	727.126465	36236.027344	14812.620117	39.667500
546.213318	722.519714	35416.390625	14494.901367	39.696873
546.559631	725.937683	34731.324219	14222.507813	39.689507
546.905823	721.107910	34176.578125	13982.659180	39.639412
547.252136	719.993408	33711.519531	13743.254883	39.474564
547.598389	713.454773	33172.972656	13545.757813	39.533253
547.944458	710.185364	32731.908203	13406.215820	39.648182
548.290588	720.364929	32193.734375	13231.085938	39.750179
548.636658	720.736328	31625.390625	12996.883789	39.722649
548.982727	724.525818	30912.234375	12709.554688	39.701687
549.328735	719.993347	30201.826172	12430.176758	39.720001
549.674622	725.045959	29446.986328	12144.780273	39.759621
550.020569	731.064453	28714.955078	11884.645508	39.857151
550.366455	732.476257	27964.720703	11571.460938	39.802025
550.712280	728.909668	27347.638672	11308.949219	39.746597
551.058044	726.011902	26865.412109	11104.245117	39.703411
551.403748	725.937500	26474.431641	10955.491211	39.728745
551.749512	724.451477	26215.857422	10836.754883	39.669460
552.095154	721.182190	26037.158203	10720.619141	39.498524
552.440735	719.101746	25974.296875	10694.167969	39.497086
552.786316	720.810608	25939.974609	10680.199219	39.491352
553.131897	728.389587	25973.333984	10702.266602	39.508411
553.477417	724.451477	26031.958984	10705.016602	39.437172
553.822815	721.925232	26038.349609	10722.402344	39.501938
554.168213	719.473206	25967.015625	10690.156250	39.491695
554.513672	727.423584	25843.154297	10653.301758	39.520561
554.859009	730.247070	25666.166016	10587.691406	39.531105
555.204285	729.578369	25480.927734	10531.592773	39.601940
555.549500	724.377197	25213.958984	10436.931641	39.659946
555.894714	722.519714	24973.587891	10354.010742	39.715740
556.239990	719.770447	24627.787109	10231.411133	39.784313
556.585022	722.222412	24374.562500	10112.897461	39.702942
556.930115	726.383484	24099.716797	9979.598633	39.588768
557.275146	733.590759	23844.484375	9882.856445	39.588539
557.620178	731.658936	23635.474609	9801.643555	39.600319
557.965149	729.132568	23445.703125	9748.888672	39.705624
558.310059	721.182190	23293.978516	9673.768555	39.660950
558.654968	717.021240	23134.302734	9618.635742	39.708714
558.999756	712.934570	23023.960938	9565.956055	39.680027
559.344604	715.981018	23005.906250	9546.933594	39.618580
559.689331	714.792175	22947.056641	9528.284180	39.642803
560.033997	719.176086	22890.958984	9506.215820	39.631634
560.378723	718.358704	22828.619141	9498.859375	39.712337
560.723389	721.776672	22827.357422	9483.329102	39.635029
561.067932	716.055359	22863.541016	9487.491211	39.604656
561.412476	713.157532	22846.900391	9480.284180	39.609783
561.757019	712.860352	22849.724609	9492.692383	39.661591
562.101501	715.015137	22823.195313	9504.804688	39.758087
562.445862	719.770508	22854.701172	9490.166992	39.622429
562.790222	717.764343	22817.843750	9461.708984	39.565216
563.134644	713.231873	22800.310547	9443.281250	39.525597
563.478943	715.386658	22784.484375	9452.495117	39.589787
563.823181	723.262695	22786.117188	9447.293945	39.541714
564.167358	737.825989	22835.601563	9447.740234	39.415344
564.511536	726.606262	22902.552734	9460.446289	39.384293
564.855774	725.491699	22950.771484	9474.116211	39.363396
565.199768	715.312317	23051.529297	9515.354492	39.398087
565.543823	718.433044	23172.271484	9555.255859	39.355515
565.887817	723.411316	23455.437500	9650.438477	39.270710
566.231812	726.680664	23636.216797	9709.879883	39.211617
566.575745	724.674500	23821.677734	9776.826172	39.191887
566.919617	715.683777	23944.197266	9838.943359	39.276123
567.263428	715.163635	24088.273438	9904.924805	39.317665
567.607239	725.566101	24193.634766	9975.066406	39.413128
567.950989	727.200745	24220.681641	9995.499023	39.450508
568.294678	726.234863	24225.806641	9993.196289	39.434593
568.638367	722.148193	24076.681641	9926.249023	39.410339
568.981995	721.182312	23905.193359	9887.611328	39.537716
569.325623	723.634277	23698.037109	9818.659180	39.587646
569.669128	716.575439	23597.353516	9767.390625	39.556416
570.012573	719.696106	23480.476563	9689.594727	39.409451
570.356140	719.176025	23437.603516	9652.741211	39.322990
570.699524	721.033508	23446.818359	9630.821289	39.205635
571.042908	719.250305	23577.068359	9656.901367	39.101070
571.386230	716.501160	23707.248047	9702.746094	39.086357
571.729492	728.166687	23818.257813	9742.870117	39.041435
572.072815	733.888000	23941.228516	9794.362305	39.041420
572.416016	740.426575	24045.251953	9832.924805	39.015514
572.759094	732.847717	24221.869141	9894.374023	39.003441
573.102234	733.293640	24289.783203	9909.084961	38.952286
573.445374	727.720886	24329.609375	9910.571289	38.907269
573.788391	724.822998	24289.708984	9897.717773	38.926113
574.131409	715.609436	24245.421875	9908.788086	39.070343
574.474365	713.603333	24190.884766	9903.735352	39.144787
574.817261	717.244141	24081.734375	9864.725586	39.151215
575.160156	718.358704	23922.724609	9774.002930	39.025608
575.502930	715.089355	23725.380859	9677.557617	38.949829
575.845703	712.934570	23498.978516	9589.508789	38.956192
576.188477	713.157532	23255.265625	9495.368164	38.959141
576.531250	723.039734	23005.087891	9391.641602	38.903969
576.873901	726.754883	22751.865234	9308.942383	38.965469
577.216431	728.092346	22503.843750	9225.128906	39.020634
577.559082	722.816895	22234.494141	9134.479492	39.102772
577.901611	723.782776	21915.662109	8990.629883	39.009502
578.244080	719.696106	21595.787109	8867.509766	39.029400
578.586487	728.018066	21231.779297	8753.676758	39.142372
578.928955	732.996338	20909.675781	8632.639648	39.152348
579.271301	740.426575	20575.611328	8492.875977	39.084328
579.613647	736.117004	20253.212891	8350.139648	39.012066
579.955872	725.268860	19950.949219	8238.909180	39.081272
580.298157	715.981018	19630.556641	8127.157715	39.182358
580.640320	717.541443	19371.091797	8021.572754	39.156250
580.982483	719.176025	19157.619141	7924.385254	39.077099
581.324524	733.590759	18971.564453	7859.816406	39.073559
581.666626	728.240967	18860.037109	7795.989746	38.979858
582.008728	726.829163	18747.839844	7744.721191	38.942837
582.350647	723.857117	18688.916016	7697.687500	38.818859
582.692566	731.361633	18548.041016	7663.359863	38.907352
583.034424	728.909668	18447.361328	7634.679199	38.975018
583.376343	726.829285	18339.621094	7591.806641	38.977226
583.718201	718.730286	18290.431641	7538.382813	38.810429
584.059937	726.160461	18215.611328	7496.921875	38.713402
584.401611	719.770508	18132.763672	7457.986816	38.696487
584.743347	719.844727	18063.289063	7457.912598	38.850803
585.085022	718.953125	17938.162109	7432.055176	38.986122
585.426514	722.148132	17871.884766	7394.012207	38.903595
585.768127	727.052063	17773.285156	7347.796387	38.839928
586.109619	726.234863	17702.400391	7322.161621	38.854042
586.451172	724.748779	17642.662109	7315.400391	38.956642
586.792542	722.296692	17616.060547	7294.001465	38.900181
587.133850	722.519714	17615.318359	7268.812500	38.751972
587.475220	725.417480	17589.535156	7260.787109	38.753109
587.816589	717.095520	17591.763672	7249.270996	38.709949
588.157776	719.027527	17650.462891	7259.152832	38.627117
588.498962	717.912903	17720.677734	7279.363281	38.590488
588.840210	726.903564	17778.708984	7295.189453	38.519596
589.181335	724.228699	17829.681641	7318.743652	38.552120
589.522400	720.736389	17882.583984	7313.691406	38.416348
589.863403	716.352539	17903.240234	7333.158691	38.499153
590.204407	723.336975	17892.613281	7318.224121	38.410980
590.545410	727.349304	17921.146484	7339.771484	38.458187
590.886353	733.887939	17945.962891	7337.318848	38.365108
591.227112	724.674500	17942.919922	7350.248535	38.479961
591.567932	719.696106	17879.908203	7319.709473	38.461140
591.908752	712.860352	17799.810547	7289.096191	38.486893
592.249512	715.460876	17752.333984	7251.573730	38.364510
592.590149	712.414490	17631.591797	7193.469238	38.305965
592.930786	717.838562	17515.826172	7165.828125	38.385487
593.271423	714.123352	17424.212891	7129.048340	38.389530
593.612000	722.519592	17393.226563	7138.113770	38.484238
593.952576	721.033508	17414.253906	7125.334473	38.364681
594.292969	724.971619	17479.566406	7131.947266	38.240108
594.633484	723.114075	17538.861328	7150.447754	38.222107
594.973877	722.891113	17634.488281	7175.710938	38.156181
595.314209	722.519592	17721.718750	7219.549316	38.219624
595.654480	730.024231	17897.744141	7269.406250	38.091148
595.994812	721.628113	18108.318359	7333.232422	38.026817
596.335022	717.689941	18327.509766	7402.259766	37.959332
596.675171	710.631165	18531.470703	7439.039551	37.755844
597.015320	717.838562	18690.775391	7500.785156	37.739777
597.355408	717.912903	18792.421875	7531.250000	37.695831
597.695496	714.494934	18874.005859	7585.118652	37.834846
598.035461	716.278137	18881.806641	7574.195801	37.752369
598.375366	720.810730	18823.330078	7549.527832	37.722469
598.715271	726.977844	18697.089844	7518.395020	37.792850
599.055176	732.550537	18447.730469	7463.187988	37.993618
599.395081	736.191406	18236.189453	7387.473145	38.007328
599.734802	734.110840	17923.154297	7244.217285	37.873585
600.074524	727.943787	17613.607422	7117.308594	37.838989
600.414246	726.829285	17227.904297	6970.338379	37.836987
600.753906	723.782776	16910.705078	6845.212891	37.817135
601.093506	724.674500	16641.060547	6724.099609	37.693390
601.433044	724.377258	16447.056641	6649.201660	37.683296
601.772583	731.138733	16323.860352	6589.610840	37.571838
602.112122	725.194580	16307.960938	6575.419434	37.542915
602.451538	723.039795	16347.118164	6578.020020	37.474087
602.790894	714.420715	16438.734375	6618.440918	37.547077
603.130310	715.312317	16608.888672	6672.756348	37.483345
603.469604	712.785950	16799.919922	6736.062012	37.441574
603.808838	716.278259	17073.353516	6823.738281	37.338337
604.148010	722.148132	17379.257813	6927.316406	37.252373
604.487305	726.234802	17683.453125	7017.445801	37.100487
604.826416	727.720886	17926.792969	7099.699219	37.048386
605.165527	726.754883	18061.654297	7139.302734	36.992126
605.504456	725.194519	18203.869141	7200.230957	37.045353
605.843445	721.479431	18267.843750	7241.468750	37.158630
606.182434	719.919006	18267.398438	7258.558594	37.262558
606.521423	715.163635	18129.568359	7205.061035	37.267410
606.860229	722.816833	17888.380859	7128.306152	37.315926
607.199036	716.946960	17596.816406	7042.263672	37.472546
607.537903	724.228699	17341.736328	6968.703613	37.577686
607.876648	720.290527	17088.437500	6849.521973	37.446095
608.215271	725.417480	16865.455078	6744.978516	37.295830
608.553955	721.107910	16632.960938	6634.490234	37.163380
608.892578	722.816833	16468.529297	6566.651855	37.113815
609.231140	723.411316	16358.635742	6514.119629	37.036297
609.569641	729.058289	16298.450195	6493.166016	37.022049
609.908081	730.395752	16328.096680	6478.528809	36.852436
610.246521	739.683594	16310.116211	6481.277344	36.874977
610.584961	727.275085	16327.725586	6467.160156	36.793076
610.923340	721.553711	16254.538086	6451.110840	36.886391
611.261597	708.847961	16163.293945	6417.229004	36.936817
611.599854	714.643555	16033.858398	6391.296875	37.055771
611.938110	720.587830	15878.043945	6347.310059	37.121811
612.276245	730.321533	15723.272461	6261.118652	36.889313
612.614319	726.977844	15445.975586	6170.543457	36.983261
612.952393	724.005798	15143.042969	6070.011719	37.076027
613.290466	714.346375	14826.067383	5973.270020	37.266354
613.628479	718.878906	14538.218750	5857.134766	37.181629
613.966370	718.730225	14285.367188	5755.191406	37.123871
614.304260	719.844788	14067.882813	5654.437012	36.968670
614.642151	717.095520	13881.308594	5560.815918	36.794605
614.979980	712.637390	13735.750000	5498.996094	36.752804
615.317749	721.107910	13590.933594	5447.503906	36.724628
615.655396	723.708496	13531.640625	5428.110840	36.730385
615.993164	723.336914	13470.860352	5401.064453	36.695187
616.330811	715.015076	13453.101563	5391.033691	36.708954
616.668396	712.117249	13396.632813	5385.609863	36.844078
617.005859	722.816895	13382.885742	5358.192383	36.614143
617.343445	727.200745	13370.031250	5355.889160	36.611176
617.680908	728.389587	13378.651367	5330.254395	36.377625
618.018311	719.398926	13359.479492	5334.415039	36.510971
618.355652	720.959290	13323.963867	5317.399902	36.470989
618.692993	725.343201	13269.945313	5321.189941	36.636047
619.030273	725.045959	13277.672852	5326.911133	36.660576
619.367554	726.086182	13296.249023	5314.725098	36.504211
619.704712	718.804504	13284.360352	5314.873535	36.576725
620.041870	718.655945	13239.409180	5291.690918	36.523643
620.379028	711.448547	13188.584961	5300.830566	36.782333
620.716064	712.488770	13157.301758	5259.072266	36.533966
621.053040	720.587708	13093.104492	5227.270996	36.424950
621.389954	721.330811	13029.500977	5202.527832	36.408314
621.726929	727.497986	12962.332031	5183.060547	36.417023
622.063843	722.222473	12937.960938	5153.859863	36.278095
622.400635	721.776611	12917.825195	5107.866699	35.963203
622.737427	725.566101	12891.151367	5105.637207	36.003788
623.074219	727.720886	12831.932617	5086.615234	36.011387
623.410889	731.436035	12769.145508	5064.473633	35.995533
623.747559	724.823059	12743.437500	5055.037109	36.029228
624.084167	721.627991	12710.817383	5038.839355	36.009201
624.420715	715.683838	12719.139648	5042.183105	36.043777
624.757324	714.272034	12720.847656	5022.121582	35.879086
625.093750	714.866516	12776.872070	5038.170410	35.842327
625.430176	721.553711	12840.476563	5065.662109	35.845665
625.766602	726.086182	12905.639648	5089.290527	35.824005
626.102905	732.327637	13010.925781	5112.398926	35.672405
626.439209	729.504150	13104.622070	5118.046387	35.462627
626.775452	725.714661	13246.243164	5143.308594	35.282806
627.111694	713.900574	13312.446289	5173.178223	35.395180
627.447876	716.352539	13358.366211	5201.339355	35.476837
627.783997	716.352539	13388.903320	5222.366699	35.557278
628.120056	719.473206	13406.514648	5238.713379	35.620914
628.456055	716.872620	13408.593750	5237.673340	35.620079
628.792053	713.826233	13394.403320	5218.948730	35.527740
629.128052	712.191589	13320.249023	5168.274414	35.343136
629.463928	711.671448	13204.856445	5135.878418	35.412964
629.799744	712.488770	13062.864258	5079.259766	35.357395
630.135559	720.587830	12942.790039	5037.278809	35.318439
630.471375	724.971680	12815.508789	4981.254395	35.203423
630.807068	727.200684	12648.848633	4933.774902	35.285172
631.142700	723.708496	12515.846680	4880.871582	35.253681
631.478333	712.265930	12380.468750	4830.494141	35.294449
631.813965	718.581604	12279.565430	4784.203125	35.166744
632.149475	722.222412	12161.497070	4731.522949	35.048557
632.484924	735.522644	12072.854492	4682.483887	34.813847
632.820435	731.436035	11993.647461	4641.914063	34.722118
633.155884	729.504150	11911.765625	4627.647949	34.860065
633.491150	720.884949	11858.491211	4618.730957	34.997162
633.826477	721.850891	11760.559570	4608.700684	35.211090
634.161804	712.340149	11697.551758	4567.314453	35.092400
634.497009	709.145203	11632.610352	4533.654785	35.011871
634.832153	710.854187	11592.562500	4496.800781	34.791840
635.167297	714.792175	11526.209961	4477.556152	34.803612
635.502380	713.306091	11454.507813	4441.668457	34.710846
635.837463	702.012146	11383.622070	4406.597168	34.681896
636.172424	703.349609	11316.824219	4383.117676	34.670719
636.507324	714.197754	11235.165039	4349.384277	34.551830
636.842224	725.268860	11129.210938	4323.749512	34.587666
637.177124	728.909668	11003.936523	4288.158691	34.639801
637.511963	720.364929	10889.733398	4252.938965	34.737400
637.846741	715.163757	10786.600586	4213.112793	34.731380
638.181396	716.055359	10676.557617	4169.199707	34.668377
638.516113	724.748779	10581.451172	4133.460449	34.582680
638.850769	732.699219	10490.950195	4096.457520	34.470913
639.185303	727.052185	10406.393555	4062.055420	34.454853
639.519836	723.708496	10292.933594	4025.424561	34.503487
639.854370	720.142029	10206.592773	3990.353516	34.472443
640.188843	724.748779	10122.110352	3944.508545	34.262383
640.523254	729.504150	10056.724609	3911.220947	34.112164
640.857605	730.990234	9983.685547	3875.629883	33.986202
641.191895	730.767273	9914.137695	3853.562256	34.004890
641.526184	725.491760	9843.328125	3824.955811	33.993420
641.860413	718.135803	9788.416992	3809.277588	34.079891
642.194580	716.278259	9764.343750	3803.630615	34.121685
642.528748	716.649719	9725.631836	3783.717529	34.044556
642.862793	716.724060	9655.490234	3754.367920	33.982807
643.196838	716.946960	9575.911133	3724.869873	33.953438
643.530823	708.104980	9502.203125	3695.594482	33.971531
643.864746	716.352539	9440.829102	3677.985107	33.946251
644.198669	718.507324	9385.696289	3640.685303	33.715405
644.532532	724.971680	9341.412109	3636.375244	33.788937
644.866333	719.696106	9361.028320	3614.233154	33.496422
645.200073	711.820068	9346.985352	3604.276611	33.496250
645.533813	717.095520	9331.084961	3586.369385	33.309467
645.867554	714.569275	9282.787109	3590.307373	33.562851
646.201172	718.061523	9295.790039	3580.276367	33.367981
646.534729	722.965515	9291.852539	3586.072266	33.412819
646.868225	725.120300	9298.985352	3576.338623	33.254761
647.201782	717.244141	9281.598633	3581.614014	33.445251
647.535217	715.981018	9302.477539	3579.830811	33.352951
647.868591	719.473328	9290.366211	3570.914795	33.268898
648.201965	727.720886	9293.115234	3567.571045	33.154926
648.535278	722.593933	9264.286133	3556.425537	33.176464
648.868591	724.005676	9263.914063	3559.917236	33.207752
649.201782	730.544373	9226.911133	3545.205811	33.127823
649.534912	731.287415	9206.775391	3529.899414	33.020069
649.868103	723.188416	9144.659180	3502.927734	33.007767
650.201172	717.838623	9116.274414	3486.655273	32.968243
650.534180	711.522888	9088.411133	3453.516357	32.732838
650.867188	712.786072	9072.362305	3445.119873	32.685074
651.200134	716.426819	9038.406250	3438.358398	32.707745
651.533020	722.593933	8990.629883	3442.742188	32.899567
651.865845	725.714661	8954.072266	3419.782471	32.741261
652.198608	726.383484	8896.414063	3394.222656	32.653965
652.531433	729.504150	8885.862305	3365.838867	32.322449
652.864136	725.566101	8856.512695	3353.504639	32.320202
653.196777	794.370422	8915.805664	3463.026611	32.859417
653.529358	797.639709	8867.286133	3449.949463	32.867733
653.861938	801.280579	8814.829102	3434.643311	32.861382
654.194519	735.894226	8691.487305	3273.034912	31.891281
654.526978	739.237793	8651.141602	3258.694336	31.843872
654.859375	739.312073	8583.897461	3236.106201	31.828249
655.191833	730.692932	8549.791016	3229.419189	31.956707
655.524170	720.513489	8492.800781	3201.406982	31.919737
655.856445	719.547607	8464.491211	3168.268311	31.617025
656.188660	729.801331	8422.288086	3165.593018	31.664555
656.520874	729.578430	8382.758789	3154.224609	31.681551
656.853088	727.349304	8395.835938	3151.698486	31.614439
657.185181	724.674500	8395.464844	3147.017334	31.578789
657.517212	719.919006	8435.737305	3152.441406	31.526436
657.849243	724.600159	8460.107422	3166.113281	31.562418
658.181274	721.405090	8517.692383	3164.404297	31.335419
658.513123	731.956055	8565.914063	3158.608643	30.976074
658.844971	730.915833	8664.588867	3167.748047	30.715059
659.176819	735.968445	8757.988281	3194.497070	30.647251
659.508667	730.098572	8864.983398	3211.735107	30.506105
659.840393	730.841553	8920.636719	3231.871094	30.538366
660.172058	725.417480	8985.799805	3242.942139	30.477095
660.503662	723.114075	9006.678711	3250.669678	30.512899
660.835266	720.290527	9006.233398	3253.864502	30.576771
661.166931	716.798340	8936.611328	3229.641846	30.570570
661.498413	724.674500	8890.320313	3225.109619	30.621399
661.829773	724.228699	8791.275391	3181.716797	30.463291
662.161194	734.036621	8692.377930	3158.608643	30.465796
662.492615	725.491760	8540.056641	3115.290283	30.581339
662.823975	731.287354	8389.147461	3079.921875	30.669592
663.155212	726.234802	8227.019531	3033.408447	30.759096
663.486450	730.841553	8071.801270	2976.418213	30.589687
663.817627	727.943787	7956.781250	2929.533203	30.455648
664.148743	723.411316	7829.203125	2884.580078	30.414185
664.479858	719.844727	7755.568848	2865.781250	30.500578
664.810913	722.593933	7654.889160	2843.267578	30.591217
665.141907	727.497986	7582.890137	2803.739014	30.286247
665.472778	725.417480	7495.509766	2767.553467	30.164080
665.803711	720.587830	7469.578125	2749.126221	30.056915
666.134583	718.061523	7449.813965	2737.014893	29.991497
666.465454	729.727051	7427.746094	2729.584717	29.857450
666.796143	731.658875	7381.752441	2718.662354	29.879330
667.126831	731.287415	7365.628906	2716.135986	29.917795
667.457458	725.491760	7347.498535	2703.281494	29.866924
667.788147	719.919128	7332.267090	2689.981201	29.793682
668.118774	716.055359	7292.737793	2675.343750	29.791437
668.449219	714.346375	7265.394531	2670.365479	29.858107
668.779663	719.919006	7263.313965	2657.362549	29.609150
669.110107	727.200745	7258.781250	2647.926025	29.406746
669.440552	723.411316	7248.676270	2613.375244	28.963787
669.770874	726.160461	7209.816406	2601.115234	28.918173
670.101135	725.789001	7189.308594	2599.034912	28.981823
670.431396	723.931396	7160.924316	2598.663086	29.124338
670.761597	717.912903	7128.380371	2569.313721	28.880903
671.091797	718.358704	7097.990234	2550.812500	28.723507
671.421875	722.891113	7048.876465	2545.388428	28.809698
671.751892	729.132568	7006.672363	2538.998291	28.830811
672.081909	723.857117	6952.208496	2531.196533	29.017941
672.411865	724.228577	6927.836426	2508.459717	28.761187
672.741821	727.423645	6880.060059	2495.902588	28.743435
673.071716	729.058350	6846.029785	2471.902832	28.491949
673.401550	728.241028	6807.169434	2450.355225	28.329241
673.731262	727.497864	6796.841309	2424.052002	27.952847
674.060974	726.606262	6754.786621	2407.705322	27.887341
674.390625	731.436035	6722.093262	2400.572021	27.862318
674.720276	725.640381	6661.610840	2403.618652	28.267967
675.049927	726.309082	6639.765625	2381.996582	27.998642
675.379395	727.200684	6604.620605	2355.842041	27.710140
675.708923	725.640381	6570.515625	2326.269531	27.385174
676.038330	722.891174	6519.767090	2319.508057	27.542713
676.367737	720.959290	6474.367676	2317.799072	27.754677
676.697083	724.080017	6459.135254	2305.910400	27.581779
677.026428	733.219238	6440.634277	2295.285156	27.369061
677.355652	729.206848	6410.021484	2291.570068	27.502453
677.684875	732.773438	6402.665527	2294.393555	27.542326
678.013977	725.045898	6395.384277	2289.341064	27.587334
678.343079	726.309082	6420.720703	2285.700439	27.384592
678.672180	722.371094	6422.875488	2286.517578	27.438738
679.001221	721.182190	6472.138184	2290.455811	27.287180
679.330139	725.491760	6514.342285	2292.907471	27.076460
679.659058	723.782776	6530.837402	2296.251221	27.078590
679.987976	729.949951	6557.215332	2287.706543	26.732204
680.316772	726.160461	6591.468750	2290.604492	26.672838
680.645630	727.126465	6651.356934	2305.836426	26.648355
680.974304	719.250305	6695.417969	2326.566650	26.895437
681.302979	719.473328	6731.380859	2318.764893	26.602064
681.631653	718.804504	6763.925293	2310.814697	26.335459
681.960266	726.680664	6776.408203	2315.495850	26.262590
682.288757	725.937561	6796.023926	2327.607178	26.386274
682.617249	723.485596	6797.064453	2318.765137	26.265888
682.945679	718.135742	6764.742188	2302.641357	26.204874
683.274109	719.027405	6713.696777	2274.926514	25.954712
683.602478	723.857117	6644.966309	2249.960693	25.773945
683.930725	725.714661	6566.057129	2221.131104	25.604946
684.259033	723.411316	6470.280762	2201.812500	25.725328
684.587280	724.674500	6393.674316	2173.800537	25.562286
684.915344	723.336975	6333.936035	2150.915283	25.444313
685.243469	727.646545	6264.313965	2135.014404	25.419044
685.571533	724.302917	6197.961426	2119.336670	25.486311
685.899536	731.658936	6138.445313	2101.577881	25.337029
686.227539	729.801270	6105.826172	2078.246826	25.082577
686.555420	728.761047	6081.603516	2071.559814	25.085716
686.883301	722.965515	6076.328125	2056.550537	24.911163
687.211121	719.176025	6074.693359	2058.333984	25.005201
687.538940	718.135742	6076.402344	2055.064697	24.950773
687.866638	719.844727	6065.182129	2050.457764	24.892967
688.194336	720.513489	6054.854004	2039.906860	24.733955
688.521973	718.210144	6027.733887	2022.743164	24.569679
688.849609	713.454773	6032.191895	2012.563477	24.425133
689.177063	719.101746	5996.824219	2000.154907	24.272840
689.504578	723.857117	5948.230469	1988.563843	24.207817
689.832031	729.949951	5864.267578	1982.173828	24.389296
690.159485	726.309082	5795.166504	1960.031616	24.339262
690.486816	723.485657	5726.659668	1945.319702	24.421179
690.814087	716.352539	5662.015625	1920.279663	24.343088
691.141296	716.352539	5561.039063	1903.710083	24.508450
691.468506	714.569275	5486.067871	1872.279907	24.263042
691.795715	718.953125	5395.640625	1840.552734	23.982779
692.122803	713.826172	5355.740234	1818.559204	23.799084
692.449829	720.141907	5298.824219	1805.407593	23.702576
692.776855	723.559875	5252.607910	1790.992798	23.568594
693.103821	732.550598	5199.109863	1782.299438	23.502405
693.430664	730.618652	5137.587402	1768.999146	23.562239
693.757568	722.519714	5089.067871	1766.473022	23.907976
694.084351	711.597168	5026.207520	1745.816772	23.970175
694.411133	707.733398	5006.294434	1729.693237	23.774464
694.737854	710.259766	4963.124512	1707.773804	23.455109
695.064575	715.981018	4951.458984	1696.034058	23.139137
695.391174	716.055359	4914.010254	1683.922485	23.055681
695.717773	711.151367	4909.478027	1676.269409	22.988159
696.044250	715.460876	4911.410156	1669.582153	22.739105
696.370789	715.832458	4924.115723	1676.938110	22.838427
696.697205	730.915833	4965.650879	1677.458374	22.351873
697.023621	726.606262	5017.811035	1675.600708	22.114874
697.349915	736.637207	5071.086426	1675.154907	21.652525
697.676208	729.132568	5106.156738	1691.947266	21.997015
698.002380	733.962219	5175.258301	1719.513550	22.190626
698.328674	725.640320	5269.474121	1730.881836	22.123201
698.654724	729.206848	5375.355957	1744.553711	21.853516
698.980896	725.789001	5467.937500	1754.807251	21.699411
699.306946	731.807556	5570.846191	1772.937134	21.515217
699.632935	727.943848	5653.248047	1776.800903	21.295275
699.958862	729.206848	5687.947266	1769.519165	20.979366
700.284729	721.405090	5664.393066	1762.757813	21.067274
700.610596	720.216248	5610.673340	1758.151001	21.223677
700.936340	714.940735	5530.945801	1746.634155	21.422182
701.262146	720.587708	5424.098145	1731.030640	21.482740
701.587830	719.398926	5284.929688	1700.343384	21.485880
701.913513	724.228699	5148.212891	1669.433594	21.365467
702.239075	715.609558	5014.319336	1638.672241	21.473017
702.564697	712.042969	4897.143555	1611.031616	21.480694
702.890137	714.346375	4763.547363	1587.106079	21.553875
703.215698	720.290588	4661.752441	1554.784302	21.172188
703.541016	726.457703	4573.406738	1533.533813	20.979641
703.866455	723.188416	4516.193848	1511.540405	20.784363
704.191711	720.885010	4439.884766	1495.119507	20.818354
704.517029	717.095520	4367.291016	1468.741821	20.591946
704.842163	720.810730	4303.315918	1457.224976	20.555847
705.167419	723.485657	4262.152832	1436.123047	20.138582
705.492493	725.268860	4235.329590	1432.705078	20.154530
705.817566	723.559875	4210.215332	1422.079712	20.034094
706.142578	723.931458	4187.106934	1429.212891	20.365166
706.467590	724.897278	4156.494141	1423.640137	20.362032
706.792480	725.714661	4145.794434	1415.764038	20.176411
707.117371	729.801270	4146.983887	1410.637207	19.923897
707.442200	732.401855	4152.630371	1406.773438	19.717150
707.766907	727.720886	4147.875488	1407.739380	19.882683
708.091675	721.628113	4146.983887	1396.668335	19.707157
708.416321	713.900574	4158.500488	1388.643555	19.588428
708.741028	711.522766	4163.775391	1387.380493	19.577295
709.065552	704.241211	4178.264648	1384.631226	19.585073
709.390137	708.179199	4190.599121	1392.581665	19.653070
709.714600	716.278137	4209.397949	1385.597046	19.161064
710.039063	717.689941	4228.345215	1388.866577	19.118273
710.363403	717.838623	4259.700684	1387.528931	18.907860
710.687744	718.730225	4311.415527	1392.655884	18.758272
711.012085	722.593994	4360.455566	1398.079956	18.568214
711.336304	726.903503	4402.138672	1396.965454	18.231812
711.660461	723.411316	4439.513184	1404.990234	18.341234
711.984619	728.240967	4467.599609	1404.247070	18.078129
712.308716	725.343201	4490.559082	1407.367798	18.113825
712.632751	722.816895	4467.822754	1403.132446	18.165941
712.956726	726.160461	4426.213379	1401.572266	18.254112
713.280701	730.767273	4377.693359	1396.891113	18.265350
713.604553	735.448303	4324.121094	1383.442383	18.056650
713.928467	729.206848	4279.613770	1376.012085	18.217777
714.252258	721.553711	4222.177734	1365.238159	18.387707
714.575989	720.513489	4179.453613	1349.040161	18.171076
714.899719	722.816895	4134.648926	1324.817383	17.644493
715.223267	722.371094	4102.550781	1309.139648	17.359093
715.546936	719.770447	4065.250732	1301.709351	17.394779
715.870422	721.702209	4036.866943	1302.749634	17.526955
716.193970	723.857117	4008.631836	1296.879761	17.444809
716.517395	723.559875	3982.328857	1289.523804	17.367414
716.840820	719.919128	3943.171143	1284.025269	17.501150
717.164124	720.662109	3903.121826	1272.211304	17.330910
717.487488	725.045898	3875.778564	1266.787109	17.194134
717.810730	727.423645	3852.224609	1254.527222	16.868389
718.133972	730.915833	3800.955811	1239.517944	16.566628
718.457092	730.767273	3761.129639	1227.778198	16.401039
718.780212	730.024231	3710.529297	1226.960815	16.672897
719.103210	726.457703	3668.548096	1225.549072	16.963835
719.426208	724.823059	3615.570313	1216.781372	17.018379
719.749207	727.349304	3561.403564	1198.874390	16.637829
720.072083	726.903564	3524.549561	1184.682617	16.363008
720.394958	723.114075	3485.912109	1176.509277	16.410725
720.717773	718.210144	3441.405029	1164.546631	16.390179
721.040527	717.021301	3397.194580	1157.710815	16.442575
721.363281	716.203918	3355.733643	1148.868774	16.391741
721.685913	716.203918	3338.198486	1144.187622	16.322828
722.008545	720.662109	3321.554688	1140.918335	16.158154
722.331055	720.141907	3297.480469	1127.246582	15.795545
722.653503	721.702332	3285.592529	1126.280640	15.779861
722.976013	727.423645	3258.174561	1119.593384	15.496181
723.298401	734.556702	3254.162109	1122.788452	15.408434
723.620789	727.646667	3242.645264	1112.757568	15.312570
723.943115	721.256531	3227.487549	1111.717285	15.579599
724.265381	719.844788	3213.295654	1110.082520	15.650508
724.587585	724.302917	3195.091553	1102.355103	15.300872
724.909790	717.764221	3202.001709	1100.200317	15.394506
725.231873	711.671387	3204.676514	1098.342896	15.510258
725.553894	714.420715	3204.379150	1089.797974	15.075644
725.875916	766.209656	3254.087646	1112.088745	13.902575
726.197937	773.045471	3254.161865	1102.206543	13.266651
726.519775	773.937195	3261.740479	1112.237427	13.598351
726.841675	727.943787	3221.617188	1083.556519	14.260598
727.163513	723.708496	3244.725586	1086.231445	14.380028
727.485291	716.872620	3258.545898	1080.658691	14.312857
727.806946	710.333984	3284.180420	1075.531860	14.188798
728.128662	711.448547	3288.415283	1080.955933	14.338849
728.450256	714.866516	3310.483398	1087.643188	14.361775
728.771790	721.776611	3321.777344	1092.101440	14.243258
729.093323	726.086243	3334.706055	1090.243896	13.959783
729.414795	724.302917	3332.403076	1091.655640	14.085070
729.736145	721.850891	3322.372070	1096.485229	14.406125
730.057495	715.312317	3322.446289	1095.667969	14.589033
730.378845	716.129639	3343.919922	1086.603027	14.098286
730.700134	718.804504	3349.269531	1074.194458	13.510537
731.021301	721.182190	3342.433594	1072.708374	13.410625
731.342468	720.810730	3323.486328	1080.138672	13.806098
731.663574	719.473328	3331.510986	1082.665039	13.904536
731.984680	726.309082	3348.971924	1077.240845	13.380742
732.305664	725.640381	3358.780273	1074.491699	13.248491
732.626648	728.983948	3363.758545	1076.274902	13.181049
732.947571	725.268860	3369.776611	1086.380005	13.655136
733.268433	728.315247	3376.984375	1079.618530	13.263389
733.589233	715.535156	3361.455078	1081.104614	13.816346
733.909973	710.111084	3343.771240	1073.525757	13.798844
734.230713	714.717957	3319.177002	1077.835327	13.942142
734.551331	722.445313	3300.303955	1077.909546	13.789128
734.871948	723.782776	3250.075439	1063.940552	13.464702
735.192505	720.810608	3198.657959	1054.801392	13.479070
735.513062	722.222473	3147.612061	1038.677734	13.047605
735.833435	724.228699	3110.014648	1035.854248	13.061757
736.153931	723.634216	3066.027344	1019.061768	12.612211
736.474304	720.810730	3024.120850	1012.448792	12.661694
736.794617	719.919128	2985.780518	1001.452087	12.424986
737.114807	720.662109	2960.963623	996.325195	12.304731
737.434998	724.600159	2949.966797	989.489319	11.903169
737.755188	726.457703	2953.458984	987.928955	11.740957
738.075256	728.018066	2970.845703	984.436707	11.432829
738.395325	724.674500	2979.613281	983.619385	11.483456
738.715271	726.532043	3005.619141	983.842285	11.290057
739.035278	723.782776	3016.319092	988.820618	11.560900
739.355164	726.309082	3039.352783	991.346924	11.458402
739.675049	727.200684	3034.820313	993.947510	11.559393
739.994873	724.005798	3032.888428	986.963074	11.388941
740.314636	724.302917	3025.978516	985.402649	11.343898
740.634277	723.336975	3013.346924	980.870178	11.245942
740.953979	728.166687	2992.764893	981.167480	11.171995
741.273499	733.442200	2969.582275	978.641113	10.965275
741.593140	727.572266	2921.731689	980.795898	11.540804
741.912598	728.092346	2874.251953	973.365662	11.428474
742.232117	722.891174	2824.097900	964.375000	11.492625
742.551453	724.823059	2803.070313	949.960388	10.833038
742.870850	722.965515	2773.423828	948.622864	11.005216
743.190063	718.210144	2745.485596	950.554871	11.460936
743.509338	718.284424	2715.021484	940.895447	11.148740
743.828552	717.169861	2685.597656	936.139954	11.124111
744.147705	718.432922	2652.458740	919.867676	10.415308
744.466797	718.878906	2619.616943	919.421875	10.550795
744.785828	713.380432	2597.771729	917.267090	10.819762
745.104858	718.953125	2580.162109	916.375488	10.607211
745.423706	719.993347	2573.326172	911.322937	10.323543
745.742615	726.680603	2559.877441	907.682068	9.873543
746.061401	717.392761	2552.670166	910.431213	10.518217
746.380249	719.473328	2535.654541	913.477600	10.681989
746.698975	717.838623	2533.276855	910.356934	10.604509
747.017639	727.497986	2516.484619	902.109375	9.760352
747.336304	727.275085	2499.023438	903.446777	9.943381
747.654907	732.996338	2491.816162	911.694336	10.160109
747.973389	735.745544	2488.620850	917.935791	10.393794
748.291931	733.590759	2494.490967	923.508484	10.785264
748.610352	729.578369	2500.063721	925.143127	11.045828
748.928711	726.829285	2514.106934	924.623047	11.066762
749.247070	724.674500	2531.642334	921.130859	10.872156
749.565308	727.720886	2523.766357	907.830750	10.028135
749.883545	730.692932	2506.453857	899.434509	9.502494
750.201782	732.104675	2483.939941	895.942200	9.352337
750.519836	731.584534	2478.738770	895.867920	9.402912
750.837952	728.315247	2472.943115	900.103210	9.846682
751.155884	731.733154	2462.169434	894.753357	9.420757
751.473877	725.640320	2438.912598	889.700867	9.575860
751.791809	722.965393	2422.640137	885.019714	9.534431
752.109619	722.965515	2424.274658	883.979492	9.464123
752.427490	725.194519	2428.064453	882.493408	9.237282
752.745300	728.983948	2434.974365	877.812317	8.723868
753.062988	731.287354	2427.544189	870.679260	8.217618
753.380615	727.795166	2417.216064	868.673096	8.338830
753.698303	722.965515	2410.157227	873.874268	8.944375
754.015808	715.832336	2391.433350	877.292236	9.635940
754.333374	715.609436	2387.346680	883.385071	10.036005
754.650757	713.231750	2385.265869	886.059998	10.336407
754.968262	717.244141	2393.364990	881.156006	9.779239
755.285583	720.587708	2394.553711	876.177734	9.294694
755.602905	722.668274	2388.460938	867.335632	8.684595
755.920105	714.420654	2376.646729	867.409973	9.203881
756.237305	708.253479	2360.225830	865.849609	9.539877
756.554443	706.470276	2352.498291	862.060120	9.452441
756.871582	712.934570	2356.585205	866.295410	9.330501
757.188599	729.504150	2368.250732	866.741211	8.374514
757.505615	730.692871	2380.287598	870.084778	8.450069
757.822510	731.361633	2379.247314	863.471924	8.016957
758.139465	715.535156	2389.055420	866.592590	9.026328
758.456238	715.906738	2397.228760	863.917786	8.803254
758.773010	712.117371	2423.457275	875.286072	9.534558
759.089783	718.507324	2435.865967	873.056946	8.999263
759.406433	724.748779	2438.986572	880.413025	9.080668
759.723145	727.052185	2447.977295	871.347961	8.384780
760.039673	730.915833	2458.082764	867.781494	7.924286
760.356201	727.349365	2461.426270	855.670227	7.399952
760.672668	724.748779	2455.927734	854.109863	7.472427
760.989136	718.284424	2455.705078	848.314148	7.484067
761.305481	714.346375	2449.834961	850.023132	7.817785
761.621826	714.717834	2447.754639	853.366760	8.000345
761.938049	722.445374	2456.225098	862.803223	8.095483
762.254333	724.228577	2481.859375	874.840271	8.569017
762.570496	725.120300	2528.967529	877.292236	8.435966
762.886597	724.377258	2602.898682	883.607971	8.476385
763.202637	726.829285	2727.132568	886.802917	7.997469
763.518677	724.154358	2879.750244	895.273438	7.938365
763.834656	719.176086	3021.965576	900.251770	7.863319
764.150574	721.850891	3137.283936	906.790466	7.656580
764.466370	727.423645	3207.648438	913.329102	7.495508
764.782288	730.618652	3238.855469	917.935791	7.468080
765.097961	733.293457	3222.509033	923.434143	7.638578
765.413696	741.689758	3168.045166	915.706726	7.171948
765.729309	742.209961	3071.377686	907.607666	7.101151
766.044861	738.643372	2952.864502	892.970032	6.969794
766.360474	728.389587	2822.686279	877.663757	7.127652
766.675903	729.578430	2700.680908	872.016663	7.226323
766.991394	729.132629	2603.195557	866.815613	7.346764
767.306763	734.110840	2506.825195	864.735046	7.368598
767.622131	724.897400	2432.671143	842.890076	6.909152
767.937378	728.463867	2352.349854	833.007813	6.437887
768.252625	725.566101	2308.214111	826.989258	6.408447
768.567810	732.104675	2265.787109	835.831299	6.763240
768.882996	719.919006	2230.270508	830.332825	7.310472
769.197998	722.222412	2185.317139	823.645569	6.932098
769.513062	724.302917	2145.490967	815.472351	6.415016
769.828064	732.550537	2114.506592	807.819153	5.446527
770.142944	726.680664	2092.810303	802.320801	5.536820
770.457825	721.479492	2071.337158	802.692322	6.016399
770.772705	715.312317	2052.241211	808.785156	6.991609
771.087402	720.141907	2029.058594	807.001892	6.636021
771.402100	725.045898	1997.851563	802.320801	6.071226
771.716736	731.584656	1979.350098	800.240417	5.502297
772.031372	729.727051	1962.260376	807.001892	6.269595
772.345947	728.315247	1963.375000	802.617981	6.016124
772.660461	725.343201	1948.068481	796.822449	5.845896
772.974854	731.510254	1930.161743	792.141357	5.058276
773.289246	733.590759	1905.716187	795.187744	5.255153
773.603638	732.327637	1893.159180	792.809998	5.210262
773.917908	724.674377	1886.323242	796.227966	6.159657
774.232178	717.095520	1877.704102	800.611816	7.195905
774.546265	718.210144	1861.506226	802.915222	7.408848
774.860474	724.600159	1847.388672	798.234070	6.558128
775.174561	732.179016	1831.710571	798.085449	5.994047
775.488586	730.247070	1821.308228	793.850281	5.829482
775.802551	729.355469	1814.472290	799.200012	6.436592
776.116516	724.897400	1807.710938	795.410583	6.512034
776.430359	726.977783	1799.240356	797.416809	6.569196
776.744202	720.885010	1777.543945	798.011230	7.299065
777.057922	723.262695	1773.902954	791.026794	6.449791
777.371704	729.132629	1773.605835	790.580872	5.883181
777.685303	732.179016	1764.169434	785.008240	5.119158
777.998962	732.847717	1747.525757	785.082520	5.147919
778.312500	723.634094	1721.891235	785.082520	6.155571
778.626038	728.761047	1728.281250	787.088684	5.835564
778.939453	723.336975	1724.937866	789.466492	6.602382
779.252869	727.275085	1748.120117	787.311707	5.881071
779.566223	713.306152	1738.460815	779.881409	6.494167
779.879578	715.981018	1747.674194	784.933899	6.683468
780.192749	706.990417	1735.339966	786.568604	7.738437
780.505920	715.237976	1736.974609	785.974182	6.923135
780.819031	717.467102	1717.804565	779.063965	6.157609
781.132141	728.463867	1699.823242	778.915344	5.193904
781.445190	731.138855	1692.096069	780.475769	5.134142
781.758118	730.321472	1681.470581	777.429382	4.952736
782.071045	722.742615	1675.303345	772.451111	5.218407
782.383911	717.838623	1659.328491	776.240540	6.203138
782.696838	711.968689	1657.247925	776.091980	6.783529
783.009583	716.055359	1649.520508	773.862854	6.192786
783.322266	721.850891	1646.696899	769.404602	5.141798
783.634888	724.897400	1633.545410	768.364441	4.783705
783.947510	720.364929	1621.211060	767.695740	5.254039
784.260132	715.089355	1600.629272	772.005310	6.427260
784.572571	718.432922	1601.743774	777.280762	6.662189
784.885010	723.336975	1600.183594	777.503662	6.177442
785.197449	726.011902	1610.511597	769.181702	4.880702
785.509766	718.284424	1599.068848	765.095032	5.314650
785.822083	720.513489	1599.366211	770.296326	5.664526
786.134277	715.683838	1589.929688	771.633789	6.399796
786.446533	727.423645	1581.533569	769.479004	4.923882
786.758606	726.531982	1584.951294	762.791748	4.224016
787.070740	735.522644	1586.140137	764.500671	3.406705
787.382690	734.853943	1592.307251	765.912415	3.622176
787.694641	734.853821	1601.743774	769.256042	3.968465
788.006653	730.692932	1614.598145	769.330322	4.371214
788.318481	733.739319	1649.520508	774.457275	4.446254
788.630310	733.293518	1668.318970	777.800964	4.760025
788.942017	732.699158	1689.272461	781.738953	5.126611
789.253784	727.572266	1691.352905	780.401428	5.481451
789.565430	725.491760	1691.129883	774.903076	5.116960
789.877014	718.284424	1683.699707	768.364441	5.187407
790.188538	711.968750	1675.823608	765.466614	5.550406
790.500061	709.665344	1652.715454	772.153809	6.626208
790.811462	714.049133	1637.186157	771.485168	6.221832
791.122925	717.095520	1612.740601	769.479004	5.848688
791.434204	716.501160	1589.186523	763.980652	5.440620
791.745483	717.467041	1560.282837	769.181824	6.135953
792.056702	709.293762	1540.741211	774.977356	7.899909
792.367920	707.956360	1526.549438	774.680176	8.151036
792.678955	707.362000	1510.500000	771.559387	7.993320
792.990112	717.838623	1504.778809	773.491394	7.072046
793.301086	724.080078	1498.091431	775.646179	6.662189
793.612122	728.092285	1498.537109	772.451111	5.757560
793.922974	732.104675	1485.459961	763.980530	4.231185
794.233826	734.185242	1476.617798	766.506836	4.353472
794.544556	730.841553	1483.082397	763.757629	4.375736
794.855286	723.188416	1489.323730	762.271545	5.101335
795.166016	721.479431	1502.029663	754.098328	4.178962
795.476624	721.553711	1505.521851	752.835144	3.990141
795.787292	726.011902	1507.379272	751.274841	3.233171
796.097778	728.835388	1502.921265	750.829041	2.841242
796.408264	724.080017	1508.865356	756.624573	4.146937
796.718689	719.027405	1520.233765	760.636963	5.193364
797.029053	717.838562	1538.437866	762.866028	5.487144
797.339355	724.377258	1545.199341	760.636963	4.417487
797.649658	733.590820	1543.118774	752.315002	2.312975
797.959839	730.544373	1532.270874	748.674133	2.261340
798.270020	731.436035	1511.465942	751.794922	2.610014
798.580078	732.253235	1497.571289	758.779358	3.466026
798.890137	736.117004	1478.921265	758.853699	3.060927
799.200195	731.138733	1476.320679	754.395508	3.120953
799.510071	721.553711	1467.181641	750.754639	3.916287
799.820007	718.655945	1469.262085	749.788818	4.147698
800.129883	719.101746	1453.286987	744.884766	3.511787
800.439575	725.789001	1461.460327	746.742371	2.848197
800.749329	722.593994	1453.361328	752.909485	4.148447
801.058960	726.383362	1445.485229	754.395569	3.895443
801.368591	716.649719	1428.321289	748.897156	4.531225
801.678162	719.919128	1417.324341	744.661926	3.547837
801.987671	721.182190	1411.380249	745.850769	3.574131
802.297119	726.680603	1406.030273	750.308899	3.478076
802.606506	732.996277	1406.699219	746.890930	2.062430
802.915894	728.835388	1403.504028	747.708313	2.797362
803.225159	721.256531	1397.782715	743.547363	3.294896
803.534424	718.730225	1382.996582	750.977539	4.854576
803.843628	721.627991	1379.504272	754.618408	5.014684
804.152771	727.869446	1379.727173	760.785461	5.049571
804.461792	724.005676	1395.479370	757.516296	4.990608
804.770874	722.073792	1393.027344	753.875427	4.739767
805.079773	723.782898	1390.575562	754.321289	4.579893
805.388733	719.250305	1390.723999	752.983826	5.023804
805.697571	722.445313	1402.686890	758.407898	5.286737
806.006470	717.838562	1409.299805	754.544128	5.308405
806.315125	719.473206	1406.179077	758.556458	5.691411
806.623901	717.615662	1416.284180	758.482178	5.849200
806.932495	717.169861	1427.875366	760.265442	6.063775
807.241150	717.467102	1421.485352	755.658691	5.424801
807.549622	713.974915	1416.655640	750.383118	5.181329
807.858154	718.730225	1398.897339	751.869141	4.872173
808.166565	724.005676	1405.361694	756.847473	4.820064
808.474915	728.315247	1388.866577	764.426453	5.466828
808.783264	724.005676	1386.042969	759.299561	5.331102
809.091492	720.067688	1370.736694	748.005554	4.293714
809.399719	719.770447	1370.067871	738.197571	2.833646
809.707825	729.281250	1355.578735	735.671204	1.020275
810.015930	730.915833	1344.730591	738.271790	1.198400
810.323975	729.727051	1342.427246	738.420471	1.418870
810.632080	725.789001	1339.975220	742.358459	2.697791
810.939880	720.810730	1339.009277	741.169617	3.293260
811.247864	727.572266	1327.640991	740.798157	2.204063
811.555664	724.525879	1315.604004	735.596924	1.873026
811.863464	724.748718	1313.969360	732.699036	1.349294
812.171143	717.615723	1302.675293	732.253235	2.501884
812.478882	724.451477	1307.727905	736.117004	2.000000
812.786438	732.104675	1308.693726	740.352356	1.430426
813.094055	733.962219	1309.659668	745.404968	1.987632
813.401489	731.138855	1300.074585	742.135559	1.932855
813.708984	722.816895	1296.285278	738.346008	2.707928
814.016357	723.039856	1291.678589	733.219238	1.790132
814.323730	718.433105	1296.879761	732.253235	2.389179
814.630981	710.928467	1289.523804	737.380188	4.571713
814.938232	706.990417	1285.362915	737.008728	5.190135
815.245361	703.944031	1275.257690	738.420410	6.034580
815.552490	718.507324	1277.115234	731.807434	2.380938
815.859619	718.581604	1277.115112	730.172852	2.075300
816.166565	722.445313	1284.396851	733.813660	2.023012
816.473572	719.324646	1278.749756	736.562805	3.081406
816.780457	719.398926	1277.040894	740.426575	3.770815
817.087341	722.222412	1274.217407	741.243958	3.445963
817.394043	723.262634	1283.876709	738.791992	2.770062
817.700806	728.463867	1301.486450	736.265686	1.361520
818.007507	725.714661	1312.706177	738.494812	2.177229
818.314209	725.343201	1322.662720	751.126160	4.316443
818.620667	722.519714	1322.959961	749.491455	4.491994
818.927246	724.005676	1335.739868	744.661804	3.376651
819.233704	725.714661	1350.674927	737.157227	1.830927
819.540161	722.148193	1381.436157	735.448303	2.017344
819.846497	714.049133	1418.290405	735.002502	2.975311
820.152832	706.395996	1472.382813	739.832214	4.365117
820.458984	712.414551	1534.945679	750.457520	4.625110
820.765259	719.993408	1598.251587	757.219055	4.238577
821.071350	722.073914	1686.300171	760.488342	3.983964
821.377502	715.386658	1843.450562	764.872253	4.386772
821.683472	714.346375	2149.652100	769.330383	3.830822
821.989441	724.302917	2670.811279	781.144531	2.920183
822.295349	729.206848	3390.953125	790.432312	2.300199
822.601196	726.531982	4195.577637	810.716980	2.426748
822.907043	720.364807	4861.329590	823.942871	2.501303
823.212769	718.730164	5260.409668	841.998352	2.714154
823.518494	725.937500	5311.455566	836.351379	2.407882
823.824097	722.148132	5085.352539	835.459778	2.596982
824.129700	714.346375	4702.544922	813.317566	2.481601
824.435242	710.185364	4325.532715	811.237122	2.795077
824.740723	714.272156	3991.468018	804.401306	2.750191
825.046082	722.073914	3680.734131	804.995605	2.802677
825.351501	719.844727	3351.572998	791.026672	2.704761
825.656799	718.804504	3037.123779	777.503601	2.531968
825.962036	717.169861	2759.380127	768.810242	2.528651
826.267212	722.816895	2545.388428	767.472717	2.450155
826.572449	720.216309	2433.191162	762.940369	2.494144
826.877502	727.943787	2439.952881	766.358215	2.243822
827.182495	720.439209	2545.759766	771.930969	2.820971
827.487488	728.018066	2683.888428	777.577942	2.533904
827.792419	719.993347	2787.986572	774.234375	2.622882
828.097290	727.275085	2820.531250	767.472839	1.920346
828.402100	726.606262	2763.169678	768.661621	2.065016
828.706848	726.086182	2629.721924	767.992859	2.201402
829.011597	720.216309	2459.940186	768.215820	2.759031
829.316223	715.163757	2284.883057	761.900085	2.977369
829.620789	717.987122	2132.265381	763.237549	3.199542
829.925354	722.668274	1994.805054	764.723633	3.305884
830.229797	722.668274	1872.874390	754.172607	2.739017
830.534302	718.061523	1757.853882	749.788757	3.051305
830.838562	717.615662	1640.604126	736.191406	2.012565
831.142944	714.866394	1533.682495	735.596924	2.531769
831.447144	718.655823	1454.698608	728.612488	1.352729
831.751404	723.114075	1405.138672	728.315247	0.762608
832.055542	729.058350	1376.309204	737.974609	1.377559
832.359619	729.727051	1351.046387	745.181946	2.487432
832.663635	726.977844	1359.516846	744.810486	2.819216
832.967651	725.937683	1400.680664	739.089172	1.949111
833.271545	723.559875	1477.212280	735.002502	1.518290
833.575439	720.216309	1582.796509	737.677429	2.024290
833.879211	717.467041	1702.869751	738.940613	2.179167
834.183044	721.330811	1836.911743	747.633972	2.357800
834.486694	723.559875	1926.372437	757.144714	2.792192
834.790344	728.315247	1960.922974	762.123047	2.742787
835.093933	720.810730	1931.796387	757.664856	3.043317
835.397522	716.649719	1878.818481	752.909485	3.120009
835.700928	712.637390	1804.070190	753.355286	3.730683
836.004395	718.581543	1737.049194	751.349121	3.217341
836.307739	721.627991	1668.616211	750.383118	3.036482
836.611023	722.073914	1614.449585	741.020996	2.123218
836.914307	720.736328	1539.626587	738.420410	2.159518
837.217529	726.903503	1463.689331	735.968445	1.230336
837.520691	729.949890	1395.776733	732.847656	0.435213
837.823730	729.355469	1332.470703	729.132568	-0.036958
838.126831	719.101807	1281.721924	729.875671	1.914945
838.429749	716.649719	1232.384888	736.265686	3.803496
838.732727	720.142029	1209.871216	737.380188	3.519937
839.035522	721.479492	1189.437988	739.609375	3.874250
839.338379	719.250305	1181.487671	732.699158	2.909512
839.641113	715.683777	1185.574219	735.076843	4.127146
839.943848	721.850891	1207.345093	736.488586	3.015009
840.246460	725.640381	1238.923462	738.197510	2.446434
840.549072	725.491699	1259.653931	737.083008	2.169998
840.851563	716.426819	1268.570313	730.990234	2.637614
841.154053	713.231750	1260.471313	733.739441	3.747479
841.456482	723.708496	1244.570679	727.869446	0.798858
841.758850	728.686768	1226.217773	731.584656	0.582454
842.061157	731.956116	1207.790649	734.556702	0.546532
842.363403	719.621887	1186.614380	739.386414	4.232301
842.665588	720.364929	1164.026489	734.185242	3.115057
842.967712	721.330811	1145.450806	730.395691	2.137339
843.269775	726.829285	1130.070190	735.076843	2.045318
843.571777	731.435974	1109.191040	741.615417	2.694721
843.873840	733.070618	1085.191284	735.374023	0.654152
844.175659	730.692932	1064.683716	730.321472	-0.111219
844.477600	725.343201	1049.228638	722.519714	-0.871755
844.779297	726.532043	1037.860474	727.423645	0.286386
845.081116	728.166687	1025.823364	727.052063	-0.374466
845.382751	733.070618	1010.368408	739.460632	2.304387
845.684387	725.789063	1005.018555	740.946777	5.428408
845.985962	719.324707	995.582092	741.318176	7.961224
846.287537	711.745789	993.501648	726.829163	5.353349
846.588989	714.569275	986.888733	722.816895	3.028656
846.890381	725.789001	986.368652	722.296692	-1.340208
847.191711	732.550537	983.842285	721.553711	-4.376119
847.493042	726.829285	982.281982	720.439148	-2.501495
847.794250	727.349365	975.594727	720.216248	-2.873414
848.095459	727.646545	973.365723	724.228577	-1.391006
848.396606	733.813721	961.997314	726.977783	-2.995806
848.697693	728.166687	964.746582	729.652649	0.628102
848.998657	722.668274	960.659973	732.550537	4.152356
849.299622	721.925293	962.666077	732.996338	4.598741
849.600464	717.541321	955.904480	733.665039	6.764350
849.901367	717.987122	957.316223	736.934387	7.916825
850.202087	719.547546	958.876648	733.219238	5.712507
850.502808	723.262695	960.882813	726.086243	1.188261
850.803467	723.782776	964.152039	718.507324	-2.194728
851.104065	718.507324	967.049866	725.417480	2.780271
851.404663	723.114075	968.833191	722.891113	-0.090738
851.705139	729.727051	960.585510	726.977844	-1.190862
852.005615	733.665039	949.440125	720.736328	-5.991754
852.306030	723.262695	946.022217	718.135742	-2.301564
852.606384	718.655945	939.632141	716.724060	-0.874250
852.906616	713.751953	935.471191	721.850891	3.652790
853.206909	718.655945	935.396973	728.761047	4.662293
853.506958	714.643555	935.917053	724.674500	4.533279
853.807129	720.810730	940.746765	721.925293	0.506767
854.107178	726.383484	938.740540	716.129639	-4.828587
854.407166	722.073792	946.988098	716.055359	-2.675878
854.707092	717.541321	943.867493	716.426819	-0.492432
855.007019	710.408264	943.124512	727.349304	7.279698
855.306763	711.151367	945.353577	729.281189	7.741097
855.606567	709.516785	951.149170	732.550476	9.532535
855.906250	717.912903	945.799316	730.024231	5.314634
856.205933	721.107910	937.774658	731.064453	4.595326
856.505493	730.321472	930.270020	726.977844	-1.672244
856.805054	729.281250	933.985168	725.937561	-1.633427
857.104492	731.881836	932.722107	723.114075	-4.365540
857.403931	730.915833	938.740540	724.748779	-2.967430
857.703308	731.064453	938.369080	726.160461	-2.365597
858.002563	730.841614	934.802490	728.909668	-0.947214
858.301819	727.572266	931.830383	731.213074	1.782454
858.601013	719.621887	930.790222	724.674377	2.392636
858.900208	717.987244	945.353516	726.309082	3.660102
859.199219	717.392761	945.204895	724.897278	3.294169
859.498291	716.352539	946.245117	729.578430	5.753075
859.797302	720.216309	941.192566	726.086182	2.656337
860.096191	723.262695	934.579590	725.789063	1.195535
860.395020	725.491699	933.465088	722.742615	-1.321844
860.693787	725.045898	925.440430	723.262695	-0.889846
860.992554	721.850891	926.554932	719.696106	-1.052634
861.291260	721.702332	916.969910	727.646545	3.044138
861.589844	724.451599	911.768738	728.612488	2.221307
861.888428	722.073792	912.214539	734.259460	6.408762
862.186890	723.931396	917.044189	730.990051	3.655198
862.485413	716.501160	920.907898	732.104736	7.633592
862.783813	712.637390	921.279480	732.179016	9.366099
863.082153	706.395996	922.988342	732.922119	12.247027
863.380371	704.166809	918.307312	729.801270	11.970860
863.678589	716.798340	914.443604	727.795105	5.563890
863.976746	725.566101	915.260986	725.343079	-0.117569
864.274902	733.367859	925.068909	726.383301	-3.643464
864.572937	728.984070	930.492981	723.782715	-2.581203
864.870911	727.349304	929.155518	727.423584	0.036807
865.168884	732.030457	931.236023	725.045898	-3.506206
865.466736	729.281250	931.384521	721.330750	-3.933880
865.764587	730.767273	936.511475	717.467041	-6.464450
866.062317	722.816895	940.375183	718.804504	-1.844283
866.360107	727.646545	943.124451	727.200684	-0.206918
866.657715	727.200684	938.517761	727.497986	0.140690
866.955322	730.544373	935.322693	728.389587	-1.052253
867.252808	725.566101	931.087402	729.801331	2.060725
867.550293	721.628113	933.242188	729.429871	3.686786
867.847717	720.216309	920.239197	732.476257	6.129273
868.145081	717.838623	915.706726	722.073914	2.140461
868.442383	717.912903	918.753113	714.569336	-1.664790
868.739624	714.272034	922.914124	712.042969	-1.068368
869.036804	721.330872	934.505371	710.259766	-5.193448
869.333984	724.823059	929.898621	712.042969	-6.231894
869.631042	731.510254	931.236023	717.838562	-6.845232
869.928101	733.442139	921.873840	730.841553	-1.380121
870.224976	725.194519	927.149231	733.590820	4.157517
870.521851	723.262695	933.093567	730.915833	3.647289
870.818726	714.940735	940.598145	723.857117	3.951291
871.115479	720.513489	929.898621	733.888000	6.387517
871.412231	715.163757	931.904785	737.974609	10.524473
871.708862	716.649719	931.830383	740.352295	11.015198
872.005493	715.015076	938.443359	735.745544	9.278355
872.302063	717.987122	936.437195	728.315247	4.727911
872.598572	721.850891	937.625977	722.965515	0.516568
872.895020	725.640320	940.598145	726.531982	0.414808
873.191406	725.491760	944.090393	730.544373	2.311365
873.487671	719.250305	950.108948	736.265625	7.370450
873.783997	718.135925	961.625793	727.572266	3.875455
874.080200	719.696228	960.585632	727.126465	3.084501
874.376343	725.045959	960.659912	718.432922	-2.806726
874.672424	718.655945	950.257507	717.838562	-0.352926
874.968445	718.135803	940.598145	707.733398	-4.676030
875.264465	709.591003	931.087402	711.225647	0.738000
875.560364	709.516785	933.242188	713.751953	1.893021
875.856201	717.244141	943.050110	717.021240	-0.098713
876.152039	728.538147	950.480469	719.919128	-3.883450
876.447754	731.435974	947.285400	725.343079	-2.822753
876.743469	725.194519	949.885925	734.036621	3.935220
877.039063	715.460938	943.124451	737.825989	9.823731
877.334595	720.959290	944.981995	731.510315	4.709802
877.630127	714.049133	943.347351	730.172852	7.031768
877.925537	718.210144	956.350342	727.349365	3.837748
878.221008	708.922302	962.740295	733.144958	9.543317
878.516296	709.293762	968.238708	723.262695	5.394557
878.811646	709.591003	972.473938	728.463867	7.179189
879.106812	716.724060	987.185974	722.371033	2.087899
879.401978	722.148132	1004.870056	733.516418	4.021013
879.697083	725.640381	1016.461243	729.281189	1.251907
879.992126	724.451477	1036.374390	736.117004	3.739875
880.287109	728.018066	1075.680542	735.596924	2.179947
880.582031	733.367859	1147.085449	730.544373	-0.682467
880.876892	734.333740	1265.895508	726.309082	-1.509638
881.171753	736.265625	1462.426147	729.281250	-0.961822
881.466492	731.138855	1772.193970	735.522644	0.421091
881.761230	730.692932	2149.874756	735.596924	0.345551
882.055786	728.240906	2521.834229	734.110901	0.327276
882.350403	720.141907	2771.268555	745.182068	1.220800
882.644958	720.513428	2876.406982	747.411133	1.247636
882.939453	713.528992	2836.060547	747.485413	1.599808
883.233826	717.615662	2727.801514	743.770264	1.301104
883.528137	709.665222	2578.601563	743.473083	1.808936
883.822449	708.476379	2450.652344	743.398743	2.004525
884.116577	709.293762	2329.761963	731.436035	1.366412
884.410828	714.569336	2210.654785	727.720886	0.879064
884.704956	720.513489	2058.854248	730.618652	0.755052
884.999023	723.262695	1881.567871	734.185242	0.942977
885.292969	721.925293	1695.959595	733.813721	1.220535
885.586914	721.182312	1534.871460	728.538269	0.904025
885.880798	724.451599	1404.321411	724.748779	0.043711
886.174622	728.018066	1314.638062	729.206848	0.202649
886.468384	726.086182	1255.270142	725.268860	-0.154449
886.762085	717.615723	1217.450073	727.497864	1.977083
887.055664	716.352539	1175.617676	728.909668	2.734179
887.349304	716.946960	1134.082397	731.435974	3.473455
887.642822	713.974792	1091.655640	732.179016	4.820002
887.936340	710.705505	1072.336914	725.566101	4.109321
888.229736	708.625000	1062.900513	720.959290	3.481553
888.523071	712.488770	1054.801392	713.677673	0.347315
888.816284	718.210022	1041.501221	716.724121	-0.459617
889.109619	728.018066	1020.473572	714.494934	-4.623997
889.402710	729.727051	1007.322021	721.702393	-2.890779
889.695862	734.185242	993.501709	722.445374	-4.527236
889.988892	727.498047	978.195374	728.389587	0.355624
890.281921	723.114136	961.403015	726.903442	1.590215
>>>>>End Processed Spectral Data<<<<<
