Jaz Data File
++++++++++++++++++++++++++++++++++++
Date: Fri Jun 04 16:55:57 2021
User: jaz
Dark Spectrum Present: Yes
Reference Spectrum Present: Yes
Processed Spectrum Present: Yes
Spectrometers: JAZA3586
Integration Time (usec): 26900 (JAZA3586)
Spectra Averaged: 10 (JAZA3586)
Boxcar Smoothing: 1 (JAZA3586)
Correct for Electrical Dark: No (JAZA3586)
Strobe/Lamp Enabled: Yes (JAZA3586)
Correct for Detector Non-linearity: No (JAZA3586)
Correct for Stray Light: No (JAZA3586)
Number of Pixels in Processed Spectrum: 2048
>>>>>Begin Processed Spectral Data<<<<<
W	D	R	S	P
191.335022	0.000000	0.000000	0.000000	0.000000
191.713211	231.824478	223.576904	228.629501	38.738384
192.091385	465.580902	454.658356	461.048431	41.496464
192.469528	703.795410	697.033875	695.547852	121.977592
192.847641	715.832458	712.340149	712.340149	100.000000
193.225739	725.120300	725.268860	725.566101	300.082184
193.603790	738.123230	728.761047	737.900330	2.380859
193.981842	739.089172	738.197571	731.287415	875.027405
194.359863	739.460632	743.324463	728.761047	-276.916504
194.737854	732.624817	745.702148	724.302917	-63.636066
195.115829	740.278015	744.216003	731.584534	-220.759460
195.493774	746.890930	744.884766	741.763977	255.559952
195.871704	745.627747	747.856873	745.627747	0.000000
196.249603	741.912598	747.485352	745.330566	61.333569
196.627457	744.661865	747.782532	743.547363	-35.713589
197.005310	745.107727	743.175781	744.661865	23.078381
197.383133	743.324463	743.398743	746.965271	4901.479004
197.760910	734.036621	739.386414	741.615417	141.665237
198.138687	732.327637	735.894104	745.256348	362.507477
198.516449	729.281250	735.299805	741.838379	208.640274
198.894180	729.206848	732.624817	737.751648	249.996429
199.271866	735.299744	734.556641	732.996277	309.979462
199.649536	736.934387	730.247070	727.200684	145.554688
200.027191	736.042725	729.504089	735.745605	4.544055
200.404816	733.962219	731.361633	734.036621	-2.860965
200.782410	733.367859	754.321289	747.262451	66.311775
201.159988	737.454529	773.788574	750.977539	37.218563
201.537537	735.151123	779.138367	756.773254	49.155460
201.915070	731.658875	774.457275	757.293396	59.895981
202.292557	737.454529	775.943359	749.120117	30.309023
202.670029	740.426575	783.522217	747.039551	15.344884
203.047485	742.284180	778.692566	750.606140	22.857262
203.424911	730.098572	769.701904	756.253113	66.041260
203.802292	728.018066	760.042480	751.349121	72.853966
204.179688	728.166687	759.968201	743.844543	49.299088
204.557037	732.699158	756.104492	739.980774	31.110926
204.934357	727.423645	767.547180	741.318298	34.629684
205.311661	730.470032	764.277832	735.671204	15.384532
205.688934	726.383362	771.039368	728.835388	5.490922
206.066177	728.166687	760.711243	730.544250	7.305564
206.443390	717.541321	768.587402	728.686829	21.834208
206.820587	723.039734	772.451111	734.333801	22.857220
207.197769	728.092346	776.166260	735.225403	14.837687
207.574921	731.213074	773.491394	741.243958	23.725834
207.952042	731.510254	767.175598	737.677429	17.291786
208.329147	725.714661	766.581116	737.380188	28.545485
208.706223	728.463867	778.766785	746.890930	36.632195
209.083267	718.730225	781.590332	750.754700	50.945625
209.460297	714.717834	779.509827	747.411133	50.458855
209.837280	715.460876	770.965088	735.745544	36.546177
210.214264	715.163757	768.736023	731.287354	30.096909
210.591217	727.052063	772.748291	729.801331	6.016399
210.968124	728.018066	770.816406	733.219238	12.152742
211.345016	736.637146	770.593567	733.887939	-8.096279
211.721893	729.206848	763.386169	742.135559	37.826118
212.098724	721.256531	751.869324	741.095398	64.805809
212.475555	717.467102	755.064270	750.457520	87.747078
212.852356	712.265930	756.847473	747.188171	78.333405
213.229126	721.330750	768.290100	751.720703	64.715446
213.605865	715.609436	765.318054	751.720642	72.645767
213.982590	722.296692	764.946472	751.720642	68.989685
214.359283	716.129639	755.138489	743.770264	70.857315
214.735931	724.005676	754.321228	729.132629	16.911957
215.112579	722.296814	755.807312	736.117004	41.241375
215.489197	725.343079	759.225281	736.860107	33.991383
215.865799	720.439148	750.531738	736.637146	53.827198
216.242355	717.021301	753.875488	727.572266	28.628942
216.618896	712.934631	757.144714	731.881836	42.857201
216.995407	711.968689	766.283997	734.853943	42.134079
217.371902	714.049133	764.872253	735.299744	41.812881
217.748367	719.621826	759.893860	723.336975	9.225134
218.124802	722.891113	757.441895	729.355530	18.709900
218.501236	721.256531	755.064270	730.172852	26.373608
218.877609	711.299988	755.212891	742.358459	70.727440
219.253983	714.123352	758.333496	742.135559	63.361492
219.630295	715.312256	760.562683	734.408020	42.200184
220.006592	720.216309	758.556458	728.240906	20.930010
220.382889	716.946960	753.875427	730.618652	37.022095
220.759140	720.662109	754.841309	735.448425	43.261154
221.135391	726.383484	756.996094	736.191406	32.038830
221.511581	726.754944	762.866028	734.110901	20.370358
221.887772	727.646545	759.893982	742.878601	47.234936
222.263931	728.835388	769.256042	749.937317	52.205807
222.640060	725.788879	762.568848	746.296448	55.757439
223.016159	716.055359	765.838196	734.779602	37.611843
223.392212	713.083191	765.392395	731.807434	35.795311
223.768265	717.912903	772.005310	737.751709	36.675770
224.144302	728.389465	775.348877	743.770264	32.753387
224.520294	722.965393	780.252869	742.284180	33.722530
224.896286	727.126465	777.429382	731.584534	8.862446
225.272217	727.349365	776.091980	727.349304	-0.000125
225.648148	729.281189	769.479004	731.733215	6.099900
226.024048	727.349365	766.952698	740.500916	33.208191
226.399902	729.206848	768.884521	745.850769	41.947826
226.775772	731.138733	765.020813	739.312195	24.123259
227.151581	728.240967	774.977356	750.011719	46.582016
227.527374	725.120300	771.485107	752.315002	58.653759
227.903137	725.194580	770.519226	751.943542	59.016373
228.278870	721.776611	765.095154	738.866272	39.451145
228.654572	721.256531	765.689514	734.259521	29.264277
229.030273	723.931396	767.398499	734.705322	24.786390
229.405930	727.646484	770.742188	740.426575	29.655138
229.781555	721.107910	769.999207	741.764099	42.249214
230.157181	719.770508	775.794739	737.528809	31.697536
230.532761	710.334045	776.463379	737.825989	41.572994
230.908325	713.528992	774.605774	733.590759	32.846798
231.283859	714.792175	772.822571	738.123230	40.204887
231.659332	722.519714	766.878357	732.550537	22.613007
232.034821	723.039795	774.011414	730.692932	15.014507
232.410263	719.770508	771.410828	725.714661	11.510682
232.785690	722.148132	770.593506	725.789001	7.515411
233.161087	726.457703	770.742188	734.408020	17.952827
233.536469	723.114075	775.646179	738.866211	29.985733
233.911804	720.810730	776.983582	736.562927	28.042368
234.287140	712.414490	773.045471	729.727051	28.553984
234.662430	713.974854	764.872253	729.578430	30.656923
235.037704	719.027405	758.779358	729.949951	27.476753
235.412933	723.931396	758.556458	730.172852	18.025831
235.788162	727.423645	761.974426	725.417480	-5.806423
236.163345	725.343079	769.627625	721.627991	-8.389130
236.538513	725.714661	767.398499	723.857117	-4.456269
236.913635	722.668213	768.438782	732.550476	21.590868
237.288742	711.076965	767.101318	734.853943	42.440434
237.663834	713.231873	767.992981	736.785828	43.012196
238.038879	718.507324	768.810242	743.101563	48.892269
238.413910	725.640381	770.742126	749.045715	51.894520
238.788910	725.343201	773.194092	742.358459	35.558918
239.163879	730.544250	770.593445	736.191406	14.100548
239.538834	730.841492	773.714172	729.875671	-2.252764
239.913757	729.206848	771.336609	738.717590	22.574879
240.288651	717.244141	767.101318	739.014832	43.666111
240.663528	715.312317	772.153870	738.643372	41.045773
241.038361	716.203918	778.098145	733.888000	28.571457
241.413177	722.742615	790.283752	731.807434	13.421183
241.787979	725.268860	781.367432	733.665039	14.966832
242.162735	722.668274	787.831787	739.683533	26.111635
242.537476	718.284363	787.088684	736.934387	27.105890
242.912170	713.974854	802.692383	741.615479	31.155766
243.286865	716.129578	799.868835	731.956116	18.899782
243.661514	723.039734	803.583984	733.665039	13.191885
244.036148	728.612488	795.336365	734.185242	8.351964
244.410751	730.321472	796.079346	732.922058	3.954790
244.785339	719.919128	795.782166	728.315247	11.067469
245.159882	718.804504	802.097839	725.789001	8.385422
245.534378	720.662109	799.571594	731.064453	13.182628
245.908890	727.126465	796.227966	734.631042	10.860224
246.283356	733.813660	792.067078	737.825989	6.887714
246.657791	730.841553	797.862610	733.813660	4.434587
247.032196	723.039734	808.785095	740.278015	20.104040
247.406586	715.386536	814.803650	736.860107	21.599472
247.780960	715.163757	827.732361	741.838379	23.696325
248.155289	719.398926	834.568176	742.581482	20.129120
248.529602	719.919128	839.472168	741.615479	18.147886
248.903870	722.073914	829.367004	737.751770	14.612177
249.278122	722.222412	819.410400	727.943665	5.886790
249.652344	723.336975	813.837646	728.315247	5.500812
250.026550	718.358704	811.905762	729.281189	11.675926
250.400711	725.491760	809.602356	730.618652	6.095417
250.774857	722.593994	807.224670	732.104736	11.237937
251.148987	732.476257	807.967773	733.145020	0.885877
251.523071	727.943665	813.837646	733.813660	6.834001
251.897125	728.612488	814.729309	730.990173	2.761000
252.271164	714.494934	817.701416	735.151123	20.014429
252.645187	711.597168	816.735535	736.785828	23.957628
253.019165	708.402161	820.896484	740.798157	28.797894
253.393112	713.826233	816.958435	737.900330	23.342949
253.767044	714.346375	815.175110	739.534973	24.981567
254.140930	725.788879	804.401306	739.980774	18.052992
254.514801	718.878845	802.246399	742.878601	28.787886
254.888657	724.897400	800.166016	738.420410	17.966333
255.262466	723.411316	812.128723	731.064453	8.626421
255.636276	735.002502	815.546692	730.618652	-5.442789
256.010010	733.070618	822.159668	735.002441	2.168419
256.383759	724.377258	826.172058	742.209778	17.518105
256.757446	720.885010	830.630127	740.946716	18.280273
257.131134	715.758118	831.521790	740.352295	21.245159
257.504791	719.398987	829.887024	733.516418	12.777340
257.878418	715.832458	836.871582	734.333740	15.285373
258.252014	714.569336	855.595886	735.151123	14.594264
258.625580	715.832458	871.050781	735.299805	12.541912
258.999115	721.330811	893.861633	733.367859	6.976752
259.372650	726.086243	902.778015	735.076843	5.088296
259.746124	720.067688	921.502380	738.346130	9.074128
260.119598	710.408264	937.254578	738.197510	12.250252
260.493042	706.990417	950.851990	740.055115	13.558798
260.866425	711.076965	960.511292	740.946716	11.974997
261.239838	715.683777	950.926270	738.569092	9.728394
261.613159	717.392761	937.403137	730.915833	6.146561
261.986511	721.107910	912.288879	733.293457	6.373828
262.359802	725.566101	896.536621	739.163391	7.953002
262.733063	730.024231	886.431458	749.788757	12.636581
263.106293	729.355530	886.208557	751.051941	13.832319
263.479523	736.562805	884.351013	755.212830	12.619427
263.852692	732.922058	881.304504	754.023987	14.221311
264.225861	729.875671	881.378845	751.869202	14.516877
264.598969	722.296692	882.864807	744.067383	13.558539
264.972076	723.857117	890.666687	735.522644	6.993320
265.345154	729.652649	891.261169	734.408020	2.942525
265.718201	730.544373	903.966980	738.866272	4.798625
266.091217	731.138733	914.517883	744.141785	7.090802
266.464203	722.965515	928.189514	744.216125	10.354836
266.837158	721.627991	936.065674	735.819824	6.618162
267.210114	721.405090	947.582520	733.367920	5.289135
267.583038	724.228577	962.666016	732.253357	3.365571
267.955902	724.080017	965.563782	736.117126	4.984645
268.328766	725.640381	974.405945	735.745605	4.062148
268.701569	725.863281	967.421387	730.544373	1.937874
269.074371	726.309143	971.508057	729.355469	1.242390
269.447144	719.250427	972.845459	729.355469	3.984716
269.819885	716.872620	988.374756	736.340027	7.170259
270.192596	714.866516	994.096008	737.083008	7.956356
270.565277	723.411316	1006.727539	734.556641	3.933882
270.937927	724.971680	1021.662354	734.779602	3.305774
271.310577	726.606384	1053.241089	739.386414	3.912637
271.683136	717.318542	1078.652588	741.021057	6.559723
272.055725	720.810730	1106.218872	739.312073	4.800455
272.428284	715.609558	1112.757568	741.764099	6.585590
272.800812	724.302917	1114.540894	746.668030	5.731147
273.173279	719.844788	1101.314941	749.640137	7.810663
273.545776	726.457703	1109.116699	740.872375	3.766976
273.918152	720.885071	1102.057983	735.968445	3.957095
274.290558	720.885071	1099.828979	731.584656	2.823527
274.662964	715.683838	1084.076782	735.819824	5.465899
275.035278	720.067688	1082.293457	735.819885	4.348723
275.407593	720.513489	1095.073486	742.507141	5.871864
275.779907	721.851013	1107.779175	743.844543	5.698866
276.152161	716.798340	1123.234253	747.411133	7.532010
276.524384	714.494934	1127.692383	743.621582	7.049087
276.896606	721.107910	1147.828491	747.559631	6.198839
277.268799	714.643555	1161.128540	747.559631	7.372270
277.640930	720.141907	1172.496948	752.538025	7.161657
278.013031	714.346375	1163.432007	743.324402	6.452673
278.385162	719.250305	1164.843750	745.107666	5.802904
278.757233	711.077148	1162.688843	738.123230	5.988791
279.129272	711.671448	1175.171875	747.262451	7.678742
279.501282	714.717957	1186.540161	744.364685	6.283453
279.873230	717.838562	1203.778320	746.073547	5.810388
280.245178	719.027405	1222.576904	739.386414	4.043100
280.617126	719.324646	1243.827515	738.717712	3.697418
280.988983	716.872620	1269.610474	737.305908	3.696741
281.360870	706.470276	1287.369019	743.027161	6.293159
281.732697	702.755188	1313.597778	736.785828	5.571098
282.104492	705.801575	1338.414917	734.333801	4.510216
282.476288	714.272034	1366.204102	731.658875	2.666971
282.848053	720.587708	1385.151367	736.191345	2.347952
283.219757	722.668213	1396.891113	741.764099	2.832281
283.591461	726.829163	1403.801392	737.528809	1.580515
283.963135	723.039795	1399.640259	738.866272	2.339117
284.334747	714.940735	1397.114258	737.305847	3.278508
284.706360	710.259766	1418.884766	739.386414	4.110305
285.077942	707.287598	1453.658325	738.940613	4.240924
285.449524	716.129639	1487.540405	746.593750	3.949143
285.821014	716.352539	1496.828125	749.491516	4.245998
286.192535	722.965515	1511.985962	745.553467	2.862784
286.563995	717.764343	1537.397827	739.089172	2.601752
286.935425	714.866455	1566.152832	736.265625	2.513745
287.306824	715.683777	1568.233398	740.055115	2.858642
287.678223	723.931458	1554.561523	735.076843	1.341799
288.049561	734.036621	1536.208618	737.380188	0.416814
288.420898	732.179016	1520.530884	742.878601	1.357209
288.792145	736.191345	1516.221191	741.689758	0.704898
289.163452	732.401917	1522.239868	733.888000	0.188150
289.534668	730.321472	1549.731812	733.219238	0.353640
289.905914	723.114075	1576.852173	735.671204	1.470841
290.277039	723.857117	1612.963379	745.776367	2.465313
290.648193	728.092346	1651.526733	748.897156	2.252982
291.019318	730.915833	1693.804810	759.448059	2.963190
291.390381	735.002502	1715.575562	760.414001	2.591495
291.761475	732.253418	1715.798462	750.531738	1.858412
292.132507	726.532043	1702.795410	742.358582	1.621134
292.503510	714.866455	1689.049438	739.312073	2.509346
292.874481	718.061523	1673.297363	744.513245	2.769130
293.245422	722.073914	1679.390137	749.565857	2.871773
293.616364	729.206848	1696.331055	748.674255	2.012917
293.987213	726.606384	1740.095337	746.370850	1.950141
294.358093	732.104736	1787.277710	743.621582	1.091465
294.728943	730.321472	1849.469116	742.135559	1.055632
295.099731	727.126404	1901.629761	743.695984	1.410773
295.470490	715.535156	1936.254517	747.039551	2.580806
295.841248	717.541443	1960.402954	741.095276	1.895129
296.211975	719.176086	1987.300659	737.974609	1.482388
296.582642	726.160583	2035.077271	742.507141	1.248862
296.953308	721.033630	2082.185059	749.342957	2.079807
297.323883	721.405090	2127.063965	755.361511	2.415694
297.694519	728.538147	2156.041992	750.680420	1.551118
298.065063	728.686768	2159.757324	757.739075	2.030110
298.435608	727.423645	2126.915527	753.355286	1.852932
298.806122	718.581604	2070.148193	754.098328	2.627819
299.176575	720.959290	2008.774048	751.869202	2.400183
299.547028	722.148132	1959.139771	756.475891	2.775100
299.917450	719.993408	1933.356812	751.720520	2.614807
300.287872	718.358704	1927.486938	746.593750	2.335157
300.658234	720.587830	1937.443359	732.253357	0.958662
301.028564	724.897278	1937.963501	735.968506	0.912665
301.398865	726.903503	1928.973022	738.791992	0.989002
301.769135	726.309082	1923.474487	748.971436	1.893001
302.139374	724.971680	1919.684937	744.216003	1.610790
302.509583	726.383362	1928.601196	740.203674	1.149568
302.879791	721.330872	1935.362915	737.974609	1.370947
303.249939	719.621887	1935.140137	740.575256	1.723822
303.620087	721.107910	1923.103027	740.352295	1.601037
303.990173	724.748779	1904.898926	743.250061	1.567706
304.360260	730.172852	1898.880249	740.426575	0.877356
304.730286	730.098450	1904.973145	740.649475	0.898055
305.100281	730.395691	1913.369141	736.637207	0.527613
305.470276	730.990173	1928.972778	735.596924	0.384542
305.840179	732.253235	1952.229492	735.225403	0.243625
306.210144	730.024231	1976.675171	741.392578	0.911911
306.579987	717.392822	1995.325195	742.284180	1.947784
306.949890	706.990417	2007.213501	743.398743	2.800160
307.319702	711.745789	2022.445679	741.689758	2.284579
307.689484	723.039795	2038.420898	746.667969	1.796299
308.059265	732.327637	2069.256592	746.296570	1.044852
308.429016	731.733215	2112.723633	749.120056	1.259012
308.798737	725.714661	2176.103760	746.147888	1.408810
309.168396	725.343079	2225.069336	746.370789	1.402103
309.538055	722.445313	2266.381592	753.875427	2.035713
309.907684	728.538086	2287.409180	750.829041	1.429942
310.277313	731.658875	2309.997314	758.407898	1.694758
310.646851	731.213074	2330.578857	752.537903	1.333330
311.016388	728.463867	2347.594482	760.339661	1.968698
311.385895	728.686768	2351.606689	753.355286	1.520008
311.755371	736.340027	2347.446045	751.943542	0.968497
312.124817	738.717590	2346.554443	745.627747	0.429780
312.494232	730.544373	2348.263184	742.655701	0.748667
312.863617	721.627991	2345.588135	741.838379	1.244513
313.232971	714.049133	2341.947510	745.107666	1.907891
313.602295	716.946960	2323.817627	749.491516	2.025338
313.971619	716.501160	2323.817627	745.702148	1.816754
314.340820	712.414551	2321.216797	739.980774	1.713462
314.710083	709.516663	2363.718018	744.661865	2.124602
315.079285	708.402161	2404.213135	749.491516	2.422992
315.448486	721.776672	2449.389160	758.853699	2.146142
315.817596	720.587830	2450.132080	754.172668	1.941832
316.186707	724.080078	2408.299805	754.469788	1.804379
316.555786	720.216309	2353.167236	741.541199	1.305911
316.924866	722.222473	2305.687744	738.271790	1.013556
317.293884	727.423645	2294.170654	739.386414	0.763542
317.662872	730.172852	2293.502197	744.661804	0.926801
318.031830	722.445313	2310.517578	739.386414	1.066771
318.400757	720.587830	2319.730713	739.757874	1.198770
318.769684	721.999512	2331.544922	743.918762	1.361829
319.138550	728.241028	2346.405518	751.646301	1.446409
319.507416	724.228699	2373.006104	747.856873	1.433072
319.876190	720.141907	2386.529053	748.971375	1.730058
320.244995	722.073792	2386.157715	751.200500	1.750315
320.613770	722.371094	2358.962891	754.395508	1.956775
320.982483	721.702332	2338.529541	749.640137	1.727940
321.351166	722.222473	2316.684570	754.321228	2.013140
321.719818	720.067688	2313.638428	750.383118	1.902359
322.088440	717.764343	2317.873291	749.565918	1.987463
322.457062	718.878845	2339.124023	744.661865	1.591304
322.825623	720.662109	2375.904053	732.401855	0.709247
323.194183	720.959290	2426.058350	739.163391	1.067627
323.562653	726.829285	2481.042236	737.454407	0.605692
323.931183	731.287415	2549.697754	752.389343	1.160460
324.299591	732.922058	2615.084229	752.760803	1.054040
324.668060	726.606262	2674.452393	758.333496	1.628837
325.036407	721.033630	2709.597412	757.813477	1.849568
325.404755	719.547546	2731.887939	756.178711	1.820327
325.773102	719.398926	2742.364502	753.875305	1.704249
326.141388	726.457703	2746.897217	755.212891	1.423215
326.509674	732.030457	2755.739258	753.281006	1.050079
326.877899	729.652649	2772.606201	753.578186	1.171125
327.246124	724.823059	2785.980469	755.138489	1.470796
327.614288	723.485657	2780.853516	755.658691	1.563796
327.982422	726.606384	2765.844482	752.315125	1.260703
328.350525	728.315247	2746.897217	757.441895	1.442926
328.718628	723.634094	2734.340088	765.689636	2.091581
329.086700	719.027405	2743.553711	773.937195	2.712229
329.454712	713.529053	2759.677490	769.850525	2.752560
329.822693	715.238037	2788.209717	767.918640	2.541308
330.190674	714.569336	2805.373779	766.581238	2.487650
330.558563	715.386658	2815.775635	759.150879	2.083625
330.926483	711.077087	2832.568359	757.739197	2.199496
331.294312	714.792175	2861.100586	753.058044	1.782869
331.662231	721.925293	2908.877197	760.042480	1.742937
332.029999	718.581604	2939.044189	762.345947	1.970956
332.397766	715.758057	2981.916748	768.587402	2.331229
332.765503	710.185364	3034.894531	776.983582	2.873401
333.133240	720.364929	3098.572021	780.475769	2.527570
333.500916	720.067688	3149.841064	782.630554	2.574844
333.868561	724.674500	3184.763428	780.327148	2.262221
334.236176	717.169861	3218.050781	778.098145	2.436273
334.603790	722.296692	3227.858643	779.063965	2.265650
334.971344	719.473206	3223.177734	789.986511	2.816359
335.338867	725.640381	3221.765625	794.221863	2.747518
335.706360	723.188416	3228.750244	799.720215	3.054477
336.073853	722.742615	3247.326172	786.940125	2.542895
336.441284	717.764343	3252.230225	781.441711	2.512457
336.808655	718.507324	3247.326172	779.212585	2.400538
337.176086	720.587830	3198.434814	784.785339	2.590859
337.543396	727.869446	3122.200439	795.410645	2.820880
337.910706	729.875549	3040.541748	791.249695	2.656123
338.277954	726.086121	3053.395752	796.822327	3.039398
338.645264	727.126404	3141.073242	796.673645	2.881059
339.012421	729.132568	3283.065674	811.237061	3.214825
339.379669	738.717712	3404.476318	811.311462	2.723193
339.746796	730.172852	3512.809814	823.868652	3.367159
340.113953	736.191406	3596.028564	826.692139	3.164541
340.481018	726.680664	3633.625977	837.317383	3.805944
340.848114	729.058289	3627.830811	832.784912	3.578295
341.215118	716.798340	3621.217529	843.187256	4.351607
341.582153	716.947021	3644.325439	848.685730	4.500228
341.949066	715.758118	3687.792725	857.602051	4.772620
342.316010	713.603333	3700.498291	849.874451	4.562300
342.682922	717.021301	3714.393311	850.914734	4.467028
343.049835	717.467102	3730.516602	856.487488	4.613943
343.416656	720.959290	3780.522217	863.992004	4.674939
343.783478	718.135742	3842.565186	871.942383	4.922711
344.150269	723.411316	3958.180420	879.372742	4.821408
344.516998	726.234802	4094.377686	895.050537	5.012131
344.883728	726.160461	4207.392090	906.344543	5.175871
345.250427	721.999512	4282.214355	908.722351	5.244707
345.617065	719.101746	4321.074707	911.100037	5.330365
345.983704	716.724060	4315.799316	907.607727	5.303687
346.350281	720.290588	4310.895996	919.496155	5.547966
346.716827	717.244141	4260.220703	924.251526	5.842753
347.083405	723.857117	4239.341309	929.452698	5.848287
347.449860	720.810730	4177.596191	937.254578	6.261420
347.816376	720.513489	4125.955566	939.334961	6.425641
348.182770	716.872742	4086.426758	943.273010	6.718998
348.549194	713.677551	4059.306396	934.653870	6.604926
348.915558	716.872559	4086.278320	941.786926	6.675194
349.281921	717.541321	4096.754883	951.074768	6.910882
349.648193	715.014954	4150.327148	966.604065	7.323617
350.014526	718.953125	4186.735840	977.377991	7.452164
350.380737	720.736328	4247.663574	988.077576	7.580005
350.746948	723.634216	4286.003906	994.393311	7.600533
351.113159	720.736389	4323.377441	1001.377747	7.789878
351.479309	723.708496	4366.250488	1007.099121	7.780024
351.845428	726.160461	4410.906250	1015.941162	7.864334
352.211517	724.600159	4455.934082	1031.024536	8.212193
352.577576	723.188416	4506.162598	1045.662231	8.524346
352.943604	721.330811	4568.205566	1059.556763	8.792227
353.309601	724.600098	4631.139648	1069.513428	8.829126
353.675537	720.959290	4723.201172	1082.293457	9.028294
354.041473	724.080078	4831.088867	1101.983643	9.201430
354.407379	726.829285	4964.165039	1118.553101	9.244577
354.773254	725.120300	5084.609375	1139.432251	9.503681
355.139038	729.429871	5167.977051	1159.494019	9.689300
355.504913	721.553711	5270.143066	1184.608398	10.180182
355.870636	726.234802	5356.854492	1201.252075	10.258180
356.236389	729.355469	5483.837402	1222.205444	10.366008
356.602081	732.847717	5624.195313	1243.158813	10.432935
356.967804	728.463867	5784.764160	1272.805664	10.765615
357.333405	721.405090	5921.406738	1291.009766	10.953933
357.699036	722.742493	6086.656250	1318.204590	11.101262
358.064606	722.816895	6254.803223	1343.244629	11.215280
358.430176	718.210144	6405.563965	1380.247437	11.640515
358.795654	719.770508	6473.029785	1403.207031	11.879119
359.161163	726.457703	6458.615234	1429.064331	12.257280
359.526581	729.949951	6424.064941	1433.522339	12.356132
359.892029	729.206848	6436.176270	1450.240601	12.634268
360.257416	726.383484	6547.185059	1462.500488	12.646317
360.622772	730.544434	6756.569824	1498.983032	12.751997
360.988098	727.646545	7016.777344	1543.639160	12.974648
361.353394	722.222412	7312.502441	1595.279663	13.247650
361.718658	726.903503	7637.725098	1651.452271	13.378275
362.083893	735.151062	7925.276855	1690.015259	13.280215
362.449097	741.615417	8106.946777	1725.532104	13.358756
362.814209	733.813660	8102.562500	1730.510376	13.525996
363.179382	721.850891	7889.611328	1710.671509	13.795392
363.544434	718.433044	7514.828613	1674.188965	14.062689
363.909546	722.593933	7100.739746	1634.214233	14.292872
364.274536	727.943787	6747.652344	1606.647827	14.597119
364.639587	730.395752	6514.639160	1582.053711	14.723758
365.004517	728.984070	6371.829590	1578.858521	15.061097
365.369507	723.188477	6286.232910	1576.777954	15.343927
365.734344	714.569336	6243.286621	1588.146118	15.800714
366.099274	713.157532	6179.312012	1589.112305	16.025064
366.464081	717.095642	6158.283691	1598.697266	16.202374
366.828918	727.646545	6141.714355	1615.787109	16.404312
367.193665	725.268860	6155.980469	1631.984985	16.696083
367.558411	723.782898	6149.813965	1648.777344	17.047348
367.923126	720.736511	6140.451660	1641.495728	16.989069
368.287781	727.275085	6139.856934	1644.393555	16.944195
368.652435	733.442139	6116.748535	1640.975586	16.858290
369.017059	732.327637	6097.652344	1653.161133	17.162680
369.381653	728.686829	6055.003418	1655.464722	17.399979
369.746185	723.262695	6060.204590	1676.789429	17.866537
370.110687	725.268860	6056.786621	1687.934937	18.056137
370.475220	726.680603	6100.550781	1703.687134	18.180687
370.839661	728.612488	6135.027344	1716.244263	18.267776
371.204041	728.092346	6224.858887	1751.017944	18.609587
371.568451	728.389587	6287.198730	1783.562500	18.981995
371.932770	722.222473	6356.375000	1805.779175	19.231937
372.297150	725.714600	6377.179688	1815.215698	19.278208
372.661377	721.553711	6432.015137	1829.853149	19.408230
373.025696	727.498047	6460.918457	1847.017090	19.526197
373.389862	722.965515	6465.748535	1858.014038	19.764782
373.754059	720.513489	6459.506348	1875.920898	20.132584
374.118225	727.349365	6478.528809	1877.481323	19.998192
374.482361	730.544373	6551.494141	1888.329468	19.889971
374.846436	729.578430	6616.806641	1905.493286	19.973997
375.210510	720.959290	6731.009277	1942.496094	20.324903
375.574524	715.683777	6851.677246	1977.195313	20.559204
375.938538	714.792175	7018.040527	2018.730591	20.686769
376.302460	712.711731	7167.686035	2050.309326	20.721968
376.666412	718.061523	7348.464355	2105.887695	20.931250
377.030304	722.816895	7515.125000	2150.246338	21.015381
377.394196	726.977844	7690.777344	2216.153076	21.384523
377.757996	723.634216	7848.298828	2253.527100	21.473190
378.121796	720.142029	7923.270020	2270.988525	21.530180
378.485565	720.067627	7936.050293	2262.666504	21.377531
378.849304	716.872620	7829.500488	2247.508789	21.519981
379.212982	723.634216	7693.452637	2227.818359	21.581396
379.576630	722.222473	7483.695313	2200.995117	21.870571
379.940277	731.064453	7332.192871	2183.756836	22.006727
380.303864	732.624817	7236.787598	2177.144043	22.209150
380.667450	733.144958	7211.228027	2190.146973	22.491251
381.030945	725.640320	7210.781738	2200.326416	22.739458
381.394501	723.336914	7233.072754	2222.617432	23.031357
381.757935	723.782776	7265.395020	2243.199219	23.226942
382.121399	726.011902	7269.257813	2263.409424	23.495945
382.484741	727.497986	7326.693848	2290.009766	23.677305
382.848145	726.903503	7374.693848	2323.817627	24.021727
383.211487	725.194580	7479.460938	2362.900635	24.246986
383.574768	724.897400	7560.748047	2406.739502	24.603260
383.938019	723.114075	7659.347168	2449.983643	24.896362
384.301270	725.491760	7761.364746	2502.590088	25.257681
384.664459	711.448547	7849.189941	2538.403809	25.595707
385.027649	715.609558	7939.839844	2569.685059	25.664677
385.390778	717.838623	7992.966797	2602.972900	25.912043
385.753876	726.532043	8022.687500	2630.687744	26.098070
386.116943	721.256531	8068.606934	2664.866943	26.453215
386.479980	714.717834	8088.073730	2682.402344	26.686419
386.842987	717.467041	8153.460449	2727.207031	27.027189
387.205994	724.748718	8189.050781	2758.488281	27.246210
387.568909	728.686768	8272.715820	2806.859375	27.547251
387.931793	727.200745	8323.242188	2835.466064	27.754789
388.294678	724.080078	8356.678711	2875.366455	28.185503
388.657471	721.925293	8369.235352	2889.186768	28.340181
389.020294	718.655945	8367.898438	2911.552002	28.668146
389.383057	718.730225	8385.359375	2932.208252	28.871595
389.745819	719.993347	8394.944336	2970.771484	29.326284
390.108521	726.160461	8418.870117	3014.833252	29.751194
390.471191	723.262695	8503.426758	3060.455078	30.040400
390.833801	717.467041	8642.594727	3116.850586	30.275644
391.196442	715.163635	8827.014648	3199.251953	30.622953
391.558960	722.148132	9032.165039	3277.196045	30.746603
391.921509	728.240967	9260.422852	3367.027588	30.927454
392.284027	727.646545	9498.265625	3428.847656	30.798296
392.646484	724.451477	9601.174805	3490.964844	31.165930
393.008911	724.674500	9577.323242	3501.367188	31.365671
393.371307	720.959290	9505.769531	3501.664063	31.653555
393.733673	715.758118	9433.696289	3492.598877	31.852036
394.096008	709.888184	9408.878906	3508.648682	32.173393
394.458344	704.315430	9416.903320	3548.623779	32.645966
394.820587	702.457947	9453.387695	3593.502686	33.036999
395.182831	701.417664	9493.213867	3632.734375	33.341499
395.545013	712.265808	9438.006836	3626.418701	33.397194
395.907196	725.045898	9342.006836	3596.400391	33.322124
396.269287	735.745544	9193.772461	3540.376221	33.159393
396.631409	743.027283	9047.990234	3510.580811	33.324093
396.993469	742.952881	8906.815430	3498.246826	33.749882
397.355530	742.432800	8804.797852	3516.302002	34.405155
397.717499	733.070618	8783.918945	3516.376221	34.571583
398.079468	717.095520	8776.562500	3531.087891	34.915367
398.441376	712.637451	8793.578125	3543.868164	35.035908
398.803284	715.906738	8792.538086	3568.685547	35.321396
399.165131	725.120300	8820.327148	3607.397217	35.604733
399.526978	714.643555	8823.819336	3637.266846	36.040943
399.888763	710.259766	8841.875000	3671.148682	36.412064
400.250519	711.077087	8857.850586	3688.461182	36.546787
400.612244	721.553772	8893.441406	3705.179688	36.510853
400.973938	727.052185	8898.569336	3707.557373	36.474319
401.335602	725.789001	8928.364258	3728.362061	36.605247
401.697205	721.627991	8978.740234	3763.729736	36.842201
402.058807	717.392761	9034.987305	3807.940186	37.156742
402.420349	715.758118	9145.624023	3861.735352	37.319420
402.781860	722.668274	9266.960938	3929.425049	37.530979
403.143341	724.154297	9432.506836	4012.198486	37.757362
403.504822	728.909668	9588.022461	4086.500977	37.899857
403.866241	727.869446	9785.667969	4151.664551	37.799416
404.227631	726.531982	9947.573242	4235.923340	38.058517
404.588959	722.371094	10151.757813	4330.882813	38.268784
404.950287	716.055359	10315.966797	4428.739258	38.674149
405.311554	717.392761	10442.653320	4482.608887	38.715836
405.672821	717.021240	10489.463867	4507.648926	38.788948
406.034027	715.981018	10454.689453	4496.206055	38.816494
406.395203	714.792175	10397.922852	4474.955566	38.832104
406.756348	712.934570	10304.003906	4451.624512	38.980949
407.117493	710.779785	10216.624023	4442.113770	39.253056
407.478516	706.916016	10171.745117	4451.699219	39.565250
407.839600	712.785950	10149.008789	4461.432617	39.726135
408.200592	708.773682	10162.978516	4490.559082	40.001095
408.561554	714.940735	10131.250977	4497.469238	40.169964
408.922485	709.070862	10156.736328	4512.032715	40.252930
409.283417	713.454773	10190.023438	4518.273926	40.149757
409.644257	709.219543	10301.106445	4575.041504	40.303040
410.005096	706.247375	10428.460938	4656.180176	40.627914
410.365906	705.801575	10556.187500	4718.148438	40.732891
410.726715	710.556946	10701.003906	4793.119629	40.864666
411.087433	715.609558	10803.541992	4833.095215	40.815952
411.448120	728.240967	10885.944336	4899.967285	41.069584
411.808807	731.138855	10886.463867	4905.019531	41.100414
412.169434	728.909729	10801.460938	4887.632813	41.287685
412.530029	723.857117	10735.629883	4866.233887	41.375061
412.890564	717.095520	10697.883789	4866.085449	41.569759
413.251099	724.600098	10696.991211	4887.855957	41.747822
413.611572	730.915833	10754.947266	4913.416016	41.724731
413.972076	728.463867	10816.098633	4946.777832	41.816681
414.332489	717.615723	10917.595703	4986.976074	41.856556
414.692871	714.494934	11058.101563	5071.830078	42.125877
415.053223	719.696106	11222.163086	5154.231445	42.223747
415.413574	720.736389	11431.176758	5269.029297	42.465977
415.773834	722.148132	11592.190430	5339.913574	42.481579
416.134094	727.646484	11757.215820	5413.695801	42.486240
416.494263	732.401855	11926.551758	5482.128906	42.430439
416.854462	731.807434	12224.655273	5602.275879	42.378254
417.214630	724.302917	12564.514648	5747.166504	42.422077
417.574738	722.073792	12923.471680	5910.707031	42.524910
417.934784	725.417480	13235.245117	6093.343262	42.909668
418.294861	719.324707	13640.343750	6276.796875	43.011097
418.654846	721.925293	14072.339844	6488.113281	43.191078
419.014832	723.188416	14574.403320	6688.359375	43.066048
419.374756	724.080017	15067.700195	6918.475098	43.185715
419.734680	723.411316	15642.504883	7162.856934	43.162445
420.094543	713.083252	16165.968750	7423.584473	43.425552
420.454376	715.906738	16669.814453	7687.359375	43.697460
420.814148	714.123535	17179.458984	7913.908691	43.726925
421.173920	718.061523	17728.480469	8162.080078	43.761528
421.533691	724.154297	18255.583984	8387.663086	43.712971
421.893341	722.965515	18628.435547	8578.769531	43.873764
422.253021	721.182190	18873.783203	8687.994141	43.887989
422.612640	717.021301	18967.478516	8751.002930	44.020714
422.972260	720.587830	18945.335938	8759.027344	44.107273
423.331757	715.683838	18860.482422	8758.209961	44.324142
423.691315	712.191589	18824.593750	8747.807617	44.365269
424.050781	715.609558	18975.652344	8820.699219	44.387024
424.410248	714.049133	19092.455078	8888.241211	44.477154
424.769653	713.677673	19301.916016	8984.090820	44.492722
425.128998	711.968689	19339.734375	9018.122070	44.590176
425.488373	718.284424	19273.679688	8982.307617	44.537041
425.847656	722.222473	19001.435547	8888.759766	44.676636
426.206940	718.284424	18728.224609	8802.345703	44.886665
426.566193	721.776672	18358.269531	8643.413086	44.916168
426.925385	719.398926	17993.072266	8515.983398	45.135647
427.284576	722.891174	17464.630859	8283.267578	45.158844
427.643677	720.662109	17079.966797	8139.491699	45.349297
428.002777	721.479431	16710.681641	7954.923340	45.239555
428.361847	722.371033	16314.054688	7794.281250	45.356937
428.720856	716.501160	15936.596680	7650.579590	45.558704
429.079865	716.575439	15649.862305	7543.286621	45.714725
429.438812	718.358704	15501.554688	7478.197266	45.726501
429.797760	719.696106	15414.174805	7447.287598	45.783123
430.156616	716.575439	15241.643555	7398.990723	46.006084
430.515503	714.866455	15135.911133	7356.192871	46.053017
430.874268	721.330872	15086.945313	7323.275879	45.956577
431.233093	722.445374	15092.666992	7341.406250	46.060257
431.591827	718.433044	15148.914063	7386.582031	46.208778
431.950562	714.420715	15162.882813	7425.739746	46.450058
432.309204	721.628113	15282.583008	7458.582031	46.267254
432.667877	722.519592	15409.270508	7523.819824	46.309086
433.026459	720.290588	15546.582031	7599.533691	46.398949
433.385010	715.015076	15663.756836	7686.914063	46.638699
433.743561	712.637390	15869.649414	7786.330566	46.669445
434.102051	718.210144	16106.229492	7891.097656	46.613457
434.460510	722.965515	16279.354492	7999.505371	46.775253
434.818939	723.559998	16312.715820	8057.460938	47.044888
435.177338	723.634216	16301.571289	8063.628906	47.117886
435.535675	719.993347	16278.387695	8022.019531	46.933033
435.894012	724.302917	16240.270508	7981.152344	46.770203
436.252289	719.993347	16269.916992	8005.895020	46.854904
436.610535	712.563049	16229.199219	8019.046875	47.088066
436.968719	717.764343	16377.730469	8102.935059	47.159561
437.326935	716.872620	16487.548828	8162.302246	47.210594
437.685028	723.188416	16674.792969	8245.818359	47.159081
438.043152	715.683777	16759.201172	8305.781250	47.309437
438.401215	721.925110	16996.078125	8444.132813	47.450748
438.759277	717.021240	17250.343750	8569.481445	47.494751
439.117249	721.702332	17679.515625	8786.148438	47.555935
439.475250	724.525879	17989.357422	8935.719727	47.560226
439.833130	733.888000	18419.568359	9160.113281	47.644341
440.191071	726.457703	18726.439453	9309.908203	47.685883
440.548889	718.953125	19064.589844	9474.563477	47.725845
440.906708	725.640381	19401.404297	9654.375977	47.809212
441.264496	734.556702	19654.035156	9767.241211	47.742779
441.622223	737.454529	19851.384766	9886.422852	47.865452
441.979950	727.126465	19895.373047	9919.636719	47.956970
442.337616	721.776611	19884.224609	9950.397461	48.159931
442.695251	715.758118	19726.927734	9875.202148	48.179279
443.052887	720.290527	19509.812500	9768.949219	48.158001
443.410461	718.358704	19345.158203	9671.686523	48.066917
443.768005	723.262695	19167.945313	9612.839844	48.195877
444.125458	723.931458	19087.699219	9574.796875	48.197437
444.482941	720.587708	19083.021484	9629.708008	48.518188
444.840393	717.021240	19235.414063	9728.901367	48.664482
445.197754	711.002747	19518.210938	9919.709961	48.963707
445.555084	716.129639	19865.353516	10055.386719	48.770939
445.912415	714.792175	20275.578125	10248.796875	48.740398
446.269714	720.290527	20600.207031	10394.282227	48.662140
446.626953	719.621887	20962.728516	10582.266602	48.721001
446.984161	729.281250	21298.505859	10759.405273	48.762772
447.341309	725.194580	21572.011719	10901.398438	48.814186
447.698456	726.680603	21735.775391	11027.340820	49.029526
448.055542	717.244141	21830.808594	11077.496094	49.069176
448.412598	714.272034	21764.976563	11072.516602	49.206161
448.769653	710.556946	21599.580078	10986.176758	49.191483
449.126617	724.005676	21261.205078	10834.673828	49.230999
449.483582	732.253357	20992.673828	10709.399414	49.244518
449.840515	736.191406	20642.037109	10553.140625	49.316917
450.197388	717.244202	20372.021484	10441.389648	49.474716
450.554230	711.077148	20125.783203	10341.006836	49.601212
450.911041	706.916199	19946.044922	10257.489258	49.641403
451.267822	720.290588	19784.437500	10197.379883	49.711582
451.624573	724.005676	19569.925781	10118.322266	49.848011
451.981262	731.213135	19399.326172	10055.313477	49.946667
452.337921	731.881836	19269.371094	9979.969727	49.888569
452.694580	733.665039	19229.097656	9948.540039	49.822433
453.051147	722.073792	19233.927734	9964.886719	49.929157
453.407715	717.987122	19135.996094	9941.183594	50.077053
453.764221	717.912903	19161.037109	9954.781250	50.082989
454.120728	721.999512	18907.146484	9832.331055	50.097656
454.477142	725.714661	18824.669922	9793.842773	50.103046
454.833557	719.101746	18566.244141	9701.186523	50.327862
455.189911	725.937683	18412.064453	9655.118164	50.486919
455.546265	722.965515	18215.980469	9590.475586	50.691715
455.902557	728.463867	18075.623047	9526.425781	50.717014
456.258820	727.052063	18082.533203	9542.773438	50.795033
456.615051	730.692932	18162.855469	9568.778320	50.699879
456.971252	721.628113	18136.552734	9570.932617	50.814491
457.327393	714.197754	18329.888672	9670.573242	50.843166
457.683502	708.402161	18574.492188	9812.194336	50.955704
458.039612	717.987122	19070.982422	10057.393555	50.887638
458.395630	727.126404	19546.371094	10318.939453	50.968113
458.751648	724.822998	20077.041016	10592.150391	50.988091
459.107605	722.519714	20850.160156	10976.145508	50.943008
459.463562	720.067688	21588.357422	11340.824219	50.894238
459.819458	728.984070	22274.099609	11691.011719	50.879410
460.175323	734.482422	22830.697266	12015.343750	51.053364
460.531158	732.327637	23387.970703	12314.265625	51.121647
460.886932	727.869446	23724.859375	12534.497070	51.339882
461.242676	716.724060	23833.337891	12580.491211	51.321392
461.598419	715.981018	23553.443359	12498.311523	51.592113
461.954102	714.569275	23038.750000	12250.882813	51.676311
462.309723	718.061523	22329.083984	11927.221680	51.867790
462.665344	717.392761	21610.798828	11544.190430	51.819210
463.020905	717.169922	21019.421875	11241.109375	51.836315
463.376373	713.677673	20551.166016	10999.179688	51.848812
463.731873	714.494934	20170.884766	10828.506836	51.982979
464.087341	708.773682	19892.474609	10685.103516	52.004200
464.442749	711.671448	19724.773438	10610.502930	52.063210
464.798126	707.956299	19645.341797	10549.500000	51.968864
465.153503	711.522888	19744.091797	10596.682617	51.938129
465.508820	713.677673	19846.701172	10655.307617	51.960579
465.864105	722.371033	19999.617188	10755.022461	52.044006
466.219330	724.377258	20265.324219	10916.184570	52.156158
466.574524	727.646484	20446.994141	11038.858398	52.289822
466.929657	723.188293	20643.451172	11143.773438	52.311481
467.284790	730.692932	20826.382813	11246.757813	52.329952
467.639893	727.572266	21018.455078	11342.012695	52.311378
467.994934	736.488586	21223.531250	11426.791992	52.180805
468.349945	727.498047	21236.607422	11455.993164	52.310879
468.704926	729.578430	21158.740234	11448.636719	52.469398
469.059875	725.268860	20894.220703	11374.929688	52.802254
469.414764	728.538269	20648.205078	11240.292969	52.770737
469.769653	722.519714	20468.837891	11115.835938	52.634197
470.124451	717.987244	20380.195313	11046.882813	52.531715
470.479248	717.838562	20228.396484	10982.387695	52.610226
470.834015	719.770508	20124.150391	10958.016602	52.762554
471.188721	720.959290	20183.591797	11009.286133	52.861950
471.543365	719.027527	20328.033203	11070.213867	52.787922
471.898010	722.668274	20493.580078	11146.819336	52.724686
472.252625	721.627991	20667.523438	11261.988281	52.844761
472.607178	719.324646	20925.281250	11426.124023	52.988335
472.961700	716.352539	21180.880859	11562.394531	52.999229
473.316193	716.055359	21479.207031	11721.922852	53.006725
473.670654	717.095520	21638.365234	11821.562500	53.077404
474.025055	709.145203	21848.416016	11972.916992	53.283630
474.379456	707.064758	22022.435547	12064.383789	53.282295
474.733795	714.272034	22192.812500	12177.027344	53.368404
475.088104	725.566101	22330.046875	12243.156250	53.311115
475.442383	735.894104	22335.546875	12257.347656	53.340919
475.796570	732.773438	22474.271484	12290.487305	53.159695
476.150787	726.011902	22688.781250	12400.752930	53.156963
476.504944	714.346375	23005.533203	12529.890625	53.005447
476.859070	719.027405	23314.187500	12703.909180	53.041809
477.213135	722.816895	23610.060547	12863.956055	53.047623
477.567200	731.658875	24052.755859	13147.198242	53.237370
477.921173	722.222412	24480.888672	13384.743164	53.296429
478.275146	721.776611	25045.142578	13696.442383	53.342396
478.629089	719.844727	25370.218750	13894.831055	53.447407
478.983002	726.234863	25797.013672	14169.304688	53.620472
479.336823	728.835388	26170.162109	14404.028320	53.751888
479.690643	722.371094	26684.115234	14644.323242	53.624874
480.044403	713.751953	27275.117188	14928.085938	53.515072
480.398163	709.962463	28003.953125	15315.276367	53.511097
480.751862	708.847961	28979.771484	15849.440430	53.555351
481.105499	708.922302	30167.720703	16551.970703	53.780361
481.459137	713.157471	31792.720703	17429.337891	53.785118
481.812744	720.290588	33802.464844	18529.537109	53.833359
482.166290	724.302917	36304.832031	19854.951172	53.767185
482.519806	718.953125	39245.285156	21467.244141	53.854832
482.873291	720.364929	42587.792969	23370.507813	54.099674
483.226715	719.621887	46258.871094	25590.302734	54.613728
483.580139	725.566101	49690.687500	27872.585938	55.441544
483.933502	723.262695	52789.042969	30227.384766	56.667007
484.286804	720.141907	55224.089844	32373.101563	58.074615
484.640106	716.501160	57025.406250	34199.316406	59.462738
484.993347	713.008850	58042.687500	35379.464844	60.468605
485.346558	716.724121	58219.003906	35619.238281	60.697620
485.699738	713.603333	57625.402344	35068.578125	60.365295
486.052887	715.089355	56468.582031	33904.777344	59.529343
486.405975	713.231873	55062.699219	32632.712891	58.730068
486.759064	721.999573	53642.699219	31344.751953	57.865356
487.112061	718.507324	52505.425781	30340.845703	57.200428
487.464996	723.114075	51791.746094	29708.234375	56.757191
487.817963	721.627991	51644.328125	29524.853516	56.562645
488.170868	727.052063	51678.656250	29566.835938	56.602306
488.523743	723.188416	51772.128906	29671.826172	56.707619
488.876587	722.296692	51577.011719	29618.994141	56.822060
489.229401	720.885010	51140.703125	29315.023438	56.712105
489.582153	724.748779	50393.214844	28771.646484	56.468220
489.934845	719.398926	49434.488281	28063.021484	56.129677
490.287537	716.798340	48362.230469	27347.263672	55.893005
490.640198	722.668274	47513.250000	26748.162109	55.621223
490.992798	730.395752	46930.343750	26355.546875	55.465755
491.345337	730.990173	46862.871094	26239.039063	55.293751
491.697876	724.674500	46933.386719	26337.789063	55.429192
492.050354	726.531982	47353.421875	26610.033203	55.511963
492.402832	730.172852	47527.734375	26833.091797	55.778370
492.755219	731.361633	47375.636719	26784.943359	55.855907
493.107605	725.045898	46606.011719	26370.185547	55.894947
493.459930	725.491699	45365.375000	25569.720703	55.654781
493.812225	720.216309	43587.980469	24493.742188	55.457813
494.164490	722.296814	41470.578125	23263.662109	55.318565
494.516724	721.702332	39262.519531	22029.716797	55.286877
494.868896	726.532043	37239.855469	20875.646484	55.182911
495.221039	720.885010	35654.832031	19983.865234	55.141155
495.573120	727.720886	34443.175781	19328.292969	55.169277
495.925201	725.863281	33770.292969	18955.294922	55.166428
496.277222	728.240967	33387.113281	18737.363281	55.143124
496.629211	725.863281	33347.062500	18664.173828	54.989735
496.981140	728.092346	33389.410156	18634.232422	54.823692
497.333069	731.436035	33489.871094	18662.095703	54.736008
497.684967	731.584656	33547.378906	18710.986328	54.788872
498.036804	724.600159	33564.175781	18777.041016	54.971607
498.388580	722.371033	33483.484375	18741.671875	55.002102
498.740326	717.392761	33299.359375	18663.876953	55.081036
499.092072	715.312256	32957.640625	18467.941406	55.060009
499.443756	715.683777	32581.595703	18262.123047	55.063351
499.795410	706.916199	32183.259766	18041.666016	55.072311
500.147003	711.820129	31812.412109	17810.732422	54.979378
500.498566	710.111145	31424.703125	17600.083984	54.990059
500.850098	720.216309	30950.203125	17383.046875	55.120205
501.201599	716.426819	30504.015625	17202.863281	55.346661
501.553009	714.569275	30113.630859	16997.490234	55.385849
501.904449	708.550781	29864.271484	16826.000000	55.280571
502.255859	716.798340	29647.900391	16699.091797	55.242599
502.607178	716.501221	29559.703125	16650.792969	55.244534
502.958405	724.600098	29477.599609	16608.587891	55.242889
503.309692	717.318420	29466.083984	16577.085938	55.166779
503.660919	715.163635	29495.802734	16565.123047	55.071602
504.012115	708.996582	29602.056641	16588.007813	54.957874
504.363251	715.535217	29729.111328	16667.363281	54.980564
504.714294	719.696106	29753.412109	16727.697266	55.135899
505.065369	717.615723	29733.421875	16761.208984	55.292599
505.416443	720.662109	29733.349609	16791.671875	55.393040
505.767395	720.439209	29785.287109	16801.777344	55.329166
506.118317	724.897400	29810.103516	16775.326172	55.184166
506.469238	719.398987	29816.048828	16768.712891	55.158630
506.820160	726.680664	29778.970703	16773.541016	55.234409
507.170929	727.052063	29775.328125	16804.228516	55.346409
507.521729	729.578430	29832.244141	16823.175781	55.299393
507.872498	727.200867	29944.587891	16895.546875	55.338097
508.223236	723.708557	30166.531250	17002.394531	55.289146
508.573883	726.086182	30351.396484	17112.140625	55.310997
508.924500	727.052063	30589.166016	17193.203125	55.140606
509.275116	734.185120	30781.833984	17285.710938	55.084263
509.625702	727.200684	31068.494141	17420.273438	55.017670
509.976196	722.742615	31362.287109	17625.201172	55.165504
510.326660	714.866516	31655.632813	17817.421875	55.275150
510.677124	716.352539	31942.369141	17999.166016	55.347481
511.027557	717.392761	32164.904297	18126.521484	55.359322
511.377869	716.724060	32397.919922	18250.234375	55.343586
511.728180	714.494934	32540.728516	18317.552734	55.309902
512.078430	716.872620	32657.234375	18374.394531	55.282787
512.428650	711.894348	32805.468750	18463.707031	55.312668
512.778931	722.073914	32906.890625	18512.896484	55.277065
513.129028	721.702332	32993.007813	18564.460938	55.289856
513.479126	727.275085	33024.511719	18588.537109	55.302757
513.829285	724.451477	33001.406250	18570.107422	55.289158
514.179382	723.411316	32917.367188	18523.294922	55.289520
514.529297	720.216309	32821.593750	18462.220703	55.268669
514.879272	709.145203	32804.875000	18539.048828	55.552261
515.229187	699.114258	32741.640625	18506.208984	55.573311
515.579163	708.625000	32744.318359	18524.113281	55.611370
515.928955	716.649719	32788.378906	18495.507813	55.434673
516.278748	726.829285	33040.933594	18631.925781	55.409538
516.628540	724.228577	33372.917969	18777.484375	55.295498
516.978333	726.011902	33831.738281	19038.066406	55.313858
517.327942	726.086182	34366.199219	19354.447266	55.375443
517.677612	725.194519	35012.925781	19767.718750	55.537426
518.027222	721.999512	35710.113281	20153.201172	55.536579
518.376831	721.479431	36495.339844	20610.683594	55.597034
518.726379	722.073914	37212.437500	20997.501953	55.563786
519.075867	723.262695	37797.718750	21312.322266	55.534351
519.425293	721.033630	38257.800781	21533.447266	55.445412
519.774658	723.782776	38457.828125	21681.757813	55.541286
520.124084	725.120300	38453.890625	21738.451172	55.695774
520.473389	729.801331	38099.238281	21614.214844	55.886349
520.822693	721.702332	37712.863281	21343.976563	55.749195
521.171997	714.717834	37260.957031	21042.158203	55.621155
521.521240	709.813904	36795.226563	20749.107422	55.532944
521.870361	714.940735	36352.828125	20529.025391	55.598370
522.219482	724.451477	35959.765625	20353.521484	55.708519
522.568604	726.903564	35767.843750	20209.076172	55.598312
522.917664	727.943787	35598.359375	20099.109375	55.551868
523.266724	723.559875	35689.972656	20093.240234	55.395100
523.615662	713.751953	35912.289063	20254.179688	55.514881
523.964600	710.408264	36363.753906	20550.125000	55.646160
524.313538	710.779785	36917.011719	20906.408203	55.779430
524.662354	724.897278	37667.546875	21321.833984	55.753819
525.011169	730.024231	38633.253906	21834.599609	55.680153
525.359985	727.423645	39797.800781	22483.929688	55.685425
525.708740	715.386536	41108.722656	23247.017578	55.780563
526.057434	719.398926	42569.886719	24104.099609	55.876770
526.406067	721.405090	44206.109375	25110.083984	56.085651
526.754700	727.349365	46012.781250	26182.794922	56.211109
527.103333	716.278259	47955.500000	27463.250000	56.620266
527.451782	714.420654	49967.910156	28816.005859	57.055016
527.800293	715.906738	51953.730469	30287.646484	57.714668
528.148743	716.426758	53840.343750	31849.046875	58.603775
528.497131	713.751953	55501.156250	33395.730469	59.652355
528.845642	710.779785	56874.718750	34846.121094	60.778038
529.193909	712.785950	57932.125000	36023.445313	61.711060
529.542175	713.083191	58646.390625	36900.070313	62.463184
529.890503	712.340149	58896.050781	37303.753906	62.889446
530.238770	709.591003	58652.261719	37073.863281	62.759056
530.586914	715.758118	57919.488281	36332.171875	62.262398
530.934998	713.528992	56776.714844	35125.871094	61.381355
531.283142	715.758118	55356.640625	33798.152344	60.545132
531.631226	715.015137	53756.011719	32279.775391	59.510120
531.979248	726.309082	52130.863281	30851.900391	58.604908
532.327148	730.024231	50695.484375	29637.201172	57.854321
532.675110	730.247131	49596.105469	28795.349609	57.432945
533.023071	724.674500	49119.300781	28373.384766	57.131779
533.370850	726.457703	49024.562500	28215.416016	56.915192
533.718689	727.349304	49279.203125	28336.679688	56.865654
534.066467	728.018066	49464.437500	28487.070313	56.957516
534.414246	721.999512	49549.292969	28555.500000	57.003979
534.761963	711.597168	49398.902344	28485.431641	57.045330
535.109619	706.544617	49027.832031	28314.611328	57.134377
535.457153	705.504333	48398.785156	27910.181641	57.040901
535.804749	712.191589	47598.546875	27374.978516	56.866837
536.152344	712.860291	46705.355469	26759.234375	56.631794
536.499817	714.717834	45748.558594	26193.712891	56.577442
536.847229	713.454773	44815.386719	25599.740234	56.429012
537.194641	711.448547	43984.980469	25056.585938	56.258724
537.542114	710.185364	43396.207031	24660.107422	56.107174
537.889404	711.448547	42876.160156	24319.056641	55.989017
538.236694	712.265930	42388.218750	24026.750000	55.942295
538.583984	716.649719	41933.855469	23763.197266	55.914867
538.931213	717.987244	41654.105469	23627.298828	55.963570
539.278381	726.309082	41486.031250	23541.554688	55.974979
539.625488	727.497986	41543.316406	23526.248047	55.857632
539.972595	725.937561	41887.710938	23644.984375	55.680416
540.319641	721.702332	42638.394531	24035.072266	55.618343
540.666687	717.912903	43651.957031	24610.250000	55.648937
541.013611	722.148193	45011.546875	25418.884766	55.762184
541.360596	721.107910	46404.722656	26281.318359	55.950500
541.707458	722.445313	47856.449219	27227.787109	56.234013
542.054260	717.541321	48988.082031	28034.564453	56.591503
542.401062	715.089355	49945.843750	28682.412109	56.808640
542.747864	715.758118	50412.832031	29090.927734	57.096260
543.094666	713.900574	50363.199219	29124.437500	57.222435
543.441284	710.408386	49743.667969	28764.218750	57.213840
543.787903	711.225647	48741.769531	28091.779297	57.006546
544.134460	713.008972	47433.375000	27231.648438	56.760338
544.481079	716.278259	45981.347656	26326.494141	56.578320
544.827637	710.185364	44413.707031	25295.767578	56.255379
545.174072	711.002686	42742.046875	24260.806641	56.029552
545.520508	716.649719	41333.191406	23345.767578	55.714039
545.866943	723.857117	40076.878906	22598.578125	55.585869
546.213318	729.578430	39211.847656	22078.310547	55.476803
546.559631	723.857117	38403.656250	21631.376953	55.487343
546.905823	716.872742	37723.710938	21274.207031	55.550095
547.252136	713.231750	37203.667969	20954.037109	55.468792
547.598389	716.426819	36660.738281	20651.031250	55.459686
547.944458	723.485596	36239.148438	20396.396484	55.392208
548.290588	722.073914	35674.964844	20100.298828	55.440979
548.636658	719.993347	35085.074219	19750.109375	55.376312
548.982727	716.946960	34284.613281	19305.556641	55.376530
549.328735	724.451477	33481.769531	18862.115234	55.369808
549.674622	726.680603	32613.396484	18409.242188	55.454323
550.020569	729.504150	31813.306641	17971.003906	55.467796
550.366455	720.959290	30980.890625	17490.191406	55.417286
550.712280	722.742493	30262.904297	17074.318359	55.353710
551.058044	715.683777	29716.630859	16755.859375	55.309143
551.403748	714.866455	29301.796875	16499.068359	55.214752
551.749512	707.361816	29050.505859	16316.730469	55.072819
552.095154	709.516602	28852.562500	16182.315430	54.979118
552.440735	708.030579	28786.062500	16161.139648	55.036301
552.786316	715.015137	28727.365234	16175.702148	55.192398
553.131897	724.377258	28738.062500	16209.211914	55.275967
553.477417	729.281250	28747.720703	16193.534180	55.193127
553.822815	731.956116	28731.820313	16150.067383	55.064953
554.168213	725.343201	28706.931641	16086.984375	54.899105
554.513672	726.234802	28579.427734	16023.604492	54.921421
554.859009	721.925232	28405.412109	15942.911133	54.982189
555.204285	720.736389	28153.005859	15824.176758	55.057205
555.549500	721.479492	27859.804688	15696.895508	55.181801
555.894714	722.073914	27530.791016	15540.042969	55.272949
556.239990	719.696106	27237.669922	15347.078125	55.160252
556.585022	718.210144	26924.630859	15176.703125	55.171570
556.930115	719.621887	26641.242188	15008.183594	55.122177
557.275146	720.513489	26302.349609	14844.940430	55.212719
557.620178	719.993347	26114.509766	14704.359375	55.068451
557.965149	720.364929	25931.724609	14578.340820	54.967190
558.310059	720.736389	25795.304688	14505.598633	54.975471
558.654968	718.730164	25604.718750	14412.053711	55.024231
558.999756	712.934570	25444.818359	14361.973633	55.188030
559.344604	718.655945	25361.154297	14340.127930	55.276344
559.689331	718.061523	25304.537109	14284.772461	55.179565
560.033997	718.878845	25274.591797	14221.393555	54.987263
560.378723	717.764343	25235.656250	14160.166992	54.826908
560.723389	721.256531	25217.375000	14152.143555	54.828632
561.067932	726.977783	25282.166016	14181.195313	54.791752
561.412476	726.309082	25308.250000	14175.621094	54.712166
561.757019	720.290527	25333.437500	14194.420898	54.743633
562.101501	721.479309	25311.369141	14188.476563	54.766396
562.445862	719.473206	25288.859375	14210.098633	54.908268
562.790222	725.937561	25265.599609	14182.606445	54.836407
563.134644	718.581604	25224.658203	14173.168945	54.903065
563.478943	718.953125	25214.328125	14162.915039	54.883675
563.823181	718.581604	25212.177734	14175.992188	54.942566
564.167358	721.851013	25260.546875	14182.382813	54.854309
564.511536	719.844788	25373.857422	14210.543945	54.720097
564.855774	716.649719	25425.945313	14244.276367	54.747120
565.199768	717.244141	25544.234375	14278.084961	54.621365
565.543823	718.061523	25647.367188	14354.542969	54.700607
565.887817	716.129639	25920.726563	14478.851563	54.604012
566.231812	712.563049	26152.404297	14618.317383	54.661324
566.575745	710.333984	26363.869141	14738.390625	54.682743
566.919617	712.117249	26558.912109	14827.331055	54.611080
567.263428	714.569336	26700.460938	14903.565430	54.602692
567.607239	714.792175	26813.103516	14951.120117	54.548851
567.950989	719.993347	26784.052734	14982.102539	54.719448
568.294678	724.080017	26765.921875	14994.510742	54.798084
568.638367	727.572266	26640.646484	14952.084961	54.893188
568.981995	719.027344	26514.554688	14880.679688	54.899643
569.325623	711.894287	26298.630859	14775.168945	54.963142
569.669128	711.076965	26139.994141	14673.375000	54.907166
570.012573	709.070801	26005.431641	14557.983398	54.746658
570.356140	713.974792	26009.890625	14534.949219	54.637177
570.699524	714.643555	25979.873047	14510.950195	54.605900
571.042908	720.216309	26053.359375	14570.465820	54.672451
571.386230	714.197754	26162.583984	14564.819336	54.426323
571.729492	711.671448	26396.931641	14650.266602	54.266903
572.072815	711.671448	26572.361328	14728.433594	54.201038
572.416016	719.547546	26711.603516	14831.045898	54.291580
572.759094	722.965515	26827.515625	14885.508789	54.253159
573.102234	720.067688	26917.943359	14927.416992	54.230923
573.445374	711.820007	26942.912109	14940.122070	54.242126
573.788391	709.442322	26909.919922	14914.414063	54.216457
574.131409	710.556946	26871.132813	14891.528320	54.207413
574.474365	715.460938	26788.804688	14838.401367	54.166203
574.817261	717.987122	26673.193359	14792.706055	54.226955
575.160156	729.801270	26481.119141	14666.761719	54.121349
575.502930	735.299744	26263.263672	14552.708008	54.126556
575.845703	730.172852	26047.115234	14423.718750	54.088470
576.188477	728.538269	25803.998047	14274.890625	54.022350
576.531250	730.395752	25528.111328	14121.305664	54.000580
576.873901	737.974609	25208.240234	13968.539063	54.067924
577.216431	730.767273	24893.791016	13806.114258	54.113041
577.559082	720.439148	24575.998047	13632.692383	54.126812
577.901611	713.974792	24189.103516	13434.155273	54.185776
578.244080	708.030579	23841.218750	13272.101563	54.311890
578.586487	717.169861	23502.992188	13075.496094	54.236912
578.928955	723.411316	23186.240234	12871.089844	54.079025
579.271301	730.098572	22817.843750	12661.036133	54.016094
579.613647	722.742493	22393.726563	12450.757813	54.118519
579.955872	720.216309	22030.234375	12265.670898	54.178535
580.298157	724.005676	21720.466797	12072.631836	54.050186
580.640320	727.349304	21478.984375	11931.085938	53.989658
580.982483	724.228577	21207.632813	11796.522461	54.054951
581.324524	719.547546	20990.890625	11692.276367	54.129261
581.666626	715.832336	20819.029297	11623.843750	54.260082
582.008728	714.940735	20737.591797	11561.131836	54.169609
582.350647	716.055359	20621.308594	11502.284180	54.187847
582.692566	721.182190	20539.054688	11408.663086	53.928493
583.034424	723.114075	20423.589844	11370.694336	54.047321
583.376343	721.107910	20302.029297	11312.960938	54.092720
583.718201	720.439209	20229.658203	11280.713867	54.129662
584.059937	728.835388	20148.521484	11190.510742	53.871498
584.401611	731.064453	20070.427734	11134.114258	53.792099
584.743347	732.699158	19971.902344	11068.578125	53.723011
585.085022	724.080078	19851.085938	11014.262695	53.799232
585.426514	725.491699	19758.876953	10969.161133	53.819485
585.768127	720.587708	19669.341797	10923.762695	53.846153
586.109619	720.141907	19609.974609	10917.149414	53.981464
586.451172	719.101746	19580.921875	10879.032227	53.865059
586.792542	715.163757	19535.300781	10859.120117	53.899483
587.133850	716.649719	19515.164063	10824.048828	53.767014
587.475220	715.906738	19488.861328	10800.420898	53.718307
587.816589	723.782898	19438.185547	10782.737305	53.749802
588.157776	730.172852	19500.005859	10791.059570	53.601368
588.498962	733.293640	19574.009766	10808.074219	53.473446
588.840210	730.247131	19696.017578	10812.829102	53.161999
589.181335	724.005798	19722.841797	10845.001953	53.271664
589.522400	722.148193	19751.150391	10857.930664	53.264919
589.863403	726.903564	19799.669922	10907.639648	53.378395
590.204407	729.281250	19784.064453	10889.508789	53.321140
590.545410	729.355469	19869.810547	10935.502930	53.322388
590.886353	727.349365	19853.908203	10931.043945	53.348301
591.227112	723.336975	19857.996094	10924.877930	53.314468
591.567932	719.398926	19725.662109	10884.829102	53.484631
591.908752	717.764343	19618.666016	10840.543945	53.557121
592.249512	720.513489	19575.421875	10844.333008	53.693283
592.590149	718.804504	19486.927734	10769.288086	53.550819
592.930786	715.089355	19427.189453	10720.767578	53.471699
593.271423	711.894348	19328.144531	10635.765625	53.307571
593.612000	716.129639	19269.964844	10633.015625	53.449249
593.952576	720.587830	19285.123047	10603.147461	53.233543
594.292969	722.073914	19323.390625	10596.534180	53.084736
594.633484	730.247253	19415.748047	10618.899414	52.921528
594.973877	725.863281	19510.482422	10687.406250	53.030315
595.314209	726.086182	19645.861328	10773.299805	53.104298
595.654480	710.705566	19848.560547	10874.723633	53.109489
595.994812	718.135925	20040.484375	10960.246094	53.006554
596.335022	717.912903	20308.494141	11062.784180	52.805328
596.675171	722.296692	20473.076172	11129.581055	52.693031
597.015320	715.535156	20658.978516	11242.596680	52.784573
597.355408	719.844727	20747.029297	11302.039063	52.839153
597.695496	716.575500	20830.990234	11350.038086	52.864891
598.035461	719.919128	20797.851563	11321.133789	52.800335
598.375366	716.352539	20758.248047	11298.471680	52.799995
598.715271	718.432922	20657.267578	11251.809570	52.828449
599.055176	722.148132	20452.341797	11176.465820	52.986389
599.395081	727.349365	20159.814453	11056.022461	53.151634
599.734802	727.126465	19815.271484	10887.429688	53.228340
600.074524	723.114075	19472.439453	10685.028320	53.132118
600.414246	717.764343	19068.603516	10445.550781	53.010033
600.753906	715.832458	18687.357422	10222.271484	52.897232
601.093506	713.900574	18361.912109	10026.260742	52.767193
601.433044	715.312317	18170.656250	9905.444336	52.649387
601.772583	723.559875	18061.283203	9818.510742	52.457588
602.112122	727.720886	18019.226563	9812.120117	52.536774
602.451538	727.497986	18022.494141	9824.528320	52.599205
602.790894	724.748779	18116.267578	9904.105469	52.780647
603.130310	719.844727	18325.429688	9973.951172	52.563469
603.469604	725.194580	18598.865234	10115.943359	52.539570
603.808838	723.336975	18903.949219	10225.465820	52.265179
604.148010	727.423645	19224.566406	10405.129883	52.320007
604.487305	722.073914	19531.287109	10542.812500	52.212383
604.826416	725.120300	19806.728516	10684.656250	52.194431
605.165527	719.993347	20005.783203	10794.699219	52.239014
605.504456	721.405090	20164.568359	10853.473633	52.111210
605.843445	716.946960	20204.544922	10893.745117	52.221920
606.182434	714.940735	20145.845703	10856.444336	52.192650
606.521423	715.089355	19978.515625	10809.039063	52.399555
606.860229	715.980957	19749.439453	10704.643555	52.479488
607.199036	721.925232	19504.167969	10589.920898	52.538967
607.537903	715.312317	19256.443359	10435.074219	52.422703
607.876648	711.374268	18940.656250	10268.041992	52.424820
608.215271	707.361877	18650.353516	10103.758789	52.368057
608.553955	709.219482	18351.804688	9961.617188	52.443546
608.892578	719.473328	18196.437500	9856.775391	52.281971
609.231140	721.776672	18100.291016	9775.191406	52.095451
609.569641	724.080078	18041.962891	9693.383789	51.792149
609.908081	725.789063	18037.060547	9676.963867	51.707207
610.246521	722.816895	17995.451172	9662.770508	51.757900
610.584961	730.767273	18020.935547	9676.963867	51.741524
610.923340	724.823059	17966.099609	9640.555664	51.711555
611.261597	727.126465	17905.023438	9595.675781	51.627678
611.599854	719.027344	17755.453125	9528.209961	51.707928
611.938110	719.993347	17623.044922	9458.067383	51.695248
612.276245	725.714661	17394.490234	9329.821289	51.618107
612.614319	723.336975	17088.957031	9174.157227	51.637642
612.952393	721.702332	16708.677734	8979.484375	51.653187
613.290466	713.454773	16369.036133	8840.686523	51.912682
613.628479	719.919128	16038.539063	8680.118164	51.964207
613.966370	722.296692	15777.661133	8545.853516	51.965244
614.304260	722.891113	15532.834961	8386.102539	51.743690
614.642151	720.662109	15339.573242	8247.900391	51.489735
614.979980	724.228516	15142.968750	8149.002441	51.493916
615.317749	723.114075	14995.477539	8056.197754	51.379601
615.655396	721.330811	14879.789063	8005.151855	51.445019
615.993164	722.519714	14831.714844	7957.449707	51.278122
616.330811	724.971680	14781.487305	7908.410156	51.103977
616.668396	730.024231	14779.406250	7895.035156	50.998760
617.005859	723.634094	14754.960938	7889.982910	51.073917
617.343445	720.290588	14722.936523	7913.388184	51.369560
617.680908	720.587830	14700.792969	7928.025879	51.554596
618.018311	723.485596	14719.815430	7933.227051	51.511654
618.355652	728.315247	14749.386719	7951.803223	51.518803
618.692993	725.343201	14743.739258	7931.740723	51.406719
619.030273	723.559875	14730.069336	7910.193359	51.309238
619.367554	732.773438	14690.168945	7867.246094	51.116074
619.704712	734.556702	14662.082031	7841.166016	51.025642
620.041870	740.798157	14606.281250	7829.277832	51.123203
620.379028	732.253357	14552.485352	7827.197754	51.337372
620.716064	733.367859	14501.809570	7782.764160	51.199669
621.053040	731.658875	14426.319336	7720.201172	51.031151
621.389954	730.618652	14382.851563	7669.155762	50.823463
621.726929	727.943787	14294.729492	7638.765625	50.939270
622.063843	728.686829	14243.460938	7621.972656	51.005554
622.400635	725.863281	14202.221680	7591.285645	50.944195
622.737427	725.417480	14174.432617	7589.725098	51.039478
623.074219	716.798340	14113.132813	7536.599609	50.907967
623.410889	715.460876	14041.950195	7498.036621	50.895443
623.747559	713.380371	14027.460938	7476.859863	50.799450
624.084167	720.290527	13994.545898	7464.599609	50.807438
624.420715	723.411316	13991.573242	7442.160645	50.638134
624.757324	721.999512	14008.812500	7425.517090	50.452412
625.093750	719.398926	14079.102539	7445.876465	50.349003
625.430176	725.045959	14141.293945	7487.634277	50.405956
625.766602	729.726990	14200.958008	7515.571777	50.372860
626.102905	726.680664	14281.949219	7540.760254	50.268864
626.439209	718.953125	14409.156250	7573.676270	50.070282
626.775452	711.597168	14528.856445	7611.719238	49.938427
627.111694	717.690002	14629.239258	7674.134277	50.004814
627.447876	720.885010	14709.784180	7729.489746	50.101185
627.783997	729.875671	14753.918945	7753.117188	50.080006
628.120056	732.476257	14819.752930	7779.940918	50.027164
628.456055	734.110840	14800.804688	7748.808594	49.867424
628.792053	729.281250	14751.468750	7737.216797	49.977478
629.128052	718.953125	14658.664063	7688.251465	49.996002
629.463928	712.414551	14564.226563	7636.685059	49.988190
629.799744	711.151367	14459.606445	7561.861816	49.828949
630.135559	715.609436	14319.768555	7451.894531	49.516365
630.471375	716.055359	14150.877930	7386.210938	49.648262
630.807068	720.662048	13967.796875	7296.527344	49.639904
631.142700	723.188293	13815.476563	7234.781250	49.736095
631.478333	728.538147	13659.292969	7140.343262	49.585697
631.813965	721.033630	13539.887695	7075.105469	49.568172
632.149475	716.426758	13392.916992	6986.238770	49.460155
632.484924	719.473145	13288.594727	6927.167969	49.388454
632.820435	734.853821	13197.945313	6872.555176	49.247021
633.155884	736.042725	13142.367188	6832.803223	49.142361
633.491150	732.847717	13098.752930	6799.515625	49.059635
633.826477	721.702332	13039.979492	6762.513184	49.039413
634.161804	721.182190	12967.458008	6742.822754	49.171200
634.497009	713.008972	12905.862305	6701.585449	49.115463
634.832153	710.333984	12842.112305	6654.550781	48.997078
635.167297	709.293762	12765.504883	6594.960938	48.818546
635.502380	715.980957	12673.445313	6543.617676	48.736389
635.837463	719.324707	12558.200195	6503.791504	48.859936
636.172424	722.593994	12468.071289	6459.284668	48.841698
636.507324	724.897278	12360.628906	6397.092285	48.748074
636.842224	725.640381	12260.246094	6338.021973	48.656902
637.177124	727.200684	12133.708008	6273.601563	48.624882
637.511963	719.176025	12011.481445	6216.314453	48.680393
637.846741	723.782898	11887.468750	6136.810547	48.487820
638.181396	724.823059	11747.112305	6060.575684	48.408752
638.516113	733.367859	11646.504883	5996.526855	48.227741
638.850769	724.451477	11541.515625	5940.428223	48.219891
639.185303	719.398926	11474.569336	5894.435059	48.116730
639.519836	716.649719	11373.739258	5838.634277	48.061756
639.854370	718.581604	11273.133789	5773.692871	47.895084
640.188843	721.256531	11142.807617	5736.838379	48.127022
640.523254	720.141907	11046.585938	5701.470703	48.238567
640.857605	724.823059	10928.592773	5653.471191	48.302227
641.191895	724.897400	10863.875000	5585.707031	47.941811
641.526184	725.343079	10792.767578	5529.757324	47.722374
641.860413	721.702332	10773.895508	5517.125488	47.705242
642.194580	715.609558	10711.628906	5500.704590	47.870007
642.528748	715.683838	10630.043945	5474.178223	47.995975
642.862793	716.203918	10571.270508	5428.630859	47.817303
643.196838	721.182312	10515.247070	5395.120605	47.722153
643.530823	725.491760	10486.566406	5358.860840	47.467819
643.864746	726.532043	10414.937500	5329.808105	47.513245
644.198669	725.789001	10371.396484	5294.143066	47.362015
644.532532	722.445374	10303.334961	5276.161621	47.529160
644.866333	722.519714	10261.577148	5248.892578	47.450947
645.200073	714.940735	10243.000977	5227.047363	47.355980
645.533813	710.185364	10241.664063	5202.825195	47.134762
645.867554	709.665283	10223.534180	5177.413574	46.960369
646.201172	716.575439	10196.338867	5168.794434	46.965504
646.534729	728.761047	10189.652344	5166.788574	46.909187
646.868225	723.114075	10214.766602	5177.710938	46.931732
647.201782	726.086182	10219.967773	5184.918457	46.965321
647.535217	720.141907	10237.131836	5170.206055	46.759151
647.868591	728.612488	10228.883789	5172.435059	46.775745
648.201965	727.869446	10232.598633	5161.141113	46.642796
648.535278	732.550476	10206.666992	5146.726563	46.591957
648.868591	729.949890	10224.500000	5122.207031	46.260826
649.201782	721.850891	10188.760742	5084.460938	46.082722
649.534912	716.872742	10162.532227	5077.699219	46.167522
649.868103	712.563171	10093.653320	5052.882324	46.266685
650.201172	717.541321	10045.429688	5044.337402	46.385586
650.534180	714.494934	9985.022461	5016.845215	46.408905
650.867188	716.055359	9937.468750	4998.938477	46.444977
651.200134	713.008850	9940.812500	4976.647949	46.204269
651.533020	716.352539	9918.521484	4949.602051	46.002735
651.865845	723.337097	9881.815430	4934.220703	45.977985
652.198608	727.052185	9822.670898	4914.085449	46.033516
652.531433	718.953125	9778.833008	4883.694824	45.969059
652.864136	714.420715	9750.597656	4853.230957	45.802670
653.196777	853.886902	9845.779297	4948.486816	45.536575
653.529358	864.066406	9821.258789	4935.112793	45.450027
653.861938	864.289246	9768.429688	4893.799805	45.254345
654.194519	721.702332	9564.096680	4731.894043	45.351875
654.526978	710.556946	9479.837891	4690.210449	45.381752
654.859375	707.436218	9414.971680	4670.297363	45.510712
655.191833	715.163757	9380.346680	4658.186035	45.504204
655.524170	720.810730	9337.102539	4624.601074	45.307079
655.856445	719.696106	9293.487305	4573.777832	44.951897
656.188660	718.804504	9264.211914	4545.468750	44.780361
656.520874	720.364929	9240.509766	4524.367188	44.647156
656.853088	717.244141	9240.211914	4518.423340	44.599243
657.185181	717.838562	9227.877930	4497.841309	44.418159
657.517212	718.953125	9247.419922	4501.704590	44.354412
657.849243	729.801270	9286.800781	4541.456543	44.544296
658.181274	728.315247	9350.997070	4566.645020	44.514339
658.513123	728.463867	9421.360352	4591.611328	44.440281
658.844971	728.686768	9511.194336	4597.852051	44.055359
659.176819	728.018066	9601.620117	4609.963379	43.747124
659.508667	725.937683	9709.135742	4647.188965	43.650948
659.840393	721.702332	9784.256836	4680.773926	43.686043
660.172058	720.513489	9832.256836	4716.885254	43.859573
660.503662	723.336975	9860.416992	4726.916016	43.816833
660.835266	723.411316	9870.374023	4722.234863	43.717499
661.166931	721.033630	9848.529297	4698.458496	43.576298
661.498413	722.519714	9799.266602	4660.638184	43.386890
661.829773	722.816895	9693.161133	4608.998047	43.322544
662.161194	725.194580	9556.964844	4534.769043	43.134892
662.492615	721.776672	9412.743164	4475.029785	43.185680
662.823975	726.532043	9236.274414	4398.126465	43.145779
663.155212	735.448425	9067.830078	4328.431152	43.120716
663.486450	732.922058	8905.775391	4247.143555	42.998707
663.817627	727.795166	8776.265625	4188.890137	43.003139
664.148743	717.987244	8649.729492	4136.655762	43.101105
664.479858	724.823059	8524.083008	4088.804443	43.132061
664.810913	729.132629	8419.984375	4037.386963	43.015450
665.141907	728.761047	8353.111328	3985.821045	42.719181
665.472778	722.519714	8273.161133	3939.901611	42.610706
665.803711	717.318420	8225.534180	3919.245361	42.645645
666.134583	718.655945	8185.558594	3903.344971	42.650734
666.465454	722.891113	8176.419434	3889.375977	42.483032
666.796143	719.547546	8136.890625	3858.911377	42.324638
667.126831	715.609558	8108.804688	3831.419678	42.144295
667.457458	713.751953	8066.526855	3810.615234	42.118294
667.788147	721.702332	8050.402832	3782.900391	41.769997
668.118774	729.801331	8019.344238	3776.510498	41.795612
668.449219	723.411316	7986.205078	3760.683594	41.819611
668.779663	718.581604	7977.288574	3755.779541	41.842136
669.110107	707.956360	7953.214844	3730.665283	41.719822
669.440552	712.563171	7948.533203	3716.324951	41.511528
669.770874	713.380432	7927.357422	3698.120850	41.374409
670.101135	718.581604	7917.846191	3680.139648	41.136951
670.431396	719.473328	7898.378906	3660.300781	40.964844
670.761597	717.987122	7851.197266	3656.065430	41.188728
671.091797	712.563049	7794.727051	3641.576172	41.357601
671.421875	713.603333	7732.461426	3615.421875	41.343174
671.751892	710.333984	7684.907715	3569.577148	40.995239
672.081909	718.655945	7653.923340	3545.874268	40.765812
672.411865	719.101746	7615.286621	3528.116211	40.732876
672.741821	722.891113	7549.230957	3511.471924	40.850307
673.071716	719.250305	7498.482422	3486.803711	40.823997
673.401550	724.005676	7457.393066	3455.819580	40.571171
673.731262	723.708557	7455.238281	3433.974609	40.262260
674.060974	722.816895	7411.845215	3413.912842	40.231491
674.390625	714.866516	7356.638184	3388.501221	40.254845
674.720276	712.637451	7284.860840	3359.225830	40.269299
675.049927	716.129639	7245.777832	3321.851563	39.906006
675.379395	718.284424	7224.378906	3307.214111	39.792377
675.708923	719.770508	7189.308594	3286.929443	39.680714
676.038330	715.683777	7143.166504	3266.570313	39.687176
676.367737	719.250305	7109.804688	3237.369385	39.403767
676.697083	719.919006	7082.089844	3213.221436	39.189491
677.026428	715.832336	7075.179688	3209.877686	39.218575
677.355652	717.467041	7043.824219	3212.849609	39.444225
677.684875	715.981018	7038.771484	3215.896240	39.538162
678.013977	725.566101	7023.910645	3211.289307	39.466293
678.343079	725.863281	7037.359375	3192.490967	39.081505
678.672180	721.405090	7055.265625	3195.165771	39.056129
679.001221	712.860291	7096.206543	3195.834229	38.897686
679.330139	708.327881	7133.357910	3214.929932	39.013077
679.659058	714.866516	7176.082520	3211.289307	38.637043
679.987976	718.730225	7230.769531	3216.044678	38.349194
680.316772	720.141907	7300.019531	3221.394531	38.013668
680.645630	715.832458	7344.972656	3228.750732	37.907150
680.974304	713.528992	7392.229004	3254.459229	38.045280
681.302979	716.278259	7417.640625	3265.901611	38.046345
681.631653	730.841553	7449.293457	3284.848877	38.014816
681.960266	731.510254	7447.732910	3268.799805	37.778519
682.288757	725.714661	7449.367188	3261.072266	37.708042
682.617249	713.157532	7444.464355	3227.338867	37.350571
682.945679	715.609558	7423.436035	3224.515381	37.402664
683.274109	721.628113	7374.322266	3196.949219	37.207798
683.602478	721.182190	7296.675781	3177.555908	37.356491
683.930725	723.559875	7181.061035	3129.407471	37.256638
684.259033	712.934570	7091.674316	3087.129639	37.220440
684.587280	715.015137	7011.725098	3061.049561	37.258099
684.915344	711.894348	6970.486816	3030.139404	37.041000
685.243469	725.714661	6903.094238	3002.350342	36.854393
685.571533	726.977844	6831.020996	2966.907471	36.695839
685.899536	729.652649	6754.711426	2937.929688	36.651546
686.227539	719.770447	6679.814453	2910.808838	36.762115
686.555420	717.541321	6644.298340	2893.719482	36.717857
686.883301	717.318542	6625.871094	2873.063232	36.485153
687.211121	716.055359	6619.628906	2860.729248	36.328400
687.538940	711.745789	6627.876465	2844.085205	36.042801
687.866638	710.705566	6623.195313	2845.645752	36.108986
688.194336	711.522888	6646.526855	2834.871826	35.776707
688.521973	715.758057	6625.127441	2827.813232	35.740788
688.849609	710.185364	6595.853027	2799.652344	35.500935
689.177063	711.968689	6555.580566	2790.438721	35.568241
689.504578	709.813904	6505.574219	2770.005615	35.546532
689.832031	718.210144	6454.454590	2753.584717	35.482700
690.159485	720.364929	6370.121094	2709.820068	35.213112
690.486816	724.228577	6276.351074	2667.839111	35.006622
690.814087	723.708496	6181.243652	2631.505371	34.957115
691.141296	722.816833	6079.076660	2596.211670	34.975800
691.468506	724.451477	6006.483887	2567.307617	34.889153
691.795715	718.953125	5937.010254	2526.143799	34.633400
692.122803	720.067688	5877.345215	2496.942871	34.453747
692.449829	722.445313	5799.327637	2459.048584	34.206097
692.776855	726.606262	5729.705566	2440.027100	34.247192
693.103821	730.172852	5671.154785	2422.194580	34.244644
693.430664	725.045898	5628.060059	2395.296875	34.065800
693.757568	724.080017	5587.267578	2369.885254	33.842110
694.084351	716.501160	5534.215332	2350.789307	33.922478
694.411133	719.993347	5493.720215	2338.826904	33.911312
694.737854	716.946960	5432.420410	2325.972168	34.122238
695.064575	718.655945	5399.578613	2308.957031	33.974091
695.391174	714.792175	5373.795410	2299.743408	34.019104
695.717773	715.535156	5367.925293	2282.282471	33.676182
696.044250	717.169922	5354.997559	2268.833740	33.456696
696.370789	720.141907	5346.526855	2255.384766	33.184505
696.697205	717.615723	5382.043457	2261.403320	33.097042
697.023621	711.968689	5443.565918	2268.982178	32.906719
697.349915	712.414551	5513.187988	2288.375244	32.827225
697.676208	713.008972	5573.149902	2306.059082	32.777855
698.002380	719.176025	5661.347656	2339.495361	32.785572
698.328674	718.284363	5790.708496	2366.838867	32.500324
698.654724	717.541321	5899.859375	2398.789307	32.442009
698.980896	718.804504	6012.427734	2416.844482	32.077087
699.306946	721.702332	6087.770020	2442.553467	32.069126
699.632935	727.943787	6173.069824	2446.863037	31.568033
699.958862	720.587830	6183.695313	2454.664795	31.741585
700.284729	725.491760	6175.299316	2440.844482	31.475473
700.610596	718.581726	6130.866699	2427.990234	31.583858
700.936340	728.761047	6060.501465	2394.405273	31.240162
701.262146	719.696228	5939.165527	2359.854492	31.423851
701.587830	724.748718	5789.964844	2311.706299	31.330498
701.913513	717.318420	5641.359375	2268.982178	31.512001
702.239075	719.176086	5491.564941	2217.193115	31.389252
702.564697	721.999512	5359.009277	2162.655029	31.068632
702.890137	718.432922	5217.833984	2102.618652	30.763781
703.215698	718.358704	5097.092285	2061.826416	30.681652
703.541016	719.919128	4988.535645	2028.612915	30.658501
703.866455	721.850891	4919.285645	1996.885742	30.376528
704.191711	713.380432	4836.289551	1968.873413	30.451628
704.517029	707.584778	4768.525879	1940.638306	30.363737
704.842163	720.959290	4698.309082	1927.932617	30.346170
705.167419	729.058289	4653.133301	1903.041138	29.917444
705.492493	734.631042	4616.056641	1896.428223	29.932228
705.817566	726.977844	4565.159668	1882.013550	30.093302
706.142578	726.383362	4536.478516	1870.422363	30.026522
706.467590	725.566101	4513.444824	1862.769165	30.022163
706.792480	721.479492	4520.429199	1855.116089	29.840790
707.117371	717.541321	4518.497070	1854.521606	29.913008
707.442200	717.021301	4524.589844	1834.459839	29.347822
707.766907	717.169861	4514.112793	1826.435181	29.214697
708.091675	716.872620	4523.771973	1816.032837	28.872845
708.416321	717.615662	4517.531250	1824.503418	29.129271
708.741028	714.866455	4545.766113	1823.537476	28.940226
709.065552	723.559875	4564.268066	1837.952148	29.015282
709.390137	717.764343	4594.434570	1839.215332	28.928202
709.714600	723.336975	4609.072266	1841.370117	28.772757
710.039063	721.925232	4633.740723	1839.661011	28.573328
710.363403	730.470032	4649.789551	1839.066528	28.285431
710.687744	727.646545	4711.312500	1851.846680	28.220242
711.012085	724.377258	4747.646973	1854.670288	28.093889
711.336304	725.045959	4799.212891	1868.787720	28.073019
711.660461	725.491882	4805.305664	1870.719604	28.070591
711.984619	727.646545	4836.363770	1871.462524	27.838758
712.308716	724.080017	4845.875000	1865.890015	27.701767
712.632751	726.234863	4835.397949	1859.797241	27.586210
712.956726	727.126465	4798.246582	1846.794312	27.502697
713.280701	724.748779	4756.042969	1837.208984	27.595610
713.604553	727.869446	4716.142090	1818.707642	27.351143
713.928467	726.160461	4671.337891	1799.389038	27.203554
714.252258	727.869446	4610.409668	1776.652344	27.012802
714.575989	727.423645	4547.177734	1761.791992	27.079451
714.899719	728.909668	4485.877930	1738.089355	26.861544
715.223267	733.442139	4448.949707	1714.461060	26.403362
715.546936	730.692932	4409.123047	1694.102173	26.190771
715.870422	724.748779	4380.739746	1689.123901	26.377941
716.193970	716.872742	4352.058594	1676.863892	26.408310
716.517395	716.575439	4327.836426	1659.922852	26.122383
716.840820	721.182190	4296.331543	1655.390259	26.130602
717.164124	720.513489	4257.471191	1648.034180	26.223686
717.487488	723.411316	4211.255371	1647.959961	26.507740
717.810730	719.398926	4181.683105	1628.046875	26.244175
718.133972	724.451477	4131.603027	1614.523804	26.123650
718.457092	720.885010	4088.209717	1589.335083	25.790506
718.780212	723.262695	4033.151367	1569.645020	25.571323
719.103210	722.148132	3975.715820	1544.604980	25.278616
719.426208	721.033508	3938.712891	1530.636108	25.161070
719.749207	717.244141	3888.484375	1525.732056	25.494377
720.072083	715.758118	3844.943115	1522.462769	25.780024
720.394958	708.550720	3795.382813	1508.642456	25.919510
720.717773	708.847961	3720.634033	1489.249512	25.911587
721.040527	705.875793	3677.315674	1467.924683	25.645779
721.363281	717.615723	3645.217041	1451.652344	25.072971
721.685913	720.290527	3634.666016	1427.726929	24.274031
722.008545	722.519714	3607.842773	1419.924927	24.170784
722.331055	715.609558	3560.809326	1410.488647	24.422857
722.653503	719.250305	3532.425781	1408.853882	24.513350
722.976013	720.290527	3512.512451	1402.612305	24.436516
723.298401	727.943665	3510.283447	1389.312134	23.770226
723.620789	724.302917	3502.333008	1377.721069	23.520918
723.943115	726.977844	3481.305420	1370.959595	23.380724
724.265381	719.770508	3463.398438	1372.445679	23.788763
724.587585	716.575439	3466.742188	1373.783081	23.897011
724.909790	714.569336	3486.135010	1369.696289	23.637432
725.231873	719.398987	3483.460205	1360.408569	23.190861
725.553894	721.925232	3492.302490	1363.752075	23.167490
725.875916	768.884583	3534.505859	1420.890991	23.575405
726.197937	766.804138	3540.747314	1433.076538	24.018965
726.519775	768.513000	3531.756836	1430.550293	23.958698
726.841675	727.200745	3505.305420	1373.634399	23.268873
727.163513	726.383484	3525.069580	1371.925415	23.065893
727.485291	724.302917	3558.208740	1375.863403	22.991608
727.806946	720.067688	3598.480469	1381.139038	22.966522
728.128662	716.575439	3617.873779	1377.275391	22.772562
728.450256	714.866516	3632.139893	1374.303223	22.604555
728.771790	711.077087	3609.848877	1368.433228	22.677057
729.093323	712.637390	3610.220703	1359.814087	22.335051
729.414795	717.318542	3597.737549	1362.637695	22.403656
729.736145	714.123474	3587.409424	1358.625366	22.430830
730.057495	717.095642	3591.867920	1366.352661	22.584642
730.378845	715.832458	3612.524170	1349.708862	21.882771
730.700134	715.981018	3631.396729	1347.702759	21.668324
731.021301	707.733398	3632.511475	1340.049683	21.619291
731.342468	708.847961	3622.034424	1339.678101	21.654299
731.663574	714.123535	3612.152344	1346.736816	21.829088
731.984680	720.067688	3626.418701	1355.132935	21.850948
732.305664	718.953125	3636.375244	1362.489014	22.058374
732.626648	719.696106	3673.080811	1356.544800	21.563351
732.947571	725.045898	3674.343750	1346.662598	21.076769
733.268433	728.389648	3680.362549	1334.774048	20.541666
733.589233	728.166687	3649.675781	1330.687500	20.623617
733.909973	723.559875	3629.167969	1328.161133	20.808079
734.230713	725.120300	3577.676025	1325.783447	21.057018
734.551331	722.519714	3541.416260	1316.718506	21.079128
734.871948	726.532043	3497.949463	1305.647461	20.896000
735.192505	720.810730	3462.506836	1291.009766	20.797310
735.513062	726.086182	3423.944092	1277.412231	20.435696
735.833435	719.324646	3373.714844	1257.499146	20.274883
736.153931	718.730225	3324.600830	1247.022461	20.273157
736.474304	719.250305	3269.988281	1231.270386	20.073408
736.794617	727.572266	3228.378906	1224.211548	19.859163
737.114807	725.788879	3205.567627	1220.050659	19.931688
737.434998	717.541321	3210.992188	1219.679199	20.138269
737.755188	716.501160	3209.729248	1221.982544	20.274174
738.075256	720.810730	3219.091064	1221.610962	20.045799
738.395325	719.919128	3215.970459	1222.725464	20.144072
738.715271	713.083191	3238.558350	1221.685303	20.138868
739.035278	713.380432	3259.139893	1212.026001	19.587301
739.355164	715.312317	3270.211182	1207.344849	19.258394
739.675049	718.433044	3278.012939	1211.728882	19.272532
739.994873	720.810730	3266.644775	1217.524292	19.510839
740.314636	719.101746	3259.957764	1212.768921	19.429169
740.634277	715.683838	3235.660889	1198.948608	19.177347
740.953979	711.448547	3209.283203	1191.369751	19.213490
741.273499	717.467041	3187.438232	1184.311035	18.900787
741.593140	723.708496	3148.429443	1173.314209	18.542576
741.912598	724.822998	3111.054932	1165.289551	18.458664
742.232117	723.931396	3048.120361	1154.292847	18.516628
742.551453	725.491760	3017.879150	1156.893433	18.818882
742.870850	726.532043	2986.523438	1147.977051	18.648079
743.190063	727.869446	2953.830322	1144.410522	18.712866
743.509338	722.965515	2912.072266	1131.556152	18.664721
743.828552	724.748718	2879.676514	1128.286743	18.726290
744.147705	724.005676	2861.100586	1120.856567	18.569643
744.466797	731.881836	2846.760010	1121.079468	18.402840
744.785828	728.389587	2811.169189	1108.968140	18.272627
745.104858	723.634216	2785.609131	1101.463501	18.323662
745.423706	721.999512	2757.671143	1088.163330	17.987371
745.742615	719.696106	2747.343018	1087.866211	18.157505
746.061401	723.039795	2734.934570	1085.711304	18.026365
746.380249	717.912903	2735.231689	1083.928101	18.143646
746.698975	718.210144	2725.869873	1076.869263	17.864538
747.017639	710.185364	2724.458008	1071.370972	17.931316
747.336304	712.711731	2705.362305	1064.980957	17.678425
747.654907	708.104980	2697.263428	1066.318359	18.008287
747.973389	716.724060	2685.523438	1072.782715	18.085066
748.291931	715.758118	2689.981689	1070.999390	17.993973
748.610352	722.222473	2694.737061	1064.609375	17.357889
748.928711	719.844788	2706.476807	1060.968506	17.170956
749.247070	715.237976	2704.322021	1057.550537	17.209558
749.565308	717.838562	2700.012207	1059.779663	17.250814
749.883545	712.563049	2682.327881	1051.903687	17.227468
750.201782	715.015076	2676.086670	1052.646606	17.216686
750.519836	715.460876	2668.879395	1053.612671	17.310770
750.837952	719.027405	2664.718506	1049.600220	16.989994
751.155884	715.386536	2648.371826	1047.073975	17.159336
751.473877	711.671387	2632.619873	1038.454956	17.011574
751.791809	713.306152	2616.570313	1040.312378	17.181337
752.109619	711.151367	2616.198975	1033.848022	16.939034
752.427490	711.448547	2610.180420	1033.179321	16.944508
752.745300	709.516663	2609.362793	1026.269165	16.672535
753.062988	717.169861	2605.052979	1023.297058	16.215368
753.380615	717.244141	2600.298096	1016.312683	15.882102
753.698303	717.244141	2591.084473	1014.752258	15.876920
754.015808	722.668274	2575.926758	1019.358948	16.009136
754.333374	725.417480	2579.567383	1017.129944	15.732949
754.650757	729.652649	2570.279785	1013.489075	15.420636
754.968262	729.058289	2568.273682	1010.294128	15.291078
755.285583	728.909668	2548.137695	1009.699707	15.434571
755.602905	722.073914	2544.199463	1005.984558	15.581289
755.920105	713.974854	2532.013916	1000.857666	15.779794
756.237305	710.111145	2528.001465	1002.938171	16.108068
756.554443	718.655945	2523.692139	1000.337585	15.605319
756.871582	725.714661	2517.227539	994.170410	14.984862
757.188599	721.776672	2519.902588	990.975342	14.971068
757.505615	716.724060	2524.880859	993.204407	15.290729
757.822510	712.414490	2541.524658	998.108398	15.619285
758.139465	721.925293	2562.478027	998.925720	15.049850
758.456238	724.302917	2582.688477	995.062012	14.569587
758.773010	724.302917	2598.069092	992.684265	14.323097
759.089783	724.600159	2612.483643	994.764709	14.310446
759.406433	726.234802	2626.378174	999.743103	14.394088
759.723145	723.336975	2637.077881	998.108398	14.357817
760.039673	723.485596	2639.975830	1004.052734	14.639633
760.356201	730.767273	2643.988037	1004.052734	14.284053
760.672668	734.556641	2653.498779	1016.609863	14.698370
760.989136	736.117004	2638.192627	1003.161133	14.039617
761.305481	733.367859	2628.607422	996.102295	13.862862
761.621826	735.225403	2612.334961	985.105469	13.311959
761.938049	730.395752	2636.112061	992.981628	13.778854
762.254333	730.247253	2664.421387	996.845398	13.783566
762.570496	723.262695	2724.235107	1005.315857	14.095804
762.886597	721.107910	2802.475830	1006.653320	13.719122
763.202637	716.872742	2913.558350	1031.544678	14.324851
763.518677	718.730225	3063.352783	1040.981079	13.744253
763.834656	718.953125	3222.137451	1068.696045	13.971920
764.150574	719.027527	3374.086670	1078.281128	13.530908
764.466370	725.194580	3460.128906	1096.188110	13.564989
764.782288	727.943787	3487.992920	1094.627808	13.285417
765.097961	726.977844	3466.816406	1097.228271	13.513585
765.413696	720.810730	3407.522705	1085.414063	13.570615
765.729309	713.900574	3308.105713	1076.051880	13.960011
766.044861	716.501160	3176.069580	1053.018188	13.681954
766.360474	723.411316	3034.077393	1036.300171	13.541068
766.675903	725.120300	2905.756592	1005.167175	12.842439
766.991394	720.810730	2789.769775	983.396484	12.691685
767.306763	715.386658	2685.671631	970.393494	12.942637
767.622131	719.993347	2607.951172	966.009583	13.030812
767.937378	720.736389	2533.945557	959.545349	13.170513
768.252625	718.284424	2479.704834	945.130615	12.878594
768.567810	720.364929	2417.959229	932.350525	12.487412
768.882996	718.358704	2382.442139	925.886230	12.470981
769.197998	720.513489	2340.461182	930.567200	12.966697
769.513062	716.501160	2304.944580	928.338196	13.336141
769.828064	714.049133	2266.084229	919.421875	13.232480
770.142944	711.077087	2240.078369	905.452942	12.712603
770.457825	711.076965	2227.595459	903.669678	12.699661
770.772705	716.575439	2198.171631	902.703796	12.562692
771.087402	719.398926	2165.329834	900.177490	12.502573
771.402100	724.600159	2127.138184	893.713135	12.057639
771.716736	721.850891	2106.482178	896.759521	12.632144
772.031372	726.086182	2103.138672	885.985657	11.611720
772.345947	720.513489	2079.212891	881.156006	11.823256
772.660461	731.807434	2067.176025	876.995056	10.872475
772.974854	727.869446	2039.609741	880.487244	11.634758
773.289246	734.705261	2024.377563	880.115723	11.274992
773.603638	725.045898	2005.578979	869.416199	11.274235
773.917908	728.240967	1992.947388	867.632874	11.021681
774.232178	722.816833	1988.638062	871.199402	11.722237
774.546265	725.194519	1981.802246	876.623474	12.050615
774.860474	727.869385	1957.133789	874.320068	11.913685
775.174561	727.572266	1937.517700	870.159180	11.784574
775.488586	723.559875	1912.923462	870.604980	12.363344
775.802551	717.467041	1908.316772	867.930115	12.634933
776.116516	720.736328	1898.806030	868.375916	12.532331
776.430359	727.943787	1893.307617	854.778503	10.883701
776.744202	731.733215	1881.419312	864.883606	11.581457
777.057922	724.600098	1875.623657	862.134460	11.948874
777.371704	718.432922	1870.496704	868.078674	12.989365
777.685303	720.067627	1867.004395	860.797058	12.270025
777.998962	724.674377	1862.100586	861.019836	11.987191
778.312500	730.172852	1845.902710	855.893066	11.267980
778.626038	726.309082	1840.849976	850.097473	11.106671
778.939453	726.383362	1832.305176	844.301941	10.662469
779.252869	722.593994	1841.741577	842.815735	10.742260
779.566223	722.965515	1839.215210	844.599060	10.896625
779.879578	723.262695	1839.438110	843.707336	10.790834
780.192749	718.433044	1836.094727	844.524719	11.281739
780.505920	712.711670	1845.011108	848.908630	12.028352
780.819031	708.773621	1845.902466	842.444275	11.755101
781.132141	713.231750	1843.079102	840.586670	11.271869
781.445190	718.730164	1834.162720	836.128479	10.524913
781.758118	721.776611	1820.639648	837.094421	10.494285
782.071045	726.086182	1805.036133	834.791077	10.075064
782.383911	723.485596	1777.543945	833.899475	10.475121
782.696838	723.559875	1755.178833	836.797180	10.976661
783.009583	723.485596	1743.958984	837.763184	11.198488
783.322266	727.349365	1733.705444	833.602234	10.558178
783.634888	725.045959	1727.909790	834.048035	10.869081
783.947510	720.885010	1709.036987	834.419434	11.489571
784.260132	719.176025	1696.033813	828.995422	11.242107
784.572571	724.897278	1693.136108	830.332825	10.889415
784.885010	727.720886	1695.067993	830.407227	10.615252
785.197449	726.532043	1693.061890	830.407227	10.747230
785.509766	725.268860	1684.219727	821.565186	10.041842
785.822083	723.262695	1676.640991	813.986328	9.516016
786.134277	724.302917	1673.223022	813.243225	9.372792
786.446533	725.343079	1663.192017	814.060547	9.459676
786.758606	723.411194	1653.384155	812.054443	9.531810
787.070740	722.222412	1655.984741	813.912048	9.819376
787.382690	723.039795	1671.439819	817.329895	9.942018
787.694641	722.148132	1684.888550	825.726074	10.758657
788.006653	720.141907	1704.058594	830.555847	11.221879
788.318481	711.299988	1726.200806	822.753967	10.981761
788.630310	707.658997	1755.921875	821.639465	10.873271
788.942017	712.637390	1779.327271	811.682922	9.285316
789.253784	714.420654	1801.246460	816.289734	9.373082
789.565430	721.628113	1799.537598	822.159668	9.326530
789.877014	716.649719	1792.478882	828.401062	10.387463
790.188538	720.364807	1784.082642	836.351379	10.903886
790.500061	715.981018	1781.036255	827.583679	10.478580
790.811462	718.432922	1755.996216	833.156433	11.057014
791.122925	716.426758	1723.228882	824.983093	10.782291
791.434204	715.906738	1680.950562	829.441223	11.764697
791.745483	718.210144	1655.315918	808.264954	9.609887
792.056702	716.946960	1628.715698	801.577698	9.282040
792.367920	719.844727	1615.192383	791.769775	8.033197
792.678955	720.439209	1604.046997	801.800720	9.207876
792.990112	722.371094	1586.437378	802.469421	9.269929
793.301086	718.284424	1575.960571	804.698486	10.075372
793.612122	715.906738	1567.564453	801.132019	10.006988
793.922974	716.946960	1570.462280	798.902832	9.602156
794.233826	720.885010	1569.719238	796.302246	8.884802
794.544556	724.748779	1565.855469	800.760437	9.037101
794.855286	721.851013	1556.939087	798.828552	9.217895
795.166016	719.547607	1552.406616	800.983337	9.777853
795.476624	715.906738	1565.186646	793.998840	9.195096
795.787292	725.937561	1581.533569	791.249695	7.633525
796.097778	727.943665	1603.304077	793.181580	7.452692
796.408264	724.302917	1614.895386	792.215637	7.625566
796.718689	713.454773	1619.873535	802.469421	9.820477
797.029053	711.299988	1624.851929	802.469421	9.979666
797.339355	719.101746	1620.988159	804.178406	9.433190
797.649658	720.216309	1621.508301	797.491150	8.573786
797.959839	719.027405	1616.158569	794.964844	8.464475
798.270020	710.556946	1594.685059	797.416809	9.824352
798.580078	711.894348	1586.140259	794.519043	9.450967
798.890137	721.850891	1571.725586	793.255859	8.401823
799.200195	722.965515	1572.097046	789.614990	7.849134
799.510071	727.423645	1559.837036	793.404480	7.926450
799.820007	721.256531	1553.149780	788.946289	8.136832
800.129883	723.931396	1542.524536	790.060852	8.078427
800.439575	716.129639	1531.156250	787.980286	8.815742
800.749329	714.272034	1515.403931	783.002136	8.579124
801.058960	713.380432	1502.698242	787.980408	9.451197
801.368591	723.559875	1491.998657	791.621155	8.857085
801.678162	723.634216	1485.311401	797.268250	9.667355
801.987671	728.240967	1482.190552	799.423035	9.441224
802.297119	726.531982	1478.772827	795.930847	9.225617
802.606506	729.058289	1467.553101	794.296082	8.833886
802.915894	725.491760	1467.478882	787.385925	8.341677
803.225159	723.485596	1465.323853	789.986511	8.964341
803.534424	722.148132	1464.803711	785.899841	8.584291
803.843628	721.256531	1459.528320	787.534607	8.977463
804.152771	722.891174	1455.887329	778.469543	7.582355
804.461792	728.092285	1461.088501	782.853455	7.470867
804.770874	731.361633	1463.317749	776.389160	6.151670
805.079773	731.435852	1462.723267	772.599670	5.628952
805.388733	727.572205	1467.627319	770.965027	5.863458
805.697571	726.977783	1472.382813	776.537781	6.648734
806.006470	721.107910	1484.791382	785.156921	8.386853
806.315125	722.296814	1484.122559	785.008301	8.231736
806.623901	718.433044	1489.323730	773.491272	7.142158
806.932495	718.284424	1495.639526	776.909241	7.541575
807.241150	717.467041	1497.571289	781.293152	8.181741
807.549622	722.593994	1483.453735	785.751282	8.300779
807.858154	724.525879	1465.026733	785.751282	8.268107
808.166565	722.073792	1461.534546	783.447937	8.299851
808.474915	719.027405	1463.094727	785.008301	8.867598
808.783264	717.541321	1456.333374	783.076355	8.870565
809.091492	716.426758	1436.791870	776.909241	8.396088
809.399719	710.036804	1420.370728	779.807068	9.822178
809.707825	710.259766	1408.854004	769.701904	8.508821
810.015930	709.962585	1403.058472	770.073425	8.672803
810.323975	714.569275	1394.067749	764.500671	7.348272
810.632080	717.169922	1385.894409	773.937195	8.488888
810.939880	715.906738	1380.247437	767.918640	7.829101
811.247864	719.176086	1376.458008	774.382996	8.399274
811.555664	715.312317	1370.067871	772.822571	8.783469
811.863464	718.655945	1365.535522	777.875183	9.154600
812.171143	717.987122	1360.185669	776.091980	9.047803
812.478882	721.702393	1355.207397	774.308655	8.304001
812.786438	729.132629	1343.244629	774.680176	7.416814
813.094055	728.686768	1335.740112	767.918640	6.462673
813.401489	724.971680	1330.687500	763.460449	6.354262
813.708984	712.934570	1336.928955	764.797852	8.311498
814.016357	711.002747	1340.421143	762.494568	8.180858
814.323730	712.934631	1339.009399	767.695740	8.746737
814.630981	717.690002	1333.362305	766.506836	7.929029
814.938232	723.188477	1335.517212	767.695618	7.268505
815.245361	725.566101	1328.607056	761.379944	5.938874
815.552490	727.126465	1329.721558	763.683411	6.066586
815.859619	731.881836	1317.907349	763.386169	5.375932
816.166565	734.259521	1333.436646	765.540955	5.220732
816.473572	735.894226	1332.099243	762.122986	4.399285
816.780457	731.807556	1338.340576	761.082764	4.826647
817.087341	723.188477	1339.083618	763.832031	6.599103
817.394043	718.135925	1345.622192	756.624695	6.133803
817.700806	712.488831	1350.823608	759.745361	7.403095
818.007507	715.238037	1354.984497	750.308899	5.481994
818.314209	721.330872	1368.136108	762.048767	6.295233
818.620667	720.736389	1375.640625	761.305725	6.194697
818.927246	723.188416	1398.377075	766.878418	6.470784
819.233704	718.433044	1421.188110	767.398621	6.967659
819.540161	717.095642	1462.128906	772.079590	7.380066
819.846497	724.154297	1503.366821	778.618225	6.989612
820.152832	730.618652	1562.363281	775.571777	5.404679
820.458984	732.773438	1626.932251	778.395325	5.102213
820.765259	725.640442	1703.018433	782.779114	5.846118
821.071350	722.668274	1804.218628	792.735779	6.478433
821.377502	723.039734	1981.504883	797.268250	5.898337
821.683472	729.132568	2318.021973	808.562256	4.999070
821.989441	729.058289	2887.626709	842.890076	5.273485
822.295349	730.024231	3683.111572	883.162109	5.185687
822.601196	717.689941	4560.180176	931.681824	5.569094
822.907043	718.953125	5306.031250	967.644348	5.421561
823.212769	721.107910	5732.157715	997.662659	5.518898
823.518494	730.024231	5798.807129	1002.343750	5.372484
823.824097	724.525879	5548.406738	984.956848	5.398785
824.129700	719.250305	5146.726563	961.477234	5.470994
824.435242	716.203918	4710.049316	939.260681	5.585012
824.740723	712.860352	4339.501953	920.833557	5.734595
825.046082	714.792175	3989.610352	902.926575	5.744881
825.351501	710.556885	3629.390625	885.985657	6.010235
825.656799	717.169922	3272.514893	868.896057	5.937599
825.962036	715.089355	2960.294922	851.955078	6.095911
826.267212	717.912903	2731.962158	838.803406	6.002361
826.572449	723.634216	2600.075195	833.230652	5.840655
826.877502	723.411316	2598.143311	827.435059	5.548726
827.182495	723.114075	2704.693359	832.784851	5.534513
827.487488	715.758118	2865.707275	828.401062	5.239330
827.792419	722.668274	2992.839111	833.304993	4.873497
828.097290	721.627991	3029.247803	836.054260	4.958627
828.402100	726.383362	2953.310303	838.654785	5.041540
828.706848	726.754944	2802.401611	837.688965	5.344552
829.011597	720.067688	2617.833740	826.023376	5.583179
829.316223	712.414551	2437.797852	818.147278	6.128072
829.620789	713.900574	2280.647705	811.088562	6.203170
829.925354	725.194580	2131.596436	806.035950	5.748099
830.229797	724.377258	2002.755493	793.924561	5.440276
830.534302	713.677551	1866.038696	788.797668	6.518800
830.838562	707.287598	1746.634155	779.064026	6.905919
831.142944	715.163757	1625.372070	781.144531	7.248975
831.447144	717.987244	1534.499878	773.342773	6.779507
831.751404	727.126465	1480.704590	771.410889	5.876554
832.055542	720.959290	1444.593384	762.791748	5.780886
832.359619	727.497986	1436.123047	757.441895	4.225635
832.663635	726.977783	1435.751343	764.426453	5.283587
832.967651	732.922058	1466.438477	771.708069	5.287681
833.271545	729.875671	1530.933228	778.915344	6.121866
833.575439	729.801270	1645.731079	774.234375	4.851148
833.879211	726.457703	1798.125854	778.841064	4.888021
834.183044	727.795166	1952.972656	782.110413	4.433255
834.486694	726.309082	2052.538330	784.710999	4.403606
834.790344	730.172852	2090.507080	782.110413	3.818000
835.093933	725.194580	2058.779541	785.974182	4.557610
835.397522	721.628113	2002.384155	783.745117	4.850026
835.700928	709.962585	1930.756226	790.060852	6.561163
836.004395	713.157532	1857.270874	782.630554	6.072216
836.307739	710.705566	1778.361328	776.463379	6.159084
836.611023	717.689941	1702.795410	769.701904	5.279837
836.914307	718.210144	1628.195679	766.135315	5.266586
837.217529	726.234802	1551.589478	771.559509	5.491543
837.520691	729.058289	1462.872070	768.587341	5.386796
837.823730	726.234680	1389.386597	762.643127	5.490212
838.126831	724.674500	1326.006470	750.308899	4.262937
838.429749	727.869446	1286.328735	740.352356	2.235241
838.732727	729.429871	1258.465210	735.374023	1.123583
839.035522	721.999573	1240.335327	739.980896	3.469049
839.338379	717.467102	1228.001099	740.426575	4.497149
839.641113	720.142090	1223.988647	744.661865	4.866517
839.943848	723.262695	1249.994629	744.438965	4.020312
840.246460	725.194580	1278.972778	751.646301	4.776591
840.549072	722.519714	1313.597778	755.807312	5.631675
840.851563	725.045959	1318.427490	755.287109	5.096409
841.154053	726.160461	1320.730835	752.909485	4.498883
841.456482	728.315247	1298.514282	748.525635	3.544445
841.758850	735.522644	1278.006836	745.479187	1.835361
842.061157	737.008728	1251.257813	740.055115	0.592395
842.363403	739.906494	1226.886597	740.278015	0.076291
842.665588	727.869446	1210.762939	743.324463	3.200502
842.967712	721.033630	1190.032471	750.308899	6.242077
843.269775	717.021301	1166.329834	754.692810	8.384330
843.571777	721.182312	1141.587036	746.668030	6.062186
843.873840	723.782898	1119.964844	736.414307	3.188285
844.175659	721.182312	1104.584351	735.968445	3.856561
844.477600	722.816895	1086.380005	744.513245	5.967699
844.779297	730.024231	1070.776489	746.222168	4.753582
845.081116	735.076843	1061.117188	737.677429	0.797627
845.382751	735.448303	1045.290527	731.287354	-1.342925
845.684387	730.767273	1037.191650	728.761047	-0.654721
845.985962	722.073914	1027.829590	731.658875	3.134843
846.287537	722.371033	1026.863525	735.151123	4.197177
846.588989	714.197754	1014.455078	739.832214	8.537498
846.890381	716.649719	999.817444	739.757874	8.160589
847.191711	713.380432	996.325195	737.751709	8.613440
847.493042	717.912903	994.467590	737.380188	7.039217
847.794250	723.931458	1001.377747	739.832214	5.731112
848.095459	724.080017	994.467712	732.476257	3.105260
848.396606	725.640320	989.489319	727.200745	0.591408
848.697693	722.445313	982.207703	717.764343	-1.802020
848.998657	726.532043	979.384216	731.213135	1.851315
849.299622	722.371094	988.746338	736.860107	5.439324
849.600464	726.160583	991.049744	741.243958	5.694221
849.901367	724.525879	993.353027	732.847717	3.095609
850.202087	729.058350	982.059021	730.544373	0.587359
850.502808	732.476257	978.715393	737.231628	1.931200
850.803467	731.213074	970.987976	732.401917	0.495816
851.104065	722.742615	967.049988	729.801270	2.889252
851.404663	716.947021	966.455566	726.532043	3.841561
851.705139	720.216309	966.604187	731.807434	4.704422
852.005615	728.315247	972.474060	732.847717	1.856362
852.306030	727.497864	975.148926	727.200867	-0.119926
852.606384	728.166687	977.006531	728.315369	0.059750
852.906616	730.470032	975.966248	735.522644	2.058122
853.206909	731.584656	967.867188	744.290344	5.377329
853.506958	728.835449	962.888977	745.479187	7.111082
853.807129	720.587830	964.597900	745.330566	10.140047
854.107178	713.231873	967.644348	737.454407	9.520969
854.407166	714.717834	971.582336	736.117004	8.330917
854.707092	717.095520	975.446106	730.098572	5.033103
855.007019	725.863281	980.201477	727.052185	0.467450
855.306763	727.200745	978.492493	724.302917	-1.153172
855.606567	727.349365	967.346985	726.977844	-0.154802
855.906250	724.600159	956.573181	733.962219	4.035840
856.205933	721.553711	951.149109	737.454590	6.925609
856.505493	721.999512	950.257507	737.826111	6.933645
856.805054	716.872742	950.183289	728.761047	5.095486
857.104492	711.002747	955.310059	728.240967	7.055957
857.403931	708.253601	953.675476	723.336914	6.145872
857.703308	706.544617	951.223389	726.457703	8.138461
858.002563	707.659180	948.845703	727.423584	8.194655
858.301819	706.916199	954.864258	734.779602	11.237597
858.601013	711.299988	954.715637	741.243958	12.301579
858.900208	714.272034	947.434021	742.878601	12.268967
859.199219	722.742493	942.009949	735.299744	5.726911
859.498291	728.240967	942.158508	739.609314	5.314360
859.797302	731.733215	947.954102	739.237793	3.470792
860.096191	726.829163	947.285339	734.259460	3.370420
860.395020	728.389587	945.799316	726.531982	-0.854426
860.693787	728.240967	935.694153	720.439148	-3.760761
860.992554	727.795166	939.780823	725.714661	-0.981437
861.291260	724.748718	946.690918	730.841553	2.745235
861.589844	722.222412	951.372070	733.590820	4.961128
861.888428	718.730164	949.588684	734.853943	6.984269
862.186890	722.222412	949.068604	730.172852	3.504771
862.485413	718.953125	957.687744	724.971680	2.521023
862.783813	719.621887	951.669250	723.262695	1.568994
863.082153	707.807800	948.994385	720.142029	5.113978
863.380371	711.299988	941.341125	725.194519	6.040020
863.678589	713.826233	955.310059	724.971680	4.615401
863.976746	721.033508	951.966492	724.451477	1.480070
864.274902	724.005676	961.031433	722.816895	-0.501541
864.572937	727.869446	954.046936	721.850891	-2.660987
864.870911	731.138733	961.774414	727.646545	-1.514158
865.168884	726.903503	953.080994	730.321472	1.511189
865.466736	722.148132	950.406067	734.853943	5.566427
865.764587	715.832336	939.632141	733.516418	7.901742
866.062317	715.609436	942.752930	731.584656	7.033096
866.360107	717.169922	946.542419	735.522644	8.001274
866.657715	717.987244	950.628967	737.528809	8.399854
866.955322	719.398926	946.690918	734.408020	6.603442
867.252808	726.903503	955.532959	730.395752	1.527471
867.550293	726.903503	956.498840	735.002502	3.527510
867.847717	728.315247	965.043762	735.299805	2.950451
868.145081	726.606262	957.241943	737.677429	4.800284
868.442383	728.909668	960.362732	732.922058	1.733565
868.739624	724.080017	955.830139	739.163513	6.508517
869.036804	728.315247	949.440186	740.278015	5.409959
869.333984	732.996399	951.223450	739.237793	2.860046
869.631042	739.089172	951.892273	732.104736	-3.282112
869.928101	734.333801	956.350342	725.789001	-3.848722
870.224976	728.240967	953.155273	727.275085	-0.429444
870.521851	728.686768	955.458679	739.609314	4.816534
870.818726	725.640381	963.260498	740.723816	6.347710
871.115479	735.522644	960.659912	736.042725	0.231006
871.412231	731.287354	960.362732	727.869385	-1.492072
871.708862	730.395752	949.811707	725.937561	-2.031844
872.005493	723.262695	951.297668	724.302917	0.456168
872.302063	727.572266	944.239014	723.485535	-1.886183
872.598572	726.234802	944.090332	725.045898	-0.545730
872.895020	725.566101	945.725098	728.686768	1.417460
873.191406	725.937561	958.059265	728.315247	1.024327
873.487671	731.064453	969.353271	731.807434	0.311799
873.783997	727.423584	976.114746	732.401855	2.001789
874.080200	721.182190	979.681335	733.888000	4.915224
874.376343	716.649719	975.074646	735.076843	7.130552
874.672424	717.541321	980.870178	735.076843	6.659173
874.968445	721.330811	975.817566	734.333801	5.109496
875.264465	721.776611	974.628723	730.544373	3.467545
875.560364	720.439148	966.083984	728.909668	3.448279
875.856201	718.878845	966.232605	727.126465	3.334342
876.152039	723.559875	977.823792	729.429871	2.308623
876.447754	725.491760	980.647278	733.962341	3.319772
876.743469	724.897400	984.808167	743.844543	7.289865
877.039063	724.823059	979.161194	745.256287	8.033883
877.334595	725.937561	977.229309	738.791992	5.115342
877.630127	723.708496	974.257324	731.213074	2.995255
877.925537	717.912903	976.932190	732.624817	5.679853
878.221008	722.965515	988.523438	734.853943	4.476774
878.516296	727.275085	994.021790	734.705261	2.785480
878.811646	730.395752	1004.201233	726.457703	-1.438265
879.106812	732.996338	1007.470520	726.754883	-2.273968
879.401978	731.436035	1029.464233	727.869446	-1.196729
879.697083	738.940613	1037.265991	724.823059	-4.732267
879.992126	738.346130	1066.987183	724.377197	-4.250514
880.287109	740.872375	1101.166382	720.885010	-5.547515
880.582031	739.014893	1181.413208	728.018066	-2.485730
880.876892	732.179016	1319.393433	729.652649	-0.430229
881.171753	729.429871	1551.217773	739.534973	1.229648
881.466492	727.572266	1895.610962	742.209900	1.253181
881.761230	731.287415	2294.765381	754.989929	1.516012
882.055786	728.761169	2692.136230	771.708008	2.187399
882.350403	720.587830	2960.591797	787.906067	3.005273
882.644958	710.854187	3076.058350	796.525146	3.622138
882.939453	710.482666	3036.306641	788.426208	3.351223
883.233826	714.940735	2931.762695	778.246765	2.855711
883.528137	715.386536	2791.033203	768.884583	2.577416
883.822449	722.742493	2661.671875	771.485107	2.513893
884.116577	722.073792	2520.794189	772.153809	2.784202
884.410828	724.525818	2387.346436	767.695740	2.596186
884.704956	723.411316	2223.063232	756.178711	2.185000
884.999023	726.977844	2021.925659	751.274719	1.876282
885.292969	726.234680	1813.432251	745.404968	1.763276
885.586914	712.042969	1617.198608	751.720642	4.383520
885.880798	708.773621	1472.457031	747.931152	5.127456
886.174622	709.145203	1361.448730	748.674255	6.059917
886.468384	717.838623	1289.003540	741.392578	4.123845
886.762085	718.358704	1242.192871	740.649475	4.255311
887.055664	718.655945	1201.772095	735.522644	3.491231
887.349304	715.089355	1164.323608	732.104675	3.787627
887.642822	704.984192	1129.029907	723.114075	4.275455
887.936340	705.058533	1114.838013	722.816895	4.333639
888.229736	705.504333	1097.079590	725.788879	5.180242
888.523071	716.055359	1079.395630	738.791992	6.257669
888.816284	719.993347	1046.925293	745.479187	7.795457
889.109619	725.640381	1033.402222	742.358459	5.432148
889.402710	727.943665	1024.040161	737.751709	3.312449
889.695862	732.847717	1015.123779	742.878601	3.553572
889.988892	732.401855	1005.613098	736.934387	1.658984
890.281921	722.668274	1003.755493	719.770386	-1.030957
>>>>>End Processed Spectral Data<<<<<
