Jaz Data File
++++++++++++++++++++++++++++++++++++
Date: Fri Jun 04 16:53:14 2021
User: jaz
Dark Spectrum Present: Yes
Reference Spectrum Present: Yes
Processed Spectrum Present: Yes
Spectrometers: JAZA3586
Integration Time (usec): 24600 (JAZA3586)
Spectra Averaged: 10 (JAZA3586)
Boxcar Smoothing: 1 (JAZA3586)
Correct for Electrical Dark: No (JAZA3586)
Strobe/Lamp Enabled: Yes (JAZA3586)
Correct for Detector Non-linearity: No (JAZA3586)
Correct for Stray Light: No (JAZA3586)
Number of Pixels in Processed Spectrum: 2048
>>>>>Begin Processed Spectral Data<<<<<
W	D	R	S	P
191.335022	0.000000	0.000000	0.000000	0.000000
191.713211	227.812149	233.756348	234.276474	108.750153
192.091385	455.401367	470.633423	469.964691	95.609711
192.469528	695.027649	713.083191	703.795410	48.559944
192.847641	705.281433	715.386536	710.185486	48.530460
193.225739	723.634216	724.748718	712.414551	-1006.697693
193.603790	731.584534	727.275085	719.398926	282.764923
193.981842	739.757813	742.507080	726.309082	-489.175018
194.359863	740.649475	740.798096	738.346130	-1549.815186
194.737854	744.141785	746.890930	743.398743	-27.028107
195.115829	742.284241	741.243958	741.243958	100.000000
195.493774	742.655762	746.445129	743.473083	21.568817
195.871704	739.609314	740.055176	747.113831	1683.148560
196.249603	745.256348	746.222229	749.714417	461.554504
196.627457	745.702148	748.674133	743.695984	-67.502518
197.005310	744.439026	752.835144	736.117004	-99.117485
197.383133	741.689758	753.875427	747.411072	46.951164
197.760910	735.076843	761.602844	750.828918	59.383530
198.138687	738.049011	765.838196	758.184998	72.459793
198.516449	736.191345	752.983826	744.141785	47.345234
198.894180	749.788757	743.398743	742.432800	115.116432
199.271866	750.085999	743.472961	740.203674	149.436996
199.649536	751.274902	751.497742	741.243958	-4501.424316
200.027191	749.342957	753.132385	738.271790	-292.159271
200.404816	752.760925	750.457520	737.083008	680.640686
200.782410	750.308899	760.265381	737.900330	-124.628052
201.159988	742.952881	773.119812	736.785828	-20.443090
201.537537	735.671204	777.206482	738.420471	6.619114
201.915070	735.151184	784.116699	736.562927	2.883137
202.292557	731.064453	777.578064	739.460693	18.051147
202.670029	735.522644	780.772949	741.987000	14.285772
203.047485	736.042786	774.234375	745.627747	25.097046
203.424911	739.832214	775.571777	748.897156	25.363884
203.802292	732.030457	776.686340	744.959045	28.951591
204.179688	728.686768	769.924805	742.284180	32.972984
204.557037	725.566101	758.184998	739.757874	43.507824
204.934357	724.451477	759.225281	742.135559	50.854610
205.311661	722.816895	760.116882	740.129395	46.414223
205.688934	724.377258	763.163269	742.135559	45.785324
206.066177	725.120300	758.036377	742.135559	51.692852
206.443390	730.544434	759.002258	738.048828	26.370232
206.820587	728.761169	761.825745	732.847656	12.359109
207.197769	722.965515	764.203430	726.011902	7.387344
207.574921	721.553711	757.813477	732.699158	30.737780
207.952042	718.210144	756.847473	735.225403	44.038391
208.329147	721.330811	761.602844	736.265625	37.084827
208.706223	727.126465	778.543884	743.770264	32.369961
209.083267	733.813721	777.875183	739.237793	12.310241
209.460297	745.404968	764.426453	738.866272	-34.375320
209.837280	734.853943	752.686523	727.126465	-43.333481
210.214264	733.219238	755.510071	727.349365	-26.333126
210.591217	719.547546	763.460449	726.532043	15.905341
210.968124	720.513489	763.831970	733.962219	31.046173
211.345016	714.123474	763.906250	732.476257	36.865730
211.721893	713.677551	762.123047	731.361633	36.503048
212.098724	713.528992	764.723633	720.364929	13.352838
212.475555	717.764221	758.482239	729.355469	28.467121
212.852356	718.507324	753.875427	733.962341	43.697613
213.229126	714.420593	755.435730	742.432800	68.297241
213.605865	713.900574	759.076599	740.352356	58.552700
213.982590	721.553711	764.352051	736.488586	34.895924
214.359283	731.733215	758.630676	729.578430	-8.011110
214.735931	737.900330	759.002258	729.801331	-38.380375
215.112579	735.299744	759.448059	734.928223	-1.538496
215.489197	728.909668	757.664856	738.643372	33.850250
215.865799	715.906738	747.559631	731.956055	50.704105
216.242355	709.516663	740.129395	725.417480	51.941845
216.618896	705.950134	738.866211	726.977844	63.882797
216.995407	700.154541	745.776367	729.875671	65.146736
217.371902	698.594238	745.479187	735.374084	78.447021
217.748367	703.200989	746.445129	732.030457	66.666763
218.124802	713.008850	748.302734	737.305908	68.842117
218.501236	716.426819	754.915588	738.866272	58.301300
218.877609	716.724060	761.825745	738.271790	47.775887
219.253983	721.553711	768.141541	730.841553	19.936197
219.630295	725.863220	773.416992	725.566101	-0.624807
220.006592	727.423584	768.810242	726.234863	-2.872232
220.382889	724.897278	761.231445	730.692932	15.950976
220.759140	723.634094	762.048767	737.900391	37.137623
221.135391	721.999512	764.946533	741.615417	45.674660
221.511581	719.250305	757.962097	738.420410	49.520065
221.887772	714.792175	749.342957	730.841614	46.451736
222.263931	707.287598	745.404846	723.931458	43.664906
222.640060	707.436218	755.881592	723.708496	33.588921
223.016159	711.968689	757.219055	723.485596	25.451521
223.392212	718.953125	762.866028	724.154297	11.844291
223.768265	726.829163	756.030212	725.863281	-3.307694
224.144302	725.714661	758.853699	728.612488	8.744452
224.520294	732.104675	760.191162	731.064453	-3.703639
224.896286	724.080078	766.061035	730.321472	14.867203
225.272217	725.417480	767.101318	730.692871	12.655722
225.648148	720.513489	765.020813	733.144958	28.380653
226.024048	723.931396	771.633789	732.624817	18.224285
226.399902	724.005676	766.358215	736.860046	30.350883
226.775772	721.033630	769.033203	734.928223	28.947325
227.151581	722.965515	763.534729	730.767273	19.230734
227.527374	724.674500	762.717468	727.943787	8.593670
227.903137	724.302979	759.745361	725.194580	2.515637
228.278870	721.776672	766.135437	725.640320	8.709998
228.654572	716.946960	772.153992	724.674316	13.997050
229.030273	719.027405	773.119812	719.175964	0.274640
229.405930	718.730164	768.215820	720.216248	3.003060
229.781555	712.637390	773.045471	722.816895	16.851229
230.157181	708.699402	778.469666	727.646545	27.156473
230.532761	705.429993	778.618164	731.361755	35.431629
230.908325	713.900574	770.073425	727.126465	23.544989
231.283859	718.284424	765.763855	731.287415	27.386576
231.659332	720.885010	767.398499	730.618652	20.926495
232.034821	718.432922	766.283997	728.909668	21.894484
232.410263	717.095520	760.042664	732.253357	35.294167
232.785690	724.377197	762.791809	737.157227	33.268665
233.161087	725.789001	770.965088	738.271790	27.631407
233.536469	723.411316	775.125977	742.432800	36.781609
233.911804	717.318420	764.054871	740.575195	49.761536
234.287140	717.764343	755.658691	734.556641	44.313461
234.662430	718.655945	761.602844	721.999512	7.785351
235.037704	714.346375	766.729797	721.256531	13.191494
235.412933	710.779785	777.206543	728.463867	26.621925
235.788162	711.299988	767.101318	734.110840	40.878689
236.163345	718.581726	767.621399	733.442139	30.302837
236.538513	722.371094	756.773193	733.070618	31.101370
236.913635	728.463867	759.448059	729.875671	4.556530
237.288742	724.674500	762.717468	731.733215	18.554586
237.663834	728.612549	767.844299	734.333801	14.583220
238.038879	728.389648	769.627625	735.076843	16.216108
238.413910	733.219238	771.633789	732.030457	-3.094613
238.788910	730.247070	770.370605	733.219238	7.407543
239.163879	721.925232	776.834961	738.791931	30.717142
239.538834	719.919006	779.658508	739.683594	33.084621
239.913757	715.386536	777.578064	735.002502	31.541220
240.288651	724.005676	777.503662	735.968445	22.361156
240.663528	716.946960	767.472839	733.293518	32.352840
241.038361	717.318420	772.674011	729.578430	22.147736
241.413177	712.117188	772.674011	718.655945	10.797722
241.787979	715.460876	777.652344	720.810730	8.602231
242.162735	724.748718	775.868958	730.470032	11.191875
242.537476	723.485596	767.324219	739.757874	37.118587
242.912170	726.903564	772.674011	738.420410	25.162188
243.286865	717.615723	778.618225	733.590820	26.187611
243.661514	722.222473	795.039063	726.011902	5.204073
244.036148	727.275085	798.308411	724.897400	-3.347282
244.410751	724.971680	802.320801	724.600098	-0.480396
244.785339	716.798340	791.323975	729.727051	17.348005
245.159882	710.705505	785.676941	728.092346	23.191288
245.534378	718.433044	780.624329	728.018066	15.412163
245.908890	725.417480	791.769836	720.439148	-7.502872
246.283356	724.748718	791.769836	725.194580	0.665256
246.657791	712.860291	796.227966	722.296814	11.319163
247.032196	712.042969	794.518982	732.773438	25.135149
247.406586	710.556946	803.955383	727.349304	17.979271
247.780960	717.987244	811.088562	726.234802	8.858691
248.155289	720.810730	816.661194	724.451477	3.798362
248.529602	720.885071	813.020447	723.708496	3.064431
248.903870	724.600159	798.605652	722.296692	-3.112562
249.278122	727.572205	786.494324	722.891113	-7.944540
249.652344	734.185120	787.831787	728.315247	-10.941730
250.026550	732.624756	794.890442	728.018066	-7.398440
250.400711	728.463867	803.435364	729.206848	0.991018
250.774857	722.668274	797.788330	730.470032	10.385719
251.148987	726.754883	800.240295	730.767273	5.460118
251.523071	720.513489	798.382813	725.417480	6.297719
251.897125	717.541321	803.732605	729.429871	13.793216
252.271164	715.460938	803.658203	730.098572	16.596472
252.645187	718.358704	800.834717	731.213074	15.585587
253.019165	718.878845	801.800598	722.816895	4.749115
253.393112	715.386536	806.184509	727.497986	13.338900
253.767044	712.265869	811.014160	724.228577	12.114344
254.140930	713.231750	811.905762	726.457764	13.403746
254.514801	708.699402	804.475586	728.686829	20.868891
254.888657	707.436218	806.481750	733.739441	26.556698
255.262466	707.584778	808.190674	729.206848	21.491852
255.636276	714.569336	814.209167	731.658875	17.151312
256.010010	725.045959	819.707520	733.219238	8.634211
256.383759	726.977783	818.147278	735.299744	9.128010
256.757446	725.268860	815.695251	725.789001	0.575210
257.131134	726.457703	807.967834	730.321472	4.740232
257.504791	732.922058	807.744873	741.541199	11.519402
257.878418	729.727051	818.221619	745.404968	17.716248
258.252014	721.033630	830.630127	739.163391	16.542282
258.625580	713.083191	857.527771	738.940613	17.901276
258.999115	723.336975	870.010559	741.318298	12.259415
259.372650	727.572266	890.369446	742.284180	9.036959
259.746124	730.915833	907.979309	736.860107	3.357143
260.119598	730.172852	925.589050	741.764099	5.931570
260.493042	724.674377	937.700378	738.940613	6.696946
260.866425	719.547546	929.527039	738.271790	8.917177
261.239838	716.798340	920.462097	729.652771	6.311595
261.613159	716.575439	903.892578	727.126465	5.632707
261.986511	723.782776	898.617004	732.476257	4.972414
262.359802	720.587830	898.171204	735.968506	8.661101
262.733063	726.457703	888.586243	733.739441	4.491336
263.106293	723.336975	890.815369	725.194580	1.109161
263.479523	724.080078	880.413025	720.587830	-2.233853
263.852692	720.216309	882.121887	721.850891	1.009590
264.225861	717.021301	872.165344	720.513489	2.250932
264.598969	716.798340	875.731934	725.194519	5.282822
264.972076	717.318420	881.378906	727.943665	6.476419
265.345154	720.884949	885.539795	730.024231	5.550570
265.718201	720.290527	884.425293	724.897278	2.806688
266.091217	722.296692	894.679016	725.268860	1.724172
266.464203	723.782898	904.189880	723.559875	-0.123622
266.837158	725.640381	917.192871	730.470032	2.521320
267.210114	720.662109	921.502380	745.702148	12.467639
267.583038	718.730164	932.944885	749.491516	14.360055
267.955902	725.789001	940.672424	747.708313	10.200560
268.328766	732.030457	944.313293	744.661865	5.950273
268.701569	735.448303	944.536133	745.627747	4.868501
269.074371	728.389587	953.898254	741.392578	5.766071
269.447144	730.098450	965.192383	736.414246	2.686499
269.819885	727.126465	967.793030	731.361633	1.759766
270.192596	719.844727	974.926086	728.538086	3.408073
270.565277	716.501160	986.888855	726.977844	3.874690
270.937927	712.488770	1007.470642	728.018066	5.264492
271.310577	719.919128	1027.829590	734.333801	4.681449
271.683136	716.129639	1046.999634	728.389648	3.705386
272.055725	719.324707	1070.330688	730.098450	3.069390
272.428284	714.866455	1080.287476	732.104736	4.717375
272.800812	714.272034	1081.104614	735.894104	5.894261
273.173279	706.841797	1075.829224	736.340027	7.994373
273.545776	706.990417	1074.714478	731.881775	6.769032
273.918152	706.544617	1070.925049	729.206848	6.219388
274.290558	719.324646	1062.974609	727.497986	2.378391
274.662964	722.668274	1060.076904	737.305908	4.338251
275.035278	724.674500	1062.231812	739.163513	4.292312
275.407593	720.736389	1069.587524	743.844543	6.624073
275.779907	722.519714	1082.070557	737.677429	4.215736
276.152161	725.714661	1096.633911	732.550537	1.842955
276.524384	719.547546	1100.348999	730.470032	2.868289
276.896606	716.278259	1099.308716	733.144958	4.403488
277.268799	713.008850	1101.612183	738.197510	6.481843
277.640930	718.730225	1120.262085	735.299744	4.126576
278.013031	721.405090	1126.280640	734.259460	3.174894
278.385162	727.423645	1124.051636	733.442200	1.517431
278.757233	720.290527	1112.088867	739.609314	4.930799
279.129272	720.885010	1121.451050	737.380188	4.117967
279.501282	714.940735	1126.503540	736.117004	5.145331
279.873230	721.405090	1142.181396	729.429871	1.907137
280.245178	721.627991	1153.772705	729.949890	1.925721
280.617126	732.922058	1182.527832	731.658875	-0.280954
280.988983	735.819824	1211.357300	729.949890	-1.234379
281.360870	737.083008	1240.558228	732.624817	-0.885484
281.732697	730.024231	1264.335083	722.742493	-1.362828
282.104492	731.881836	1286.031372	732.401855	0.093841
282.476288	725.120300	1307.802124	729.132629	0.688597
282.848053	727.572266	1337.597534	739.460693	1.948842
283.219757	718.358704	1344.433350	732.847717	2.314263
283.591461	728.240967	1338.712036	733.665039	0.888506
283.963135	723.857117	1319.319092	742.209778	3.082088
284.334747	733.442200	1323.703003	749.194336	2.668674
284.706360	726.234802	1343.616211	748.822754	3.658670
285.077942	718.655823	1375.789185	743.324402	3.753968
285.449524	711.968689	1407.739380	742.878601	4.442543
285.821014	713.380432	1428.395508	741.169678	3.886526
286.192535	727.349365	1448.234375	739.460693	1.680064
286.563995	730.024231	1464.655273	732.253357	0.303435
286.935425	731.584534	1477.732544	737.454529	0.786707
287.306824	727.423645	1477.583984	728.909668	0.198094
287.678223	721.999512	1468.593384	729.355469	0.985269
288.049561	723.708496	1459.082520	723.708496	0.000000
288.420898	724.600159	1445.708008	728.538147	0.546103
288.792145	725.714661	1431.813354	723.336975	-0.336736
289.163452	725.268860	1439.689453	733.887939	1.206443
289.534668	724.005676	1458.933960	738.643311	1.991709
289.905914	731.807434	1497.497070	749.194336	2.270751
290.277039	730.470032	1524.617554	744.438965	1.758985
290.648193	727.275085	1567.267212	747.039551	2.352935
291.019318	723.931396	1603.675781	742.655762	2.128387
291.390381	724.823059	1622.845703	734.705261	1.100440
291.761475	731.584534	1625.372070	728.538086	-0.340847
292.132507	732.996399	1606.573364	730.767273	-0.255172
292.503510	726.457703	1592.604492	728.315247	0.214461
292.874481	727.052063	1575.737793	730.470032	0.402737
293.245422	719.844727	1582.053589	731.213074	1.318514
293.616364	719.324646	1606.647827	736.711487	1.959471
293.987213	713.083191	1643.724976	740.426575	2.938121
294.358093	717.689941	1684.962891	743.175781	2.634814
294.728943	724.228699	1731.848022	748.079834	2.367078
295.099731	726.531982	1778.807129	746.147949	1.864148
295.470490	727.646484	1814.398071	737.900391	0.943537
295.841248	726.680603	1831.562134	732.699158	0.544724
296.211975	727.497864	1847.537231	732.624817	0.457748
296.582642	731.807434	1883.351196	737.305908	0.477487
296.953308	724.822998	1932.688110	735.894226	0.916595
297.323883	720.885010	1981.281860	730.470032	0.760477
297.694519	716.129639	2010.185669	730.321472	1.096694
298.065063	721.479431	2014.866821	730.098572	0.666400
298.435608	728.389587	2000.229126	733.590759	0.408949
298.806122	725.194519	1953.790039	724.748718	-0.036285
299.176575	720.959290	1911.065918	731.361633	0.874068
299.547028	708.699402	1871.239624	731.510254	1.962156
299.917450	714.494934	1845.308105	740.649414	2.312891
300.287872	721.553711	1829.927368	738.420410	1.521752
300.658234	731.584656	1815.289917	740.798157	0.850185
301.028564	724.971680	1811.871704	735.076843	0.929723
301.398865	719.027405	1805.036011	730.767273	1.081011
301.769135	715.386536	1811.723267	724.823059	0.860732
302.139374	715.460938	1829.333008	734.110901	1.674336
302.509583	714.643555	1839.735352	740.723877	2.318062
302.879791	717.392761	1835.500122	739.163574	1.947113
303.249939	720.290527	1818.336304	733.813721	1.231569
303.620087	723.039795	1810.757324	732.030457	0.826562
303.990173	716.872620	1802.658203	738.791931	2.018751
304.360260	723.336975	1796.862671	738.420410	1.405037
304.730286	726.903503	1796.342407	734.631042	0.722579
305.100281	727.349365	1810.311401	733.144958	0.535161
305.470276	719.919128	1833.419556	735.968445	1.441339
305.840179	715.535156	1838.694946	740.946716	2.262506
306.210144	717.912903	1843.301758	732.699158	1.313880
306.579987	721.479492	1844.936523	730.841614	0.833332
306.949890	718.730286	1864.552368	728.018066	0.810578
307.319702	725.268860	1883.351074	739.460693	1.225460
307.689484	724.451477	1908.985718	743.621582	1.618367
308.059265	728.538147	1936.923462	741.466858	1.069916
308.429016	722.445313	1974.520508	741.912659	1.554806
308.798737	725.120178	2012.340698	734.482422	0.727322
309.168396	727.423584	2054.693359	731.510254	0.307900
309.538055	730.841553	2085.157471	722.073792	-0.647394
309.907684	726.903503	2120.525391	727.646484	0.053313
310.277313	725.120300	2145.788330	737.305908	0.857738
310.646851	726.903503	2160.723145	741.020996	0.984607
311.016388	725.640381	2176.103760	741.987000	1.126993
311.385895	722.668213	2179.967529	741.541199	1.295066
311.755371	726.680664	2209.985840	745.033386	1.237286
312.124817	723.039795	2198.543213	741.095398	1.223691
312.494232	731.807556	2200.920654	740.723816	0.606914
312.863617	725.268860	2176.920898	736.414246	0.767772
313.232971	727.943787	2170.531006	735.002502	0.489309
313.602295	721.256531	2157.825439	733.219238	0.832728
313.971619	718.581604	2158.642578	738.197510	1.362158
314.340820	718.953125	2167.038818	740.426575	1.482885
314.710083	730.618652	2188.735352	740.798096	0.698123
315.079285	730.544250	2212.958008	742.209900	0.786936
315.448486	737.751709	2256.350830	744.438965	0.440357
315.817596	725.417480	2253.155518	745.924988	1.342345
316.186707	731.881775	2239.186768	738.791931	0.458444
316.555786	724.005676	2196.165283	738.123230	0.958969
316.924866	723.931396	2165.849854	737.751709	0.958467
317.293884	717.615723	2137.986328	741.763977	1.700138
317.662872	720.885010	2133.454102	736.860046	1.130921
318.031830	725.194580	2139.621338	742.284180	1.208235
318.400757	725.120300	2152.549805	745.999329	1.462701
318.769684	723.039795	2168.004639	752.092102	2.010589
319.138550	721.776672	2195.868164	744.661926	1.552499
319.507416	732.550537	2220.759766	737.751709	0.349492
319.876190	730.618652	2229.601807	734.036560	0.228015
320.244995	733.070618	2225.738037	728.315247	-0.318582
320.613770	720.959290	2201.589600	728.538147	0.511867
320.982483	719.324646	2194.531006	728.240967	0.604412
321.351166	711.448547	2178.184326	727.423645	1.089160
321.719818	720.959290	2177.441406	734.482422	0.928479
322.088440	726.086182	2167.633057	734.779602	0.603062
322.457062	722.891174	2195.422607	738.271912	1.044510
322.825623	715.386536	2224.326416	738.940613	1.560969
323.194183	718.210144	2265.861572	735.151123	1.094625
323.562653	729.058289	2304.796143	740.575195	0.730890
323.931183	727.572266	2363.272461	735.745605	0.499684
324.299591	722.965515	2415.061279	738.123230	0.895795
324.668060	722.073914	2481.636475	742.655701	1.169711
325.036407	722.965515	2527.184326	735.151123	0.675395
325.404755	719.398926	2564.187012	734.036621	0.793462
325.773102	716.203918	2558.614258	727.497986	0.613005
326.141388	714.569275	2571.097168	739.237793	1.328745
326.509674	717.689941	2575.927002	741.764099	1.295537
326.877899	719.621826	2592.793457	741.689758	1.178105
327.246124	719.324707	2599.480713	739.460693	1.070974
327.614288	718.730286	2601.338135	742.804260	1.278757
327.982422	716.798340	2592.644775	741.615479	1.322984
328.350525	713.008972	2571.691406	735.076843	1.187286
328.718628	709.293762	2549.623291	739.312012	1.631134
329.086700	707.733398	2543.159180	745.256287	2.044370
329.454712	712.934570	2553.561768	750.680359	2.050703
329.822693	715.535156	2574.589600	747.931213	1.742609
330.190674	721.553711	2598.589111	738.271790	0.890664
330.558563	719.919006	2604.830322	732.179016	0.650429
330.926483	728.538147	2623.257568	721.033691	-0.396072
331.294312	725.268860	2641.907471	718.358704	-0.360535
331.662231	732.476257	2689.535400	718.730286	-0.702379
332.029999	728.240906	2738.723877	721.851013	-0.317829
332.397766	729.578369	2785.088867	737.157288	0.368712
332.765503	730.247131	2825.806641	741.095398	0.517679
333.133240	729.801270	2875.069580	742.729980	0.602662
333.500916	727.869446	2931.836914	738.866272	0.498956
333.868561	726.977844	2969.731201	743.175781	0.722234
334.236176	726.606262	2979.836182	749.565857	1.018964
334.603790	728.835449	2976.195313	746.667969	0.793487
334.971344	716.946960	2976.864014	741.912598	1.104715
335.338867	714.420654	2983.254639	742.061279	1.218274
335.706360	714.420654	2985.037842	741.318176	1.184591
336.073853	722.371033	2984.888916	740.426575	0.798029
336.441284	724.005676	2986.746338	733.070618	0.400618
336.808655	718.953125	2983.105713	730.395691	0.505380
337.176086	720.141907	2943.353516	730.544373	0.467903
337.543396	721.256531	2877.892822	736.117004	0.689058
337.910706	720.810730	2811.391846	735.894226	0.721498
338.277954	723.411316	2826.401123	738.420471	0.713706
338.645264	718.210144	2888.444092	739.312012	0.972332
339.012421	724.897400	3024.566406	749.119934	1.053305
339.379669	721.627991	3144.936768	750.011658	1.171277
339.746796	726.532043	3270.657227	757.590576	1.220794
340.113953	720.959290	3336.712158	757.144714	1.383366
340.481018	715.683838	3368.291016	755.287109	1.492994
340.848114	715.386536	3358.037109	741.838379	1.000959
341.215118	720.662109	3339.833008	735.596924	0.570212
341.582153	724.377258	3353.356201	734.705322	0.392855
341.949066	722.816895	3378.544678	740.649597	0.671481
342.316010	724.971680	3415.696045	737.231628	0.455637
342.682922	736.637207	3437.615234	738.717590	0.077023
343.049835	744.290344	3440.141357	737.603210	-0.248053
343.416656	741.020996	3481.379639	739.757874	-0.046093
343.783478	732.773438	3527.967529	746.222229	0.481140
344.150269	735.225403	3643.434326	750.977600	0.541646
344.516998	730.321472	3749.760986	750.160339	0.657038
344.883728	728.315247	3853.933594	746.742371	0.589551
345.250427	724.377197	3931.654297	740.798157	0.511991
345.617065	729.875671	3971.331787	744.959167	0.465331
345.983704	733.887939	3978.687500	741.318359	0.228995
346.350281	725.566101	3960.186279	741.987000	0.507661
346.716827	718.507324	3918.576904	737.974609	0.608339
347.083405	703.944031	3888.929932	737.900391	1.066139
347.449860	708.625000	3838.626953	739.832214	0.997035
347.816376	711.299988	3789.661377	743.027161	1.030651
348.182770	714.717834	3742.479248	747.708252	1.089598
348.549194	714.123474	3723.383545	747.708252	1.116048
348.915558	716.872620	3742.999268	750.754700	1.119652
349.281921	722.296692	3774.281006	745.925049	0.774197
349.648193	719.919006	3814.032471	747.336731	0.886125
350.014526	719.696106	3860.026367	744.513245	0.790272
350.380737	728.389587	3907.431641	745.776367	0.546919
350.746948	728.166687	3976.607422	741.169617	0.400282
351.113159	731.064453	4026.687500	741.318176	0.311132
351.479309	726.754944	4061.386719	743.175781	0.492433
351.845428	725.640381	4066.811279	737.083008	0.342474
352.211517	721.628113	4090.736328	738.346191	0.496217
352.577576	723.857178	4130.934082	737.825989	0.409994
352.943604	728.686829	4177.447754	744.587585	0.461057
353.309601	727.646545	4233.694824	745.479187	0.508625
353.675537	720.142029	4314.833496	747.262512	0.754459
354.041473	721.999573	4426.807129	749.565918	0.744070
354.407379	715.535217	4538.039063	748.822937	0.870835
354.773254	718.433044	4645.703125	741.243958	0.580834
355.139038	718.358704	4738.284668	736.562805	0.452847
355.504913	722.519714	4839.187988	740.055115	0.425961
355.870636	728.166687	4935.335449	742.655701	0.344389
356.236389	719.621887	5037.724609	745.107605	0.590206
356.602081	725.789001	5152.225098	731.138672	0.120857
356.967804	717.912903	5290.056152	735.968445	0.394903
357.333405	726.977844	5431.677734	731.510254	0.096338
357.699036	719.770447	5594.103516	744.736084	0.512186
358.064606	715.906738	5751.402344	744.513184	0.568096
358.430176	714.940735	5869.840332	752.909485	0.736557
358.795654	716.798340	5904.763184	747.559753	0.592938
359.161163	721.628113	5881.878418	744.216064	0.437730
359.526581	722.073914	5857.432129	740.352295	0.355932
359.892029	724.822998	5874.224121	741.689758	0.327548
360.257416	724.451599	5962.718750	748.079773	0.451069
360.622772	719.324646	6160.290527	750.160339	0.566732
360.988098	717.764343	6441.674316	751.423401	0.588043
361.353394	716.352539	6748.692871	749.640137	0.551819
361.718658	720.364807	7013.879395	746.593750	0.416761
362.083893	734.036621	7220.367188	743.547363	0.146627
362.449097	737.751770	7347.498535	741.541199	0.057331
362.814209	734.036621	7372.241699	742.135559	0.122005
363.179382	725.268860	7190.942871	733.887939	0.133305
363.544434	723.336975	6863.788574	733.516418	0.165777
363.909546	725.937561	6474.962402	735.894043	0.173186
364.274536	720.662109	6182.357910	740.723816	0.367316
364.639587	727.720886	5956.774902	743.250183	0.296981
365.004517	730.544373	5828.974121	749.120117	0.364342
365.369507	726.160461	5739.514160	759.076660	0.656570
365.734344	719.473206	5704.442871	754.469910	0.702044
366.099274	712.042969	5662.312988	748.525635	0.736983
366.464081	724.302917	5635.192871	751.794922	0.559817
366.828918	720.959290	5621.817871	761.751526	0.832349
367.193665	719.473206	5625.459473	753.132385	0.686084
367.558411	713.677734	5643.812012	748.971436	0.715877
367.923126	717.244202	5645.595215	740.426575	0.470388
368.287781	725.417480	5625.310547	749.417236	0.489802
368.652435	727.795166	5577.904785	743.398743	0.321716
369.017059	724.897400	5551.007813	748.005432	0.478813
369.381653	722.073914	5520.915527	743.547363	0.447471
369.746185	716.724060	5498.772949	743.472961	0.559361
370.110687	720.142029	5512.518066	733.442139	0.277526
370.475220	714.569275	5574.858887	738.346191	0.489208
370.839661	716.649719	5646.040527	747.856934	0.633085
371.204041	709.962585	5718.114746	751.051941	0.820449
371.568451	718.210144	5768.640137	745.627747	0.542877
371.932770	719.621887	5823.400879	743.101563	0.460045
372.297150	721.182190	5852.378906	746.965271	0.502477
372.661377	713.974854	5880.316895	756.847473	0.829845
373.025696	707.882019	5898.372559	743.101563	0.678540
373.389862	713.974854	5889.902344	744.884766	0.597186
373.754059	720.439209	5883.437988	735.894104	0.299340
374.118225	725.863281	5906.620605	746.147949	0.391539
374.482361	720.810730	5960.936035	737.083008	0.310532
374.846436	720.959290	6026.768066	744.067383	0.435524
375.210510	720.513489	6113.554199	744.364685	0.442259
375.574524	726.680664	6223.893066	749.417236	0.413602
375.938538	728.835449	6378.740234	754.395508	0.452398
376.302460	729.058289	6518.949219	754.321228	0.436328
376.666412	729.281189	6685.685059	760.265442	0.520184
377.030304	730.618652	6841.645996	746.147949	0.254119
377.394196	737.305908	7020.195313	741.689758	0.069774
377.757996	734.482422	7163.079590	735.745544	0.019648
378.121796	720.736389	7226.013672	745.479187	0.380350
378.485565	713.008972	7218.286621	755.658691	0.655617
378.849304	717.912903	7128.007813	757.441895	0.616668
379.212982	725.268860	6988.542480	749.640137	0.389114
379.576630	724.748718	6807.912598	744.587585	0.326127
379.940277	715.238037	6667.108887	747.336731	0.539304
380.303864	715.683838	6580.546387	744.736145	0.495362
380.667450	715.758118	6573.784668	748.079834	0.551751
381.030945	723.039795	6572.224609	745.702148	0.387445
381.394501	725.863281	6608.558105	757.887756	0.544384
381.757935	724.302979	6632.632324	752.835144	0.482914
382.121399	720.067688	6641.919922	751.720642	0.534511
382.484741	718.804504	6668.817871	748.302734	0.495767
382.848145	715.163635	6682.935059	754.692688	0.662375
383.211487	714.866455	6736.285156	754.469910	0.657710
383.574768	709.145081	6836.816406	751.869324	0.697235
383.938019	718.210022	6955.626465	743.621643	0.407406
384.301270	720.959290	7095.910156	744.810364	0.374137
384.664459	727.869446	7151.711426	741.318176	0.209357
385.027649	729.132629	7211.079590	745.776367	0.256771
385.390778	727.572266	7262.942871	747.782532	0.309244
385.753876	724.674377	7306.410156	754.841309	0.458343
386.116943	717.912903	7343.264160	753.206726	0.532709
386.479980	717.764221	7360.501953	757.441895	0.597309
386.842987	719.919006	7413.925781	759.596680	0.592734
387.205994	721.107910	7461.182129	761.528564	0.599706
387.568909	724.897278	7515.794922	754.767090	0.439851
387.931793	720.364807	7561.639160	753.503906	0.484399
388.294678	717.764221	7616.771973	768.661621	0.737750
388.657471	711.522888	7630.369629	781.590332	1.012704
389.020294	710.779846	7651.992188	792.067078	1.171081
389.383057	718.358704	7665.662598	796.971008	1.131551
389.745819	718.210144	7693.601074	819.113220	1.446558
390.108521	722.445313	7696.350098	841.924133	1.713227
390.471191	721.702332	7751.482910	860.351135	1.972306
390.833801	729.132629	7873.414063	868.524475	1.951097
391.196442	733.293640	8062.216797	882.567688	2.036780
391.558960	731.510254	8251.093750	898.988586	2.227229
391.921509	726.680664	8436.478516	925.217529	2.575124
392.284027	719.621887	8611.165039	957.316223	3.012013
392.646484	716.946960	8707.312500	981.241760	3.307668
393.008911	726.234863	8699.511719	1003.012451	3.471315
393.371307	733.590820	8640.811523	1021.736816	3.644087
393.733673	735.819824	8573.344727	1053.241089	4.050019
394.096008	725.714661	8554.843750	1082.739258	4.560208
394.458344	716.649719	8556.329102	1111.420044	5.035542
394.820587	716.129639	8594.819336	1146.119507	5.457632
395.182831	720.067688	8641.183594	1186.688843	5.890851
395.545013	724.154297	8600.911133	1229.338501	6.413607
395.907196	725.863281	8514.571289	1261.660156	6.879149
396.269287	729.058289	8346.573242	1288.186279	7.340031
396.631409	728.463867	8225.831055	1321.251099	7.906605
396.993469	722.816833	8100.185059	1361.448853	8.656637
397.355530	718.655945	8030.711426	1406.179077	9.402597
397.717499	712.637390	8000.024902	1441.992798	10.008462
398.079468	718.061523	7967.926270	1480.853149	10.521461
398.441376	715.163635	7987.765625	1514.512207	10.991232
398.803284	721.702332	7984.644531	1555.601685	11.481564
399.165131	724.302979	8040.148438	1590.746948	11.843388
399.526978	723.931396	8039.257324	1635.922974	12.466862
399.888763	722.073914	8040.148926	1675.229126	13.024671
400.250519	716.946960	8029.672363	1723.377319	13.762726
400.612244	721.627991	8067.937988	1768.479126	14.250026
400.973938	722.371094	8098.328125	1817.964722	14.853580
401.335602	726.011902	8112.148438	1853.407104	15.263666
401.697205	725.045898	8122.402344	1901.629517	15.905460
402.058807	724.748718	8189.646484	1935.214355	16.215433
402.420349	721.925232	8296.196289	1999.708984	16.870054
402.781860	715.832336	8416.640625	2060.042969	17.455450
403.143341	718.581604	8552.541016	2148.686279	18.255198
403.504822	720.439148	8695.796875	2213.478271	18.720654
403.866241	726.160461	8881.627930	2286.294922	19.129921
404.227631	718.061523	9036.102539	2346.628662	19.578733
404.588959	717.467102	9221.042969	2417.959229	19.997377
404.950287	719.176025	9366.006836	2469.970947	20.247822
405.311554	730.098633	9478.649414	2528.670166	20.558508
405.672821	730.247253	9530.883789	2572.137451	20.929056
406.034027	725.417480	9512.382813	2613.226807	21.484203
406.395203	721.702332	9427.975586	2616.421631	21.762690
406.756348	720.290527	9332.570313	2632.248291	22.200369
407.117493	719.770508	9259.976563	2648.446289	22.583481
407.478516	719.696106	9255.220703	2673.783447	22.893583
407.839600	720.959290	9253.511719	2708.185547	23.289938
408.200592	719.398926	9244.446289	2729.138916	23.574533
408.561554	717.541321	9219.036133	2758.191162	24.003424
408.922485	712.563049	9246.454102	2768.890869	24.096018
409.283417	720.439148	9276.100586	2789.250000	24.180607
409.644257	720.884949	9389.412109	2840.221436	24.448633
410.005096	724.005676	9488.680664	2902.264404	24.852705
410.365906	720.216248	9602.660156	2972.851807	25.360537
410.726715	724.897278	9701.780273	3018.548096	25.550638
411.087433	721.479431	9792.058594	3056.071045	25.738066
411.448120	714.643555	9863.166016	3083.265625	25.890760
411.808807	710.779785	9877.952148	3109.940186	26.171217
412.169434	709.813965	9836.862305	3119.748047	26.404308
412.530029	713.826172	9798.670898	3129.407471	26.589132
412.890564	715.237976	9763.081055	3137.581055	26.772602
413.251099	721.702393	9739.303711	3149.915283	26.927481
413.611572	726.309143	9764.418945	3162.992432	26.960100
413.972076	728.761047	9810.485352	3176.664063	26.954165
414.332489	733.367859	9881.221680	3207.277100	27.043602
414.692871	733.665039	10022.694336	3264.787109	27.248510
415.053223	721.999573	10160.451172	3329.579102	27.627197
415.413574	717.615723	10383.953125	3400.241211	27.752241
415.773834	718.655945	10528.545898	3459.385986	27.938438
416.134094	724.080017	10698.550781	3514.816162	27.978788
416.494263	723.039856	10823.602539	3575.595703	28.241554
416.854462	717.244202	11072.516602	3656.511475	28.384258
417.214630	713.454773	11340.824219	3752.064453	28.592304
417.574738	716.724121	11634.541992	3857.277344	28.765392
417.934784	713.529053	11936.805664	3950.675781	28.843153
418.294861	721.553711	12295.465820	4049.275391	28.751917
418.654846	717.541321	12759.116211	4158.128906	28.572571
419.014832	725.937561	13188.957031	4291.799316	28.611540
419.374756	726.977844	13673.855469	4449.469727	28.752043
419.734680	733.219238	14153.034180	4615.759277	28.931398
420.094543	730.395752	14662.825195	4786.804199	29.114868
420.454376	726.829163	15142.894531	4926.493652	29.131836
420.814148	721.999512	15613.304688	5073.910156	29.224508
421.173920	719.919128	16106.304688	5214.936035	29.214249
421.533691	727.275085	16547.810547	5369.857422	29.345293
421.893341	728.092346	16913.380859	5480.494629	29.362482
422.253021	728.389587	17128.486328	5571.441406	29.530628
422.612640	719.398926	17195.062500	5605.545410	29.656750
422.972260	717.318542	17112.955078	5627.687500	29.949244
423.331757	714.494934	17018.962891	5615.279297	30.057922
423.691315	716.575439	17007.447266	5642.771484	30.238997
424.050781	724.302917	17158.208984	5682.003418	30.167513
424.410248	732.550537	17304.361328	5721.978516	30.107922
424.769653	736.265686	17446.947266	5772.058105	30.135172
425.128998	730.544373	17451.257813	5783.872559	30.221966
425.488373	730.470032	17344.927734	5766.560059	30.311493
425.847656	735.076843	17134.353516	5711.947266	30.348110
426.206940	733.516418	16917.318359	5671.155762	30.509760
426.566193	725.491760	16592.837891	5612.604980	30.799816
426.925385	718.655945	16248.742188	5528.716797	30.972534
427.284576	713.231873	15763.916992	5413.175781	31.227440
427.643677	711.299988	15407.413086	5308.186035	31.279606
428.002777	703.349548	15061.829102	5218.651855	31.446939
428.361847	705.652893	14736.086914	5125.847656	31.504335
428.720856	715.312317	14431.074219	5044.857910	31.566204
429.079865	715.460938	14183.645508	4970.703613	31.594776
429.438812	714.569336	14023.078125	4925.082031	31.637749
429.797760	715.386536	13928.045898	4901.453613	31.682243
430.156616	720.662109	13767.551758	4874.258301	31.835911
430.515503	724.674500	13684.257813	4844.463379	31.789518
430.874268	716.798340	13642.945313	4822.618164	31.763680
431.233093	715.980957	13667.687500	4835.175293	31.804258
431.591827	720.067688	13740.504883	4851.224609	31.728249
431.950562	722.742493	13731.514648	4878.419434	31.945187
432.309204	717.838562	13814.808594	4883.174316	31.803814
432.667877	716.129639	13917.643555	4925.229980	31.883469
433.026459	723.782898	14078.210938	4965.576660	31.763203
433.385010	728.389587	14207.051758	5023.829590	31.868444
433.743561	731.510254	14368.882813	5080.894043	31.893120
434.102051	723.262695	14487.171875	5129.562500	32.013432
434.460510	734.259521	14663.641602	5173.772949	31.871576
434.818939	733.367859	14753.698242	5198.961426	31.850845
435.177338	733.739319	14825.770508	5228.236328	31.893890
435.535675	721.999512	14773.015625	5252.087402	32.240288
435.894012	716.203918	14697.003906	5246.812012	32.405930
436.252289	714.866455	14687.343750	5260.261230	32.531055
436.610535	717.689941	14692.620117	5248.669922	32.422203
436.968719	716.426819	14805.262695	5295.629395	32.502350
437.326935	722.371033	14910.772461	5325.127441	32.440273
437.685028	723.336914	15027.799805	5368.594238	32.474182
438.043152	730.024170	15131.897461	5405.374512	32.463490
438.401215	733.144958	15346.409180	5483.318359	32.505901
438.759277	729.355469	15591.756836	5570.475098	32.572929
439.117249	721.033630	15954.057617	5694.411621	32.648659
439.475250	719.176025	16259.885742	5793.978027	32.654892
439.833130	721.850891	16671.970703	5932.255371	32.666866
440.191071	725.937561	16969.033203	6017.405762	32.576721
440.548889	722.593933	17250.935547	6126.407715	32.694229
440.906708	718.655945	17557.583984	6230.802734	32.734547
441.264496	723.262695	17786.361328	6309.192871	32.736904
441.622223	719.250305	17979.251953	6355.334473	32.654018
441.979950	716.724121	17990.546875	6359.570313	32.667038
442.337616	719.101746	17957.406250	6376.287598	32.817532
442.695251	720.810730	17800.255859	6342.777832	32.916569
443.052887	730.692871	17596.296875	6306.072266	33.057693
443.410461	718.061523	17433.720703	6253.985840	33.118191
443.768005	721.776611	17322.044922	6216.165527	33.098194
444.125458	725.491760	17208.734375	6201.156250	33.219585
444.482941	733.516541	17241.873047	6214.531250	33.201454
444.840393	734.036621	17359.046875	6254.505371	33.205807
445.197754	727.349365	17687.912109	6320.709473	32.978626
445.555084	725.714661	17960.900391	6422.281250	33.051960
445.912415	727.423645	18352.029297	6545.847168	33.013069
446.269714	724.451477	18621.453125	6649.053223	33.103878
446.626953	723.857117	18976.693359	6776.557129	33.160328
446.984161	717.838562	19285.646484	6886.228027	33.220882
447.341309	720.439209	19537.603516	7002.585938	33.385193
447.698456	723.411316	19677.068359	7062.028809	33.442719
448.055542	728.166687	19721.279297	7111.811035	33.610310
448.412598	732.847717	19696.685547	7089.593750	33.520355
448.769653	732.922058	19526.681641	7052.739746	33.627213
449.126617	729.875671	19226.869141	6966.251953	33.715622
449.483582	723.559875	18941.845703	6898.413574	33.893715
449.840515	719.473328	18613.576172	6796.321777	33.960060
450.197388	716.872620	18350.841797	6720.532715	34.045994
450.554230	714.123474	18143.236328	6657.300781	34.099136
450.911041	716.203918	17994.335938	6602.688965	34.068989
451.267822	715.312317	17855.091797	6559.369629	34.096455
451.624573	720.513489	17644.220703	6495.395020	34.123028
451.981262	712.414551	17537.001953	6475.928223	34.256493
452.337921	710.928467	17388.025391	6446.652344	34.392818
452.694580	709.293762	17338.615234	6443.382813	34.481796
453.051147	715.238037	17306.369141	6452.299316	34.579086
453.407715	717.838623	17248.857422	6424.138672	34.518742
453.764221	720.513489	17268.919922	6455.643066	34.656689
454.120728	718.730225	17061.466797	6391.074219	34.708652
454.477142	723.411316	16993.478516	6386.021484	34.803852
454.833557	722.593933	16784.912109	6325.464844	34.882084
455.189911	729.281250	16638.906250	6274.567871	34.854916
455.546265	728.761047	16449.062500	6232.066406	35.007629
455.902557	732.476257	16347.491211	6180.871582	34.892029
456.258820	730.767273	16341.397461	6192.314453	34.986080
456.615051	730.544373	16441.408203	6207.472168	34.860767
456.971252	721.553711	16418.451172	6193.205566	34.858173
457.327393	714.494934	16588.677734	6249.898926	34.870480
457.683502	715.089355	16796.798828	6323.458496	34.874210
458.039612	722.519714	17250.269531	6482.615723	34.851059
458.395630	720.141907	17698.388672	6630.478027	34.811230
458.751648	717.615723	18156.615234	6789.931641	34.820320
459.107605	716.724060	18813.298828	7025.025391	34.859093
459.463562	730.544373	19462.705078	7262.125000	34.868271
459.819458	731.361633	20101.486328	7516.463379	35.028694
460.175323	735.745544	20652.812500	7717.080566	35.052025
460.531158	727.646545	21158.814453	7893.772949	35.074482
460.886932	723.188477	21447.035156	8022.093750	35.219837
461.242676	717.021301	21531.962891	8063.925781	35.296299
461.598419	718.135803	21283.568359	8018.972656	35.500530
461.954102	716.055359	20847.857422	7894.960938	35.659527
462.309723	712.785950	20175.419922	7705.414551	35.928478
462.665344	712.340149	19538.496094	7491.646484	36.010040
463.020905	723.039734	19019.861328	7286.718750	35.873329
463.376373	723.114075	18599.828125	7149.408203	35.947845
463.731873	717.244141	18275.646484	7024.505371	35.921612
464.087341	711.894348	18008.601563	6919.589355	35.889462
464.442749	715.312317	17880.652344	6838.747559	35.673252
464.798126	722.816895	17796.095703	6818.834473	35.705017
465.153503	727.572266	17878.943359	6861.187500	35.761662
465.508820	727.497864	17942.398438	6919.664063	35.969803
465.864105	725.937561	18096.427734	6961.125000	35.895287
466.219330	720.810730	18362.876953	7049.025391	35.870033
466.574524	723.634094	18563.644531	7102.522949	35.756084
466.929657	730.618652	18728.224609	7181.729004	35.844269
467.284790	733.962219	18844.656250	7245.406250	35.953587
467.639893	733.293518	18976.025391	7311.090332	36.057083
467.994934	725.566101	19131.761719	7365.628418	36.075150
468.349945	720.587830	19186.373047	7388.959473	36.112038
468.704926	718.730225	19129.011719	7398.841797	36.284679
469.059875	714.049133	18902.166016	7340.365723	36.432117
469.414764	719.473206	18664.769531	7264.576660	36.472530
469.769653	719.621887	18504.943359	7180.614746	36.327667
470.124451	719.993408	18460.806641	7159.364746	36.296936
470.479248	714.272034	18297.341797	7101.928223	36.328445
470.834015	712.414490	18190.716797	7081.940918	36.442478
471.188721	716.946960	18201.861328	7089.816895	36.447819
471.543365	721.553711	18329.216797	7145.543457	36.484055
471.898010	722.965515	18502.492188	7197.778809	36.417240
472.252625	720.513489	18641.140625	7274.904785	36.574562
472.607178	718.878845	18901.125000	7361.393066	36.532967
472.961700	720.662109	19088.443359	7443.498047	36.601242
473.316193	728.463867	19372.056641	7537.119629	36.520081
473.670654	728.018066	19514.197266	7595.967285	36.558521
474.025055	721.107910	19741.119141	7675.768066	36.564964
474.379456	715.535156	19908.447266	7747.024902	36.635868
474.733795	717.764343	20046.949219	7803.123535	36.656277
475.088104	722.296814	20184.259766	7862.862793	36.689854
475.442383	720.513489	20222.525391	7856.769531	36.592407
475.796570	714.494934	20321.423828	7900.905762	36.652401
476.150787	710.259705	20495.810547	7968.967285	36.686913
476.504944	720.364929	20729.046875	8060.507813	36.684792
476.859070	729.281250	21023.955078	8159.776855	36.613033
477.213135	737.380188	21324.287109	8246.041992	36.472996
477.567200	730.767273	21723.960938	8420.875977	36.631439
477.921173	727.869446	22134.408203	8548.750977	36.535011
478.275146	716.872742	22579.406250	8722.916992	36.619930
478.629089	718.953125	22896.531250	8814.458008	36.503105
478.983002	718.284424	23329.494141	8996.350586	36.610455
479.336823	721.330811	23668.912109	9134.627930	36.663109
479.690643	724.080078	24107.296875	9324.323242	36.779556
480.044403	718.655945	24575.625000	9503.540039	36.823135
480.398163	724.228699	25257.126953	9740.566406	36.752029
480.751862	715.980957	26127.882813	10038.148438	36.684258
481.105499	711.002686	27231.279297	10432.844727	36.658146
481.459137	708.550781	28680.927734	10967.156250	36.674057
481.812744	717.021301	30518.654297	11624.214844	36.599316
482.166290	730.470032	32763.931641	12454.995117	36.600868
482.519806	734.482361	35505.183594	13400.793945	36.428116
482.873291	732.401855	38694.777344	14585.921875	36.492764
483.226715	732.847717	42302.621094	15920.695313	36.535797
483.580139	730.172852	45790.609375	17358.376953	36.902000
483.933502	724.451477	49108.675781	18775.109375	37.306911
484.286804	716.426819	51761.062500	20115.603516	38.004337
484.640106	714.494934	53774.593750	21282.005859	38.762672
484.993347	716.129639	54840.390625	22091.537109	39.493210
485.346558	721.850891	55034.324219	22402.789063	39.918892
485.699738	719.919128	54350.957031	22139.681641	39.939114
486.052887	724.377197	53019.894531	21470.884766	39.671677
486.405975	724.748718	51417.042969	20585.494141	39.179024
486.759064	723.262695	49846.128906	19734.876953	38.702164
487.112061	718.061523	48611.140625	19047.501953	38.271587
487.464996	712.117371	47915.894531	18626.205078	37.950539
487.817963	715.386536	47776.425781	18482.951172	37.754295
488.170868	715.460938	47816.402344	18484.658203	37.725780
488.523743	716.055359	47902.519531	18542.169922	37.778027
488.876587	720.290588	47686.968750	18532.585938	37.925388
489.229401	724.228699	47258.093750	18419.125000	38.025848
489.582153	717.095520	46388.156250	18128.974609	38.124531
489.934845	711.968689	45325.175781	17702.177734	38.083363
490.287537	710.333984	44272.828125	17246.255859	37.959080
490.640198	715.832458	43422.363281	16882.619141	37.855537
490.992798	718.358704	42808.917969	16620.404297	37.780552
491.345337	719.844910	42628.730469	16532.355469	37.730686
491.697876	726.680664	42745.093750	16555.314453	37.670708
492.050354	729.355530	43172.335938	16741.369141	37.725941
492.402832	724.377258	43438.417969	16845.095703	37.741032
492.755219	723.411316	43265.808594	16824.960938	37.848240
493.107605	723.782776	42554.953125	16603.166016	37.960644
493.459930	723.634216	41241.203125	16203.195313	38.204567
493.812225	730.618652	39500.964844	15585.070313	38.313950
494.164490	730.024231	37490.476563	14833.942383	38.367096
494.516724	728.686768	35486.457031	14030.136719	38.268997
494.868896	719.250305	33689.445313	13324.484375	38.232212
495.221039	717.615723	32265.585938	12767.733398	38.196171
495.573120	728.092346	31122.212891	12344.803711	38.220257
495.925201	730.321472	30505.353516	12092.842773	38.161240
496.277222	730.841492	30159.548828	11920.832031	38.024063
496.629211	720.662109	30147.806641	11837.016602	37.775852
496.981140	714.866455	30137.109375	11808.633789	37.705379
497.333069	708.996582	30245.070313	11859.234375	37.751255
497.684967	717.021301	30323.384766	11939.184570	37.904564
498.036804	716.501160	30364.548828	11978.043945	37.984097
498.388580	718.210144	30251.537109	11944.385742	38.011890
498.740326	707.584778	30042.599609	11879.145508	38.082680
499.092072	711.077087	29740.033203	11747.036133	38.017071
499.443756	712.860352	29411.099609	11614.035156	37.985519
499.795410	717.615723	29090.927734	11476.649414	37.919552
500.147003	718.210144	28750.771484	11352.266602	37.934662
500.498566	718.655945	28391.812500	11226.472656	37.971153
500.850098	719.919006	27986.640625	11087.749023	38.023750
501.201599	716.575439	27647.521484	10988.628906	38.142197
501.553009	714.569275	27288.416016	10881.410156	38.258820
501.904449	715.238037	27052.208984	10824.272461	38.383434
502.255859	720.959290	26829.302734	10748.780273	38.408493
502.607178	721.702332	26765.625000	10723.145508	38.402218
502.958405	725.417480	26692.804688	10651.294922	38.224396
503.309692	725.566101	26650.228516	10626.775391	38.192238
503.660919	725.640381	26601.931641	10599.952148	38.159687
504.012115	725.863281	26664.867188	10630.862305	38.185734
504.363251	720.736328	26739.248047	10674.774414	38.257523
504.714294	723.262695	26847.134766	10728.644531	38.299767
505.065369	720.290527	26861.322266	10754.799805	38.386051
505.416443	724.302917	26867.416016	10756.805664	38.375317
505.767395	726.829285	26904.718750	10764.606445	38.344486
506.118317	720.141907	26887.554688	10749.375000	38.327190
506.469238	715.386536	26915.640625	10765.795898	38.359970
506.820160	710.482605	26896.990234	10767.059570	38.403660
507.170929	720.810730	26932.876953	10789.052734	38.410717
507.521729	727.646545	27030.437500	10818.997070	38.366081
507.872498	730.098450	27080.962891	10870.264648	38.481339
508.223236	729.578430	27270.513672	10912.469727	38.366741
508.573883	720.364807	27376.021484	10991.750000	38.533604
508.924500	721.627991	27575.599609	11035.069336	38.405647
509.275116	717.764343	27754.296875	11154.696289	38.603069
509.625702	722.593994	28013.984375	11230.485352	38.502586
509.976196	720.364929	28302.501953	11335.920898	38.487068
510.326660	719.770508	28551.265625	11431.995117	38.489574
510.677124	722.891113	28804.712891	11517.590820	38.440166
511.027557	722.445313	29004.662109	11629.788086	38.566082
511.377869	722.073914	29217.984375	11714.938477	38.576988
511.728180	723.708496	29340.880859	11775.643555	38.619942
512.078430	719.844788	29480.421875	11819.258789	38.592461
512.428650	720.067688	29596.333984	11840.139648	38.509384
512.778931	712.042969	29734.685547	11880.039063	38.480286
513.129028	723.634216	29793.830078	11887.766602	38.404053
513.479126	725.417480	29807.947266	11911.394531	38.462875
513.829285	731.881836	29757.197266	11909.983398	38.511559
514.179382	726.829163	29688.767578	11903.666992	38.591473
514.529297	724.525696	29584.443359	11893.561523	38.700859
514.879272	724.897278	29573.447266	11898.317383	38.731304
515.229187	721.776611	29480.494141	11869.859375	38.764187
515.579163	726.234802	29538.525391	11841.401367	38.577866
515.928955	724.600098	29535.625000	11839.469727	38.578526
516.278748	717.912903	29804.380859	11928.707031	38.542988
516.628540	711.374268	30066.146484	12049.969727	38.626072
516.978333	710.408386	30555.580078	12216.258789	38.551800
517.327942	719.993408	31088.037109	12392.579102	38.437069
517.677612	720.439209	31709.353516	12652.342773	38.503780
518.027222	718.581604	32332.607422	12906.531250	38.552349
518.376831	712.563171	33026.519531	13207.606445	38.667637
518.726379	716.352539	33713.222656	13476.582031	38.671028
519.075867	722.742493	34272.652344	13677.199219	38.612495
519.425293	727.052063	34653.968750	13851.737305	38.685169
519.774658	728.686829	34802.652344	13909.098633	38.681767
520.124084	724.600159	34757.699219	13991.870117	38.983433
520.473389	718.878906	34467.621094	13926.929688	39.136425
520.822693	715.609558	34089.863281	13824.467773	39.278355
521.171997	717.021240	33657.570313	13632.320313	39.207901
521.521240	719.844727	33229.214844	13439.875977	39.127277
521.870361	718.135742	32823.375000	13283.989258	39.139576
522.219482	719.101746	32466.945313	13138.949219	39.120289
522.568604	724.748718	32231.478516	13043.991211	39.100349
522.917664	726.309082	32088.671875	12991.309570	39.107384
523.266724	726.383362	32173.078125	13007.210938	39.052837
523.615662	723.485596	32415.755859	13098.752930	39.048222
523.964600	730.247131	32853.468750	13227.519531	38.904171
524.313538	723.114075	33369.722656	13434.898438	38.937534
524.662354	724.154297	34054.496094	13673.335938	38.851028
525.011169	714.346375	34932.535156	14025.456055	38.900684
525.359985	720.810730	36002.492188	14436.945313	38.876083
525.708740	724.302917	37282.652344	14923.999023	38.841187
526.057434	732.030457	38654.800781	15445.231445	38.797802
526.406067	727.497986	40217.160156	16042.700195	38.782810
526.754700	726.754883	41854.792969	16725.169922	38.899048
527.103333	728.018066	43783.394531	17494.650391	38.942020
527.451782	730.692932	45926.511719	18382.863281	39.057083
527.800293	729.652771	48109.152344	19314.025391	39.224503
528.148743	728.835449	50213.187500	20319.490234	39.589596
528.497131	733.070618	52009.378906	21292.041016	40.094482
528.845642	718.953125	53560.519531	22250.099609	40.746609
529.193909	716.203918	54727.667969	23092.023438	41.427910
529.542175	711.671387	55507.031250	23732.806641	42.012928
529.890503	721.405090	55802.160156	24056.693359	42.365597
530.238770	718.953125	55556.000000	23966.343750	42.393585
530.586914	717.615723	54788.300781	23523.201172	42.177357
530.934998	718.284424	53497.511719	22816.953125	41.870010
531.283142	713.380432	51917.980469	21956.380859	41.486507
531.631226	713.529053	50084.417969	20990.740234	41.071186
531.979248	715.312256	48289.484375	20031.046875	40.601303
532.327148	720.290527	46704.093750	19185.927734	40.156826
532.675110	724.302917	45583.902344	18626.281250	39.906685
533.023071	721.702332	45033.468750	18279.882813	39.624195
533.370850	725.343079	44908.046875	18204.166016	39.560329
533.718689	730.098572	45118.843750	18257.070313	39.485172
534.066467	737.751770	45379.792969	18375.285156	39.508797
534.414246	740.649597	45451.718750	18425.960938	39.554657
534.761963	742.507080	45341.230469	18406.789063	39.607147
535.109619	742.061279	44932.417969	18320.080078	39.777954
535.457153	735.819885	44332.269531	18108.314453	39.848415
535.804749	725.268860	43502.753906	17787.476563	39.885952
536.152344	719.101807	42613.132813	17406.376953	39.832108
536.499817	721.033630	41679.667969	17005.589844	39.758545
536.847229	723.782776	40795.832031	16598.857422	39.616325
537.194641	726.531982	39982.964844	16244.359375	39.529385
537.542114	724.377197	39376.285156	15988.012695	39.489994
537.889404	724.674500	38812.699219	15765.699219	39.490170
538.236694	728.686768	38361.089844	15589.825195	39.490273
538.583984	724.822998	37935.105469	15451.027344	39.575634
538.931213	722.148132	37733.816406	15407.485352	39.677586
539.278381	716.946960	37568.566406	15342.916992	39.688808
539.625488	719.993347	37569.316406	15317.132813	39.613045
539.972595	719.324646	37863.105469	15374.495117	39.455246
540.319641	718.953125	38562.519531	15602.307617	39.328625
540.666687	724.822998	39601.421875	15967.061523	39.206718
541.013611	726.903503	40894.878906	16442.597656	39.124935
541.360596	721.182312	42318.964844	16973.044922	39.069061
541.707458	721.405090	43731.828125	17531.875000	39.084644
542.054260	717.392822	44878.988281	18060.984375	39.273022
542.401062	723.114075	45824.343750	18547.966797	39.521877
542.747864	718.358704	46370.917969	18890.798828	39.805962
543.094666	721.405090	46319.125000	18941.248047	39.957798
543.441284	719.176086	45637.699219	18728.521484	40.093361
543.787903	720.364929	44561.644531	18318.742188	40.141109
544.134460	713.603333	43309.125000	17823.736328	40.168854
544.481079	714.271973	41910.894531	17237.265625	40.107643
544.827637	715.906738	40306.179688	16570.623047	40.047001
545.174072	725.343079	38691.136719	15903.011719	39.977222
545.520508	728.092346	37330.652344	15330.062500	39.893303
545.866943	727.126465	36236.027344	14838.475586	39.740314
546.213318	722.519714	35416.390625	14482.863281	39.662174
546.559631	725.937683	34731.324219	14162.765625	39.513821
546.905823	721.107910	34176.578125	13938.149414	39.506371
547.252136	719.993408	33711.519531	13717.916992	39.397762
547.598389	713.454773	33172.972656	13549.472656	39.544697
547.944458	710.185364	32731.908203	13398.934570	39.625443
548.290588	720.364929	32193.734375	13192.299805	39.626945
548.636658	720.736328	31625.390625	12984.698242	39.683220
548.982727	724.525818	30912.234375	12729.170898	39.766666
549.328735	719.993347	30201.826172	12491.476563	39.927925
549.674622	725.045959	29446.986328	12188.098633	39.910442
550.020569	731.064453	28714.955078	11914.515625	39.963890
550.366455	732.476257	27964.720703	11604.747070	39.924255
550.712280	728.909668	27347.638672	11345.801758	39.885048
551.058044	726.011902	26865.412109	11095.105469	39.668446
551.403748	725.937500	26474.431641	10925.992188	39.614178
551.749512	724.451477	26215.857422	10788.457031	39.479996
552.095154	721.182190	26037.158203	10696.099609	39.401669
552.440735	719.101746	25974.296875	10683.393555	39.454426
552.786316	720.810608	25939.974609	10699.665039	39.568539
553.131897	728.389587	25973.333984	10719.727539	39.577579
553.477417	724.451477	26031.958984	10702.192383	39.426014
553.822815	721.925232	26038.349609	10695.208008	39.394520
554.168213	719.473206	25967.015625	10674.700195	39.430477
554.513672	727.423584	25843.154297	10658.278320	39.540379
554.859009	730.247070	25666.166016	10578.625977	39.494751
555.204285	729.578369	25480.927734	10519.778320	39.554207
555.549500	724.377197	25213.958984	10422.368164	39.600475
555.894714	722.519714	24973.587891	10323.026367	39.587975
556.239990	719.770447	24627.787109	10185.342773	39.591625
556.585022	722.222412	24374.562500	10063.116211	39.492470
556.930115	726.383484	24099.716797	9961.321289	39.510571
557.275146	733.590759	23844.484375	9864.652344	39.509769
557.620178	731.658936	23635.474609	9794.362305	39.568527
557.965149	729.132568	23445.703125	9729.346680	39.619598
558.310059	721.182190	23293.978516	9672.132813	39.653706
558.654968	717.021240	23134.302734	9598.053711	39.616901
558.999756	712.934570	23023.960938	9552.804688	39.621082
559.344604	715.981018	23005.906250	9541.733398	39.595249
559.689331	714.792175	22947.056641	9533.188477	39.664860
560.033997	719.176086	22890.958984	9511.566406	39.655766
560.378723	718.358704	22828.619141	9458.291016	39.528854
560.723389	721.776672	22827.357422	9448.110352	39.475708
561.067932	716.055359	22863.541016	9453.535156	39.451336
561.412476	713.157532	22846.900391	9490.017578	39.653755
561.757019	712.860352	22849.724609	9501.608398	39.701866
562.101501	715.015137	22823.195313	9521.076172	39.831684
562.445862	719.770508	22854.701172	9494.846680	39.643570
562.790222	717.764343	22817.843750	9465.573242	39.582703
563.134644	713.231873	22800.310547	9419.801758	39.419292
563.478943	715.386658	22784.484375	9408.954102	39.392490
563.823181	723.262695	22786.117188	9404.272461	39.346718
564.167358	737.825989	22835.601563	9432.136719	39.344730
564.511536	726.606262	22902.552734	9457.993164	39.373230
564.855774	725.491699	22950.771484	9468.693359	39.338993
565.199768	715.312317	23051.529297	9486.748047	39.270016
565.543823	718.433044	23172.271484	9519.961914	39.198330
565.887817	723.411316	23455.437500	9621.831055	39.144863
566.231812	726.680664	23636.216797	9690.115234	39.125343
566.575745	724.674500	23821.677734	9751.637695	39.082832
566.919617	715.683777	23944.197266	9817.543945	39.183998
567.263428	715.163635	24088.273438	9876.020508	39.194000
567.607239	725.566101	24193.634766	9948.911133	39.301678
567.950989	727.200745	24220.681641	9951.214844	39.262012
568.294678	726.234863	24225.806641	9939.475586	39.205990
568.638367	722.148193	24076.681641	9903.364258	39.312351
568.981995	721.182312	23905.193359	9855.958008	39.401184
569.325623	723.634277	23698.037109	9804.393555	39.525555
569.669128	716.575439	23597.353516	9723.179688	39.363194
570.012573	719.696106	23480.476563	9652.147461	39.244923
570.356140	719.176025	23437.603516	9632.308594	39.233051
570.699524	721.033508	23446.818359	9624.357422	39.177193
571.042908	719.250305	23577.068359	9655.416016	39.094570
571.386230	716.501160	23707.248047	9671.092773	38.948677
571.729492	728.166687	23818.257813	9731.649414	38.992840
572.072815	733.888000	23941.228516	9790.125977	39.023163
572.416016	740.426575	24045.251953	9835.971680	39.028591
572.759094	732.847717	24221.869141	9889.840820	38.984142
573.102234	733.293640	24289.783203	9907.598633	38.945976
573.445374	727.720886	24329.609375	9939.102539	39.028156
573.788391	724.822998	24289.708984	9946.831055	39.134529
574.131409	715.609436	24245.421875	9939.474609	39.200760
574.474365	713.603333	24190.884766	9903.735352	39.144787
574.817261	717.244141	24081.734375	9838.497070	39.038956
575.160156	718.358704	23922.724609	9785.222656	39.073959
575.502930	715.089355	23725.380859	9680.084961	38.960812
575.845703	712.934570	23498.978516	9593.223633	38.972492
576.188477	713.157532	23255.265625	9484.148438	38.909367
576.531250	723.039734	23005.087891	9415.121094	39.009342
576.873901	726.754883	22751.865234	9329.375977	39.058243
577.216431	728.092346	22503.843750	9237.538086	39.077618
577.559082	722.816895	22234.494141	9130.541992	39.084469
577.901611	723.782776	21915.662109	8996.053711	39.035095
578.244080	719.696106	21595.787109	8863.944336	39.012321
578.586487	728.018066	21231.779297	8737.034180	39.061203
578.928955	732.996338	20909.675781	8613.542969	39.057701
579.271301	740.426575	20575.611328	8479.500977	39.016899
579.613647	736.117004	20253.212891	8350.734375	39.015114
579.955872	725.268860	19950.949219	8226.425781	39.016342
580.298157	715.981018	19630.556641	8116.458496	39.125790
580.640320	717.541443	19371.091797	8018.750000	39.141117
580.982483	719.176025	19157.619141	7931.964355	39.118206
581.324524	733.590759	18971.564453	7831.729980	38.919559
581.666626	728.240967	18860.037109	7746.132813	38.704887
582.008728	726.829163	18747.839844	7679.111816	38.578762
582.350647	723.857117	18688.916016	7664.994629	38.636879
582.692566	731.361633	18548.041016	7642.035156	38.787663
583.034424	728.909668	18447.361328	7601.093750	38.785469
583.376343	726.829285	18339.621094	7548.933594	38.733807
583.718201	718.730286	18290.431641	7503.088379	38.609570
584.059937	726.160461	18215.611328	7485.033691	38.645428
584.401611	719.770508	18132.763672	7460.067871	38.708439
584.743347	719.844727	18063.289063	7428.488770	38.681149
585.085022	718.953125	17938.162109	7377.442871	38.668964
585.426514	722.148132	17871.884766	7313.468262	38.433945
585.768127	727.052063	17773.285156	7283.747559	38.464191
586.109619	726.234863	17702.400391	7264.428223	38.513958
586.451172	724.748779	17642.662109	7255.808594	38.604401
586.792542	722.296692	17616.060547	7240.800293	38.585266
587.133850	722.519714	17615.318359	7231.066406	38.528530
587.475220	725.417480	17589.535156	7219.698730	38.509464
587.816589	717.095520	17591.763672	7217.171875	38.519730
588.157776	719.027527	17650.462891	7222.596191	38.411209
588.498962	717.912903	17720.677734	7238.273926	38.348824
588.840210	726.903564	17778.708984	7241.841309	38.206734
589.181335	724.228699	17829.681641	7237.382324	38.076477
589.522400	720.736389	17882.583984	7238.794434	37.979931
589.863403	716.352539	17903.240234	7264.799316	38.101414
590.204407	723.336975	17892.613281	7298.236328	38.294567
590.545410	727.349304	17921.146484	7315.622559	38.317734
590.886353	733.887939	17945.962891	7302.990723	38.165665
591.227112	724.674500	17942.919922	7280.700684	38.076042
591.567932	719.696106	17879.908203	7257.889160	38.100883
591.908752	712.860352	17799.810547	7211.450684	38.032478
592.249512	715.460876	17752.333984	7181.060547	37.950623
592.590149	712.414490	17631.591797	7157.804199	38.095169
592.930786	717.838562	17515.826172	7151.859863	38.302334
593.271423	714.123352	17424.212891	7100.294434	38.217453
593.612000	722.519592	17393.226563	7054.671875	37.983707
593.952576	721.033508	17414.253906	7033.941406	37.817196
594.292969	724.971619	17479.566406	7050.808105	37.755829
594.633484	723.114075	17538.861328	7073.544922	37.764782
594.973877	722.891113	17634.488281	7092.343262	37.663219
595.314209	722.519592	17721.718750	7126.819824	37.674129
595.654480	730.024231	17897.744141	7204.392090	37.712448
595.994812	721.628113	18108.318359	7255.958496	37.582375
596.335022	717.689941	18327.509766	7332.489746	37.563129
596.675171	710.631165	18531.470703	7382.197754	37.436878
597.015320	717.838562	18690.775391	7464.673828	37.538857
597.355408	717.912903	18792.421875	7502.345215	37.535912
597.695496	714.494934	18874.005859	7516.834473	37.458824
598.035461	716.278137	18881.806641	7491.274902	37.295895
598.375366	720.810730	18823.330078	7483.175781	37.355934
598.715271	726.977844	18697.089844	7472.476563	37.537323
599.055176	732.550537	18447.730469	7420.538574	37.752869
599.395081	736.191406	18236.189453	7333.678223	37.699928
599.734802	734.110840	17923.154297	7195.029785	37.587425
600.074524	727.943787	17613.607422	7068.269043	37.548569
600.414246	726.829285	17227.904297	6920.853027	37.537094
600.753906	723.782776	16910.705078	6801.968262	37.549976
601.093506	724.674500	16641.060547	6679.442871	37.412819
601.433044	724.377258	16447.056641	6603.654297	37.393604
601.772583	731.138733	16323.860352	6559.221191	37.376942
602.112122	725.194580	16307.960938	6546.664063	37.358383
602.451538	723.039795	16347.118164	6552.757324	37.312397
602.790894	714.420715	16438.734375	6566.205566	37.214882
603.130310	715.312317	16608.888672	6643.925781	37.301945
603.469604	712.785950	16799.919922	6701.064941	37.224026
603.808838	716.278259	17073.353516	6788.370605	37.122116
604.148010	722.148132	17379.257813	6876.642578	36.948154
604.487305	726.234802	17683.453125	6986.090332	36.915581
604.826416	727.720886	17926.792969	7073.470215	36.895882
605.165527	726.754883	18061.654297	7135.884766	36.972412
605.504456	725.194519	18203.869141	7186.113281	36.964584
605.843445	721.479431	18267.843750	7216.502441	37.016346
606.182434	719.919006	18267.398438	7210.781738	36.990288
606.521423	715.163635	18129.568359	7159.513184	37.005856
606.860229	722.816833	17888.380859	7087.661621	37.079147
607.199036	716.946960	17596.816406	7000.653809	37.226040
607.537903	724.228699	17341.736328	6924.938965	37.314323
607.876648	720.290527	17088.437500	6802.562500	37.159199
608.215271	725.417480	16865.455078	6694.080566	36.980480
608.553955	721.107910	16632.960938	6584.409668	36.848640
608.892578	722.816833	16468.529297	6519.097656	36.811802
609.231140	723.411316	16358.635742	6464.262207	36.717419
609.569641	729.058289	16298.450195	6428.968750	36.609718
609.908081	730.395752	16328.096680	6423.470215	36.499443
610.246521	739.683594	16310.116211	6427.482910	36.529488
610.584961	727.275085	16327.725586	6435.804688	36.592083
610.923340	721.553711	16254.538086	6422.132813	36.699833
611.261597	708.847961	16163.293945	6379.631348	36.693539
611.599854	714.643555	16033.858398	6331.706543	36.666782
611.938110	720.587830	15878.043945	6283.483887	36.700722
612.276245	730.321533	15723.272461	6215.941895	36.587994
612.614319	726.977844	15445.975586	6120.909668	36.646053
612.952393	724.005798	15143.042969	6012.130371	36.674603
613.290466	714.346375	14826.067383	5907.661621	36.801434
613.628479	718.878906	14538.218750	5786.250000	36.668690
613.966370	718.730225	14285.367188	5685.644531	36.611240
614.304260	719.844788	14067.882813	5601.533691	36.572334
614.642151	717.095520	13881.308594	5539.193359	36.630352
614.979980	712.637390	13735.750000	5475.516113	36.572510
615.317749	721.107910	13590.933594	5421.200684	36.520252
615.655396	723.708496	13531.640625	5386.798340	36.407829
615.993164	723.336914	13470.860352	5363.170410	36.397923
616.330811	715.015076	13453.101563	5348.904785	36.378223
616.668396	712.117249	13396.632813	5329.065918	36.398304
617.005859	722.816895	13382.885742	5307.071777	36.210350
617.343445	727.200745	13370.031250	5291.022949	36.098106
617.680908	728.389587	13378.651367	5278.168457	35.965885
618.018311	719.398926	13359.479492	5286.192871	36.129471
618.355652	720.959290	13323.963867	5289.313477	36.248135
618.692993	725.343201	13269.945313	5294.366211	36.422222
619.030273	725.045959	13277.672852	5278.019531	36.271084
619.367554	726.086182	13296.249023	5262.638672	36.089848
619.704712	718.804504	13284.360352	5245.326172	36.023251
620.041870	718.655945	13239.409180	5246.515137	36.162838
620.379028	711.448547	13188.584961	5227.716797	36.196350
620.716064	712.488770	13157.301758	5210.998047	36.147667
621.053040	720.587708	13093.104492	5181.054199	36.051407
621.389954	721.330811	13029.500977	5151.258301	35.991768
621.726929	727.497986	12962.332031	5124.509766	35.938465
622.063843	722.222473	12937.960938	5103.185059	35.863262
622.400635	721.776611	12917.825195	5082.528809	35.755447
622.737427	725.566101	12891.151367	5067.891113	35.693516
623.074219	727.720886	12831.932617	5034.603516	35.581688
623.410889	731.436035	12769.145508	5016.919434	35.600491
623.747559	724.823059	12743.437500	5012.089844	35.671886
624.084167	721.627991	12710.817383	4999.310059	35.679493
624.420715	715.683838	12719.139648	4997.526855	35.671749
624.757324	714.272034	12720.847656	4999.087402	35.687241
625.093750	714.866516	12776.872070	5015.507813	35.654446
625.430176	721.553711	12840.476563	5027.024902	35.526848
625.766602	726.086182	12905.639648	5009.489746	35.168804
626.102905	732.327637	13010.925781	5016.325684	34.889961
626.439209	729.504150	13104.622070	5039.581543	34.828575
626.775452	725.714661	13246.243164	5090.182129	34.858490
627.111694	713.900574	13312.446289	5123.321289	34.999443
627.447876	716.352539	13358.366211	5147.989746	35.054836
627.783997	716.352539	13388.903320	5148.732910	34.976231
628.120056	719.473206	13406.514648	5167.011230	35.055756
628.456055	716.872620	13408.593750	5156.014648	34.976677
628.792053	713.826233	13394.403320	5140.411621	34.908390
629.128052	712.191589	13320.249023	5098.430176	34.789173
629.463928	711.671448	13204.856445	5061.947266	34.821194
629.799744	712.488770	13062.864258	5030.963379	34.966343
630.135559	720.587830	12942.790039	4995.074707	34.973133
630.471375	724.971680	12815.508789	4947.223145	34.921951
630.807068	727.200684	12648.848633	4884.660645	34.873196
631.142700	723.708496	12515.846680	4832.872559	34.846638
631.478333	712.265930	12380.468750	4797.132324	35.008530
631.813965	718.581604	12279.565430	4748.909668	34.861465
632.149475	722.222412	12161.497070	4694.966309	34.728985
632.484924	735.522644	12072.854492	4647.709473	34.507118
632.820435	731.436035	11993.647461	4621.332031	34.539364
633.155884	729.504150	11911.765625	4597.109375	34.586967
633.491150	720.884949	11858.491211	4573.258301	34.588879
633.826477	721.850891	11760.559570	4543.760254	34.622795
634.161804	712.340149	11697.551758	4524.441406	34.702118
634.497009	709.145203	11632.610352	4495.462891	34.662239
634.832153	710.854187	11592.562500	4472.875000	34.571968
635.167297	714.792175	11526.209961	4444.343262	34.496410
635.502380	713.306091	11454.507813	4419.674805	34.506088
635.837463	702.012146	11383.622070	4385.866699	34.487820
636.172424	703.349609	11316.824219	4347.303711	34.333282
636.507324	714.197754	11235.165039	4296.332031	34.047577
636.842224	725.268860	11129.210938	4253.384766	33.911339
637.177124	728.909668	11003.936523	4230.871094	34.082260
637.511963	720.364929	10889.733398	4197.657715	34.193794
637.846741	715.163757	10786.600586	4168.457520	34.287994
638.181396	716.055359	10676.557617	4120.160645	34.176041
638.516113	724.748779	10581.451172	4081.225830	34.052738
638.850769	732.699219	10490.950195	4038.724609	33.879284
639.185303	727.052185	10406.393555	4003.653564	33.851490
639.519836	723.708496	10292.933594	3976.905029	33.996449
639.854370	720.142029	10206.592773	3949.041016	34.036953
640.188843	724.748779	10122.110352	3905.128174	33.843323
640.523254	729.504150	10056.724609	3863.592773	33.601528
640.857605	730.990234	9983.685547	3828.967529	33.481892
641.191895	730.767273	9914.137695	3801.327148	33.436089
641.526184	725.491760	9843.328125	3779.333740	33.493057
641.860413	718.135803	9788.416992	3770.639893	33.653908
642.194580	716.278259	9764.343750	3747.011719	33.495926
642.528748	716.649719	9725.631836	3713.798584	33.268452
642.862793	716.724060	9655.490234	3672.189209	33.063454
643.196838	716.946960	9575.911133	3637.192383	32.963734
643.530823	708.104980	9502.203125	3618.542236	33.095348
643.864746	716.352539	9440.829102	3603.533203	33.092880
644.198669	718.507324	9385.696289	3598.258057	33.225887
644.532532	724.971680	9341.412109	3580.722656	33.143047
644.866333	719.696106	9361.028320	3561.477783	32.885921
645.200073	711.820068	9346.985352	3552.041748	32.891342
645.533813	717.095520	9331.084961	3548.029297	32.864376
645.867554	714.569275	9282.787109	3543.199463	33.013050
646.201172	718.061523	9295.790039	3525.961182	32.734768
646.534729	722.965515	9291.852539	3532.648438	32.789356
646.868225	725.120300	9298.985352	3531.088135	32.726986
647.201782	717.244141	9281.598633	3533.614502	32.884796
647.535217	715.981018	9302.477539	3531.162354	32.786148
647.868591	719.473328	9290.366211	3514.146729	32.606560
648.201965	727.720886	9293.115234	3511.175049	32.496510
648.535278	722.593933	9264.286133	3491.856445	32.420536
648.868591	724.005676	9263.914063	3489.999023	32.389030
649.201782	730.544373	9226.911133	3482.940186	32.394970
649.534912	731.287415	9206.775391	3473.428955	32.353790
649.868103	723.188416	9144.659180	3449.355225	32.371624
650.201172	717.838623	9116.274414	3434.123047	32.342743
650.534180	711.522888	9088.411133	3429.665039	32.448109
650.867188	712.786072	9072.362305	3419.782959	32.381985
651.200134	716.426819	9038.406250	3402.767578	32.280071
651.533020	722.593933	8990.629883	3380.848389	32.150978
651.865845	725.714661	8954.072266	3379.362305	32.250031
652.198608	726.383484	8896.414063	3351.201416	32.127392
652.531433	729.504150	8885.862305	3335.523438	31.950769
652.864136	725.566101	8856.512695	3312.489502	31.815771
653.196777	794.370422	8915.805664	3429.144775	32.442226
653.529358	797.639709	8867.286133	3411.237549	32.388008
653.861938	801.280579	8814.829102	3393.256592	32.344925
654.194519	735.894226	8691.487305	3245.542969	31.545713
654.526978	739.237793	8651.141602	3236.552002	31.564011
654.859375	739.312073	8583.897461	3215.301514	31.563038
655.191833	730.692932	8549.791016	3205.642578	31.652624
655.524170	720.513489	8492.800781	3168.194092	31.492413
655.856445	719.547607	8464.491211	3145.828857	31.327295
656.188660	729.801331	8422.288086	3135.500732	31.273365
656.520874	729.578430	8382.758789	3124.206299	31.289318
656.853088	727.349304	8395.835938	3116.924805	31.160976
657.185181	724.674500	8395.464844	3100.281250	30.969517
657.517212	719.919006	8435.737305	3102.584229	30.880266
657.849243	724.600159	8460.107422	3104.665039	30.768053
658.181274	721.405090	8517.692383	3118.856689	30.751198
658.513123	731.956055	8565.914063	3115.512939	30.425959
658.844971	730.915833	8664.588867	3129.853516	30.237417
659.176819	735.968445	8757.988281	3152.441406	30.122997
659.508667	730.098572	8864.983398	3200.441162	30.367271
659.840393	730.841553	8920.636719	3217.530518	30.363262
660.172058	725.417480	8985.799805	3222.954346	30.235123
660.503662	723.114075	9006.678711	3219.387939	30.135263
660.835266	720.290527	9006.233398	3232.539795	30.319412
661.166931	716.798340	8936.611328	3225.629639	30.521759
661.498413	724.674500	8890.320313	3194.050781	30.241039
661.829773	724.228699	8791.275391	3160.094727	30.195263
662.161194	734.036621	8692.377930	3121.234375	29.996172
662.492615	725.491760	8540.056641	3087.129639	30.220978
662.823975	731.287354	8389.147461	3039.427002	30.140791
663.155212	726.234802	8227.019531	2991.947510	30.206341
663.486450	730.841553	8071.801270	2937.706787	30.062351
663.817627	727.943787	7956.781250	2891.639404	29.931446
664.148743	723.411316	7829.203125	2847.354736	29.890312
664.479858	719.844727	7755.568848	2805.893555	29.649384
664.810913	722.593933	7654.889160	2772.828857	29.575123
665.141907	727.497986	7582.890137	2762.426514	29.683619
665.472778	725.417480	7495.509766	2754.476318	29.970919
665.803711	720.587830	7469.578125	2738.575439	29.900585
666.134583	718.061523	7449.813965	2715.987305	29.679132
666.465454	729.727051	7427.746094	2702.389893	29.451437
666.796143	731.658875	7381.752441	2693.250732	29.497206
667.126831	731.287415	7365.628906	2676.904053	29.326448
667.457458	725.491760	7347.498535	2659.666016	29.208281
667.788147	719.919128	7332.267090	2645.845459	29.126207
668.118774	716.055359	7292.737793	2636.111816	29.194908
668.449219	714.346375	7265.394531	2622.440186	29.126541
668.779663	719.919006	7263.313965	2618.205078	29.010721
669.110107	727.200745	7258.781250	2604.904785	28.748081
669.440552	723.411316	7248.676270	2592.124756	28.638123
669.770874	726.160461	7209.816406	2581.053711	28.608757
670.101135	725.789001	7189.308594	2557.722656	28.342663
670.431396	723.931396	7160.924316	2544.719482	28.286314
670.761597	717.912903	7128.380371	2517.301758	28.069544
671.091797	718.358704	7097.990234	2511.803467	28.112045
671.421875	722.891113	7048.876465	2504.819092	28.168386
671.751892	729.132568	7006.672363	2494.045166	28.114717
672.081909	723.857117	6952.208496	2484.088623	28.261595
672.411865	724.228577	6927.836426	2467.742188	28.104834
672.741821	727.423645	6880.060059	2450.875244	28.011597
673.071716	729.058350	6846.029785	2439.655518	27.964771
673.401550	728.241028	6807.169434	2434.380127	28.066446
673.731262	727.497864	6796.841309	2430.516357	28.059355
674.060974	726.606262	6754.786621	2407.928223	27.891039
674.390625	731.436035	6722.093262	2383.259766	27.573330
674.720276	725.640381	6661.610840	2367.210693	27.654623
675.049927	726.309082	6639.765625	2367.061768	27.746084
675.379395	727.200684	6604.620605	2360.671631	27.792313
675.708923	725.640381	6570.515625	2336.968994	27.568230
676.038330	722.891174	6519.767090	2321.513916	27.577316
676.367737	720.959290	6474.367676	2299.743408	27.440851
676.697083	724.080017	6459.135254	2295.582520	27.401697
677.026428	733.219238	6440.634277	2277.006836	27.048805
677.355652	729.206848	6410.021484	2267.793213	27.083906
677.684875	732.773438	6402.665527	2259.248291	26.922468
678.013977	725.045898	6395.384277	2257.985352	27.034355
678.343079	726.309082	6420.720703	2264.969971	27.020542
678.672180	722.371094	6422.875488	2267.942139	27.112883
679.001221	721.182190	6472.138184	2251.818359	26.615335
679.330139	725.491760	6514.342285	2253.378662	26.393616
679.659058	723.782776	6530.837402	2252.263916	26.321110
679.987976	729.949951	6557.215332	2275.074951	26.515438
680.316772	726.160461	6591.468750	2274.034912	26.390335
680.645630	727.126465	6651.356934	2274.109131	26.112804
680.974304	719.250305	6695.417969	2278.492920	26.091013
681.302979	719.473328	6731.380859	2283.099854	26.008823
681.631653	718.804504	6763.925293	2287.706543	25.953197
681.960266	726.680664	6776.408203	2283.099854	25.727097
682.288757	725.937561	6796.023926	2279.087158	25.586945
682.617249	723.485596	6797.064453	2281.465088	25.651752
682.945679	718.135742	6764.742188	2281.242188	25.850971
683.274109	719.027405	6713.696777	2265.267090	25.793579
683.602478	723.857117	6644.966309	2240.152588	25.608299
683.930725	725.714661	6566.057129	2194.828125	25.154579
684.259033	723.411316	6470.280762	2174.543701	25.250832
684.587280	724.674500	6393.674316	2147.497314	25.098303
684.915344	723.336975	6333.936035	2139.175537	25.235069
685.243469	727.646545	6264.313965	2123.125732	25.204317
685.571533	724.302917	6197.961426	2107.299316	25.266397
685.899536	731.658936	6138.445313	2082.853760	24.990721
686.227539	729.801270	6105.826172	2050.011963	24.557377
686.555420	728.761047	6081.603516	2040.352905	24.502716
686.883301	722.965515	6076.328125	2036.043091	24.528090
687.211121	719.176025	6074.693359	2037.380493	24.613951
687.538940	718.135742	6076.402344	2026.606445	24.419664
687.866638	719.844727	6065.182129	2015.015259	24.229912
688.194336	720.513489	6054.854004	2015.609863	24.278475
688.521973	718.210144	6027.733887	2014.941284	24.422739
688.849609	713.454773	6032.191895	2014.272461	24.457264
689.177063	719.101746	5996.824219	2004.167358	24.348867
689.504578	723.857117	5948.230469	1984.179810	24.123901
689.832031	729.949951	5864.267578	1969.616577	24.144722
690.159485	726.309082	5795.166504	1942.124390	23.985983
690.486816	723.485657	5726.659668	1930.533203	24.125639
690.814087	716.352539	5662.015625	1911.511719	24.165802
691.141296	716.352539	5561.039063	1901.703735	24.467035
691.468506	714.569275	5486.067871	1872.577148	24.269268
691.795715	718.953125	5395.640625	1835.648804	23.877920
692.122803	713.826172	5355.740234	1813.283569	23.685432
692.449829	720.141907	5298.824219	1791.958618	23.408846
692.776855	723.559875	5252.607910	1784.454102	23.424223
693.103821	732.550598	5199.109863	1766.175659	23.141415
693.430664	730.618652	5137.587402	1752.875488	23.196371
693.757568	722.519714	5089.067871	1735.414429	23.196692
694.084351	711.597168	5026.207520	1719.439453	23.358826
694.411133	707.733398	5006.294434	1705.173218	23.204041
694.737854	710.259766	4963.124512	1698.411621	23.234970
695.064575	715.981018	4951.458984	1688.752319	22.967215
695.391174	716.055359	4914.010254	1675.080566	22.845057
695.717773	711.151367	4909.478027	1667.947632	22.789944
696.044250	715.460876	4911.410156	1664.529663	22.618690
696.370789	715.832458	4924.115723	1666.312866	22.585941
696.697205	730.915833	4965.650879	1663.860962	22.030781
697.023621	726.606262	5017.811035	1666.535767	21.903627
697.349915	736.637207	5071.086426	1671.811157	21.575382
697.676208	729.132568	5106.156738	1679.241577	21.706734
698.002380	733.962219	5175.258301	1691.352905	21.556562
698.328674	725.640320	5269.474121	1708.813965	21.637535
698.654724	729.206848	5375.355957	1730.807617	21.557655
698.980896	725.789001	5467.937500	1745.816772	21.509823
699.306946	731.807556	5570.846191	1760.825806	21.264933
699.632935	727.943848	5653.248047	1763.872437	21.032784
699.958862	729.206848	5687.947266	1765.209839	20.892462
700.284729	721.405090	5664.393066	1768.404785	21.181517
700.610596	720.216248	5610.673340	1762.311890	21.308760
700.936340	714.940735	5530.945801	1742.844727	21.343500
701.262146	720.587708	5424.098145	1710.597290	21.048313
701.587830	719.398926	5284.929688	1682.510742	21.095287
701.913513	724.228699	5148.212891	1650.857788	20.945578
702.239075	715.609558	5014.319336	1618.461914	21.002867
702.564697	712.042969	4897.143555	1585.025757	20.859303
702.890137	714.346375	4763.547363	1557.013550	20.810703
703.215698	720.290588	4661.752441	1528.109863	20.495422
703.541016	726.457703	4573.406738	1500.617798	20.124002
703.866455	723.188416	4516.193848	1489.026733	20.190805
704.191711	720.885010	4439.884766	1476.469360	20.316870
704.517029	717.095520	4367.291016	1470.005005	20.626553
704.842163	720.810730	4303.315918	1443.033203	20.159706
705.167419	723.485657	4262.152832	1438.500610	20.205770
705.492493	725.268860	4235.329590	1426.612305	19.980949
705.817566	723.559875	4210.215332	1414.500977	19.816730
706.142578	723.931458	4187.106934	1400.532104	19.537001
706.467590	724.897278	4156.494141	1394.290527	19.506756
706.792480	725.714661	4145.794434	1393.918945	19.537682
707.117371	729.801270	4146.983887	1391.095581	19.352034
707.442200	732.401855	4152.630371	1381.956177	18.991547
707.766907	727.720886	4147.875488	1383.219360	19.165756
708.091675	721.628113	4146.983887	1383.888184	19.334053
708.416321	713.900574	4158.500488	1383.813843	19.448217
708.741028	711.522766	4163.775391	1376.160645	19.252295
709.065552	704.241211	4178.264648	1373.040039	19.251419
709.390137	708.179199	4190.599121	1372.445679	19.074854
709.714600	716.278137	4209.397949	1380.693237	19.020678
710.039063	717.689941	4228.345215	1381.584839	18.910854
710.363403	717.838623	4259.700684	1385.077148	18.838636
710.687744	718.730225	4311.415527	1384.705444	18.536976
711.012085	722.593994	4360.455566	1385.671387	18.227119
711.336304	726.903503	4402.138672	1389.832397	18.037727
711.660461	723.411316	4439.513184	1397.931274	18.151278
711.984619	728.240967	4467.599609	1404.395630	18.082102
712.308716	725.343201	4490.559082	1404.395630	18.034887
712.632751	722.816895	4467.822754	1406.624878	18.259197
712.956726	726.160461	4426.213379	1395.033569	18.077393
713.280701	730.767273	4377.693359	1385.597168	17.955667
713.604553	735.448303	4324.121094	1372.296875	17.746075
713.928467	729.206848	4279.613770	1366.947144	17.962456
714.252258	721.553711	4222.177734	1353.423950	18.050217
714.575989	720.513489	4179.453613	1337.969116	17.851006
714.899719	722.816895	4134.648926	1325.114746	17.653210
715.223267	722.371094	4102.550781	1318.501831	17.636066
715.546936	719.770447	4065.250732	1306.761963	17.545807
715.870422	721.702209	4036.866943	1290.563965	17.159382
716.193970	723.857117	4008.631836	1282.762207	17.015020
716.517395	723.559875	3982.328857	1268.793335	16.731270
716.840820	719.919128	3943.171143	1262.328979	16.828032
717.164124	720.662109	3903.121826	1245.313599	16.485723
717.487488	725.045898	3875.778564	1244.719116	16.493727
717.810730	727.423645	3852.224609	1247.839844	16.654379
718.133972	730.915833	3800.955811	1248.137207	16.847382
718.457092	730.767273	3761.129639	1239.295044	16.781088
718.780212	730.024231	3710.529297	1222.428345	16.520828
719.103210	726.457703	3668.548096	1204.001343	16.231440
719.426208	724.823059	3615.570313	1190.924072	16.123894
719.749207	727.349304	3561.403564	1176.955078	15.864403
720.072083	726.903564	3524.549561	1168.781860	15.794646
720.394958	723.114075	3485.912109	1161.500122	15.867466
720.717773	718.210144	3441.405029	1156.744751	16.103682
721.040527	717.021301	3397.194580	1152.509399	16.248505
721.363281	716.203918	3355.733643	1144.410522	16.222837
721.685913	716.203918	3338.198486	1143.221558	16.285984
722.008545	720.662109	3321.554688	1133.710938	15.881042
722.331055	720.141907	3297.480469	1130.069946	15.905090
722.653503	721.702332	3285.592529	1114.838013	15.333562
722.976013	727.423645	3258.174561	1109.636841	15.102758
723.298401	734.556702	3254.162109	1104.212646	14.671184
723.620789	727.646667	3242.645264	1104.732788	14.993493
723.943115	721.256531	3227.487549	1102.652344	15.217904
724.265381	719.844788	3213.295654	1099.531738	15.227368
724.587585	724.302917	3195.091553	1092.993042	14.921962
724.909790	717.764221	3202.001709	1093.364624	15.119343
725.231873	711.671387	3204.676514	1087.866211	15.090014
725.553894	714.420715	3204.379150	1096.411011	15.341231
725.875916	766.209656	3254.087646	1122.342651	14.314730
726.197937	773.045471	3254.161865	1128.212524	14.314808
726.519775	773.937195	3261.740479	1117.958862	13.828331
726.841675	727.943787	3221.617188	1087.048828	14.400645
727.163513	723.708496	3244.725586	1078.875488	14.088243
727.485291	716.872620	3258.545898	1084.002441	14.444414
727.806946	710.333984	3284.180420	1083.110718	14.483254
728.128662	711.448547	3288.415283	1082.739136	14.408047
728.450256	714.866516	3310.483398	1089.352173	14.427616
728.771790	721.776611	3321.777344	1090.020874	14.163237
729.093323	726.086243	3334.706055	1094.181763	14.110738
729.414795	724.302917	3332.403076	1085.636963	13.854301
729.736145	721.850891	3322.372070	1082.367676	13.863251
730.057495	715.312317	3322.446289	1079.544312	13.970590
730.378845	716.129639	3343.919922	1075.309082	13.668497
730.700134	718.804504	3349.269531	1077.984009	13.654601
731.021301	721.182190	3342.433594	1078.875610	13.645903
731.342468	720.810730	3323.486328	1076.795044	13.677629
731.663574	719.473328	3331.510986	1077.686646	13.713942
731.984680	726.309082	3348.971924	1080.138550	13.491230
732.305664	725.640381	3358.780273	1079.024048	13.420619
732.626648	728.983948	3363.758545	1072.856934	13.051324
732.947571	725.268860	3369.776611	1059.854004	12.652076
733.268433	728.315247	3376.984375	1061.042847	12.562067
733.589233	715.535156	3361.455078	1065.055176	13.209773
733.909973	710.111084	3343.771240	1067.730103	13.578784
734.230713	714.717957	3319.177002	1063.940796	13.408652
734.551331	722.445313	3300.303955	1054.875854	12.895608
734.871948	723.782776	3250.075439	1042.021484	12.597064
735.192505	720.810608	3198.657959	1032.659302	12.585468
735.513062	722.222473	3147.612061	1018.987610	12.235771
735.833435	724.228699	3110.014648	1026.417847	12.666231
736.153931	723.634216	3066.027344	1023.371399	12.796195
736.474304	720.810730	3024.120850	1026.789307	13.284298
736.794617	719.919128	2985.780518	1022.925476	13.372679
737.114807	720.662109	2960.963623	1016.684082	13.213488
737.434998	724.600159	2949.966797	1010.591309	12.851417
737.755188	726.457703	2953.458984	1003.978333	12.461629
738.075256	728.018066	2970.845703	1003.903992	12.300808
738.395325	724.674500	2979.613281	997.736877	12.109526
738.715271	726.532043	3005.619141	993.501709	11.713885
739.035278	723.782776	3016.319092	993.204407	11.752120
739.355164	726.309082	3039.352783	989.266418	11.368455
739.675049	727.200684	3034.820313	984.436768	11.147248
739.994873	724.005798	3032.888428	982.430664	11.192637
740.314636	724.302917	3025.978516	987.631836	11.440749
740.634277	723.336975	3013.346924	997.291077	11.963009
740.953979	728.166687	2992.764893	993.575989	11.719930
741.273499	733.442200	2969.582275	987.928955	11.380627
741.593140	727.572266	2921.731689	979.904297	11.500169
741.912598	728.092346	2874.251953	973.885742	11.452708
742.232117	722.891174	2824.097900	965.935364	11.566886
742.551453	724.823059	2803.070313	953.749756	11.015373
742.870850	722.965515	2773.423828	948.325684	10.990722
743.190063	718.210144	2745.485596	945.576416	11.215362
743.509338	718.284424	2715.021484	942.678528	11.238040
743.828552	717.169861	2685.597656	938.146179	11.226031
744.147705	718.432922	2652.458740	928.858337	10.880176
744.466797	718.878906	2619.616943	922.319641	10.703250
744.785828	713.380432	2597.771729	919.421875	10.934111
745.104858	718.953125	2580.162109	920.016296	10.802826
745.423706	719.993347	2573.326172	915.929688	10.572108
745.742615	726.680603	2559.877441	913.180420	10.173475
746.061401	717.392761	2552.670166	911.174255	10.558703
746.380249	719.473328	2535.654541	914.889465	10.759727
746.698975	717.838623	2533.276855	913.552002	10.780503
747.017639	727.497986	2516.484619	915.483887	10.507955
747.336304	727.275085	2499.023438	916.821289	10.698258
747.654907	732.996338	2491.816162	914.740906	10.333325
747.973389	735.745544	2488.620850	913.774902	10.156419
748.291931	733.590759	2494.490967	902.555176	9.595344
748.610352	729.578369	2500.063721	905.750183	9.950481
748.928711	726.829285	2514.106934	905.601563	10.002491
749.247070	724.674500	2531.642334	905.973145	10.033308
749.565308	727.720886	2523.766357	900.400391	9.614429
749.883545	730.692932	2506.453857	899.657410	9.515046
750.201782	732.104675	2483.939941	906.938965	9.980064
750.519836	731.584534	2478.738770	902.480896	9.781412
750.837952	728.315247	2472.943115	898.394226	9.748725
751.155884	731.733154	2462.169434	892.375671	9.283354
751.473877	725.640320	2438.912598	896.090820	9.948828
751.791809	722.965393	2422.640137	892.152771	9.954103
752.109619	722.965515	2424.274658	886.134277	9.590777
752.427490	725.194519	2428.064453	879.224121	9.045295
752.745300	728.983948	2434.974365	875.508972	8.588854
753.062988	731.287354	2427.544189	883.310730	8.962285
753.380615	727.795166	2417.216064	882.716309	9.170074
753.698303	722.965515	2410.157227	885.242676	9.618182
754.015808	715.832336	2391.433350	874.245850	9.454130
754.333374	715.609436	2387.346680	865.849609	8.987068
754.650757	713.231750	2385.265869	862.357422	8.918818
754.968262	717.244141	2393.364990	861.614319	8.613352
755.285583	720.587708	2394.553711	861.317139	8.406946
755.602905	722.668274	2388.460938	857.527649	8.095808
755.920105	714.420654	2376.646729	863.843445	8.989318
756.237305	708.253479	2360.225830	868.747375	9.715289
756.554443	706.470276	2352.498291	874.171570	10.188240
756.871582	712.934570	2356.585205	862.134460	9.077348
757.188599	729.504150	2368.250732	863.026123	8.147811
757.505615	730.692871	2380.287598	866.072510	8.206842
757.822510	731.361633	2379.247314	867.855774	8.282986
758.139465	715.535156	2389.055420	866.592590	9.026328
758.456238	715.906738	2397.228760	864.883728	8.860705
758.773010	712.117371	2423.457275	867.558594	9.083014
759.089783	718.507324	2435.865967	860.797058	8.285382
759.406433	724.748779	2438.986572	856.636047	7.693639
759.723145	727.052185	2447.977295	851.880676	7.253569
760.039673	730.915833	2458.082764	860.945618	7.528501
760.356201	727.349365	2461.426270	867.929993	8.106943
760.672668	724.748779	2455.927734	875.583313	8.712822
760.989136	718.284424	2455.705078	869.564758	8.707179
761.305481	714.346375	2449.834961	858.642273	8.314425
761.621826	714.717834	2447.754639	862.208801	8.510550
761.938049	722.445374	2456.225098	862.283020	8.065479
762.254333	724.228577	2481.859375	859.905457	7.719305
762.570496	725.120300	2528.967529	860.276917	7.492687
762.886597	724.377258	2602.898682	867.112732	7.598288
763.202637	726.829285	2727.132568	877.366516	7.525721
763.518677	724.154358	2879.750244	882.047668	7.324810
763.834656	719.176086	3021.965576	894.827698	7.627775
764.150574	721.850891	3137.283936	904.115540	7.545837
764.466370	727.423645	3207.648438	909.465332	7.339725
764.782288	730.618652	3238.855469	909.242371	7.121485
765.097961	733.293457	3222.509033	910.802734	7.131133
765.413696	741.689758	3168.045166	906.716125	6.801409
765.729309	742.209961	3071.377686	899.731628	6.763002
766.044861	738.643372	2952.864502	888.289063	6.758389
766.360474	728.389587	2822.686279	875.137451	7.007024
766.675903	729.578430	2700.680908	855.818665	6.404549
766.991394	729.132629	2603.195557	848.611328	6.375383
767.306763	734.110840	2506.825195	834.568176	5.666865
767.622131	724.897400	2432.671143	843.855957	6.965710
767.937378	728.463867	2352.349854	839.917969	6.863419
768.252625	725.566101	2308.214111	846.085144	7.615026
768.567810	732.104675	2265.787109	829.887024	6.375659
768.882996	719.919006	2230.270508	831.150208	7.364590
769.197998	722.222412	2185.317139	832.190491	7.516129
769.513062	724.302917	2145.490967	836.945801	7.925966
769.828064	732.550537	2114.506592	830.332825	7.075644
770.142944	726.680664	2092.810303	825.354553	7.222879
770.457825	721.479492	2071.337158	819.633301	7.271419
770.772705	715.312317	2052.241211	809.973938	7.080527
771.087402	720.141907	2029.058594	808.116394	6.721168
771.402100	725.045898	1997.851563	804.846985	6.269699
771.716736	731.584656	1979.350098	811.459961	6.401468
772.031372	729.727051	1962.260376	809.899658	6.504701
772.345947	728.315247	1963.375000	811.831543	6.762125
772.660461	725.343201	1948.068481	803.658203	6.404954
772.974854	731.510254	1930.161743	801.280518	5.820730
773.289246	733.590759	1905.716187	801.503418	5.793975
773.603638	732.327637	1893.159180	800.314636	5.856750
773.917908	724.674377	1886.323242	802.246399	6.677751
774.232178	717.095520	1877.704102	800.314636	7.170300
774.546265	718.210144	1861.506226	799.051453	7.070899
774.860474	724.600159	1847.388672	793.107239	6.101512
775.174561	732.179016	1831.710571	791.769775	5.419650
775.488586	730.247070	1821.308228	792.810059	5.734141
775.802551	729.355469	1814.472290	797.565430	6.285955
776.116516	724.897400	1807.710938	792.215637	6.216974
776.430359	726.977783	1799.240356	793.478760	6.201930
776.744202	720.885010	1777.543945	784.190918	5.991139
777.057922	723.262695	1773.902954	787.534485	6.117393
777.371704	729.132629	1773.605835	784.265198	5.278505
777.685303	732.179016	1764.169434	781.590332	4.787962
777.998962	732.847717	1747.525757	782.407715	4.884308
778.312500	723.634094	1721.891235	785.379700	6.185341
778.626038	728.761047	1728.281250	792.587097	6.385669
778.939453	723.336975	1724.937866	795.410645	7.195847
779.252869	727.275085	1748.120117	797.193848	6.849106
779.566223	713.306152	1738.460815	794.518982	7.922008
779.879578	715.981018	1747.674194	784.116638	6.604253
780.192749	706.990417	1735.339966	781.887512	7.283233
780.505920	715.237976	1736.974609	773.639954	5.715952
780.819031	717.467102	1717.804565	777.875183	6.038770
781.132141	728.463867	1699.823242	779.435547	5.247458
781.445190	731.138855	1692.096069	783.522217	5.451165
781.758118	730.321472	1681.470581	783.299316	5.569878
782.071045	722.742615	1675.303345	779.881348	5.998435
782.383911	717.838623	1659.328491	779.361328	6.534612
782.696838	711.968689	1657.247925	781.218811	7.325891
783.009583	716.055359	1649.520508	776.686340	6.495259
783.322266	721.850891	1646.696899	776.686340	5.929144
783.634888	724.897400	1633.545410	769.181824	4.873661
783.947510	720.364929	1621.211060	774.680176	6.029359
784.260132	715.089355	1600.629272	768.810242	6.066456
784.572571	718.432922	1601.743774	773.714172	6.258414
784.885010	723.336975	1600.183594	771.930969	5.541903
785.197449	726.011902	1610.511597	783.447937	6.493618
785.509766	718.284424	1599.068848	781.887512	7.221187
785.822083	720.513489	1599.366211	777.503723	6.484617
786.134277	715.683838	1589.929688	768.661621	6.059827
786.446533	727.423645	1581.533569	767.992920	4.749889
786.758606	726.531982	1584.951294	767.324219	4.752017
787.070740	735.522644	1586.140137	773.045593	4.411260
787.382690	734.853943	1592.307251	772.376770	4.376078
787.694641	734.853821	1601.743774	767.101318	3.719907
788.006653	730.692932	1614.598145	768.810242	4.312375
788.318481	733.739319	1649.520508	768.215820	3.764709
788.630310	733.293518	1668.318970	778.989746	4.887164
788.942017	732.699158	1689.272461	777.875183	4.722693
789.253784	727.572266	1691.352905	777.875183	5.219333
789.565430	725.491760	1691.129883	773.268372	4.947672
789.877014	718.284424	1683.699707	763.386230	4.671752
790.188538	711.968750	1675.823608	761.900085	5.180379
790.500061	709.665344	1652.715454	757.590515	5.081933
790.811462	714.049133	1637.186157	772.674011	6.350615
791.122925	717.095520	1612.740601	777.206482	6.711471
791.434204	716.501160	1589.186523	778.469543	7.100885
791.745483	717.467041	1560.282837	758.482117	4.866434
792.056702	709.293762	1540.741211	747.633972	4.611261
792.367920	707.956360	1526.549438	753.652527	5.582281
792.678955	707.362000	1510.500000	765.689453	7.262445
792.990112	717.838623	1504.778809	764.426453	5.920124
793.301086	724.080078	1498.091431	757.590515	4.329450
793.612122	728.092285	1498.537109	753.652527	3.317595
793.922974	732.104675	1485.459961	758.853699	3.550652
794.233826	734.185242	1476.617798	762.048767	3.753004
794.544556	730.841553	1483.082397	760.785645	3.980652
794.855286	723.188416	1489.323730	760.711243	4.897676
795.166016	721.479431	1502.029663	762.271667	5.226087
795.476624	721.553711	1505.521851	761.677185	5.117998
795.787292	726.011902	1507.379272	763.014648	4.735640
796.097778	728.835388	1502.921265	761.082764	4.165865
796.408264	724.080017	1508.865356	763.534729	5.027453
796.718689	719.027405	1520.233765	763.163269	5.508676
797.029053	717.838562	1538.437866	764.352051	5.668234
797.339355	724.377258	1545.199341	760.859863	4.444642
797.649658	733.590820	1543.118774	755.287109	2.680116
797.959839	730.544373	1532.270874	754.172607	2.947169
798.270020	731.436035	1511.465942	756.624573	3.229176
798.580078	732.253235	1497.571289	755.435791	3.029140
798.890137	736.117004	1478.921265	753.875488	2.390735
799.200195	731.138733	1476.320679	754.172668	3.091048
799.510071	721.553711	1467.181641	762.123047	5.440962
799.820007	718.655945	1469.262085	752.983704	4.573339
800.129883	719.101746	1453.286987	751.572021	4.422627
800.439575	725.789001	1461.460327	750.977722	3.423909
800.749329	722.593994	1453.361328	752.092224	4.036611
801.058960	726.383362	1445.485229	755.361511	4.029770
801.368591	716.649719	1428.321289	751.646301	4.917519
801.678162	719.919128	1417.324341	748.971375	4.165763
801.987671	721.182190	1411.380249	741.615417	2.960488
802.297119	726.680603	1406.030273	744.216003	2.581204
802.606506	732.996277	1406.699219	748.451355	2.294049
802.915894	728.835388	1403.504028	743.844482	2.224662
803.225159	721.256531	1397.782715	753.132324	4.711687
803.534424	718.730225	1382.996582	750.606140	4.798665
803.843628	721.627991	1379.504272	755.732910	5.184093
804.152771	727.869446	1379.727173	738.569031	1.641399
804.461792	724.005676	1395.479370	743.621582	2.921322
804.770874	722.073792	1393.027344	744.661865	3.366563
805.079773	723.782898	1390.575562	752.463684	4.301305
805.388733	719.250305	1390.723999	752.092102	4.891003
805.697571	722.445313	1402.686890	758.705078	5.330425
806.006470	717.838562	1409.299805	758.259277	5.845695
806.315125	719.473206	1406.179077	762.345947	6.243247
806.623901	717.615662	1416.284180	750.754700	4.743170
806.932495	717.169861	1427.875366	745.850769	4.035554
807.241150	717.467102	1421.485352	736.934387	2.765168
807.549622	713.974915	1416.655640	751.423401	5.329374
807.858154	718.730225	1398.897339	753.726807	5.145292
808.166565	724.005676	1405.361694	757.441956	4.907314
808.474915	728.315247	1388.866577	746.890930	2.812148
808.783264	724.005676	1386.042969	746.147949	3.344566
809.091492	720.067688	1370.736694	750.754700	4.716225
809.399719	719.770447	1370.067871	754.915710	5.404490
809.707825	729.281250	1355.578735	748.451355	3.060863
810.015930	730.915833	1344.730591	747.708313	2.735757
810.323975	729.727051	1342.427246	742.209900	2.037350
810.632080	725.789001	1339.975220	745.404968	3.193814
810.939880	720.810730	1339.009277	742.507080	3.509609
811.247864	727.572266	1327.640991	740.129395	2.092615
811.555664	724.525879	1315.604004	738.346008	2.338122
811.863464	724.748718	1313.969360	742.952881	3.089532
812.171143	717.615723	1302.675293	745.181946	4.711695
812.478882	724.451477	1307.727905	748.079773	4.050960
812.786438	732.104675	1308.693726	744.067383	2.074737
813.094055	733.962219	1309.659668	745.404785	1.987601
813.401489	731.138855	1300.074585	745.553467	2.533610
813.708984	722.816895	1296.285278	742.507141	3.433537
814.016357	723.039856	1291.678589	740.055176	2.992290
814.323730	718.433105	1296.879761	744.959045	4.585719
814.630981	710.928467	1289.523804	741.020996	5.200963
814.938232	706.990417	1285.362915	735.968445	5.010271
815.245361	703.944031	1275.257690	726.011902	3.862654
815.552490	718.507324	1277.115234	733.665039	2.713480
815.859619	718.581604	1277.115112	741.689758	4.137290
816.166565	722.445313	1284.396851	743.547363	3.755137
816.473572	719.324646	1278.749756	740.129395	3.718951
816.780457	719.398926	1277.040894	734.110840	2.638237
817.087341	722.222412	1274.217407	731.510315	1.682606
817.394043	723.262634	1283.876709	734.853943	2.067609
817.700806	728.463867	1301.486450	738.197571	1.698660
818.007507	725.714661	1312.706177	743.398743	3.012664
818.314209	725.343201	1322.662720	739.980774	2.450543
818.620667	722.519714	1322.959961	738.346191	2.635812
818.927246	724.005676	1335.739868	744.513367	3.352386
819.233704	725.714661	1350.674927	749.194336	3.756987
819.540161	722.148193	1381.436157	752.240723	4.564398
819.846497	714.049133	1418.290405	753.875427	5.655206
820.152832	706.395996	1472.382813	756.401672	6.528268
820.458984	712.414551	1534.945679	763.609070	6.224022
820.765259	719.993408	1598.251587	759.671082	4.517769
821.071350	722.073914	1686.300171	767.992920	4.762265
821.377502	715.386658	1843.450562	766.135437	4.498750
821.683472	714.346375	2149.652100	772.971191	4.084483
821.989441	724.302917	2670.811279	780.475769	2.885826
822.295349	729.206848	3390.953125	794.816223	2.464900
822.601196	726.531982	4195.577637	817.850037	2.632368
822.907043	720.364807	4861.329590	829.738464	2.641260
823.212769	718.730164	5260.409668	840.140808	2.673254
823.518494	725.937500	5311.455566	839.323547	2.472699
823.824097	722.148132	5085.352539	832.933533	2.539083
824.129700	714.346375	4702.544922	824.165771	2.753609
824.435242	710.185364	4325.532715	816.215332	2.932774
824.740723	714.272156	3991.468018	810.791321	2.945175
825.046082	722.073914	3680.734131	803.361023	2.747430
825.351501	719.844727	3351.572998	790.729675	2.693475
825.656799	718.804504	3037.123779	779.658508	2.624919
825.962036	717.169861	2759.380127	772.302490	2.699655
826.267212	722.816895	2545.388428	767.398499	2.446083
826.572449	720.216309	2433.191162	761.008484	2.381365
826.877502	727.943787	2439.952881	761.974426	1.987761
827.182495	720.439209	2545.759766	767.770020	2.593014
827.487488	728.018066	2683.888428	769.850525	2.138815
827.792419	719.993347	2787.986572	770.221985	2.428859
828.097290	727.275085	2820.531250	758.927979	1.512137
828.402100	726.606262	2763.169678	759.448059	1.612609
828.706848	726.086182	2629.721924	757.962097	1.674476
829.011597	720.216309	2459.940186	766.209717	2.643719
829.316223	715.163757	2284.883057	764.797913	3.161977
829.620789	717.987122	2132.265381	761.528564	3.078704
829.925354	722.668274	1994.805054	753.949707	2.458968
830.229797	722.668274	1872.874390	750.977539	2.461234
830.534302	718.061523	1757.853882	746.519348	2.736876
830.838562	717.615662	1640.604126	740.872375	2.519719
831.142944	714.866394	1533.682495	742.135559	3.330316
831.447144	718.655823	1454.698608	741.541199	3.109245
831.751404	723.114075	1405.138672	744.513245	3.137595
832.055542	729.058350	1376.309204	735.596924	1.010207
832.359619	729.727051	1351.046387	728.612488	-0.179386
832.663635	726.977844	1359.516846	723.931458	-0.481612
832.967651	725.937683	1400.680664	725.491882	-0.066070
833.271545	723.559875	1477.212280	732.179016	1.143649
833.575439	720.216309	1582.796509	738.049011	2.067368
833.879211	717.467041	1702.869751	738.717590	2.156534
834.183044	721.330811	1836.911743	749.417236	2.517650
834.486694	723.559875	1926.372437	745.256287	1.803807
834.790344	728.315247	1960.922974	753.355286	2.031469
835.093933	720.810730	1931.796387	745.033386	2.000243
835.397522	716.649719	1878.818481	746.147949	2.538206
835.700928	712.637390	1804.070190	740.500916	2.552931
836.004395	718.581543	1737.049194	743.398743	2.436719
836.307739	721.627991	1668.616211	747.485352	2.730484
836.611023	722.073914	1614.449585	748.525574	2.964184
836.914307	720.736328	1539.626587	751.051941	3.702036
837.217529	726.903503	1463.689331	749.565857	3.075840
837.520691	729.949890	1395.776733	747.559753	2.644811
837.823730	729.355469	1332.470703	741.466858	2.008138
838.126831	719.101807	1281.721924	744.290344	4.477006
838.429749	716.649719	1232.384888	747.113953	5.906953
838.732727	720.142029	1209.871216	748.228333	5.735068
839.035522	721.479492	1189.437988	739.757874	3.905983
839.338379	719.250305	1181.487671	739.089172	4.291922
839.641113	715.683777	1185.574219	740.203796	5.218242
839.943848	721.850891	1207.345093	747.708313	5.326000
840.246460	725.640381	1238.923462	739.609192	2.721463
840.549072	725.491699	1259.653931	733.219238	1.446665
840.851563	716.426819	1268.570313	729.429871	2.355013
841.154053	713.231750	1260.471313	733.590820	3.720321
841.456482	723.708496	1244.570679	735.299744	2.225396
841.758850	728.686768	1226.217773	728.612488	-0.014930
842.061157	731.956116	1207.790649	733.144958	0.249844
842.363403	719.621887	1186.614380	735.002502	3.293547
842.665588	720.364929	1164.026489	739.089172	4.220389
842.967712	721.330811	1145.450806	738.271790	3.994384
843.269775	726.829285	1130.070190	739.014893	3.021918
843.571777	731.435974	1109.191040	745.776367	3.796215
843.873840	733.070618	1085.191284	744.810486	3.334047
844.175659	730.692932	1064.683716	734.779602	1.223588
844.477600	725.343201	1049.228638	729.949951	1.422339
844.779297	726.532043	1037.860474	732.401917	1.885428
845.081116	728.166687	1025.823364	735.968445	2.621059
845.382751	733.070618	1010.368408	736.191406	1.125429
845.684387	725.789063	1005.018555	731.881836	2.181995
845.985962	719.324707	995.582092	730.395752	4.007511
846.287537	711.745789	993.501648	722.816895	3.929326
846.588989	714.569275	986.888733	714.420715	-0.054553
846.890381	725.789001	986.368652	713.157532	-4.847451
847.191711	732.550537	983.842285	727.126465	-2.158476
847.493042	726.829285	982.281982	733.739441	2.705063
847.794250	727.349365	975.594727	744.067444	6.734498
848.095459	727.646545	973.365723	738.123230	4.263682
848.396606	733.813721	961.997314	745.330566	5.047184
848.697693	728.166687	964.746582	735.448425	3.077919
848.998657	722.668274	960.659973	728.315247	2.372760
849.299622	721.925293	962.666077	724.823059	1.203687
849.600464	717.541321	955.904480	723.485596	2.493789
849.901367	717.987122	957.316223	736.191223	7.606305
850.202087	719.547546	958.876648	737.528809	7.513195
850.502808	723.262695	960.882813	740.426575	7.223243
850.803467	723.782776	964.152039	731.658936	3.276692
851.104065	718.507324	967.049866	728.315369	3.946223
851.404663	723.114075	968.833191	730.024231	2.812218
851.705139	729.727051	960.585510	732.104736	1.029932
852.005615	733.665039	949.440125	731.956116	-0.791993
852.306030	723.262695	946.022217	731.956116	3.902603
852.606384	718.655945	939.632141	730.915833	5.548058
852.906616	713.751953	935.471191	734.110840	9.182282
853.206909	718.655945	935.396973	735.745605	7.884830
853.506958	714.643555	935.917053	731.361633	7.555391
853.807129	720.810730	940.746765	725.417480	2.094587
854.107178	726.383484	938.740540	729.132568	1.294558
854.407166	722.073792	946.988098	732.179016	4.492922
854.707092	717.541321	943.867493	730.767273	5.843757
855.007019	710.408264	943.124512	721.999512	4.980850
855.306763	711.151367	945.353577	723.039795	5.076138
855.606567	709.516785	951.149170	722.668274	5.442768
855.906250	717.912903	945.799316	726.234802	3.651775
856.205933	721.107910	937.774658	718.953125	-0.994516
856.505493	730.321472	930.270020	721.182190	-4.570817
856.805054	729.281250	933.985168	722.742493	-3.194251
857.104492	731.881836	932.722107	733.887939	0.998855
857.403931	730.915833	938.740540	734.705322	1.823407
857.703308	731.064453	938.369080	734.333801	1.577074
858.002563	730.841614	934.802490	736.860107	2.950808
858.301819	727.572266	931.830383	735.374023	3.819558
858.601013	719.621887	930.790222	732.253357	5.981706
858.900208	717.987244	945.353516	725.194641	3.169950
859.199219	717.392761	945.204895	722.073914	2.054830
859.498291	716.352539	946.245117	727.795227	4.977407
859.797302	720.216309	941.192566	728.315247	3.665071
860.096191	723.262695	934.579590	735.002502	5.555546
860.395020	725.491699	933.465088	726.532043	0.500229
860.693787	725.045898	925.440430	721.182190	-1.928051
860.992554	721.850891	926.554932	714.346375	-3.666033
861.291260	721.702332	916.969910	718.953125	-1.407918
861.589844	724.451599	911.768738	726.086182	0.872628
861.888428	722.073792	912.214539	737.008606	7.854610
862.186890	723.931396	917.044189	734.408020	5.425132
862.485413	716.501160	920.907898	735.374023	9.232995
862.783813	712.637390	921.279480	731.213074	8.903133
863.082153	706.395996	922.988342	735.151184	13.276179
863.380371	704.166809	918.307312	726.680664	10.513590
863.678589	716.798340	914.443604	720.216309	1.729345
863.976746	725.566101	915.260986	720.884949	-2.467727
864.274902	733.367859	925.068909	724.451477	-4.651191
864.572937	728.984070	930.492981	733.516418	2.249205
864.870911	727.349304	929.155518	735.151062	3.865965
865.168884	732.030457	931.236023	737.751648	2.872004
865.466736	729.281250	931.384521	733.442200	2.058824
865.764587	730.767273	936.511475	726.903503	-1.877948
866.062317	722.816895	940.375183	730.915833	3.722652
866.360107	727.646545	943.124451	727.869446	0.103445
866.657715	727.200684	938.517761	728.092346	0.421955
866.955322	730.544373	935.322693	722.222473	-4.063858
867.252808	725.566101	931.087402	722.222473	-1.626901
867.550293	721.628113	933.242188	718.210144	-1.615190
867.847717	720.216309	920.239197	715.980957	-2.117434
868.145081	717.838623	915.706726	715.609436	-1.126603
868.442383	717.912903	918.753113	724.674377	3.366594
868.739624	714.272034	922.914124	723.188416	4.273530
869.036804	721.330872	934.505371	726.086243	2.230741
869.333984	724.823059	929.898621	725.045898	0.108662
869.631042	731.510254	931.236023	724.525879	-3.496982
869.928101	733.442139	921.873840	724.302917	-4.850151
870.224976	725.194519	927.149231	721.999512	-1.582042
870.521851	723.262695	933.093567	732.179016	4.249290
870.818726	714.940735	940.598145	727.795166	5.696436
871.115479	720.513489	929.898621	727.646667	3.406726
871.412231	715.163757	931.904785	726.457764	5.210830
871.708862	716.649719	931.830383	729.949890	6.180932
872.005493	715.015076	938.443359	729.206848	6.351824
872.302063	717.987122	936.437195	723.485596	2.517039
872.598572	721.850891	937.625977	726.606262	2.203856
872.895020	725.640320	940.598145	724.377197	-0.587614
873.191406	725.491760	944.090393	725.640381	0.067988
873.487671	719.250305	950.108948	718.210144	-0.450562
873.783997	718.135925	961.625793	728.463867	4.241631
874.080200	719.696228	960.585632	726.457703	2.806879
874.376343	725.045959	960.659912	733.962219	3.784266
874.672424	718.655945	950.257507	731.733215	5.646452
874.968445	718.135803	940.598145	733.739441	7.014058
875.264465	709.591003	931.087402	732.327637	10.265013
875.560364	709.516785	933.242188	724.822998	6.841518
875.856201	717.244141	943.050110	719.919006	1.184586
876.152039	728.538147	950.480469	713.826233	-6.628711
876.447754	731.435974	947.285400	717.987122	-6.230664
876.743469	725.194519	949.885925	718.730286	-2.876938
877.039063	715.460938	943.124451	715.312317	-0.065281
877.334595	720.959290	944.981995	715.758118	-2.321716
877.630127	714.049133	943.347351	714.940857	0.388893
877.925537	718.210144	956.350342	726.903503	3.650522
878.221008	708.922302	962.740295	724.154297	6.001149
878.516296	709.293762	968.238708	728.241028	7.317102
878.811646	709.591003	972.473938	727.646667	6.868329
879.106812	716.724060	987.185974	728.315247	4.285700
879.401978	722.148132	1004.870056	726.086243	1.392927
879.697083	725.640381	1016.461243	721.256531	-1.507406
879.992126	724.451477	1036.374390	720.662109	-1.214841
880.287109	728.018066	1075.680542	722.296692	-1.645669
880.582031	733.367859	1147.085449	718.284363	-3.645844
880.876892	734.333740	1265.895508	714.494934	-3.732173
881.171753	736.265625	1462.426147	722.371094	-1.913424
881.466492	731.138855	1772.193970	731.287415	0.014270
881.761230	730.692932	2149.874756	741.987000	0.795815
882.055786	728.240906	2521.834229	745.999329	0.990103
882.350403	720.141907	2771.268555	746.222168	1.271509
882.644958	720.513428	2876.406982	744.216064	1.099434
882.939453	713.528992	2836.060547	739.163513	1.207733
883.233826	717.615662	2727.801514	734.036621	0.816888
883.528137	709.665222	2578.601563	729.355530	1.053557
883.822449	708.476379	2450.652344	728.241028	1.134481
884.116577	709.293762	2329.761963	736.117004	1.655277
884.410828	714.569336	2210.654785	744.067383	1.971682
884.704956	720.513489	2058.854248	740.426575	1.487893
884.999023	723.262695	1881.567871	735.596985	1.064857
885.292969	721.925293	1695.959595	734.036621	1.243419
885.586914	721.182312	1534.871460	740.426575	2.365063
885.880798	724.451599	1404.321411	741.020996	2.437143
886.174622	728.018066	1314.638062	735.002441	1.190613
886.468384	726.086182	1255.270142	731.361633	0.996903
886.762085	717.615723	1217.450073	733.144958	3.106876
887.055664	716.352539	1175.617676	727.943665	2.523842
887.349304	716.946960	1134.082397	721.776611	1.157814
887.642822	713.974792	1091.655640	719.547546	1.475519
887.936340	710.705505	1072.336914	726.606262	4.396951
888.229736	708.625000	1062.900513	730.692932	6.229031
888.523071	712.488770	1054.801392	728.092346	4.558282
888.816284	718.210022	1041.501221	719.547607	0.413740
889.109619	728.018066	1020.473572	712.711731	-5.233731
889.402710	729.727051	1007.322021	707.436218	-8.029984
889.695862	734.185242	993.501709	711.894348	-8.596020
889.988892	727.498047	978.195374	709.888184	-7.024352
890.281921	723.114136	961.403015	703.943970	-8.044927
>>>>>End Processed Spectral Data<<<<<
