Jaz Data File
++++++++++++++++++++++++++++++++++++
Date: Fri Jun 04 16:52:53 2021
User: jaz
Dark Spectrum Present: Yes
Reference Spectrum Present: Yes
Processed Spectrum Present: Yes
Spectrometers: JAZA3586
Integration Time (usec): 24600 (JAZA3586)
Spectra Averaged: 10 (JAZA3586)
Boxcar Smoothing: 1 (JAZA3586)
Correct for Electrical Dark: No (JAZA3586)
Strobe/Lamp Enabled: Yes (JAZA3586)
Correct for Detector Non-linearity: No (JAZA3586)
Correct for Stray Light: No (JAZA3586)
Number of Pixels in Processed Spectrum: 2048
>>>>>Begin Processed Spectral Data<<<<<
W	D	R	S	P
191.335022	0.000000	0.000000	0.000000	0.000000
191.713211	227.812149	233.756348	231.824509	67.500427
192.091385	455.401367	470.633423	465.729492	67.805191
192.469528	695.027649	713.083191	706.173096	61.728676
192.847641	705.281433	715.386536	715.312317	99.265533
193.225739	723.634216	724.748718	730.395813	606.692200
193.603790	731.584534	727.275085	733.665100	-48.279182
193.981842	739.757813	742.507080	736.562988	-116.206375
194.359863	740.649475	740.798096	731.733215	-5999.342773
194.737854	744.141785	746.890930	736.785828	-267.572479
195.115829	742.284241	741.243958	731.435974	1042.818604
195.493774	742.655762	746.445129	728.389587	-376.479034
195.871704	739.609314	740.055176	723.782776	-3549.650879
196.249603	745.256348	746.222229	732.104736	-1361.617676
196.627457	745.702148	748.674133	741.838379	-130.006363
197.005310	744.439026	752.835144	749.863098	64.602142
197.383133	741.689758	753.875427	754.395569	104.268471
197.760910	735.076843	761.602844	757.813477	85.714516
198.138687	738.049011	765.838196	753.578186	55.882080
198.516449	736.191345	752.983826	754.618469	109.734375
198.894180	749.788757	743.398743	748.005554	27.906088
199.271866	750.085999	743.472961	746.519531	53.930851
199.649536	751.274902	751.497742	745.553528	-2567.488281
200.027191	749.342957	753.132385	747.113770	-58.826466
200.404816	752.760925	750.457520	747.931152	209.679642
200.782410	750.308899	760.265381	743.398743	-69.403595
201.159988	742.952881	773.119812	743.250183	0.985524
201.537537	735.671204	777.206482	737.900208	5.366532
201.915070	735.151184	784.116699	740.203674	10.318466
202.292557	731.064453	777.578064	731.584534	1.118126
202.670029	735.522644	780.772949	735.002502	-1.149476
203.047485	736.042786	774.234375	729.281250	-17.704252
203.424911	739.832214	775.571777	731.807556	-22.453152
203.802292	732.030457	776.686340	731.361755	-1.497454
204.179688	728.686768	769.924805	727.646545	-2.522482
204.557037	725.566101	758.184998	726.086243	1.594602
204.934357	724.451477	759.225281	731.881836	21.367691
205.311661	722.816895	760.116882	741.021057	48.804741
205.688934	724.377258	763.163269	740.203674	40.804443
206.066177	725.120300	758.036377	736.488586	34.537186
206.443390	730.544434	759.002258	731.510315	3.394080
206.820587	728.761169	761.825745	735.076904	19.101213
207.197769	722.965515	764.203430	731.584656	20.901011
207.574921	721.553711	757.813477	736.191406	40.368973
207.952042	718.210144	756.847473	732.401917	36.730728
208.329147	721.330811	761.602844	734.631042	33.025974
208.706223	727.126465	778.543884	736.711487	18.641584
209.083267	733.813721	777.875183	746.965271	29.848192
209.460297	745.404968	764.426453	744.513245	-4.687981
209.837280	734.853943	752.686523	737.083008	12.499957
210.214264	733.219238	755.510071	734.928223	7.666759
210.591217	719.547546	763.460449	736.860107	39.424770
210.968124	720.513489	763.831970	740.798096	46.826679
211.345016	714.123474	763.906250	734.110901	40.149281
211.721893	713.677551	762.123047	728.240967	30.061443
212.098724	713.528992	764.723633	727.349304	26.995623
212.475555	717.764221	758.482239	733.739441	39.233784
212.852356	718.507324	753.875427	734.705322	45.798325
213.229126	714.420593	755.435730	735.299744	50.905964
213.605865	713.900574	759.076599	734.705322	46.052631
213.982590	721.553711	764.352051	739.460693	41.840366
214.359283	731.733215	758.630676	736.488586	17.679628
214.735931	737.900330	759.002258	731.956055	-28.169344
215.112579	735.299744	759.448059	729.727051	-23.076942
215.489197	728.909668	757.664856	729.727051	2.842558
215.865799	715.906738	747.559631	724.302979	26.525980
216.242355	709.516663	740.129395	725.789001	53.155460
216.618896	705.950134	738.866211	723.708496	53.950420
216.995407	700.154541	745.776367	726.309082	57.329010
217.371902	698.594238	745.479187	726.531921	59.587742
217.748367	703.200989	746.445129	723.708496	47.422626
218.124802	713.008850	748.302734	729.281189	46.105267
218.501236	716.426819	754.915588	724.005676	19.691088
218.877609	716.724060	761.825745	730.098450	29.653858
219.253983	721.553711	768.141541	724.302917	5.901126
219.630295	725.863220	773.416992	729.058289	6.718853
220.006592	727.423584	768.810242	728.835388	3.411254
220.382889	724.897278	761.231445	733.739441	24.335670
220.759140	723.634094	762.048767	736.414246	33.268932
221.135391	721.999512	764.946533	736.117004	32.871880
221.511581	719.250305	757.962097	735.819824	42.802254
221.887772	714.792175	749.342957	735.225403	59.139698
222.263931	707.287598	745.404846	737.380188	78.947433
222.640060	707.436218	755.881592	743.324402	74.079689
223.016159	711.968689	757.219055	743.547363	69.786560
223.392212	718.953125	762.866028	736.785828	40.609257
223.768265	726.829163	756.030212	734.408020	25.954058
224.144302	725.714661	758.853699	726.680603	2.914817
224.520294	732.104675	760.191162	728.909668	-11.375604
224.896286	724.080078	766.061035	728.018066	9.380416
225.272217	725.417480	767.101318	732.847839	17.825516
225.648148	720.513489	765.020813	734.408020	31.218527
226.024048	723.931396	771.633789	721.925293	-4.205457
226.399902	724.005676	766.358215	719.398926	-10.877153
226.775772	721.033630	769.033203	719.993347	-2.167276
227.151581	722.965515	763.534729	729.727051	16.666666
227.527374	724.674500	762.717468	733.739319	23.827845
227.903137	724.302979	759.745361	739.534973	42.976780
228.278870	721.776672	766.135437	736.117004	32.328068
228.654572	716.946960	772.153992	735.819824	34.185616
229.030273	719.027405	773.119812	723.039734	7.417546
229.405930	718.730164	768.215820	720.959290	4.504590
229.781555	712.637390	773.045471	722.148132	15.744156
230.157181	708.699402	778.469666	726.160461	25.026506
230.532761	705.429993	778.618164	729.206848	32.487293
230.908325	713.900574	770.073425	727.646484	24.470737
231.283859	718.284424	765.763855	727.795105	20.031160
231.659332	720.885010	767.398499	733.590759	27.316269
232.034821	718.432922	766.283997	734.482422	33.540520
232.410263	717.095520	760.042664	737.083008	46.539738
232.785690	724.377197	762.791809	726.086182	4.448787
233.161087	725.789001	770.965088	722.445313	-7.401458
233.536469	723.411316	775.125977	725.417480	3.879296
233.911804	717.318420	764.054871	724.525818	15.421363
234.287140	717.764343	755.658691	726.086182	21.960632
234.662430	718.655945	761.602844	714.569275	-9.515635
235.037704	714.346375	766.729797	720.067688	10.921992
235.412933	710.779785	777.206543	719.473206	13.087227
235.788162	711.299988	767.101318	730.098572	33.688416
236.163345	718.581726	767.621399	734.928223	33.333210
236.538513	722.371094	756.773193	738.123230	45.788300
236.913635	728.463867	759.448059	733.145020	15.108195
237.288742	724.674500	762.717468	732.030457	19.335917
237.663834	728.612549	767.844299	728.909729	0.757499
238.038879	728.389648	769.627625	732.179016	9.189024
238.413910	733.219238	771.633789	729.281189	-10.251452
238.788910	730.247070	770.370605	734.036560	9.444556
239.163879	721.925232	776.834961	732.624817	19.485773
239.538834	719.919006	779.658508	738.494690	31.094473
239.913757	715.386536	777.578064	734.333740	30.465893
240.288651	724.005676	777.503662	732.401855	15.694384
240.663528	716.946960	767.472839	733.665039	33.088150
241.038361	717.318420	772.674011	731.361633	25.369097
241.413177	712.117188	772.674011	733.293518	34.969357
241.787979	715.460876	777.652344	727.423645	19.235386
242.162735	724.748718	775.868958	731.361755	12.936240
242.537476	723.485596	767.324219	732.550537	20.677979
242.912170	726.903564	772.674011	735.225403	18.181684
243.286865	717.615723	778.618225	737.305908	32.277668
243.661514	722.222473	795.039063	734.928223	17.448977
244.036148	727.275085	798.308411	736.562805	13.075158
244.410751	724.971680	802.320801	735.894226	14.121099
244.785339	716.798340	791.323975	736.265686	26.121677
245.159882	710.705505	785.676941	730.395752	26.263664
245.534378	718.433044	780.624329	729.727051	18.160110
245.908890	725.417480	791.769836	728.166687	4.143344
246.283356	724.748718	791.769836	739.906494	22.616417
246.657791	712.860291	796.227966	738.346191	30.570482
247.032196	712.042969	794.518982	736.562805	29.729658
247.406586	710.556946	803.955383	736.191406	27.446348
247.780960	717.987244	811.088562	739.980774	23.623220
248.155289	720.810730	816.661194	744.364746	24.573711
248.529602	720.885071	813.020447	733.888000	14.112852
248.903870	724.600159	798.605652	730.693054	8.233031
249.278122	727.572205	786.494324	727.349304	-0.378297
249.652344	734.185120	787.831787	729.726990	-8.310171
250.026550	732.624756	794.890442	724.600098	-12.887770
250.400711	728.463867	803.435364	728.909668	0.594627
250.774857	722.668274	797.788330	723.931396	1.681472
251.148987	726.754883	800.240295	733.813721	9.605767
251.523071	720.513489	798.382813	735.299744	18.988550
251.897125	717.541321	803.732605	737.974609	23.706907
252.271164	715.460938	803.658203	733.962341	20.977299
252.645187	718.358704	800.834717	730.172852	14.324344
253.019165	718.878845	801.800598	730.767273	14.336923
253.393112	715.386536	806.184509	736.191406	22.913364
253.767044	712.265869	811.014160	736.488586	24.529758
254.140930	713.231750	811.905762	738.791992	25.903723
254.514801	708.699402	804.475586	724.600159	16.601995
254.888657	707.436218	806.481750	732.624817	25.431332
255.262466	707.584778	808.190674	727.052063	19.350044
255.636276	714.569336	814.209167	738.197510	23.713583
256.010010	725.045959	819.707520	730.618652	5.886965
256.383759	726.977783	818.147278	732.847717	6.438485
256.757446	725.268860	815.695251	733.962219	9.613741
257.131134	726.457703	807.967834	733.813660	9.024592
257.504791	732.922058	807.744873	739.609314	8.937455
257.878418	729.727051	818.221619	731.436035	1.931174
258.252014	721.033630	830.630127	731.361755	9.423773
258.625580	713.083191	857.527771	724.674500	8.024745
258.999115	723.336975	870.010559	734.853821	7.852025
259.372650	727.572266	890.369446	731.064453	2.145115
259.746124	730.915833	907.979309	737.751770	3.860727
260.119598	730.172852	925.589050	729.132629	-0.532311
260.493042	724.674377	937.700378	730.395752	2.685763
260.866425	719.547546	929.527039	724.005676	2.123126
261.239838	716.798340	920.462097	722.222412	2.663249
261.613159	716.575439	903.892578	727.349365	5.751703
261.986511	723.782776	898.617004	724.897278	0.637462
262.359802	720.587830	898.171204	724.971680	2.468615
262.733063	726.457703	888.586243	725.120300	-0.824902
263.106293	723.336975	890.815369	730.321472	4.170387
263.479523	724.080078	880.413025	728.315247	2.709070
263.852692	720.216309	882.121887	734.779602	8.994930
264.225861	717.021301	872.165344	735.596985	11.973186
264.598969	716.798340	875.731934	736.042786	12.108482
264.972076	717.318420	881.378906	727.200684	6.023549
265.345154	720.884949	885.539795	736.562927	9.521723
265.718201	720.290527	884.425293	741.541199	12.947087
266.091217	722.296692	894.679016	742.878662	11.939722
266.464203	723.782898	904.189880	727.497864	2.059214
266.837158	725.640381	917.192871	735.225403	5.003862
267.210114	720.662109	921.502380	735.448303	7.362166
267.583038	718.730164	932.944885	741.764160	10.752761
267.955902	725.789001	940.672424	735.225403	4.391405
268.328766	732.030457	944.313293	737.305908	2.485105
268.701569	735.448303	944.536133	741.764099	3.020643
269.074371	728.389587	953.898254	738.494812	4.481081
269.447144	730.098450	965.192383	740.649597	4.488056
269.819885	727.126465	967.793030	736.488586	3.890080
270.192596	719.844727	974.926086	738.494690	7.311378
270.565277	716.501160	986.888855	738.569031	8.161567
270.937927	712.488770	1007.470642	732.699158	6.851400
271.310577	719.919128	1027.829590	729.949951	3.257708
271.683136	716.129639	1046.999634	725.491760	2.829547
272.055725	719.324707	1070.330688	726.680664	2.095679
272.428284	714.866455	1080.287476	727.869446	3.558359
272.800812	714.272034	1081.104614	719.547546	1.438125
273.173279	706.841797	1075.829224	723.039795	4.389851
273.545776	706.990417	1074.714478	724.971680	4.889879
273.918152	706.544617	1070.925049	738.420410	8.747943
274.290558	719.324646	1062.974609	735.894104	4.821609
274.662964	722.668274	1060.076904	734.185242	3.413359
275.035278	724.674500	1062.231812	729.058350	1.298698
275.407593	720.736389	1069.587524	732.922058	3.493086
275.779907	722.519714	1082.070557	739.014832	4.587701
276.152161	725.714661	1096.633911	737.380188	3.145031
276.524384	719.547546	1100.348999	735.448303	4.175603
276.896606	716.278259	1099.308716	732.030457	4.112518
277.268799	713.008850	1101.612183	736.860107	6.137687
277.640930	718.730225	1120.262085	734.631042	3.960039
278.013031	721.405090	1126.280640	729.875671	2.092144
278.385162	727.423645	1124.051636	730.767273	0.843014
278.757233	720.290527	1112.088867	733.516418	3.375688
279.129272	720.885010	1121.451050	743.027161	5.527716
279.501282	714.940735	1126.503540	738.271790	5.668893
279.873230	721.405090	1142.181396	740.129395	4.449943
280.245178	721.627991	1153.772705	734.928223	3.077726
280.617126	732.922058	1182.527832	737.528809	1.024620
280.988983	735.819824	1211.357300	737.157288	0.281253
281.360870	737.083008	1240.558228	740.129395	0.605072
281.732697	730.024231	1264.335083	741.318298	2.113763
282.104492	731.881836	1286.031372	734.259460	0.429058
282.476288	725.120300	1307.802124	733.590820	1.453713
282.848053	727.572266	1337.597534	732.922058	0.876979
283.219757	718.358704	1344.433350	738.643372	3.239976
283.591461	728.240967	1338.712036	737.454590	1.509264
283.963135	723.857117	1319.319092	737.900330	2.358373
284.334747	733.442200	1323.703003	737.900330	0.755281
284.706360	726.234802	1343.616211	730.470032	0.685999
285.077942	718.655823	1375.789185	730.990234	1.877003
285.449524	711.968689	1407.739380	723.708496	1.687310
285.821014	713.380432	1428.395508	721.776611	1.174266
286.192535	727.349365	1448.234375	723.559875	-0.525672
286.563995	730.024231	1464.655273	727.052063	-0.404580
286.935425	731.584534	1477.732544	737.380188	0.776743
287.306824	727.423645	1477.583984	735.151123	1.030110
287.678223	721.999512	1468.593384	736.637207	1.960597
288.049561	723.708496	1459.082520	738.123291	1.960199
288.420898	724.600159	1445.708008	734.482422	1.370428
288.792145	725.714661	1431.813354	744.884766	2.714933
289.163452	725.268860	1439.689453	749.863098	3.442543
289.534668	724.005676	1458.933960	755.658691	4.306953
289.905914	731.807434	1497.497070	749.491516	2.309563
290.277039	730.470032	1524.617554	743.695984	1.665428
290.648193	727.275085	1567.267212	740.203796	1.539147
291.019318	723.931396	1603.675781	733.293640	1.064200
291.390381	724.823059	1622.845703	732.847717	0.893592
291.761475	731.584534	1625.372070	729.206970	-0.266010
292.132507	732.996399	1606.573364	731.361633	-0.187135
292.503510	726.457703	1592.604492	733.813660	0.849274
292.874481	727.052063	1575.737793	744.216003	2.022414
293.245422	719.844727	1582.053589	745.702148	2.998974
293.616364	719.324646	1606.647827	741.318298	2.478652
293.987213	713.083191	1643.724976	728.686768	1.676647
294.358093	717.689941	1684.962891	728.983948	1.167613
294.728943	724.228699	1731.848022	728.092346	0.383443
295.099731	726.531982	1778.807129	737.157227	1.009740
295.470490	727.646484	1814.398071	738.197510	0.970877
295.841248	726.680603	1831.562134	742.358582	1.418974
296.211975	727.497864	1847.537231	738.569092	0.988468
296.582642	731.807434	1883.351196	736.562927	0.412967
296.953308	724.822998	1932.688110	731.213074	0.529039
297.323883	720.885010	1981.281860	724.823059	0.312445
297.694519	716.129639	2010.185669	724.154358	0.620121
298.065063	721.479431	2014.866821	725.640381	0.321709
298.435608	728.389587	2000.229126	732.699158	0.338845
298.806122	725.194519	1953.790039	735.448303	0.834594
299.176575	720.959290	1911.065918	741.615479	1.735659
299.547028	708.699402	1871.239624	743.621643	3.003960
299.917450	714.494934	1845.308105	748.154114	2.976546
300.287872	721.553711	1829.927368	755.510071	3.063620
300.658234	731.584656	1815.289917	751.794922	1.864923
301.028564	724.971680	1811.871704	752.017822	2.488374
301.398865	719.027405	1805.036011	737.380188	1.689930
301.769135	715.386536	1811.723267	740.426697	2.283985
302.139374	715.460938	1829.333008	731.956116	1.480886
302.509583	714.643555	1839.735352	728.835388	1.261393
302.879791	717.392761	1835.500122	723.262695	0.524988
303.249939	720.290527	1818.336304	729.504089	0.839087
303.620087	723.039795	1810.757324	732.773438	0.894869
303.990173	716.872620	1802.658203	732.550598	1.443929
304.360260	723.336975	1796.862671	730.172852	0.636769
304.730286	726.903503	1796.342407	734.259521	0.687839
305.100281	727.349365	1810.311401	741.021057	1.262435
305.470276	719.919128	1833.419556	741.615479	1.948481
305.840179	715.535156	1838.694946	741.838379	2.341895
306.210144	717.912903	1843.301758	739.386414	1.908097
306.579987	721.479492	1844.936523	742.061340	1.832010
306.949890	718.730286	1864.552368	745.999329	2.379867
307.319702	725.268860	1883.351074	745.553528	1.751574
307.689484	724.451477	1908.985718	738.346191	1.173011
308.059265	728.538147	1936.923462	734.110901	0.461174
308.429016	722.445313	1974.520508	740.203796	1.418324
308.798737	725.120178	2012.340698	740.575195	1.200650
309.168396	727.423584	2054.693359	736.488586	0.682981
309.538055	730.841553	2085.157471	731.361633	0.038402
309.907684	726.903503	2120.525391	736.860046	0.714436
310.277313	725.120300	2145.788330	737.825989	0.894346
310.646851	726.903503	2160.723145	739.386292	0.870597
311.016388	725.640381	2176.103760	742.284180	1.147481
311.385895	722.668213	2179.967529	745.330627	1.555097
311.755371	726.680664	2209.985840	743.250183	1.117067
312.124817	723.039795	2198.543213	736.860107	0.936651
312.494232	731.807556	2200.920654	741.021057	0.627147
312.863617	725.268860	2176.920898	740.500977	1.049295
313.232971	727.943787	2170.531006	737.974609	0.695336
313.602295	721.256531	2157.825439	733.516418	0.853415
313.971619	718.581604	2158.642578	734.631042	1.114497
314.340820	718.953125	2167.038818	739.163513	1.395662
314.710083	730.618652	2188.735352	736.488586	0.402570
315.079285	730.544250	2212.958008	740.203674	0.651601
315.448486	737.751709	2256.350830	746.965271	0.606715
315.817596	725.417480	2253.155518	743.770203	1.201300
316.186707	731.881775	2239.186768	743.101501	0.744357
316.555786	724.005676	2196.165283	733.888000	0.671281
316.924866	723.931396	2165.849854	738.569092	1.015154
317.293884	717.615723	2137.986328	736.934387	1.360114
317.662872	720.885010	2133.454102	746.742371	1.830520
318.031830	725.194580	2139.621338	753.949707	2.032988
318.400757	725.120300	2152.549805	758.928040	2.368435
318.769684	723.039795	2168.004639	752.240723	2.020875
319.138550	721.776672	2195.868164	749.491516	1.880130
319.507416	732.550537	2220.759766	741.318298	0.589148
319.876190	730.618652	2229.601807	743.175781	0.837710
320.244995	733.070618	2225.738037	743.175781	0.676987
320.613770	720.959290	2201.589600	746.668030	1.736338
320.982483	719.324646	2194.531006	745.256348	1.757836
321.351166	711.448547	2178.184326	741.912659	2.077001
321.719818	720.959290	2177.441406	741.689758	1.423325
322.088440	726.086182	2167.633057	742.432800	1.133964
322.457062	722.891174	2195.422607	741.541199	1.266528
322.825623	715.386536	2224.326416	739.312073	1.585586
323.194183	718.210144	2265.861572	736.934387	1.209849
323.562653	729.058289	2304.796143	736.637207	0.480976
323.931183	727.572266	2363.272461	737.528809	0.608702
324.299591	722.965515	2415.061279	744.216064	1.255872
324.668060	722.073914	2481.636475	748.154114	1.482198
325.036407	722.965515	2527.184326	749.342957	1.461987
325.404755	719.398926	2564.187012	736.711426	0.938455
325.773102	716.203918	2558.614258	727.572266	0.617037
326.141388	714.569275	2571.097168	727.943787	0.720405
326.509674	717.689941	2575.927002	732.847717	0.815707
326.877899	719.621826	2592.793457	738.494812	1.007542
327.246124	719.324707	2599.480713	741.169617	1.161867
327.614288	718.730286	2601.338135	739.237793	1.089314
327.982422	716.798340	2592.644775	735.299744	0.986296
328.350525	713.008972	2571.691406	733.739441	1.115331
328.718628	709.293762	2549.623291	734.556702	1.372740
329.086700	707.733398	2543.159180	741.392578	1.833862
329.454712	712.934570	2553.561768	740.352356	1.489589
329.822693	715.535156	2574.589600	744.438965	1.554759
330.190674	721.553711	2598.589111	744.661865	1.231099
330.558563	719.919006	2604.830322	740.129395	1.072219
330.926483	728.538147	2623.257568	732.401855	0.203920
331.294312	725.268860	2641.907471	721.702332	-0.186082
331.662231	732.476257	2689.535400	724.897278	-0.387264
332.029999	728.240906	2738.723877	729.875671	0.081312
332.397766	729.578369	2785.088867	739.609192	0.487997
332.765503	730.247131	2825.806641	741.392578	0.531860
333.133240	729.801270	2875.069580	745.776367	0.744667
333.500916	727.869446	2931.836914	737.157288	0.421415
333.868561	726.977844	2969.731201	737.305847	0.460506
334.236176	726.606262	2979.836182	733.144958	0.290192
334.603790	728.835449	2976.195313	743.324402	0.644710
334.971344	716.946960	2976.864014	747.113831	1.334866
335.338867	714.420654	2983.254639	744.959167	1.346000
335.706360	714.420654	2985.037842	741.169617	1.178048
336.073853	722.371033	2984.888916	737.900391	0.686375
336.441284	724.005676	2986.746338	741.243958	0.761832
336.808655	718.953125	2983.105713	747.931213	1.279865
337.176086	720.141907	2943.353516	748.154114	1.259988
337.543396	721.256531	2877.892822	755.361511	1.581397
337.910706	720.810730	2811.391846	747.559631	1.279496
338.277954	723.411316	2826.401123	749.863037	1.257815
338.645264	718.210144	2888.444092	749.491516	1.441383
339.012421	724.897400	3024.566406	756.996094	1.395796
339.379669	721.627991	3144.936768	752.017883	1.254066
339.746796	726.532043	3270.657227	745.999329	0.765186
340.113953	720.959290	3336.712158	739.089172	0.693104
340.481018	715.683838	3368.291016	734.556702	0.711484
340.848114	715.386536	3358.037109	741.838379	1.000959
341.215118	720.662109	3339.833008	744.216064	0.899291
341.582153	724.377258	3353.356201	753.355286	1.102254
341.949066	722.816895	3378.544678	744.438965	0.814167
342.316010	724.971680	3415.696045	748.451355	0.872615
342.682922	736.637207	3437.615234	749.788757	0.486918
343.049835	744.290344	3440.141357	747.336731	0.113003
343.416656	741.020996	3481.379639	747.113831	0.222337
343.783478	732.773438	3527.967529	739.237793	0.231267
344.150269	735.225403	3643.434326	743.250183	0.275935
344.516998	730.321472	3749.760986	733.813721	0.115659
344.883728	728.315247	3853.933594	737.305969	0.287646
345.250427	724.377197	3931.654297	736.711426	0.384570
345.617065	729.875671	3971.331787	742.729980	0.396560
345.983704	733.887939	3978.687500	741.392578	0.231282
346.350281	725.566101	3960.186279	739.609314	0.434153
346.716827	718.507324	3918.576904	736.785828	0.571191
347.083405	703.944031	3888.929932	740.723816	1.154786
347.449860	708.625000	3838.626953	741.987000	1.065878
347.816376	711.299988	3789.661377	744.661926	1.083756
348.182770	714.717834	3742.479248	735.894226	0.699408
348.549194	714.123474	3723.383545	732.996338	0.627160
348.915558	716.872620	3742.999268	726.829285	0.329023
349.281921	722.296692	3774.281006	737.083008	0.484482
349.648193	719.919006	3814.032471	743.027161	0.746843
350.014526	719.696106	3860.026367	748.079773	0.903843
350.380737	728.389587	3907.431641	740.723816	0.387986
350.746948	728.166687	3976.607422	748.748535	0.633592
351.113159	731.064453	4026.687500	745.181946	0.428371
351.479309	726.754944	4061.386719	741.912598	0.454553
351.845428	725.640381	4066.811279	738.866211	0.395844
352.211517	721.628113	4090.736328	745.702148	0.714552
352.577576	723.857178	4130.934082	755.584290	0.931212
352.943604	728.686829	4177.447754	746.668030	0.521381
353.309601	727.646545	4233.694824	741.912598	0.406898
353.675537	720.142029	4314.833496	743.398743	0.646974
354.041473	721.999573	4426.807129	748.228455	0.707969
354.407379	715.535217	4538.039063	751.200500	0.933035
354.773254	718.433044	4645.703125	744.067444	0.652728
355.139038	718.358704	4738.284668	737.974609	0.487967
355.504913	722.519714	4839.187988	736.340027	0.335716
355.870636	728.166687	4935.335449	739.312073	0.264914
356.236389	719.621887	5037.724609	739.757874	0.466316
356.602081	725.789001	5152.225098	741.243958	0.349151
356.967804	717.912903	5290.056152	740.055115	0.484285
357.333405	726.977844	5431.677734	744.141785	0.364825
357.699036	719.770447	5594.103516	745.479187	0.527431
358.064606	715.906738	5751.402344	743.472961	0.547438
358.430176	714.940735	5869.840332	739.460693	0.475663
358.795654	716.798340	5904.763184	733.145020	0.315088
359.161163	721.628113	5881.878418	737.231628	0.302379
359.526581	722.073914	5857.432129	739.609314	0.341464
359.892029	724.822998	5874.224121	743.175781	0.356406
360.257416	724.451599	5962.718750	745.999329	0.411352
360.622772	719.324646	6160.290527	751.869324	0.598142
360.988098	717.764343	6441.674316	752.092102	0.599726
361.353394	716.352539	6748.692871	742.729980	0.437267
361.718658	720.364807	7013.879395	744.290344	0.380162
362.083893	734.036621	7220.367188	743.250183	0.142046
362.449097	737.751770	7347.498535	749.342957	0.175365
362.814209	734.036621	7372.241699	744.438965	0.156704
363.179382	725.268860	7190.942871	740.500977	0.235584
363.544434	723.336975	6863.788574	730.692932	0.119795
363.909546	725.937561	6474.962402	723.039856	-0.050403
364.274536	720.662109	6182.357910	723.782898	0.057140
364.639587	727.720886	5956.774902	726.680664	-0.019893
365.004517	730.544373	5828.974121	733.367859	0.055380
365.369507	726.160461	5739.514160	737.528809	0.226761
365.734344	719.473206	5704.442871	739.312073	0.397974
366.099274	712.042969	5662.312988	743.621643	0.637918
366.464081	724.302917	5635.192871	746.147949	0.444828
366.828918	720.959290	5621.817871	749.714539	0.586739
367.193665	719.473206	5625.459473	741.689758	0.452846
367.558411	713.677734	5643.812012	744.661926	0.628465
367.923126	717.244202	5645.595215	745.479187	0.572909
368.287781	725.417480	5625.310547	754.246887	0.588368
368.652435	727.795166	5577.904785	750.680420	0.471850
369.017059	724.897400	5551.007813	756.773193	0.660486
369.381653	722.073914	5520.915527	752.240723	0.628627
369.746185	716.724060	5498.772949	748.599915	0.666573
370.110687	720.142029	5512.518066	742.729980	0.471331
370.475220	714.569275	5574.858887	745.404968	0.634441
370.839661	716.649719	5646.040527	748.228333	0.640619
371.204041	709.962585	5718.114746	746.890930	0.737365
371.568451	718.210144	5768.640137	741.169678	0.454606
371.932770	719.621887	5823.400879	741.169678	0.422193
372.297150	721.182190	5852.378906	746.073669	0.485101
372.661377	713.974854	5880.316895	741.392578	0.530699
373.025696	707.882019	5898.372559	739.312012	0.605530
373.389862	713.974854	5889.902344	740.649475	0.515359
373.754059	720.439209	5883.437988	748.674133	0.546871
374.118225	725.863281	5906.620605	745.702148	0.382934
374.482361	720.810730	5960.936035	740.723877	0.380013
374.846436	720.959290	6026.768066	740.798157	0.373908
375.210510	720.513489	6113.554199	751.423401	0.573144
375.574524	726.680664	6223.893066	746.519348	0.360886
375.938538	728.835449	6378.740234	743.547363	0.260392
376.302460	729.058289	6518.949219	735.299744	0.107799
376.666412	729.281189	6685.685059	745.627869	0.274439
377.030304	730.618652	6841.645996	740.798157	0.166576
377.394196	737.305908	7020.195313	738.643372	0.021287
377.757996	734.482422	7163.079590	729.355469	-0.079752
378.121796	720.736389	7226.013672	740.278015	0.300397
378.485565	713.008972	7218.286621	739.832214	0.412330
378.849304	717.912903	7128.007813	739.386414	0.334995
379.212982	725.268860	6988.542480	732.922058	0.122192
379.576630	724.748718	6807.912598	736.934387	0.200318
379.940277	715.238037	6667.108887	741.169617	0.435688
380.303864	715.683838	6580.546387	747.559631	0.543505
380.667450	715.758118	6573.784668	750.903320	0.599950
381.030945	723.039795	6572.224609	748.599915	0.436986
381.394501	725.863281	6608.558105	741.689758	0.269034
381.757935	724.302979	6632.632324	746.222168	0.370988
382.121399	720.067688	6641.919922	753.726807	0.568388
382.484741	718.804504	6668.817871	761.602844	0.719298
382.848145	715.163635	6682.935059	753.949707	0.649926
383.211487	714.866455	6736.285156	743.324402	0.472612
383.574768	709.145081	6836.816406	739.683594	0.498371
383.938019	718.210022	6955.626465	739.906494	0.347844
384.301270	720.959290	7095.910156	747.856934	0.421927
384.664459	727.869446	7151.711426	740.352356	0.194322
385.027649	729.132629	7211.079590	741.689758	0.193725
385.390778	727.572266	7262.942871	745.107666	0.268315
385.753876	724.674377	7306.410156	754.172668	0.448184
386.116943	717.912903	7343.264160	763.014648	0.680745
386.479980	717.764221	7360.501953	755.138611	0.562635
386.842987	719.919006	7413.925781	759.745300	0.594954
387.205994	721.107910	7461.182129	749.640137	0.423322
387.568909	724.897278	7515.794922	755.287170	0.447509
387.931793	720.364807	7561.639160	757.813477	0.547393
388.294678	717.764221	7616.771973	765.020813	0.684977
388.657471	711.522888	7630.369629	762.791809	0.741004
389.020294	710.779846	7651.992188	764.575012	0.775011
389.383057	718.358704	7665.662598	773.268372	0.790374
389.745819	718.210144	7693.601074	786.494324	0.978930
390.108521	722.445313	7696.350098	791.844055	0.995120
390.471191	721.702332	7751.482910	802.840881	1.154212
390.833801	729.132629	7873.414063	822.679688	1.309398
391.196442	733.293640	8062.216797	843.261536	1.500465
391.558960	731.510254	8251.093750	854.852844	1.640285
391.921509	726.680664	8436.478516	857.676331	1.699080
392.284027	719.621887	8611.165039	867.409973	1.872740
392.646484	716.946960	8707.312500	890.369446	2.170395
393.008911	726.234863	8699.511719	911.397156	2.322286
393.371307	733.590820	8640.811523	940.895325	2.621711
393.733673	735.819824	8573.344727	956.127441	2.810934
394.096008	725.714661	8554.843750	977.006531	3.209704
394.458344	716.649719	8556.329102	989.638000	3.482136
394.820587	716.129639	8594.819336	1019.879150	3.855330
395.182831	720.067688	8641.183594	1043.284546	4.080446
395.545013	724.154297	8600.911133	1068.250244	4.368498
395.907196	725.863281	8514.571289	1095.519287	4.746050
396.269287	729.058289	8346.573242	1127.469482	5.230199
396.631409	728.463867	8225.831055	1156.967651	5.715390
396.993469	722.816833	8100.185059	1174.280151	6.119572
397.355530	718.655945	8030.711426	1205.338745	6.655896
397.717499	712.637390	8000.024902	1236.471558	7.188230
398.079468	718.061523	7967.926270	1264.632324	7.539048
398.441376	715.163635	7987.765625	1299.777466	8.038579
398.803284	721.702332	7984.644531	1339.752319	8.509636
399.165131	724.302979	8040.148438	1386.711792	9.054440
399.526978	723.931396	8039.257324	1425.126343	9.585286
399.888763	722.073914	8040.148926	1459.454102	10.076149
400.250519	716.946960	8029.672363	1486.723267	10.526530
400.612244	721.627991	8067.937988	1521.422485	10.887023
400.973938	722.371094	8098.328125	1556.567749	11.309673
401.335602	726.011902	8112.148438	1600.257813	11.836308
401.697205	725.045898	8122.402344	1647.291382	12.467231
402.058807	724.748718	8189.646484	1707.104858	13.159673
402.420349	721.925232	8296.196289	1766.547241	13.791718
402.781860	715.832336	8416.640625	1816.032837	14.286818
403.143341	718.581604	8552.541016	1857.642456	14.540039
403.504822	720.439148	8695.796875	1907.425293	14.883170
403.866241	726.160461	8881.627930	1970.359741	15.256014
404.227631	718.061523	9036.102539	2026.309570	15.727839
404.588959	717.467102	9221.042969	2086.123291	16.095066
404.950287	719.176025	9366.006836	2136.426025	16.390398
405.311554	730.098633	9478.649414	2199.360596	16.794348
405.672821	730.247253	9530.883789	2246.617188	17.230228
406.034027	725.417480	9512.382813	2278.864258	17.678991
406.395203	721.702332	9427.975586	2295.953857	18.081806
406.756348	720.290527	9332.570313	2312.672119	18.489664
407.117493	719.770508	9259.976563	2332.436523	18.883221
407.478516	719.696106	9255.220703	2350.343750	19.104248
407.839600	720.959290	9253.511719	2381.104980	19.456614
408.200592	719.398926	9244.446289	2412.832031	19.864208
408.561554	717.541321	9219.036133	2439.283936	20.252234
408.922485	712.563049	9246.454102	2466.330322	20.550619
409.283417	720.439148	9276.100586	2491.741943	20.703283
409.644257	720.884949	9389.412109	2548.657715	21.085157
410.005096	724.005676	9488.680664	2593.610840	21.331142
410.365906	720.216248	9602.660156	2650.526611	21.731747
410.726715	724.897278	9701.780273	2691.541748	21.907879
411.087433	721.479431	9792.058594	2737.758057	22.228775
411.448120	714.643555	9863.166016	2771.417236	22.482031
411.808807	710.779785	9877.952148	2807.677002	22.873981
412.169434	709.813965	9836.862305	2818.079346	23.099092
412.530029	713.826172	9798.670898	2841.335938	23.418230
412.890564	715.237976	9763.081055	2846.240234	23.552599
413.251099	721.702393	9739.303711	2868.382080	23.805439
413.611572	726.309143	9764.418945	2900.852539	24.059715
413.972076	728.761047	9810.485352	2949.818115	24.456337
414.332489	733.367859	9881.221680	2985.260498	24.616623
414.692871	733.665039	10022.694336	3030.956787	24.731236
415.053223	721.999573	10160.451172	3068.999756	24.866371
415.413574	717.615723	10383.953125	3144.119873	25.102621
415.773834	718.655945	10528.545898	3210.249268	25.398790
416.134094	724.080017	10698.550781	3272.663330	25.551064
416.494263	723.039856	10823.602539	3325.418213	25.764688
416.854462	717.244202	11072.516602	3391.398682	25.824087
417.214630	713.454773	11340.824219	3481.602539	26.047346
417.574738	716.724121	11634.541992	3577.824463	26.205788
417.934784	713.529053	11936.805664	3660.523438	26.257879
418.294861	721.553711	12295.465820	3775.172607	26.383636
418.654846	717.541321	12759.116211	3920.954346	26.602940
419.014832	725.937561	13188.957031	4057.151367	26.728786
419.374756	726.977844	13673.855469	4183.242676	26.695740
419.734680	733.219238	14153.034180	4318.770996	26.718340
420.094543	730.395752	14662.825195	4476.738770	26.889374
420.454376	726.829163	15142.894531	4623.709473	27.031511
420.814148	721.999512	15613.304688	4768.302734	27.172255
421.173920	719.919128	16106.304688	4919.583008	27.294676
421.533691	727.275085	16547.810547	5068.336914	27.439413
421.893341	728.092346	16913.380859	5171.469238	27.453184
422.253021	728.389587	17128.486328	5266.873535	27.673517
422.612640	719.398926	17195.062500	5311.752930	27.873560
422.972260	717.318542	17112.955078	5329.734375	28.131973
423.331757	714.494934	17018.962891	5327.653809	28.293831
423.691315	716.575439	17007.447266	5336.124512	28.356670
424.050781	724.302917	17158.208984	5394.229004	28.416410
424.410248	732.550537	17304.361328	5432.346191	28.360184
424.769653	736.265686	17446.947266	5505.608887	28.540686
425.128998	730.544373	17451.257813	5523.738281	28.666204
425.488373	730.470032	17344.927734	5540.605469	28.951504
425.847656	735.076843	17134.353516	5503.974121	29.079924
426.206940	733.516418	16917.318359	5472.767090	29.283913
426.566193	725.491760	16592.837891	5379.517090	29.330837
426.925385	718.655945	16248.742188	5296.595703	29.477879
427.284576	713.231873	15763.916992	5169.166016	29.606186
427.643677	711.299988	15407.413086	5107.568848	29.914501
428.002777	703.349548	15061.829102	5025.687500	30.103033
428.361847	705.652893	14736.086914	4950.270020	30.252930
428.720856	715.312317	14431.074219	4866.159668	30.263336
429.079865	715.460938	14183.645508	4807.386230	30.382160
429.438812	714.569336	14023.078125	4780.488770	30.551277
429.797760	715.386536	13928.045898	4768.600098	30.676744
430.156616	720.662109	13767.551758	4736.353027	30.778913
430.515503	724.674500	13684.257813	4715.622070	30.795340
430.874268	716.798340	13642.945313	4700.612793	30.819815
431.233093	715.980957	13667.687500	4718.371582	30.902418
431.591827	720.067688	13740.504883	4738.209961	30.860271
431.950562	722.742493	13731.514648	4749.206543	30.951914
432.309204	717.838562	13814.808594	4775.287109	30.980055
432.667877	716.129639	13917.643555	4812.141602	31.026834
433.026459	723.782898	14078.210938	4867.199707	31.026541
433.385010	728.389587	14207.051758	4935.707031	31.214651
433.743561	731.510254	14368.882813	5003.173828	31.323214
434.102051	723.262695	14487.171875	5068.634277	31.570766
434.460510	734.259521	14663.641602	5099.692871	31.339750
434.818939	733.367859	14753.698242	5140.855957	31.436409
435.177338	733.739319	14825.770508	5163.072754	31.431477
435.535675	721.999512	14773.015625	5180.905762	31.733694
435.894012	716.203918	14697.003906	5161.735840	31.797407
436.252289	714.866455	14687.343750	5159.061035	31.806774
436.610535	717.689941	14692.620117	5163.890625	31.815550
436.968719	716.426819	14805.262695	5224.149902	31.995001
437.326935	722.371033	14910.772461	5274.676270	32.084694
437.685028	723.336914	15027.799805	5323.492676	32.158886
438.043152	730.024170	15131.897461	5361.461426	32.158577
438.401215	733.144958	15346.409180	5432.643555	32.159130
438.759277	729.355469	15591.756836	5522.029785	32.246971
439.117249	721.033630	15954.057617	5666.028809	32.462334
439.475250	719.176025	16259.885742	5766.262207	32.476547
439.833130	721.850891	16671.970703	5895.474609	32.436268
440.191071	725.937561	16969.033203	5966.731934	32.264751
440.548889	722.593933	17250.935547	6080.117676	32.414165
440.906708	718.655945	17557.583984	6193.875000	32.515247
441.264496	723.262695	17786.361328	6291.062500	32.630650
441.622223	719.250305	17979.251953	6359.347168	32.677265
441.979950	716.724121	17990.546875	6389.290527	32.839092
442.337616	719.101746	17957.406250	6401.402344	32.963223
442.695251	720.810730	17800.255859	6360.164551	33.018368
443.052887	730.692871	17596.296875	6313.947754	33.104389
443.410461	718.061523	17433.720703	6260.599121	33.157753
443.768005	721.776611	17322.044922	6221.218750	33.128635
444.125458	725.491760	17208.734375	6183.843750	33.114555
444.482941	733.516541	17241.873047	6196.326660	33.091179
444.840393	734.036621	17359.046875	6259.707031	33.237095
445.197754	727.349365	17687.912109	6368.412109	33.259880
445.555084	725.714661	17960.900391	6479.643066	33.384777
445.912415	727.423645	18352.029297	6601.796875	33.330521
446.269714	724.451477	18621.453125	6702.996582	33.405289
446.626953	723.857117	18976.693359	6818.982910	33.392761
446.984161	717.838562	19285.646484	6949.756348	33.563023
447.341309	720.439209	19537.603516	7041.296875	33.590916
447.698456	723.411316	19677.068359	7114.634277	33.720264
448.055542	728.166687	19721.279297	7160.998535	33.869286
448.412598	732.847717	19696.685547	7172.144043	33.955662
448.769653	732.922058	19526.681641	7137.667969	34.079109
449.126617	729.875671	19226.869141	7033.346191	34.078350
449.483582	723.559875	18941.845703	6947.155762	34.161259
449.840515	719.473328	18613.576172	6865.794434	34.348305
450.197388	716.872620	18350.841797	6807.689453	34.540249
450.554230	714.123474	18143.236328	6750.921875	34.636292
450.911041	716.203918	17994.335938	6691.628418	34.583740
451.267822	715.312317	17855.091797	6644.668457	34.594120
451.624573	720.513489	17644.220703	6610.712891	34.804428
451.981262	712.414551	17537.001953	6576.533691	34.854458
452.337921	710.928467	17388.025391	6545.103516	34.983154
452.694580	709.293762	17338.615234	6512.558594	34.897781
453.051147	715.238037	17306.369141	6534.403809	35.073956
453.407715	717.838623	17248.857422	6523.259277	35.118347
453.764221	720.513489	17268.919922	6559.964355	35.287086
454.120728	718.730225	17061.466797	6491.382813	35.322433
454.477142	723.411316	16993.478516	6484.770020	35.410786
454.833557	722.593933	16784.912109	6414.330566	35.435337
455.189911	729.281250	16638.906250	6362.988281	35.410683
455.546265	728.761047	16449.062500	6311.718750	35.514317
455.902557	732.476257	16347.491211	6279.100098	35.521095
456.258820	730.767273	16341.397461	6288.536621	35.602467
456.615051	730.544373	16441.408203	6298.270020	35.438698
456.971252	721.553711	16418.451172	6296.783691	35.518040
457.327393	714.494934	16588.677734	6351.322266	35.509399
457.683502	715.089355	16796.798828	6442.343262	35.613464
458.039612	722.519714	17250.269531	6592.062988	35.513264
458.395630	720.141907	17698.388672	6774.327637	35.658485
458.751648	717.615723	18156.615234	6932.369141	35.637096
459.107605	716.724060	18813.298828	7172.069824	35.671646
459.463562	730.544373	19462.705078	7395.646484	35.581066
459.819458	731.361633	20101.486328	7643.148926	35.682716
460.175323	735.745544	20652.812500	7845.476074	35.696674
460.531158	727.646545	21158.814453	8038.439941	35.782555
460.886932	723.188477	21447.035156	8177.832031	35.971329
461.242676	717.021301	21531.962891	8239.206055	36.138390
461.598419	718.135803	21283.568359	8196.110352	36.361866
461.954102	716.055359	20847.857422	8043.492188	36.397324
462.309723	712.785950	20175.419922	7829.724121	36.567188
462.665344	712.340149	19538.496094	7606.220703	36.618629
463.020905	723.039734	19019.861328	7418.457520	36.593338
463.376373	723.114075	18599.828125	7280.774902	36.682693
463.731873	717.244141	18275.646484	7149.630371	36.634235
464.087341	711.894348	18008.601563	7057.569824	36.687187
464.442749	715.312317	17880.652344	7013.136719	36.689190
464.798126	722.816895	17796.095703	7001.619629	36.775612
465.153503	727.572266	17878.943359	7050.213379	36.863766
465.508820	727.497864	17942.398438	7043.304199	36.688019
465.864105	725.937561	18096.427734	7085.210449	36.609634
466.219330	720.810730	18362.876953	7178.906250	36.606232
466.574524	723.634094	18563.644531	7275.871094	36.727764
466.929657	730.618652	18728.224609	7367.412109	36.875980
467.284790	733.962219	18844.656250	7415.114746	36.890648
467.639893	733.293518	18976.025391	7483.918457	37.004463
467.994934	725.566101	19131.761719	7535.856934	36.999992
468.349945	720.587830	19186.373047	7569.441406	37.089424
468.704926	718.730225	19129.011719	7559.039063	37.154831
469.059875	714.049133	18902.166016	7501.751465	37.319431
469.414764	719.473206	18664.769531	7422.693359	37.353634
469.769653	719.621887	18504.943359	7367.263672	37.377121
470.124451	719.993408	18460.806641	7328.105957	37.248081
470.479248	714.272034	18297.341797	7284.861816	37.368843
470.834015	712.414490	18190.716797	7248.675781	37.396431
471.188721	716.946960	18201.861328	7267.474609	37.463882
471.543365	721.553711	18329.216797	7297.269531	37.345760
471.898010	722.965515	18502.492188	7344.080566	37.240108
472.252625	720.513489	18641.140625	7404.712402	37.298912
472.607178	718.878845	18901.125000	7498.928223	37.289394
472.961700	720.662109	19088.443359	7599.904785	37.452770
473.316193	728.463867	19372.056641	7706.455566	37.428360
473.670654	728.018066	19514.197266	7774.517090	37.508953
474.025055	721.107910	19741.119141	7878.614746	37.631454
474.379456	715.535156	19908.447266	7945.561035	37.670292
474.733795	717.764343	20046.949219	8021.944824	37.788353
475.088104	722.296814	20184.259766	8036.433594	37.581699
475.442383	720.513489	20222.525391	8035.468262	37.508717
475.796570	714.494934	20321.423828	8074.105469	37.535763
476.150787	710.259705	20495.810547	8155.541504	37.629894
476.504944	720.364929	20729.046875	8258.450195	37.674072
476.859070	729.281250	21023.955078	8343.675781	37.519176
477.213135	737.380188	21324.287109	8428.603516	37.359783
477.567200	730.767273	21723.960938	8571.338867	37.348160
477.921173	727.869446	22134.408203	8732.873047	37.395130
478.275146	716.872742	22579.406250	8926.283203	37.550133
478.629089	718.953125	22896.531250	9057.426758	37.598667
478.983002	718.284424	23329.494141	9223.270508	37.614029
479.336823	721.330811	23668.912109	9362.588867	37.656506
479.690643	724.080078	24107.296875	9533.039063	37.672142
480.044403	718.655945	24575.625000	9691.750000	37.612045
480.398163	724.228699	25257.126953	9944.378906	37.582802
480.751862	715.980957	26127.882813	10282.976563	37.647697
481.105499	711.002686	27231.279297	10685.399414	37.610455
481.459137	708.550781	28680.927734	11204.850586	37.523804
481.812744	717.021301	30518.654297	11830.553711	37.291691
482.166290	730.470032	32763.931641	12660.886719	37.243610
482.519806	734.482361	35505.183594	13637.668945	37.109364
482.873291	732.401855	38694.777344	14830.375977	37.136703
483.226715	732.847717	42302.621094	16202.450195	37.213585
483.580139	730.172852	45790.609375	17676.468750	37.607929
483.933502	724.451477	49108.675781	19156.357422	38.094868
484.286804	716.426819	51761.062500	20554.882813	38.864914
484.640106	714.494934	53774.593750	21741.201172	39.628098
484.993347	716.129639	54840.390625	22592.708984	40.419174
485.346558	721.850891	55034.324219	22922.390625	40.875580
485.699738	719.919128	54350.957031	22651.703125	40.893826
486.052887	724.377197	53019.894531	21964.625000	40.615810
486.405975	724.748718	51417.042969	21061.626953	40.118286
486.759064	723.262695	49846.128906	20228.099609	39.706226
487.112061	718.061523	48611.140625	19526.236328	39.271179
487.464996	712.117371	47915.894531	19089.632813	38.932301
487.817963	715.386536	47776.425781	18899.417969	38.639248
488.170868	715.460938	47816.402344	18882.697266	38.570854
488.523743	716.055359	47902.519531	18939.464844	38.619995
488.876587	720.290588	47686.968750	18972.455078	38.861942
489.229401	724.228699	47258.093750	18844.210938	38.939346
489.582153	717.095520	46388.156250	18555.023438	39.057396
489.934845	711.968689	45325.175781	18110.322266	38.998215
490.287537	710.333984	44272.828125	17675.875000	38.945293
490.640198	715.832458	43422.363281	17287.419922	38.803406
490.992798	718.358704	42808.917969	16979.732422	38.634254
491.345337	719.844910	42628.730469	16870.208984	38.536850
491.697876	726.680664	42745.093750	16866.345703	38.410934
492.050354	729.355530	43172.335938	17049.130859	38.451057
492.402832	724.377258	43438.417969	17164.595703	38.489029
492.755219	723.411316	43265.808594	17174.033203	38.668766
493.107605	723.782776	42554.953125	16936.115234	38.756580
493.459930	723.634216	41241.203125	16531.984375	39.016037
493.812225	730.618652	39500.964844	15905.463867	39.140339
494.164490	730.024231	37490.476563	15168.975586	39.278492
494.516724	728.686768	35486.457031	14360.635742	39.219860
494.868896	719.250305	33689.445313	13638.933594	39.185947
495.221039	717.615723	32265.585938	13066.579102	39.143448
495.573120	728.092346	31122.212891	12574.175781	38.974915
495.925201	730.321472	30505.353516	12279.268555	38.787357
496.277222	730.841492	30159.548828	12105.325195	38.650978
496.629211	720.662109	30147.806641	12070.179688	38.568192
496.981140	714.866455	30137.109375	12063.195313	38.570580
497.333069	708.996582	30245.070313	12108.667969	38.595760
497.684967	717.021301	30323.384766	12157.856445	38.643162
498.036804	716.501160	30364.548828	12193.225586	38.709885
498.388580	718.210144	30251.537109	12160.010742	38.741997
498.740326	707.584778	30042.599609	12114.166992	38.883846
499.092072	711.077087	29740.033203	11990.824219	38.856880
499.443756	712.860352	29411.099609	11878.182617	38.905949
499.795410	717.615723	29090.927734	11742.356445	38.856022
500.147003	718.210144	28750.771484	11649.254883	38.994102
500.498566	718.655945	28391.812500	11508.971680	38.991993
500.850098	719.919006	27986.640625	11365.938477	39.044003
501.201599	716.575439	27647.521484	11226.843750	39.026733
501.553009	714.569275	27288.416016	11090.647461	39.046200
501.904449	715.238037	27052.208984	11000.887695	39.054035
502.255859	720.959290	26829.302734	10917.745117	39.055660
502.607178	721.702332	26765.625000	10892.407227	39.052124
502.958405	725.417480	26692.804688	10871.082031	39.070793
503.309692	725.566101	26650.228516	10827.985352	38.968372
503.660919	725.640381	26601.931641	10839.280273	39.084579
504.012115	725.863281	26664.867188	10830.810547	38.956573
504.363251	720.736328	26739.248047	10904.889648	39.141953
504.714294	723.262695	26847.134766	10943.601563	39.122604
505.065369	720.290527	26861.322266	10985.210938	39.267464
505.416443	724.302917	26867.416016	10991.527344	39.273151
505.767395	726.829285	26904.718750	10990.338867	39.206791
506.118317	720.141907	26887.554688	10971.987305	39.177914
506.469238	715.386536	26915.640625	10985.434570	39.198277
506.820160	710.482605	26896.990234	10988.628906	39.249779
507.170929	720.810730	26932.876953	11032.988281	39.341339
507.521729	727.646545	27030.437500	11055.872070	39.266651
507.872498	730.098450	27080.962891	11079.948242	39.277077
508.223236	729.578430	27270.513672	11122.449219	39.157894
508.573883	720.364807	27376.021484	11181.593750	39.245811
508.924500	721.627991	27575.599609	11261.393555	39.248444
509.275116	717.764343	27754.296875	11339.709961	39.287380
509.625702	722.593994	28013.984375	11428.723633	39.228966
509.976196	720.364929	28302.501953	11535.348633	39.210098
510.326660	719.770508	28551.265625	11638.778320	39.232559
510.677124	722.891113	28804.712891	11762.640625	39.312798
511.027557	722.445313	29004.662109	11853.883789	39.358437
511.377869	722.073914	29217.984375	11948.695313	39.397308
511.728180	723.708496	29340.880859	11989.561523	39.367458
512.078430	719.844788	29480.421875	12039.938477	39.359760
512.428650	720.067688	29596.333984	12079.617188	39.338707
512.778931	712.042969	29734.685547	12132.594727	39.350491
513.129028	723.634216	29793.830078	12162.463867	39.348995
513.479126	725.417480	29807.947266	12195.379883	39.439358
513.829285	731.881836	29757.197266	12181.187500	39.445930
514.179382	726.829163	29688.767578	12170.191406	39.511730
514.529297	724.525696	29584.443359	12140.321289	39.555885
514.879272	724.897278	29573.447266	12143.887695	39.582542
515.229187	721.776611	29480.494141	12107.703125	39.591221
515.579163	726.234802	29538.525391	12111.567383	39.515541
515.928955	724.600098	29535.625000	12109.262695	39.514950
516.278748	717.912903	29804.380859	12163.950195	39.351761
516.628540	711.374268	30066.146484	12270.871094	39.378597
516.978333	710.408386	30555.580078	12461.829102	39.374615
517.327942	719.993408	31088.037109	12703.015625	39.459316
517.677612	720.439209	31709.353516	12925.477539	39.385174
518.027222	718.581604	32332.607422	13149.500977	39.320900
518.376831	712.563171	33026.519531	13437.870117	39.380219
518.726379	716.352539	33713.222656	13707.737305	39.371567
519.075867	722.742493	34272.652344	13943.946289	39.407570
519.425293	727.052063	34653.968750	14076.726563	39.348328
519.774658	728.686829	34802.652344	14171.090820	39.450661
520.124084	724.600159	34757.699219	14189.815430	39.565060
520.473389	718.878906	34467.621094	14123.609375	39.719200
520.822693	715.609558	34089.863281	14008.291992	39.829151
521.171997	717.021240	33657.570313	13839.179688	39.835880
521.521240	719.844727	33229.214844	13678.090820	39.860035
521.870361	718.135742	32823.375000	13509.125977	39.840820
522.219482	719.101746	32466.945313	13392.916992	39.920238
522.568604	724.748718	32231.478516	13266.304688	39.805958
522.917664	726.309082	32088.671875	13171.346680	39.681438
523.266724	726.383362	32173.078125	13155.519531	39.524456
523.615662	723.485596	32415.755859	13273.437500	39.599411
523.964600	730.247131	32853.468750	13483.120117	39.699860
524.313538	723.114075	33369.722656	13702.016602	39.755745
524.662354	724.154297	34054.496094	13953.382813	39.691246
525.011169	714.346375	34932.535156	14296.066406	39.691525
525.359985	720.810730	36002.492188	14703.541992	39.631706
525.708740	724.302917	37282.652344	15187.476563	39.561890
526.057434	732.030457	38654.800781	15673.713867	39.400295
526.406067	727.497986	40217.160156	16283.590820	39.392822
526.754700	726.754883	41854.792969	16960.785156	39.471928
527.103333	728.018066	43783.394531	17755.974609	39.548969
527.451782	730.692932	45926.511719	18658.898438	39.667839
527.800293	729.652771	48109.152344	19660.796875	39.956406
528.148743	728.835449	50213.187500	20738.556641	40.436462
528.497131	733.070618	52009.378906	21727.380859	40.943489
528.845642	718.953125	53560.519531	22648.212891	41.500019
529.193909	716.203918	54727.667969	23474.234375	42.135555
529.542175	711.671387	55507.031250	24149.351563	42.773109
529.890503	721.405090	55802.160156	24458.820313	43.095661
530.238770	718.953125	55556.000000	24391.798828	43.169441
530.586914	717.615723	54788.300781	23951.630859	42.969711
530.934998	718.284424	53497.511719	23242.337891	42.675980
531.283142	713.380432	51917.980469	22344.537109	42.244556
531.631226	713.529053	50084.417969	21361.361328	41.821877
531.979248	715.312256	48289.484375	20400.033203	41.376907
532.327148	720.290527	46704.093750	19551.052734	40.950855
532.675110	724.302917	45583.902344	18923.044922	40.568226
533.023071	721.702332	45033.468750	18609.337891	40.367687
533.370850	725.343079	44908.046875	18498.925781	40.227467
533.718689	730.098572	45118.843750	18585.193359	40.224377
534.066467	737.751770	45379.792969	18693.748047	40.222164
534.414246	740.649597	45451.718750	18753.486328	40.287193
534.761963	742.507080	45341.230469	18727.109375	40.325375
535.109619	742.061279	44932.417969	18606.367188	40.425804
535.457153	735.819885	44332.269531	18380.859375	40.473568
535.804749	725.268860	43502.753906	18062.025391	40.527760
536.152344	719.101807	42613.132813	17674.833984	40.472908
536.499817	721.033630	41679.667969	17298.638672	40.474022
536.847229	723.782776	40795.832031	16892.798828	40.349857
537.194641	726.531982	39982.964844	16535.029297	40.269825
537.542114	724.377197	39376.285156	16273.484375	40.228565
537.889404	724.674500	38812.699219	16052.285156	40.242599
538.236694	728.686768	38361.089844	15881.463867	40.265240
538.583984	724.822998	37935.105469	15699.867188	40.244373
538.931213	722.148132	37733.816406	15614.195313	40.236088
539.278381	716.946960	37568.566406	15556.239258	40.267677
539.625488	719.993347	37569.316406	15548.363281	40.240547
539.972595	719.324646	37863.105469	15631.063477	40.145992
540.319641	718.953125	38562.519531	15853.526367	39.992458
540.666687	724.822998	39601.421875	16220.953125	39.859791
541.013611	726.903503	40894.878906	16692.181641	39.746284
541.360596	721.182312	42318.964844	17218.466797	39.659050
541.707458	721.405090	43731.828125	17823.142578	39.761848
542.054260	717.392822	44878.988281	18375.210938	39.984558
542.401062	723.114075	45824.343750	18878.539063	40.254833
542.747864	718.358704	46370.917969	19179.166016	40.437618
543.094666	721.405090	46319.125000	19237.123047	40.606678
543.441284	719.176086	45637.699219	19053.744141	40.817390
543.787903	720.364929	44561.644531	18670.119141	40.942585
544.134460	713.603333	43309.125000	18134.767578	40.899048
544.481079	714.271973	41910.894531	17509.509766	40.768486
544.827637	715.906738	40306.179688	16813.814453	40.661270
545.174072	725.343079	38691.136719	16156.605469	40.645176
545.520508	728.092346	37330.652344	15571.471680	40.552845
545.866943	727.126465	36236.027344	15067.179688	40.384388
546.213318	722.519714	35416.390625	14714.614258	40.330162
546.559631	725.937683	34731.324219	14405.515625	40.227680
546.905823	721.107910	34176.578125	14171.460938	40.203751
547.252136	719.993408	33711.519531	13953.531250	40.111931
547.598389	713.454773	33172.972656	13774.238281	40.237144
547.944458	710.185364	32731.908203	13613.817383	40.296494
548.290588	720.364929	32193.734375	13422.711914	40.359032
548.636658	720.736328	31625.390625	13197.054688	40.370354
548.982727	724.525818	30912.234375	12949.254883	40.495716
549.328735	719.993347	30201.826172	12656.577148	40.487930
549.674622	725.045959	29446.986328	12346.289063	40.461205
550.020569	731.064453	28714.955078	12036.149414	40.398544
550.366455	732.476257	27964.720703	11750.975586	40.461224
550.712280	728.909668	27347.638672	11505.627930	40.485474
551.058044	726.011902	26865.412109	11276.700195	40.363163
551.403748	725.937500	26474.431641	11102.684570	40.300404
551.749512	724.451477	26215.857422	10958.760742	40.148079
552.095154	721.182190	26037.158203	10897.385742	40.196762
552.440735	719.101746	25974.296875	10849.459961	40.111977
552.786316	720.810608	25939.974609	10858.525391	40.198456
553.131897	728.389587	25973.333984	10867.441406	40.162701
553.477417	724.451477	26031.958984	10865.211914	40.070168
553.822815	721.925232	26038.349609	10839.948242	39.966244
554.168213	719.473206	25967.015625	10824.197266	40.022602
554.513672	727.423584	25843.154297	10794.030273	40.080883
554.859009	730.247070	25666.166016	10759.628906	40.220623
555.204285	729.578369	25480.927734	10668.754883	40.156101
555.549500	724.377197	25213.958984	10603.221680	40.338966
555.894714	722.519714	24973.587891	10506.850586	40.345978
556.239990	719.770447	24627.787109	10372.807617	40.375732
556.585022	722.222412	24374.562500	10235.868164	40.222851
556.930115	726.383484	24099.716797	10100.934570	40.107887
557.275146	733.590759	23844.484375	10000.477539	40.097481
557.620178	731.658936	23635.474609	9930.485352	40.162853
557.965149	729.132568	23445.703125	9874.756836	40.259705
558.310059	721.182190	23293.978516	9818.436523	40.301846
558.654968	717.021240	23134.302734	9762.708008	40.351398
558.999756	712.934570	23023.960938	9707.799805	40.315781
559.344604	715.981018	23005.906250	9680.009766	40.215603
559.689331	714.792175	22947.056641	9660.543945	40.237701
560.033997	719.176086	22890.958984	9628.666992	40.183918
560.378723	718.358704	22828.619141	9625.249023	40.283970
560.723389	721.776672	22827.357422	9608.753906	40.202415
561.067932	716.055359	22863.541016	9622.870117	40.215916
561.412476	713.157532	22846.900391	9610.165039	40.196583
561.757019	712.860352	22849.724609	9571.676758	40.018391
562.101501	715.015137	22823.195313	9590.475586	40.145599
562.445862	719.770508	22854.701172	9596.196289	40.101440
562.790222	717.764343	22817.843750	9603.106445	40.205021
563.134644	713.231873	22800.310547	9560.680664	40.057129
563.478943	715.386658	22784.484375	9545.077148	40.009296
563.823181	723.262695	22786.117188	9545.077148	39.984917
564.167358	737.825989	22835.601563	9557.114258	39.910297
564.511536	726.606262	22902.552734	9592.183594	39.978348
564.855774	725.491699	22950.771484	9599.465820	39.927395
565.199768	715.312317	23051.529297	9642.487305	39.967266
565.543823	718.433044	23172.271484	9665.891602	39.848240
565.887817	723.411316	23455.437500	9781.953125	39.849251
566.231812	726.680664	23636.216797	9862.348633	39.877144
566.575745	724.674500	23821.677734	9935.016602	39.876781
566.919617	715.683777	23944.197266	9973.504883	39.855419
567.263428	715.163635	24088.273438	10022.620117	39.821213
567.607239	725.566101	24193.634766	10083.698242	39.876022
567.950989	727.200745	24220.681641	10105.393555	39.918278
568.294678	726.234863	24225.806641	10107.324219	39.920258
568.638367	722.148193	24076.681641	10062.000000	39.991600
568.981995	721.182312	23905.193359	10026.780273	40.137997
569.325623	723.634277	23698.037109	9957.084961	40.190170
569.669128	716.575439	23597.353516	9900.837891	40.139645
570.012573	719.696106	23480.476563	9838.943359	40.065617
570.356140	719.176025	23437.603516	9794.956055	39.948982
570.699524	721.033508	23446.818359	9761.594727	39.781075
571.042908	719.250305	23577.068359	9779.278320	39.636452
571.386230	716.501160	23707.248047	9806.844727	39.539143
571.729492	728.166687	23818.257813	9861.977539	39.557274
572.072815	733.888000	23941.228516	9915.698242	39.564251
572.416016	740.426575	24045.251953	9971.350586	39.609493
572.759094	732.847717	24221.869141	10042.755859	39.635147
573.102234	733.293640	24289.783203	10085.182617	39.699841
573.445374	727.720886	24329.609375	10108.291016	39.744999
573.788391	724.822998	24289.708984	10073.368164	39.671505
574.131409	715.609436	24245.421875	10049.443359	39.668118
574.474365	713.603333	24190.884766	10033.839844	39.698959
574.817261	717.244141	24081.734375	10018.905273	39.811104
575.160156	718.358704	23922.724609	9945.344727	39.764011
575.502930	715.089355	23725.380859	9855.958984	39.725136
575.845703	712.934570	23498.978516	9761.296875	39.710110
576.188477	713.157532	23255.265625	9666.783203	39.719559
576.531250	723.039734	23005.087891	9574.202148	39.723286
576.873901	726.754883	22751.865234	9463.863281	39.668854
577.216431	728.092346	22503.843750	9360.953125	39.644375
577.559082	722.816895	22234.494141	9253.066406	39.654045
577.901611	723.782776	21915.662109	9107.655273	39.561722
578.244080	719.696106	21595.787109	8978.665039	39.561852
578.586487	728.018066	21231.779297	8856.437500	39.643551
578.928955	732.996338	20909.675781	8764.004883	39.803421
579.271301	740.426575	20575.611328	8642.297852	39.837646
579.613647	736.117004	20253.212891	8490.423828	39.730843
579.955872	725.268860	19950.949219	8360.468750	39.713551
580.298157	715.981018	19630.556641	8233.930664	39.746857
580.640320	717.541443	19371.091797	8126.712402	39.719894
580.982483	719.176025	19157.619141	8041.635254	39.713001
581.324524	733.590759	18971.564453	7958.639160	39.615410
581.666626	728.240967	18860.037109	7891.246094	39.505211
582.008728	726.829163	18747.839844	7819.618652	39.358448
582.350647	723.857117	18688.916016	7789.674316	39.330891
582.692566	731.361633	18548.041016	7748.734375	39.386536
583.034424	728.909668	18447.361328	7728.226563	39.502983
583.376343	726.829285	18339.621094	7684.610840	39.504139
583.718201	718.730286	18290.431641	7640.994629	39.394386
584.059937	726.160461	18215.611328	7587.868652	39.233410
584.401611	719.770508	18132.763672	7528.054688	39.098877
584.743347	719.844727	18063.289063	7518.469238	39.199966
585.085022	718.953125	17938.162109	7488.451172	39.313641
585.426514	722.148132	17871.884766	7470.024902	39.346825
585.768127	727.052063	17773.285156	7409.393066	39.201279
586.109619	726.234863	17702.400391	7390.371582	39.255840
586.451172	724.748779	17642.662109	7383.832520	39.361141
586.792542	722.296692	17616.060547	7395.201172	39.499218
587.133850	722.519714	17615.318359	7364.439941	39.318058
587.475220	725.417480	17589.535156	7353.889160	39.305180
587.816589	717.095520	17591.763672	7337.839355	39.234810
588.157776	719.027527	17650.462891	7363.548340	39.243694
588.498962	717.912903	17720.677734	7371.870605	39.134560
588.840210	726.903564	17778.708984	7385.765625	39.050777
589.181335	724.228699	17829.681641	7397.282715	39.011269
589.522400	720.736389	17882.583984	7395.201660	38.891296
589.863403	716.352539	17903.240234	7416.377441	38.983353
590.204407	723.336975	17892.613281	7409.912598	38.945007
590.545410	727.349304	17921.146484	7430.718262	38.987137
590.886353	733.887939	17945.962891	7446.767578	39.000992
591.227112	724.674500	17942.919922	7451.151855	39.065987
591.567932	719.696106	17879.908203	7425.962891	39.080322
591.908752	712.860352	17799.810547	7374.025391	38.983932
592.249512	715.460876	17752.333984	7331.672363	38.834660
592.590149	712.414490	17631.591797	7274.607910	38.785534
592.930786	717.838562	17515.826172	7241.320313	38.834900
593.271423	714.123352	17424.212891	7212.045410	38.886219
593.612000	722.519592	17393.226563	7191.388672	38.803806
593.952576	721.033508	17414.253906	7169.692871	38.630409
594.292969	724.971619	17479.566406	7180.614746	38.530582
594.633484	723.114075	17538.861328	7208.701660	38.568535
594.973877	722.891113	17634.488281	7247.264160	38.579281
595.314209	722.519592	17721.718750	7273.196777	38.535210
595.654480	730.024231	17897.744141	7342.074707	38.514435
595.994812	721.628113	18108.318359	7417.269531	38.510159
596.335022	717.689941	18327.509766	7493.949219	38.480003
596.675171	710.631165	18531.470703	7526.568359	38.247002
597.015320	717.838562	18690.775391	7570.927246	38.130043
597.355408	717.912903	18792.421875	7600.574219	38.079380
597.695496	714.494934	18874.005859	7666.034668	38.280434
598.035461	716.278137	18881.806641	7656.300781	38.204350
598.375366	720.810730	18823.330078	7661.799316	38.342667
598.715271	726.977844	18697.089844	7615.656738	38.334091
599.055176	732.550537	18447.730469	7560.153809	38.540977
599.395081	736.191406	18236.189453	7462.445313	38.435741
599.734802	734.110840	17923.154297	7341.257324	38.438129
600.074524	727.943787	17613.607422	7229.580566	38.503887
600.414246	726.829285	17227.904297	7106.164063	38.660118
600.753906	723.782776	16910.705078	6976.653809	38.629154
601.093506	724.674500	16641.060547	6838.376465	38.411373
601.433044	724.377258	16447.056641	6737.027344	38.241890
601.772583	731.138733	16323.860352	6695.937988	38.253742
602.112122	725.194580	16307.960938	6691.479980	38.287716
602.451538	723.039795	16347.118164	6698.093750	38.242599
602.790894	714.420715	16438.734375	6714.959473	38.160892
603.130310	715.312317	16608.888672	6761.027344	38.038731
603.469604	712.785950	16799.919922	6820.246582	37.964878
603.808838	716.278259	17073.353516	6908.072754	37.853920
604.148010	722.148132	17379.257813	7008.158691	37.737705
604.487305	726.234802	17683.453125	7133.878418	37.787113
604.826416	727.720886	17926.792969	7206.769531	37.670921
605.165527	726.754883	18061.654297	7261.976563	37.699799
605.504456	725.194519	18203.869141	7288.353516	37.549526
605.843445	721.479431	18267.843750	7314.954590	37.577442
606.182434	719.919006	18267.398438	7312.279297	37.568703
606.521423	715.163635	18129.568359	7280.998047	37.703468
606.860229	722.816833	17888.380859	7220.069824	37.850506
607.199036	716.946960	17596.816406	7128.528809	37.983601
607.537903	724.228699	17341.736328	7034.386719	37.972950
607.876648	720.290527	17088.437500	6928.579590	37.929089
608.215271	725.417480	16865.455078	6822.400879	37.775524
608.553955	721.107910	16632.960938	6705.671875	37.610729
608.892578	722.816833	16468.529297	6624.830566	37.483307
609.231140	723.411316	16358.635742	6581.883301	37.469704
609.569641	729.058289	16298.450195	6559.221191	37.446312
609.908081	730.395752	16328.096680	6544.658203	37.276409
610.246521	739.683594	16310.116211	6541.760254	37.263428
610.584961	727.275085	16327.725586	6542.354004	37.275074
610.923340	721.553711	16254.538086	6527.642578	37.379093
611.261597	708.847961	16163.293945	6514.714355	37.567612
611.599854	714.643555	16033.858398	6479.196777	37.629562
611.938110	720.587830	15878.043945	6426.665527	37.645351
612.276245	730.321533	15723.272461	6332.820313	37.367554
612.614319	726.977844	15445.975586	6229.094238	37.381050
612.952393	724.005798	15143.042969	6119.720215	37.420769
613.290466	714.346375	14826.067383	6020.525879	37.601223
613.628479	718.878906	14538.218750	5913.158691	37.587032
613.966370	718.730225	14285.367188	5813.073730	37.550529
614.304260	719.844788	14067.882813	5711.724609	37.397854
614.642151	717.095520	13881.308594	5632.889160	37.342098
614.979980	712.637390	13735.750000	5574.636230	37.333618
615.317749	721.107910	13590.933594	5534.735840	37.402431
615.655396	723.708496	13531.640625	5498.698730	37.281509
615.993164	723.336914	13470.860352	5477.968262	37.298470
616.330811	715.015076	13453.101563	5457.609375	37.231606
616.668396	712.117249	13396.632813	5436.358887	37.244164
617.005859	722.816895	13382.885742	5407.380371	37.002670
617.343445	727.200745	13370.031250	5389.696777	36.878578
617.680908	728.389587	13378.651367	5383.900879	36.801701
618.018311	719.398926	13359.479492	5393.857422	36.981239
618.355652	720.959290	13323.963867	5389.993652	37.046993
618.692993	725.343201	13269.945313	5386.724121	37.158459
619.030273	725.045959	13277.672852	5374.315918	37.038223
619.367554	726.086182	13296.249023	5360.124512	36.865379
619.704712	718.804504	13284.360352	5358.712402	36.925606
620.041870	718.655945	13239.409180	5355.888672	37.036373
620.379028	711.448547	13188.584961	5350.390137	37.179535
620.716064	712.488770	13157.301758	5318.737793	37.013405
621.053040	720.587708	13093.104492	5290.873535	36.939014
621.389954	721.330811	13029.500977	5265.091309	36.916622
621.726929	727.497986	12962.332031	5243.989258	36.915020
622.063843	722.222473	12937.960938	5211.295410	36.748272
622.400635	721.776611	12917.825195	5176.596680	36.526749
622.737427	725.566101	12891.151367	5157.426270	36.429489
623.074219	727.720886	12831.932617	5124.435547	36.323841
623.410889	731.436035	12769.145508	5117.896973	36.439335
623.747559	724.823059	12743.437500	5100.584473	36.408199
624.084167	721.627991	12710.817383	5094.937500	36.477108
624.420715	715.683838	12719.139648	5086.244141	36.410851
624.757324	714.272034	12720.847656	5088.770020	36.434185
625.093750	714.866516	12776.872070	5096.794922	36.328354
625.430176	721.553711	12840.476563	5101.996094	36.145477
625.766602	726.086182	12905.639648	5092.039551	35.846577
626.102905	732.327637	13010.925781	5118.416504	35.721416
626.439209	729.504150	13104.622070	5152.373535	35.740017
626.775452	725.714661	13246.243164	5194.651855	35.692879
627.111694	713.900574	13312.446289	5228.459473	35.833969
627.447876	716.352539	13358.366211	5247.480957	35.841824
627.783997	716.352539	13388.903320	5267.171387	35.910835
628.120056	719.473206	13406.514648	5276.533691	35.919018
628.456055	716.872620	13408.593750	5267.394043	35.854252
628.792053	713.826233	13394.403320	5253.796875	35.802555
629.128052	712.191589	13320.249023	5211.666992	35.687302
629.463928	711.671448	13204.856445	5189.970703	35.845940
629.799744	712.488770	13062.864258	5148.583984	35.918709
630.135559	720.587830	12942.790039	5106.677734	35.886250
630.471375	724.971680	12815.508789	5025.761719	35.571537
630.807068	727.200684	12648.848633	4972.263672	35.608021
631.142700	723.708496	12515.846680	4912.598633	35.522736
631.478333	712.265930	12380.468750	4872.846680	35.657425
631.813965	718.581604	12279.565430	4824.624512	35.516380
632.149475	722.222412	12161.497070	4791.410645	35.572083
632.484924	735.522644	12072.854492	4766.891113	35.558353
632.820435	731.436035	11993.647461	4742.445313	35.614758
633.155884	729.504150	11911.765625	4702.544922	35.529850
633.491150	720.884949	11858.491211	4676.613281	35.516861
633.826477	721.850891	11760.559570	4642.582520	35.518028
634.161804	712.340149	11697.551758	4636.489746	35.722111
634.497009	709.145203	11632.610352	4596.960938	35.591415
634.832153	710.854187	11592.562500	4562.633301	35.396824
635.167297	714.792175	11526.209961	4513.964355	35.140369
635.502380	713.306091	11454.507813	4492.714355	35.186081
635.837463	702.012146	11383.622070	4466.410645	35.241863
636.172424	703.349609	11316.824219	4451.475586	35.314789
636.507324	714.197754	11235.165039	4416.256348	35.187439
636.842224	725.268860	11129.210938	4383.859863	35.165428
637.177124	728.909668	11003.936523	4332.368652	35.070068
637.511963	720.364929	10889.733398	4283.997559	35.042812
637.846741	715.163757	10786.600586	4236.369629	34.962299
638.181396	716.055359	10676.557617	4189.930664	34.876507
638.516113	724.748779	10581.451172	4149.732910	34.747768
638.850769	732.699219	10490.950195	4116.296875	34.674221
639.185303	727.052185	10406.393555	4082.711670	34.668259
639.519836	723.708496	10292.933594	4050.761475	34.768261
639.854370	720.142029	10206.592773	4020.891846	34.794357
640.188843	724.748779	10122.110352	3989.164795	34.737579
640.523254	729.504150	10056.724609	3965.461914	34.693699
640.857605	730.990234	9983.685547	3938.564453	34.666378
641.191895	730.767273	9914.137695	3910.700928	34.627087
641.526184	725.491760	9843.328125	3881.053955	34.608677
641.860413	718.135803	9788.416992	3846.354736	34.488667
642.194580	716.278259	9764.343750	3815.073242	34.248150
642.528748	716.649719	9725.631836	3783.940430	34.047028
642.862793	716.724060	9655.490234	3769.971436	34.157368
643.196838	716.946960	9575.911133	3767.371094	34.433193
643.530823	708.104980	9502.203125	3754.442383	34.640705
643.864746	716.352539	9440.829102	3728.213867	34.521973
644.198669	718.507324	9385.696289	3698.046631	34.377228
644.532532	724.971680	9341.412109	3668.919922	34.166641
644.866333	719.696106	9361.028320	3655.619873	33.975361
645.200073	711.820068	9346.985352	3643.582764	33.951439
645.533813	717.095520	9331.084961	3636.597900	33.892570
645.867554	714.569275	9282.787109	3620.994141	33.920998
646.201172	718.061523	9295.790039	3610.517578	33.720535
646.534729	722.965515	9291.852539	3605.465088	33.639137
646.868225	725.120300	9298.985352	3611.409424	33.663803
647.201782	717.244141	9281.598633	3604.053467	33.707260
647.535217	715.981018	9302.477539	3591.496094	33.488808
647.868591	719.473328	9290.366211	3598.109375	33.586185
648.201965	727.720886	9293.115234	3600.115234	33.534874
648.535278	722.593933	9264.286133	3598.629150	33.670555
648.868591	724.005676	9263.914063	3567.496826	33.296509
649.201782	730.544373	9226.911133	3563.410156	33.342083
649.534912	731.287415	9206.775391	3566.902344	33.456657
649.868103	723.188416	9144.659180	3553.973633	33.613903
650.201172	717.838623	9116.274414	3534.654541	33.539768
650.534180	711.522888	9088.411133	3515.484619	33.472591
650.867188	712.786072	9072.362305	3495.719971	33.290371
651.200134	716.426819	9038.406250	3494.234131	33.379166
651.533020	722.593933	8990.629883	3473.206299	33.268024
651.865845	725.714661	8954.072266	3463.249756	33.269520
652.198608	726.383484	8896.414063	3420.079834	32.970455
652.531433	729.504150	8885.862305	3406.185303	32.817112
652.864136	725.566101	8856.512695	3399.572266	32.886776
653.196777	794.370422	8915.805664	3518.902344	33.547421
653.529358	797.639709	8867.286133	3489.701904	33.360348
653.861938	801.280579	8814.829102	3445.268555	32.993973
654.194519	735.894226	8691.487305	3290.718750	32.113564
654.526978	739.237793	8651.141602	3278.012939	32.088043
654.859375	739.312073	8583.897461	3269.319580	32.251640
655.191833	730.692932	8549.791016	3263.375732	32.390984
655.524170	720.513489	8492.800781	3252.750244	32.580330
655.856445	719.547607	8464.491211	3234.843018	32.476616
656.188660	729.801331	8422.288086	3214.855713	32.304955
656.520874	729.578430	8382.758789	3185.283203	32.087379
656.853088	727.349304	8395.835938	3163.364014	31.766562
657.185181	724.674500	8395.464844	3143.079346	31.527452
657.517212	719.919006	8435.737305	3156.528320	31.579403
657.849243	724.600159	8460.107422	3166.485107	31.567225
658.181274	721.405090	8517.692383	3188.032471	31.638489
658.513123	731.956055	8565.914063	3186.769531	31.335545
658.844971	730.915833	8664.588867	3220.651367	31.381878
659.176819	735.968445	8757.988281	3246.508789	31.295612
659.508667	730.098572	8864.983398	3277.492920	31.314447
659.840393	730.841553	8920.636719	3295.771484	31.318609
660.172058	725.417480	8985.799805	3300.601318	31.175116
660.503662	723.114075	9006.678711	3305.059570	31.169498
660.835266	720.290527	9006.233398	3304.242188	31.184761
661.166931	716.798340	8936.611328	3295.325928	31.369665
661.498413	724.674500	8890.320313	3288.712646	31.400309
661.829773	724.228699	8791.275391	3247.177490	31.274750
662.161194	734.036621	8692.377930	3201.183838	31.000772
662.492615	725.491760	8540.056641	3143.970947	30.948355
662.823975	731.287354	8389.147461	3101.098389	30.946125
663.155212	726.234802	8227.019531	3051.538330	31.000803
663.486450	730.841553	8071.801270	3002.201416	30.940910
663.817627	727.943787	7956.781250	2959.328857	30.867826
664.148743	723.411316	7829.203125	2923.589111	30.963160
664.479858	719.844727	7755.568848	2878.413086	30.680117
664.810913	722.593933	7654.889160	2839.180908	30.532267
665.141907	727.497986	7582.890137	2822.463135	30.559376
665.472778	725.417480	7495.509766	2800.469482	30.650276
665.803711	720.587830	7469.578125	2791.850586	30.689964
666.134583	718.061523	7449.813965	2768.816650	30.463911
666.465454	729.727051	7427.746094	2754.550781	30.230188
666.796143	731.658875	7381.752441	2737.981201	30.169834
667.126831	731.287415	7365.628906	2720.371338	29.981634
667.457458	725.491760	7347.498535	2713.906982	30.027382
667.788147	719.919128	7332.267090	2696.222656	29.888073
668.118774	716.055359	7292.737793	2688.272217	29.988018
668.449219	714.346375	7265.394531	2680.916504	30.019165
668.779663	719.919006	7263.313965	2677.944580	29.923697
669.110107	727.200745	7258.781250	2664.049805	29.653605
669.440552	723.411316	7248.676270	2653.424561	29.577545
669.770874	726.160461	7209.816406	2637.301025	29.476282
670.101135	725.789001	7189.308594	2633.585693	29.516375
670.431396	723.931396	7160.924316	2633.288330	29.662249
670.761597	717.912903	7128.380371	2619.839600	29.669081
671.091797	718.358704	7097.990234	2602.675781	29.536459
671.421875	722.891113	7048.876465	2571.245850	29.218449
671.751892	729.132568	7006.672363	2551.555420	29.030844
672.081909	723.857117	6952.208496	2542.193359	29.194502
672.411865	724.228577	6927.836426	2532.162354	29.143265
672.741821	727.423645	6880.060059	2515.370117	29.059845
673.071716	729.058350	6846.029785	2495.457031	28.877012
673.401550	728.241028	6807.169434	2492.039063	29.014952
673.731262	727.497864	6796.841309	2493.227783	29.092604
674.060974	726.606262	6754.786621	2481.859619	29.117468
674.390625	731.436035	6722.093262	2455.853516	28.785114
674.720276	725.640381	6661.610840	2433.636963	28.773670
675.049927	726.309082	6639.765625	2410.529053	28.481142
675.379395	727.200684	6604.620605	2392.622070	28.335926
675.708923	725.640381	6570.515625	2371.965820	28.166992
676.038330	722.891174	6519.767090	2361.192139	28.261791
676.367737	720.959290	6474.367676	2349.972412	28.313881
676.697083	724.080017	6459.135254	2345.513916	28.272331
677.026428	733.219238	6440.634277	2328.795898	27.956205
677.355652	729.206848	6410.021484	2311.483398	27.852989
677.684875	732.773438	6402.665527	2306.059326	27.748075
678.013977	725.045898	6395.384277	2303.532959	27.837616
678.343079	726.309082	6420.720703	2315.792969	27.913048
678.672180	722.371094	6422.875488	2309.551514	27.842806
679.001221	721.182190	6472.138184	2310.814453	27.641184
679.330139	725.491760	6514.342285	2299.223389	27.185564
679.659058	723.782776	6530.837402	2298.257568	27.113140
679.987976	729.949951	6557.215332	2312.152100	27.151709
680.316772	726.160461	6591.468750	2322.257324	27.212500
680.645630	727.126465	6651.356934	2317.501709	26.845263
680.974304	719.250305	6695.417969	2306.727783	26.563471
681.302979	719.473328	6731.380859	2304.201660	26.359823
681.631653	718.804504	6763.925293	2323.223389	26.540728
681.960266	726.680664	6776.408203	2329.835938	26.499628
682.288757	725.937561	6796.023926	2338.380859	26.563763
682.617249	723.485596	6797.064453	2330.430420	26.457954
682.945679	718.135742	6764.742188	2323.817383	26.555088
683.274109	719.027405	6713.696777	2301.675293	26.400921
683.602478	723.857117	6644.966309	2288.746826	26.428993
683.930725	725.714661	6566.057129	2262.072021	26.305948
684.259033	723.411316	6470.280762	2240.301514	26.395067
684.587280	724.674500	6393.674316	2214.964111	26.288403
684.915344	723.336975	6333.936035	2195.422607	26.237585
685.243469	727.646545	6264.313965	2164.809814	25.957191
685.571533	724.302917	6197.961426	2137.689209	25.821600
685.899536	731.658936	6138.445313	2123.497559	25.742439
686.227539	729.801270	6105.826172	2118.073486	25.823397
686.555420	728.761047	6081.603516	2109.602783	25.796423
686.883301	722.965515	6076.328125	2092.958984	25.591269
687.211121	719.176025	6074.693359	2077.578369	25.364538
687.538940	718.135742	6076.402344	2071.559814	25.258617
687.866638	719.844727	6065.182129	2061.751709	25.104252
688.194336	720.513489	6054.854004	2062.940674	25.165760
688.521973	718.210144	6027.733887	2048.600342	25.056675
688.849609	713.454773	6032.191895	2045.553833	25.045403
689.177063	719.101746	5996.824219	2035.077148	24.934530
689.504578	723.857117	5948.230469	2020.439453	24.817947
689.832031	729.949951	5864.267578	1997.479980	24.687410
690.159485	726.309082	5795.166504	1976.229492	24.658819
690.486816	723.485657	5726.659668	1960.551636	24.725624
690.814087	716.352539	5662.015625	1945.616699	24.855396
691.141296	716.352539	5561.039063	1932.167969	25.095854
691.468506	714.569275	5486.067871	1904.453125	24.937319
691.795715	718.953125	5395.640625	1887.512085	24.986895
692.122803	713.826172	5355.740234	1849.989258	24.476177
692.449829	720.141907	5298.824219	1835.945923	24.369543
692.776855	723.559875	5252.607910	1805.481934	23.888512
693.103821	732.550598	5199.109863	1793.742065	23.758589
693.430664	730.618652	5137.587402	1778.881470	23.786482
693.757568	722.519714	5089.067871	1772.417114	24.044106
694.084351	711.597168	5026.207520	1761.866089	24.342150
694.411133	707.733398	5006.294434	1745.222290	24.135725
694.737854	710.259766	4963.124512	1723.451660	23.823751
695.064575	715.981018	4951.458984	1702.498413	23.291759
695.391174	716.055359	4914.010254	1691.650024	23.239759
695.717773	711.151367	4909.478027	1683.922485	23.170448
696.044250	715.460876	4911.410156	1686.968872	23.153473
696.370789	715.832458	4924.115723	1685.408691	23.039709
696.697205	730.915833	4965.650879	1689.272461	22.630854
697.023621	726.606262	5017.811035	1683.105347	22.289757
697.349915	736.637207	5071.086426	1688.306519	21.955946
697.676208	729.132568	5106.156738	1698.857422	22.154888
698.002380	733.962219	5175.258301	1728.132690	22.384693
698.328674	725.640320	5269.474121	1745.445190	22.443708
698.654724	729.206848	5375.355957	1758.151001	22.146172
698.980896	725.789001	5467.937500	1764.095215	21.895269
699.306946	731.807556	5570.846191	1777.544067	21.610420
699.632935	727.943848	5653.248047	1781.407837	21.388811
699.958862	729.206848	5687.947266	1784.008423	21.271563
700.284729	721.405090	5664.393066	1779.401733	21.403990
700.610596	720.216248	5610.673340	1777.321167	21.615669
700.936340	714.940735	5530.945801	1763.575195	21.773951
701.262146	720.587708	5424.098145	1726.721069	21.391117
701.587830	719.398926	5284.929688	1694.176392	21.350803
701.913513	724.228699	5148.212891	1657.767944	21.101776
702.239075	715.609558	5014.319336	1642.312988	21.557711
702.564697	712.042969	4897.143555	1611.625977	21.494896
702.890137	714.346375	4763.547363	1577.000977	21.304317
703.215698	720.290588	4661.752441	1551.738159	21.094904
703.541016	726.457703	4573.406738	1532.122070	20.942944
703.866455	723.188416	4516.193848	1520.828125	21.029226
704.191711	720.885010	4439.884766	1504.184204	21.062094
704.517029	717.095520	4367.291016	1490.809937	21.196520
704.842163	720.810730	4303.315918	1484.716919	21.323240
705.167419	723.485657	4262.152832	1469.410645	21.079264
705.492493	725.268860	4235.329590	1452.172363	20.709143
705.817566	723.559875	4210.215332	1433.076538	20.349491
706.142578	723.931458	4187.106934	1425.571899	20.260031
706.467590	724.897278	4156.494141	1418.364624	20.208298
706.792480	725.714661	4145.794434	1415.169556	20.159029
707.117371	729.801270	4146.983887	1417.770142	20.132633
707.442200	732.401855	4152.630371	1414.946655	19.956118
707.766907	727.720886	4147.875488	1403.652710	19.763195
708.091675	721.628113	4146.983887	1397.336914	19.726675
708.416321	713.900574	4158.500488	1400.680664	19.937878
708.741028	711.522766	4163.775391	1402.389648	20.012060
709.065552	704.241211	4178.264648	1401.052124	20.057749
709.390137	708.179199	4190.599121	1394.290527	19.702143
709.714600	716.278137	4209.397949	1406.030273	19.746019
710.039063	717.689941	4228.345215	1403.578491	19.537336
710.363403	717.838623	4259.700684	1417.473022	19.753294
710.687744	718.730225	4311.415527	1411.974609	19.295996
711.012085	722.593994	4360.455566	1410.265625	18.903183
711.336304	726.903503	4402.138672	1402.463867	18.381418
711.660461	723.411316	4439.513184	1404.247070	18.321236
711.984619	728.240967	4467.599609	1406.996216	18.151649
712.308716	725.343201	4490.559082	1415.392456	18.326950
712.632751	722.816895	4467.822754	1413.089233	18.431808
712.956726	726.160461	4426.213379	1416.284180	18.651726
713.280701	730.767273	4377.693359	1400.160522	18.355000
713.604553	735.448303	4324.121094	1391.764282	18.288544
713.928467	729.206848	4279.613770	1372.445679	18.117327
714.252258	721.553711	4222.177734	1364.495117	18.366480
714.575989	720.513489	4179.453613	1354.687134	18.334333
714.899719	722.816895	4134.648926	1341.832764	18.143211
715.223267	722.371094	4102.550781	1323.405762	17.781145
715.546936	719.770447	4065.250732	1315.232422	17.798998
715.870422	721.702209	4036.866943	1305.201538	17.600914
716.193970	723.857117	4008.631836	1300.669067	17.560167
716.517395	723.559875	3982.328857	1290.192505	17.387934
716.840820	719.919128	3943.171143	1280.012817	17.376665
717.164124	720.662109	3903.121826	1275.331909	17.428965
717.487488	725.045898	3875.778564	1265.821045	17.163473
717.810730	727.423645	3852.224609	1263.369141	17.151348
718.133972	730.915833	3800.955811	1248.657227	16.864321
718.457092	730.767273	3761.129639	1235.059692	16.641325
718.780212	730.024231	3710.529297	1224.434448	16.588135
719.103210	726.457703	3668.548096	1214.032227	16.572384
719.426208	724.823059	3615.570313	1197.091064	16.337229
719.749207	727.349304	3561.403564	1180.595825	15.992867
720.072083	726.903564	3524.549561	1176.732178	16.078825
720.394958	723.114075	3485.912109	1170.639404	16.198263
720.717773	718.210144	3441.405029	1169.524902	16.572989
721.040527	717.021301	3397.194580	1164.472290	16.694853
721.363281	716.203918	3355.733643	1165.735352	17.030739
721.685913	716.203918	3338.198486	1159.196777	16.895262
722.008545	720.662109	3321.554688	1148.497192	16.449549
722.331055	720.141907	3297.480469	1143.147339	16.412489
722.653503	721.702332	3285.592529	1143.295898	16.443512
722.976013	727.423645	3258.174561	1143.147461	16.426895
723.298401	734.556702	3254.162109	1138.837891	16.045416
723.620789	727.646667	3242.645264	1127.692505	15.906404
723.943115	721.256531	3227.487549	1121.153809	15.956122
724.265381	719.844788	3213.295654	1120.559448	16.070686
724.587585	724.302917	3195.091553	1115.506714	15.833156
724.909790	717.764221	3202.001709	1114.020630	15.950826
725.231873	711.671387	3204.676514	1102.429443	15.674178
725.553894	714.420715	3204.379150	1107.482056	15.785859
725.875916	766.209656	3254.087646	1132.522095	14.723891
726.197937	773.045471	3254.161865	1136.757324	14.659202
726.519775	773.937195	3261.740479	1127.618042	14.216593
726.841675	727.943787	3221.617188	1092.472900	14.618158
727.163513	723.708496	3244.725586	1092.398560	14.624656
727.485291	716.872620	3258.545898	1089.054932	14.643200
727.806946	710.333984	3284.180420	1097.525513	15.043303
728.128662	711.448547	3288.415283	1093.661743	14.831903
728.450256	714.866516	3310.483398	1095.519409	14.665218
728.771790	721.776611	3321.777344	1089.575073	14.146091
729.093323	726.086243	3334.706055	1097.228271	14.227525
729.414795	724.302917	3332.403076	1099.903198	14.401299
729.736145	721.850891	3322.372070	1100.200317	14.548985
730.057495	715.312317	3322.446289	1092.101440	14.452234
730.378845	716.129639	3343.919922	1090.243896	14.236838
730.700134	718.804504	3349.269531	1088.980713	14.072653
731.021301	721.182190	3342.433594	1079.692871	13.677081
731.342468	720.810730	3323.486328	1079.915649	13.797529
731.663574	719.473328	3331.510986	1079.618530	13.787903
731.984680	726.309082	3348.971924	1080.138550	13.491230
732.305664	725.640381	3358.780273	1072.782715	13.183589
732.626648	728.983948	3363.758545	1074.937378	13.130285
732.947571	725.268860	3369.776611	1082.367676	13.503413
733.268433	728.315247	3376.984375	1084.299683	13.440125
733.589233	715.535156	3361.455078	1087.643311	14.063470
733.909973	710.111084	3343.771240	1085.265625	14.244607
734.230713	714.717957	3319.177002	1074.268677	13.805198
734.551331	722.445313	3300.303955	1060.894409	13.129079
734.871948	723.782776	3250.075439	1047.891357	12.829415
735.192505	720.810608	3198.657959	1045.959351	13.122226
735.513062	722.222473	3147.612061	1046.776733	13.381531
735.833435	724.228699	3110.014648	1036.225708	13.077327
736.153931	723.634216	3066.027344	1033.030640	13.208561
736.474304	720.810730	3024.120850	1018.690247	12.932672
736.794617	719.919128	2985.780518	1017.501526	13.133302
737.114807	720.662109	2960.963623	1007.247742	12.792279
737.434998	724.600159	2949.966797	1007.916443	12.731218
737.755188	726.457703	2953.458984	1003.086731	12.421593
738.075256	728.018066	2970.845703	1005.390137	12.367070
738.395325	724.674500	2979.613281	998.108398	12.126001
738.715271	726.532043	3005.619141	998.331360	11.925797
739.035278	723.782776	3016.319092	992.758606	11.732675
739.355164	726.309082	3039.352783	990.826721	11.435912
739.675049	727.200684	3034.820313	991.941345	11.472457
739.994873	724.005798	3032.888428	996.325256	11.794427
740.314636	724.302917	3025.978516	994.170471	11.724831
740.634277	723.336975	3013.346924	994.616394	11.846211
740.953979	728.166687	2992.764893	988.077637	11.477134
741.273499	733.442200	2969.582275	986.740173	11.327464
741.593140	727.572266	2921.731689	973.142761	11.192008
741.912598	728.092346	2874.251953	969.056091	11.227671
742.232117	722.891174	2824.097900	962.814636	11.418365
742.551453	724.823059	2803.070313	964.746521	11.544510
742.870850	722.965515	2773.423828	952.412292	11.190024
743.190063	718.210144	2745.485596	946.765320	11.274007
743.509338	718.284424	2715.021484	937.700256	10.988719
743.828552	717.169861	2685.597656	933.242188	10.976899
744.147705	718.432922	2652.458740	928.115234	10.841753
744.466797	718.878906	2619.616943	927.372253	10.969073
744.785828	713.380432	2597.771729	928.486816	11.415165
745.104858	718.953125	2580.162109	930.567200	11.369711
745.423706	719.993347	2573.326172	928.932617	11.273705
745.742615	726.680603	2559.877441	931.087402	11.150292
746.061401	717.392761	2552.670166	920.833557	11.085016
746.380249	719.473328	2535.654541	922.245422	11.164750
746.698975	717.838623	2533.276855	922.914063	11.296195
747.017639	727.497986	2516.484619	927.000793	11.151722
747.336304	727.275085	2499.023438	920.016296	10.878589
747.654907	732.996338	2491.816162	923.582764	10.836040
747.973389	735.745544	2488.620850	922.245361	10.639651
748.291931	733.590759	2494.490967	923.136963	10.764165
748.610352	729.578369	2500.063721	912.883240	10.353369
748.928711	726.829285	2514.106934	920.016296	10.809010
749.247070	724.674500	2531.642334	913.403320	10.444504
749.565308	727.720886	2523.766357	910.282532	10.164645
749.883545	730.692932	2506.453857	898.988586	9.477382
750.201782	732.104675	2483.939941	902.926697	9.751033
750.519836	731.584534	2478.738770	906.270325	9.998303
750.837952	728.315247	2472.943115	901.291992	9.914822
751.155884	731.733154	2462.169434	895.050598	9.437935
751.473877	725.640320	2438.912598	887.100159	9.424062
751.791809	722.965393	2422.640137	888.289063	9.726783
752.109619	722.965515	2424.274658	891.261169	9.892127
752.427490	725.194519	2428.064453	887.991699	9.560165
752.745300	728.983948	2434.974365	893.267273	9.629791
753.062988	731.287354	2427.544189	889.700684	9.338994
753.380615	727.795166	2417.216064	888.140442	9.491138
753.698303	722.965515	2410.157227	879.224121	9.261461
754.015808	715.832336	2391.433350	878.481140	9.706893
754.333374	715.609436	2387.346680	885.094055	10.138233
754.650757	713.231750	2385.265869	887.248840	10.407508
754.968262	717.244141	2393.364990	887.100159	10.133877
755.285583	720.587708	2394.553711	876.326355	9.303573
755.602905	722.668274	2388.460938	868.524414	8.755960
755.920105	714.420654	2376.646729	862.208740	8.890974
756.237305	708.253479	2360.225830	866.666992	9.589355
756.554443	706.470276	2352.498291	863.694824	9.551754
756.871582	712.934570	2356.585205	867.707092	9.416389
757.188599	729.504150	2368.250732	862.654541	8.125136
757.505615	730.692871	2380.287598	866.666931	8.242877
757.822510	731.361633	2379.247314	860.796936	7.854629
758.139465	715.535156	2389.055420	869.936218	9.226125
758.456238	715.906738	2397.228760	871.347961	9.245178
758.773010	712.117371	2423.457275	877.515076	9.664807
759.089783	718.507324	2435.865967	867.855774	8.696404
759.406433	724.748779	2438.986572	860.574158	7.923368
759.723145	727.052185	2447.977295	861.391418	7.806222
760.039673	730.915833	2458.082764	865.700989	7.803829
760.356201	727.349365	2461.426270	872.239563	8.355466
760.672668	724.748779	2455.927734	867.409973	8.240696
760.989136	718.284424	2455.705078	866.666992	8.540394
761.305481	714.346375	2449.834961	870.753601	9.012288
761.621826	714.717834	2447.754639	871.645264	9.055055
761.938049	722.445374	2456.225098	877.515137	8.944029
762.254333	724.228577	2481.859375	877.143616	8.700066
762.570496	725.120300	2528.967529	886.802979	8.963214
762.886597	724.377258	2602.898682	891.781250	8.911476
763.202637	726.829285	2727.132568	887.768860	8.045759
763.518677	724.154358	2879.750244	892.152771	7.793595
763.834656	719.176086	3021.965576	894.456116	7.611639
764.150574	721.850891	3137.283936	909.093750	7.751937
764.466370	727.423645	3207.648438	919.570496	7.747154
764.782288	730.618652	3238.855469	924.177246	7.716918
765.097961	733.293457	3222.509033	924.177246	7.668431
765.413696	741.689758	3168.045166	907.756348	6.844281
765.729309	742.209961	3071.377686	894.901917	6.555645
766.044861	738.643372	2952.864502	886.059875	6.657713
766.360474	728.389587	2822.686279	874.320068	6.967995
766.675903	729.578430	2700.680908	866.295410	6.936066
766.991394	729.132629	2603.195557	850.246094	6.462615
767.306763	734.110840	2506.825195	851.063293	6.597366
767.622131	724.897400	2432.671143	844.896179	7.026621
767.937378	728.463867	2352.349854	840.512390	6.900024
768.252625	725.566101	2308.214111	832.116211	6.732395
768.567810	732.104675	2265.787109	833.007813	6.579142
768.882996	719.919006	2230.270508	830.630066	7.330152
769.197998	722.222412	2185.317139	828.252380	7.246965
769.513062	724.302917	2145.490967	825.503174	7.120821
769.828064	732.550537	2114.506592	822.159668	6.484224
770.142944	726.680664	2092.810303	823.422791	7.081475
770.457825	721.479492	2071.337158	822.308289	7.469587
770.772705	715.312317	2052.241211	825.874756	8.269881
771.087402	720.141907	2029.058594	812.500305	7.056094
771.402100	725.045898	1997.851563	808.265076	6.538247
771.716736	731.584656	1979.350098	803.435364	5.758351
772.031372	729.727051	1962.260376	812.723206	6.733786
772.345947	728.315247	1963.375000	805.887390	6.280841
772.660461	725.343201	1948.068481	804.921387	6.508264
772.974854	731.510254	1930.161743	793.701660	5.188448
773.289246	733.590759	1905.716187	793.701660	5.128367
773.603638	732.327637	1893.159180	792.587097	5.191060
773.917908	724.674377	1886.323242	798.308411	6.338751
774.232178	717.095520	1877.704102	800.760437	7.208711
774.546265	718.210144	1861.506226	800.240295	7.174882
774.860474	724.600159	1847.388672	796.376648	6.392699
775.174561	732.179016	1831.710571	793.850281	5.608868
775.488586	730.247070	1821.308228	795.782043	6.006535
775.802551	729.355469	1814.472290	801.503418	6.648865
776.116516	724.897400	1807.710938	796.971008	6.656143
776.430359	726.977783	1799.240356	791.992676	6.063337
776.744202	720.885010	1777.543945	790.878113	6.624002
777.057922	723.262695	1773.902954	787.757507	6.138620
777.371704	729.132629	1773.605835	791.101074	5.932986
777.685303	732.179016	1764.169434	781.144531	4.744764
777.998962	732.847717	1747.525757	783.373535	4.979493
778.312500	723.634094	1721.891235	773.491394	4.994434
778.626038	728.761047	1728.281250	778.395325	4.965810
778.939453	723.336975	1724.937866	787.980286	6.453999
779.252869	727.275085	1748.120117	794.221863	6.557977
779.566223	713.306152	1738.460815	788.574768	7.342172
779.879578	715.981018	1747.674194	780.475769	6.251350
780.192749	706.990417	1735.339966	773.268372	6.445080
780.505920	715.237976	1736.974609	774.011475	5.752314
780.819031	717.467102	1717.804565	776.314880	5.882792
781.132141	728.463867	1699.823242	787.163025	6.042991
781.445190	731.138855	1692.096069	787.460205	5.860963
781.758118	730.321472	1681.470581	781.887512	5.421446
782.071045	722.742615	1675.303345	780.772949	6.092035
782.383911	717.838623	1659.328491	782.184753	6.834501
782.696838	711.968689	1657.247925	781.070129	7.310162
783.009583	716.055359	1649.520508	775.423157	6.359937
783.322266	721.850891	1646.696899	776.463379	5.905036
783.634888	724.897400	1633.545410	776.314758	5.658666
783.947510	720.364929	1621.211060	782.927734	6.944893
784.260132	715.089355	1600.629272	785.528320	7.954352
784.572571	718.432922	1601.743774	783.745117	7.394022
784.885010	723.336975	1600.183594	778.098145	6.245239
785.197449	726.011902	1610.511597	771.782410	5.174734
785.509766	718.284424	1599.068848	770.444885	5.922046
785.822083	720.513489	1599.366211	763.906250	4.937433
786.134277	715.683838	1589.929688	761.008484	5.184428
786.446533	727.423645	1581.533569	761.231384	3.958242
786.758606	726.531982	1584.951294	758.259277	3.696014
787.070740	735.522644	1586.140137	761.454285	3.048567
787.382690	734.853943	1592.307251	763.831970	3.379546
787.694641	734.853821	1601.743774	772.302490	4.319887
788.006653	730.692932	1614.598145	773.491394	4.841974
788.318481	733.739319	1649.520508	777.726624	4.803255
788.630310	733.293518	1668.318970	774.531555	4.410365
788.942017	732.699158	1689.272461	776.166199	4.544036
789.253784	727.572266	1691.352905	772.451111	4.656541
789.565430	725.491760	1691.129883	773.714172	4.993839
789.877014	718.284424	1683.699707	767.621399	5.110441
790.188538	711.968750	1675.823608	771.708008	6.197952
790.500061	709.665344	1652.715454	773.119812	6.728642
790.811462	714.049133	1637.186157	778.469543	6.978424
791.122925	717.095520	1612.740601	772.971191	6.238595
791.434204	716.501160	1589.186523	770.816406	6.223921
791.745483	717.467041	1560.282837	766.209656	5.783306
792.056702	709.293762	1540.741211	763.609070	6.532620
792.367920	707.956360	1526.549438	763.757629	6.816729
792.678955	707.362000	1510.500000	761.231384	6.707364
792.990112	717.838623	1504.778809	762.494568	5.674630
793.301086	724.080078	1498.091431	762.866028	5.011031
793.612122	728.092285	1498.537109	772.302490	5.738270
793.922974	732.104675	1485.459961	770.742188	5.128724
794.233826	734.185242	1476.617798	762.345886	3.793024
794.544556	730.841553	1483.082397	753.949707	3.071909
794.855286	723.188416	1489.323730	754.098328	4.034524
795.166016	721.479431	1502.029663	758.705078	4.769155
795.476624	721.553711	1505.521851	759.002258	4.776794
795.787292	726.011902	1507.379272	757.664856	4.050970
796.097778	728.835388	1502.921265	762.123047	4.300254
796.408264	724.080017	1508.865356	762.866028	4.942245
796.718689	719.027405	1520.233765	772.748291	6.705000
797.029053	717.838562	1538.437866	769.330383	6.274904
797.339355	724.377258	1545.199341	766.283875	5.105444
797.649658	733.590820	1543.118774	758.036316	3.019722
797.959839	730.544373	1532.270874	751.423401	2.604258
798.270020	731.436035	1511.465942	753.355225	2.810045
798.580078	732.253235	1497.571289	759.002258	3.495151
798.890137	736.117004	1478.921265	762.940369	3.611094
799.200195	731.138733	1476.320679	763.163269	4.297546
799.510071	721.553711	1467.181641	763.088928	5.570502
799.820007	718.655945	1469.262085	758.259277	5.276180
800.129883	719.101746	1453.286987	757.739075	5.262613
800.439575	725.789001	1461.460327	751.423401	3.484491
800.749329	722.593994	1453.361328	753.132324	4.178940
801.058960	726.383362	1445.485229	755.658691	4.071096
801.368591	716.649719	1428.321289	756.921692	5.658786
801.678162	719.919128	1417.324341	763.831970	6.296604
801.987671	721.182190	1411.380249	758.184998	5.361187
802.297119	726.680603	1406.030273	756.847473	4.440551
802.606506	732.996277	1406.699219	753.206726	2.999905
802.915894	728.835388	1403.504028	755.361511	3.931726
803.225159	721.256531	1397.782715	762.197327	6.051620
803.534424	718.730225	1382.996582	758.556458	5.995522
803.843628	721.627991	1379.504272	761.677246	6.087657
804.152771	727.869446	1379.727173	752.538025	3.784350
804.461792	724.005676	1395.479370	752.389404	4.227080
804.770874	722.073792	1393.027344	744.810486	3.388714
805.079773	723.782898	1390.575562	745.850769	3.309555
805.388733	719.250305	1390.723999	751.497742	4.802487
805.697571	722.445313	1402.686890	755.510071	4.860738
806.006470	717.838562	1409.299805	755.212891	5.405123
806.315125	719.473206	1406.179077	755.212891	5.204511
806.623901	717.615662	1416.284180	755.584412	5.434444
806.932495	717.169861	1427.875366	752.389343	4.955566
807.241150	717.467102	1421.485352	752.166504	4.928764
807.549622	713.974915	1416.655640	753.206726	5.583163
807.858154	718.730225	1398.897339	750.903320	4.730175
808.166565	724.005676	1405.361694	742.878601	2.769907
808.474915	728.315247	1388.866577	739.609314	1.709794
808.783264	724.005676	1386.042969	744.884766	3.153763
809.091492	720.067688	1370.736694	747.336731	4.190924
809.399719	719.770447	1370.067871	747.262512	4.227614
809.707825	729.281250	1355.578735	746.816650	2.799852
810.015930	730.915833	1344.730591	746.222229	2.493651
810.323975	729.727051	1342.427246	748.971436	3.140914
810.632080	725.789001	1339.975220	751.646301	4.210010
810.939880	720.810730	1339.009277	747.188171	4.266824
811.247864	727.572266	1327.640991	747.634033	3.343245
811.555664	724.525879	1315.604004	748.376953	4.035182
811.863464	724.748718	1313.969360	756.401672	5.372004
812.171143	717.615723	1302.675293	746.073547	4.864090
812.478882	724.451477	1307.727905	735.671204	1.923569
812.786438	732.104675	1308.693726	728.166687	-0.682980
813.094055	733.962219	1309.659668	731.584656	-0.412988
813.401489	731.138855	1300.074585	735.522644	0.770525
813.708984	722.816895	1296.285278	739.832214	2.967089
814.016357	723.039856	1291.678589	746.965271	4.207489
814.323730	718.433105	1296.879761	747.782532	5.073834
814.630981	710.928467	1289.523804	741.615417	5.303698
814.938232	706.990417	1285.362915	741.764099	6.012333
815.245361	703.944031	1275.257690	745.553528	7.283126
815.552490	718.507324	1277.115234	753.206726	6.211763
815.859619	718.581604	1277.115112	746.445129	4.988694
816.166565	722.445313	1284.396851	737.157288	2.618015
816.473572	719.324646	1278.749756	741.615417	3.984586
816.780457	719.398926	1277.040894	742.878601	4.210529
817.087341	722.222412	1274.217407	754.618469	5.868904
817.394043	723.262634	1283.876709	745.999329	4.055676
817.700806	728.463867	1301.486450	747.485413	3.319511
818.007507	725.714661	1312.706177	747.188171	3.658232
818.314209	725.343201	1322.662720	755.212891	5.000622
818.620667	722.519714	1322.959961	760.339783	6.298723
818.927246	724.005676	1335.739868	752.612305	4.676317
819.233704	725.714661	1350.674927	744.959045	3.079297
819.540161	722.148193	1381.436157	739.609375	2.648491
819.846497	714.049133	1418.290405	743.250183	4.146455
820.152832	706.395996	1472.382813	746.890930	5.286636
820.458984	712.414551	1534.945679	753.280945	4.968370
820.765259	719.993408	1598.251587	755.138611	4.001694
821.071350	722.073914	1686.300171	764.872253	4.438620
821.377502	715.386658	1843.450562	768.736023	4.729285
821.683472	714.346375	2149.652100	779.286926	4.524510
821.989441	724.302917	2670.811279	785.379700	3.137761
822.295349	729.206848	3390.953125	797.788330	2.576560
822.601196	726.531982	4195.577637	811.311462	2.443885
822.907043	720.364807	4861.329590	826.915039	2.573077
823.212769	718.730164	5260.409668	833.230713	2.521106
823.518494	725.937500	5311.455566	842.518555	2.542375
823.824097	722.148132	5085.352539	840.735352	2.717893
824.129700	714.346375	4702.544922	836.351501	3.059154
824.435242	710.185364	4325.532715	817.850037	2.977990
824.740723	714.272156	3991.468018	803.806824	2.732051
825.046082	722.073914	3680.734131	796.822449	2.526432
825.351501	719.844727	3351.572998	792.289978	2.752763
825.656799	718.804504	3037.123779	788.277588	2.996700
825.962036	717.169861	2759.380127	775.274597	2.845189
826.267212	722.816895	2545.388428	768.290100	2.495003
826.572449	720.216309	2433.191162	761.305664	2.398713
826.877502	727.943787	2439.952881	760.636902	1.909634
827.182495	720.439209	2545.759766	767.472839	2.576733
827.487488	728.018066	2683.888428	772.525391	2.275576
827.792419	719.993347	2787.986572	782.184753	3.007331
828.097290	727.275085	2820.531250	778.246765	2.435043
828.402100	726.606262	2763.169678	776.612061	2.455401
828.706848	726.086182	2629.721924	772.822571	2.455112
829.011597	720.216309	2459.940186	777.206482	3.275817
829.316223	715.163757	2284.883057	769.850525	3.483857
829.620789	717.987122	2132.265381	766.729797	3.446470
829.925354	722.668274	1994.805054	758.036377	2.780212
830.229797	722.668274	1872.874390	755.584412	2.861760
830.534302	718.061523	1757.853882	752.017822	3.265681
830.838562	717.615662	1640.604126	756.773254	4.242479
831.142944	714.866394	1533.682495	756.178772	5.045379
831.447144	718.655823	1454.698608	752.835144	4.643660
831.751404	723.114075	1405.138672	745.850769	3.333706
832.055542	729.058350	1376.309204	751.720642	3.501315
832.359619	729.727051	1351.046387	753.058105	3.755083
832.663635	726.977844	1359.516846	752.760925	4.076125
832.967651	725.937683	1400.680664	750.829041	3.689013
833.271545	723.559875	1477.212280	742.952942	2.573211
833.575439	720.216309	1582.796509	739.832214	2.274096
833.879211	717.467041	1702.869751	737.083008	1.990655
834.183044	721.330811	1836.911743	744.141785	2.044762
834.486694	723.559875	1926.372437	741.912598	1.525817
834.790344	728.315247	1960.922974	741.838379	1.097116
835.093933	720.810730	1931.796387	741.095398	1.675054
835.397522	716.649719	1878.818481	744.364746	2.384768
835.700928	712.637390	1804.070190	748.154114	3.254137
836.004395	718.581543	1737.049194	745.033386	2.597220
836.307739	721.627991	1668.616211	738.420410	1.773245
836.611023	722.073914	1614.449585	729.578369	0.840953
836.914307	720.736328	1539.626587	736.711426	1.950823
837.217529	726.903503	1463.689331	743.027161	2.188378
837.520691	729.949890	1395.776733	750.680420	3.113502
837.823730	729.355469	1332.470703	739.832214	1.737105
838.126831	719.101807	1281.721924	735.968506	2.997884
838.429749	716.649719	1232.384888	732.179016	3.011099
838.732727	720.142029	1209.871216	735.002502	3.034427
839.035522	721.479492	1189.437988	736.785828	3.270875
839.338379	719.250305	1181.487671	730.544373	2.443348
839.641113	715.683777	1185.574219	731.436035	3.352326
839.943848	721.850891	1207.345093	735.151123	2.739524
840.246460	725.640381	1238.923462	740.723816	2.938619
840.549072	725.491699	1259.653931	741.689758	3.032423
840.851563	716.426819	1268.570313	734.928223	3.350832
841.154053	713.231750	1260.471313	736.934387	4.331309
841.456482	723.708496	1244.570679	730.767273	1.355210
841.758850	728.686768	1226.217773	727.275085	-0.283738
842.061157	731.956116	1207.790649	723.708496	-1.733296
842.363403	719.621887	1186.614380	736.117004	3.532202
842.665588	720.364929	1164.026489	741.169678	4.689329
842.967712	721.330811	1145.450806	740.055115	4.414860
843.269775	726.829285	1130.070190	730.915833	1.013426
843.571777	731.435974	1109.191040	724.971680	-1.711240
843.873840	733.070618	1085.191284	725.714661	-2.089044
844.175659	730.692932	1064.683716	726.829285	-1.156813
844.477600	725.343201	1049.228638	739.089172	4.244084
844.779297	726.532043	1037.860474	745.553528	6.109781
845.081116	728.166687	1025.823364	752.240723	8.087853
845.382751	733.070618	1010.368408	748.971436	5.734203
845.684387	725.789063	1005.018555	740.872375	5.401762
845.985962	719.324707	995.582092	735.894226	5.997856
846.287537	711.745789	993.501648	732.996338	7.542185
846.588989	714.569275	986.888733	734.705322	7.394274
846.890381	725.789001	986.368652	729.652771	1.482759
847.191711	732.550537	983.842285	731.213135	-0.532211
847.493042	726.829285	982.281982	736.562927	3.810350
847.794250	727.349365	975.594727	748.005554	8.320876
848.095459	727.646545	973.365723	743.250183	6.350191
848.396606	733.813721	961.997314	732.550537	-0.553582
848.697693	728.166687	964.746582	719.101746	-3.831662
848.998657	722.668274	960.659973	724.823059	0.905403
849.299622	721.925293	962.666077	723.931396	0.833304
849.600464	717.541321	955.904480	725.194580	3.210756
849.901367	717.987122	957.316223	722.816895	2.018047
850.202087	719.547546	958.876648	728.315247	3.663449
850.502808	723.262695	960.882813	738.791931	6.535320
850.803467	723.782776	964.152039	736.711487	5.378687
851.104065	718.507324	967.049866	734.110840	6.278006
851.404663	723.114075	968.833191	726.011902	1.179325
851.705139	729.727051	960.585510	715.906738	-5.986487
852.005615	733.665039	949.440125	722.816895	-5.027524
852.306030	723.262695	946.022217	721.330872	-0.867224
852.606384	718.655945	939.632141	727.720947	4.102253
852.906616	713.751953	935.471191	731.881836	8.176955
853.206909	718.655945	935.396973	731.138855	5.759367
853.506958	714.643555	935.917053	735.374023	9.368709
853.807129	720.810730	940.746765	721.702393	0.405419
854.107178	726.383484	938.740540	724.674377	-0.804827
854.407166	722.073792	946.988098	724.451477	1.057152
854.707092	717.541321	943.867493	726.829285	4.103796
855.007019	710.408264	943.124512	726.457703	6.896570
855.306763	711.151367	945.353577	726.680603	6.630696
855.606567	709.516785	951.149170	725.863281	6.765027
855.906250	717.912903	945.799316	725.343079	3.260473
856.205933	721.107910	937.774658	722.296692	0.548668
856.505493	730.321472	930.270020	727.572205	-1.374987
856.805054	729.281250	933.985168	727.869446	-0.689681
857.104492	731.881836	932.722107	727.126465	-2.367738
857.403931	730.915833	938.740540	729.801331	-0.536270
857.703308	731.064453	938.369080	731.213074	0.071692
858.002563	730.841614	934.802490	739.014832	4.007248
858.301819	727.572266	931.830383	736.562805	4.401558
858.601013	719.621887	930.790222	735.076843	7.318785
858.900208	717.987244	945.353516	732.922058	6.568615
859.199219	717.392761	945.204895	734.036621	7.305958
859.498291	716.352539	946.245117	732.030457	6.819671
859.797302	720.216309	941.192566	731.510315	5.110959
860.096191	723.262695	934.579590	728.166748	2.320710
860.395020	725.491699	933.465088	728.686829	1.536317
860.693787	725.045898	925.440430	723.559875	-0.741549
860.992554	721.850891	926.554932	724.823059	1.451934
861.291260	721.702332	916.969910	732.922058	5.745821
861.589844	724.451599	911.768738	735.002502	5.632642
861.888428	722.073792	912.214539	728.835449	3.556133
862.186890	723.931396	917.044189	723.337097	-0.307747
862.485413	716.501160	920.907898	724.897461	4.107644
862.783813	712.637390	921.279480	731.807556	9.188063
863.082153	706.395996	922.988342	733.145020	12.349939
863.380371	704.166809	918.307312	734.631042	14.226283
863.678589	716.798340	914.443604	729.652649	6.503727
863.976746	725.566101	915.260986	723.782715	-0.940134
864.274902	733.367859	925.068909	719.993347	-6.976755
864.572937	728.984070	930.492981	723.262634	-2.839297
864.870911	727.349304	929.155518	729.132507	0.883622
865.168884	732.030457	931.236023	734.705261	1.342736
865.466736	729.281250	931.384521	731.956055	1.323484
865.764587	730.767273	936.511475	730.767151	-0.000059
866.062317	722.816895	940.375183	723.039734	0.102427
866.360107	727.646545	943.124451	719.919128	-3.586176
866.657715	727.200684	938.517761	724.154297	-1.441619
866.955322	730.544373	935.322693	724.005676	-3.193061
867.252808	725.566101	931.087402	723.708496	-0.903850
867.550293	721.628113	933.242188	715.163757	-3.054785
867.847717	720.216309	920.239197	718.953125	-0.631519
868.145081	717.838623	915.706726	725.268860	3.755146
868.442383	717.912903	918.753113	728.612488	5.327412
868.739624	714.272034	922.914124	728.166687	6.659564
869.036804	721.330872	934.505371	724.897278	1.672999
869.333984	724.823059	929.898621	727.274963	1.195610
869.631042	731.510254	931.236023	724.451477	-3.534235
869.928101	733.442139	921.873840	724.302917	-4.850151
870.224976	725.194519	927.149231	726.606262	0.699039
870.521851	723.262695	933.093567	732.030457	4.178490
870.818726	714.940735	940.598145	739.386414	10.833094
871.115479	720.513489	929.898621	738.123230	8.410215
871.412231	715.163757	931.904785	737.974609	10.524473
871.708862	716.649719	931.830383	729.429749	5.939209
872.005493	715.015076	938.443359	722.965515	3.558385
872.302063	717.987122	936.437195	718.210144	0.102093
872.598572	721.850891	937.625977	722.148132	0.137755
872.895020	725.640320	940.598145	724.674377	-0.449364
873.191406	725.491760	944.090393	729.206848	1.699502
873.487671	719.250305	950.108948	731.956055	5.503692
873.783997	718.135925	961.625793	734.110840	6.560813
874.080200	719.696228	960.585632	732.922058	5.490416
874.376343	725.045959	960.659912	724.897400	-0.063052
874.672424	718.655945	950.257507	726.011902	3.176126
874.968445	718.135803	940.598145	724.228699	2.738843
875.264465	709.591003	931.087402	730.693054	9.527040
875.560364	709.516785	933.242188	727.795166	8.170007
875.856201	717.244141	943.050110	732.996338	6.975988
876.152039	728.538147	950.480469	726.383484	-0.970821
876.447754	731.435974	947.285400	723.336975	-3.752152
876.743469	725.194519	949.885925	717.615662	-3.373007
877.039063	715.460938	943.124451	722.222473	2.969969
877.334595	720.959290	944.981995	729.206848	3.681573
877.630127	714.049133	943.347351	733.293518	8.392732
877.925537	718.210144	956.350342	734.779602	6.957859
878.221008	708.922302	962.740295	732.996338	9.484763
878.516296	709.293762	968.238708	731.064453	8.407459
878.811646	709.591003	972.473938	728.240967	7.094398
879.106812	716.724060	987.185974	723.336975	2.445045
879.401978	722.148132	1004.870056	721.925293	-0.078819
879.697083	725.640381	1016.461243	730.321472	1.609613
879.992126	724.451477	1036.374390	729.875671	1.738953
880.287109	728.018066	1075.680542	728.018066	0.000000
880.582031	733.367859	1147.085449	723.634094	-2.352756
880.876892	734.333740	1265.895508	734.556641	0.041933
881.171753	736.265625	1462.426147	741.392578	0.706036
881.466492	731.138855	1772.193970	749.417236	1.755755
881.761230	730.692932	2149.874756	752.017822	1.502619
882.055786	728.240906	2521.834229	760.785461	1.814489
882.350403	720.141907	2771.268555	754.618469	1.680860
882.644958	720.513428	2876.406982	756.030273	1.647430
882.939453	713.528992	2836.060547	749.565918	1.697828
883.233826	717.615662	2727.801514	751.646301	1.692910
883.528137	709.665222	2578.601563	745.999329	1.944106
883.822449	708.476379	2450.652344	741.095398	1.872315
884.116577	709.293762	2329.761963	747.485352	2.356824
884.410828	714.569336	2210.654785	745.107727	2.041220
884.704956	720.513489	2058.854248	748.674255	2.104155
884.999023	723.262695	1881.567871	733.070618	0.846748
885.292969	721.925293	1695.959595	727.720886	0.595009
885.586914	721.182312	1534.871460	726.457703	0.648330
885.880798	724.451599	1404.321411	732.327637	1.158463
886.174622	728.018066	1314.638062	730.990173	0.506649
886.468384	726.086182	1255.270142	725.268860	-0.154449
886.762085	717.615723	1217.450073	727.275085	1.932513
887.055664	716.352539	1175.617676	726.532043	2.216477
887.349304	716.946960	1134.082397	732.253235	3.669378
887.642822	713.974792	1091.655640	730.692932	4.426526
887.936340	710.705505	1072.336914	733.367859	6.266699
888.229736	708.625000	1062.900513	733.219238	6.942122
888.523071	712.488770	1054.801392	729.504089	4.970696
888.816284	718.210022	1041.501221	734.928223	5.171251
889.109619	728.018066	1020.473572	736.191406	2.794729
889.402710	729.727051	1007.322021	736.117004	2.301898
889.695862	734.185242	993.501709	740.500916	2.435508
889.988892	727.498047	978.195374	738.569031	4.416076
890.281921	723.114136	961.403015	736.488525	5.612679
>>>>>End Processed Spectral Data<<<<<
