Jaz Data File
++++++++++++++++++++++++++++++++++++
Date: Fri Jun 04 17:07:50 2021
User: jaz
Dark Spectrum Present: Yes
Reference Spectrum Present: Yes
Processed Spectrum Present: Yes
Spectrometers: JAZA3586
Integration Time (usec): 120000 (JAZA3586)
Spectra Averaged: 10 (JAZA3586)
Boxcar Smoothing: 1 (JAZA3586)
Correct for Electrical Dark: No (JAZA3586)
Strobe/Lamp Enabled: Yes (JAZA3586)
Correct for Detector Non-linearity: No (JAZA3586)
Correct for Stray Light: No (JAZA3586)
Number of Pixels in Processed Spectrum: 2048
>>>>>Begin Processed Spectral Data<<<<<
W	D	R	S	P
191.335022	0.000000	0.000000	0.000000	0.000000
191.713211	229.818314	229.892624	231.898804	2799.733154
192.091385	460.082428	468.552979	461.345612	14.912650
192.469528	686.408508	696.142273	695.324890	91.602600
192.847641	692.724304	707.659180	695.101990	15.920358
193.225739	702.606506	714.197754	708.922302	54.487629
193.603790	719.547546	727.423584	715.460938	-51.886608
193.981842	727.869446	730.915833	728.835388	31.707806
194.359863	736.340027	734.408020	732.104675	219.220322
194.737854	738.791992	737.900208	741.541077	-308.267731
195.115829	739.163513	739.312012	742.432800	2201.561768
195.493774	740.203796	734.631042	741.615479	-25.331858
195.871704	741.615479	730.247131	742.432800	-7.189451
196.249603	741.912659	727.200745	747.039551	-34.848572
196.627457	738.346191	728.166687	747.262512	-87.590912
197.005310	736.934387	731.658875	744.736145	-147.886246
197.383133	741.169678	738.346130	737.751770	121.050125
197.760910	750.383118	746.445129	736.191406	360.379730
198.138687	758.556458	749.268738	733.367859	271.203247
198.516449	765.095154	740.203674	735.225403	119.999901
198.894180	755.064270	727.052185	738.717712	58.355377
199.271866	748.451355	730.544373	739.163574	51.866810
199.649536	735.819824	735.076843	736.340027	-70.015610
200.027191	733.144958	743.324524	733.293640	1.460589
200.404816	728.909668	743.547363	727.646545	-8.629245
200.782410	730.544373	754.989929	729.578430	-3.951403
201.159988	727.200684	768.513000	724.971680	-5.395495
201.537537	725.566101	774.308594	730.321472	9.756110
201.915070	721.702332	775.051758	724.080078	4.456930
202.292557	726.606262	771.930969	730.247253	8.033127
202.670029	730.470032	773.194153	730.172852	-0.695579
203.047485	734.259460	771.633789	734.705322	1.192963
203.424911	728.389587	768.215820	737.380188	22.574570
203.802292	722.296692	763.163269	737.008606	35.999870
204.179688	716.872742	763.014648	742.729980	56.038513
204.557037	725.640381	759.819641	736.191406	30.869671
204.934357	727.052063	759.522461	735.522705	26.087275
205.311661	731.658875	760.934143	729.058289	-8.883218
205.688934	723.188416	759.225159	732.773438	26.597914
206.066177	728.389648	764.054871	728.463867	0.208098
206.443390	721.851013	758.184998	727.646545	15.950721
206.820587	725.045959	758.259277	731.584656	19.686972
207.197769	728.761169	754.915710	737.231628	32.386189
207.574921	732.773438	757.962097	734.036621	5.014890
207.952042	733.219299	761.454285	728.389465	-17.105848
208.329147	719.101746	760.488342	729.652771	25.493822
208.706223	758.482178	803.212402	773.045593	32.558334
209.083267	762.717468	802.915222	771.113708	20.887337
209.460297	767.547119	795.782166	769.850586	8.158183
209.837280	729.132629	745.702148	734.482422	32.286949
210.214264	718.061523	745.553528	732.550598	52.702869
210.591217	714.792236	749.045715	729.355530	42.516247
210.968124	715.981018	758.630798	723.336975	17.247351
211.345016	722.519714	766.432556	725.863281	7.614098
211.721893	724.971680	778.469666	722.222473	-5.138897
212.098724	721.627991	778.469543	723.114075	2.614432
212.475555	712.860168	778.692566	723.485657	16.140211
212.852356	708.922180	769.850403	730.247131	35.000122
213.229126	712.117188	770.965027	730.544373	31.313274
213.605865	719.621826	762.048645	721.107910	3.502700
213.982590	725.120300	768.364441	715.015137	-23.367706
214.359283	720.513489	757.590515	713.974854	-17.635275
214.735931	718.284424	757.218994	721.850891	9.160155
215.112579	707.733459	751.274841	721.850891	32.423023
215.489197	701.343445	748.302734	717.689941	34.809933
215.865799	704.241211	744.216003	724.600098	50.929314
216.242355	718.284424	742.804260	720.290588	8.181803
216.618896	730.767273	749.417297	726.903564	-20.716909
216.995407	727.423645	758.184998	715.237976	-39.613567
217.371902	721.702332	761.602844	716.649719	-12.663026
217.748367	724.005676	764.352051	717.244141	-16.758718
218.124802	723.039734	757.887695	721.628113	-4.050800
218.501236	722.593933	754.841309	724.005676	4.377854
218.877609	714.197754	751.274841	720.587830	17.234568
219.253983	724.154297	754.767029	719.770447	-14.320349
219.630295	728.835449	757.590576	723.931396	-17.054533
220.006592	728.761047	758.927979	728.761047	0.000000
220.382889	718.284363	751.126221	725.268860	21.267057
220.759140	717.169922	746.370850	729.058289	40.712292
221.135391	713.306152	746.965271	729.429871	47.902973
221.511581	715.906738	745.181946	734.482422	63.451927
221.887772	711.225586	747.931152	723.634216	33.805855
222.263931	717.764343	757.739197	719.621826	4.646628
222.640060	717.541321	772.599670	722.891174	9.716698
223.016159	724.748718	769.553223	732.104797	16.418169
223.392212	717.764343	758.556458	732.773438	36.794106
223.768265	719.324646	756.253113	731.287415	32.394436
224.144302	708.699402	757.293396	724.674377	32.874382
224.520294	707.807800	757.293396	719.027527	22.672712
224.896286	717.021301	761.528564	722.371094	12.020043
225.272217	722.965515	765.912415	718.358704	-10.726762
225.648148	734.853943	771.336609	723.114075	-32.179306
226.024048	723.634094	767.695801	721.330811	-5.227405
226.399902	719.176025	770.370605	726.011902	13.352735
226.775772	702.235046	760.414063	727.646545	43.678116
227.151581	703.646790	756.401672	721.182129	33.239273
227.527374	703.721130	751.274841	724.451477	43.593540
227.903137	715.089355	760.636902	721.256531	13.540082
228.278870	718.433044	765.020813	725.937683	16.108603
228.654572	714.717957	763.609070	721.627991	14.133518
229.030273	711.002747	763.609070	725.194580	26.977428
229.405930	707.436279	760.636963	720.439148	24.441168
229.781555	708.402161	757.070374	719.398926	22.595375
230.157181	714.866516	755.807312	718.655945	9.255875
230.532761	711.597168	753.280945	719.993347	20.142559
230.908325	716.203918	762.568848	722.593994	13.782132
231.283859	715.089417	760.339783	725.045959	22.003231
231.659332	719.547546	759.671082	720.216248	1.666606
232.034821	715.535217	758.407898	719.101746	8.318883
232.410263	709.516663	755.732971	711.151367	3.537073
232.785690	702.978027	755.287109	717.392822	27.556965
233.161087	706.098816	748.377014	719.101746	30.755638
233.536469	708.773682	755.212891	728.463867	42.399918
233.911804	713.900574	747.411072	724.228699	30.820566
234.287140	713.751953	754.098328	727.720886	34.622524
234.662430	707.584778	751.943542	722.073792	32.663250
235.037704	703.795410	758.928040	728.166687	44.204815
235.412933	706.321594	760.339783	719.919006	25.171915
235.788162	715.906738	763.683411	724.302917	17.573805
236.163345	724.748779	773.416992	724.080017	-1.374125
236.538513	728.018066	774.977356	730.990173	6.329114
236.913635	730.693054	774.531555	723.188416	-17.118830
237.288742	733.739441	767.844238	724.377258	-27.451220
237.663834	732.104736	759.373779	721.033691	-40.599316
238.038879	729.949951	753.058105	720.736389	-39.871475
238.413910	719.176025	747.039551	711.374268	-27.999895
238.788910	711.522888	746.593750	712.785950	3.601456
239.163879	712.191589	752.017822	720.290588	20.335840
239.538834	713.603333	758.259277	722.445374	19.800367
239.913757	722.445374	761.157043	728.538269	15.739170
240.288651	721.330872	759.150940	729.132629	20.628618
240.663528	720.290527	765.243713	735.374023	33.553787
241.038361	713.900574	773.491394	724.748718	18.204390
241.413177	710.111084	772.005310	729.949890	32.052757
241.787979	708.402161	763.980652	720.141907	21.122822
242.162735	710.556946	760.339661	722.593933	24.179050
242.537476	710.854187	761.602844	715.981018	10.102398
242.912170	719.993408	775.125977	717.912903	-3.773641
243.286865	717.838623	773.342712	717.095520	-1.338826
243.661514	715.980957	770.965027	713.751953	-4.053908
244.036148	715.609558	767.472717	727.572266	23.065907
244.410751	718.878723	774.457275	726.754883	14.171222
244.785339	723.931396	775.125977	729.652649	11.175504
245.159882	714.346375	765.838135	721.702332	14.285697
245.534378	718.581604	760.488342	727.497864	21.276434
245.908890	720.290527	768.661621	722.742615	5.069324
246.283356	720.290527	769.627625	721.182190	1.807286
246.657791	720.587830	765.243713	719.176025	-3.161519
247.032196	718.061523	765.540955	731.956055	29.264317
247.406586	721.776672	764.797913	726.160461	10.189825
247.780960	714.494934	769.627625	724.674500	18.463757
248.155289	714.494934	767.175598	722.891174	15.937992
248.529602	715.312317	774.011414	731.213135	27.088692
248.903870	719.770508	769.330383	730.767273	22.188847
249.278122	715.832336	759.671082	717.541443	3.898621
249.652344	715.535156	757.961975	712.934753	-6.129149
250.026550	711.820068	763.906250	719.993469	15.692072
250.400711	717.764343	776.091980	734.110901	28.025408
250.774857	720.290588	769.999084	737.825989	35.276466
251.148987	727.795227	771.113586	729.578430	4.116507
251.523071	722.222473	764.426331	714.346375	-18.662035
251.897125	719.770447	771.039307	720.439209	1.304422
252.271164	710.705566	766.952637	719.473328	15.587943
252.645187	706.916077	769.330383	724.228699	27.738228
253.019165	703.126709	767.101318	721.925232	29.384350
253.393112	711.374268	776.091980	729.652771	28.243433
253.767044	715.980957	775.051758	729.504150	22.893194
254.140930	722.148132	772.376770	731.064453	17.751469
254.514801	718.878845	764.129211	732.847717	30.870186
254.888657	723.559875	768.958801	732.476135	19.639803
255.262466	722.296814	776.909241	727.943787	10.340087
255.636276	726.606384	776.537781	724.377197	-4.464499
256.010010	723.782898	778.469543	727.275085	6.385814
256.383759	728.686768	769.627502	728.686829	0.000149
256.757446	720.216248	770.965027	730.098572	19.473028
257.131134	718.432922	764.872070	730.172852	25.280243
257.504791	709.591003	772.674011	728.166687	29.446413
257.878418	713.603271	777.503662	729.058289	24.186108
258.252014	725.714661	783.819397	734.928223	15.856817
258.625580	725.491760	782.853516	736.265625	18.782314
258.999115	723.485596	779.658508	727.126465	6.481539
259.372650	713.677673	777.206482	722.148132	13.333257
259.746124	715.238037	782.927734	720.141907	7.244632
260.119598	717.095520	791.695496	717.392761	0.398447
260.493042	725.640320	802.766602	716.426819	-11.945994
260.866425	730.098450	797.342468	716.278259	-20.552298
261.239838	732.476257	796.525146	725.417480	-11.020920
261.613159	721.256531	789.986572	727.423645	8.972953
261.986511	722.742493	800.240295	734.705322	15.436347
262.359802	714.792175	795.930847	729.949951	18.681322
262.733063	716.575439	788.351868	726.011902	13.147021
263.106293	708.625061	780.995911	720.067688	15.811099
263.479523	711.671387	783.968018	725.789001	19.527348
263.852692	704.984192	789.020569	728.315247	27.763042
264.225861	710.333984	791.918396	727.497864	21.038185
264.598969	716.129639	793.181458	729.801270	17.743423
264.972076	722.296875	792.215637	728.092346	8.288864
265.345154	729.132629	795.262024	725.863281	-4.943865
265.718201	726.829285	792.958679	721.553711	-7.977653
266.091217	731.584534	803.286682	730.841614	-1.036119
266.464203	731.435974	801.875000	729.801453	-2.320477
266.837158	730.395691	803.286804	728.538269	-2.548214
267.210114	724.079895	792.958679	723.857117	-0.323435
267.583038	712.934570	788.054626	730.692932	23.639975
267.955902	711.151367	792.066956	732.104675	25.895267
268.328766	718.135742	808.859375	728.389648	11.302354
268.701569	716.129578	813.243225	729.949890	14.231071
269.074371	711.522888	814.729309	729.281189	17.206585
269.447144	708.402161	802.543701	728.538269	21.389185
269.819885	715.460938	807.596375	722.668274	7.822546
270.192596	723.337097	802.915222	721.776672	-1.960872
270.565277	723.262695	816.809814	726.829163	3.812482
270.937927	719.398926	818.147278	727.052063	7.750142
271.310577	717.615723	820.004883	729.578369	11.683509
271.683136	719.398926	820.970886	727.052063	7.534695
272.055725	724.154297	819.261902	726.754883	2.734362
272.428284	729.206848	829.812805	730.841614	1.624919
272.800812	725.714661	824.463074	730.692932	5.041368
273.173279	721.330811	831.670410	738.271790	15.353490
273.545776	712.860291	826.989258	737.157227	21.289019
273.918152	711.448547	827.509460	739.163391	23.879568
274.290558	712.562988	822.308167	737.380188	22.613476
274.662964	713.231750	828.846863	737.305908	20.822674
275.035278	716.055359	826.394836	735.225403	17.373695
275.407593	712.488770	829.738464	730.692932	15.525979
275.779907	714.569275	833.082092	727.869446	11.222559
276.152161	708.847961	840.958191	722.296692	10.179932
276.524384	716.872620	842.147034	726.977844	8.066471
276.896606	717.244141	838.283386	714.346375	-2.394072
277.268799	722.593994	847.273926	725.788879	2.562469
277.640930	717.615723	853.366699	718.061523	0.328396
278.013031	727.720886	857.750671	732.476257	3.657140
278.385162	729.949951	852.177917	725.120300	-3.951347
278.757233	731.881836	851.211914	721.850891	-8.406049
279.129272	721.405090	852.475098	722.296692	0.680248
279.501282	723.857117	851.583496	721.553711	-1.803391
279.873230	727.052063	845.713562	728.984070	1.628167
280.245178	732.550537	854.184082	729.355530	-2.626749
280.617126	722.371094	863.546204	730.321472	5.631572
280.988983	714.866455	879.967102	725.714661	6.570662
281.360870	713.826233	889.254883	731.807434	10.249866
281.732697	711.077087	898.096924	732.847717	11.640813
282.104492	722.965515	902.852295	735.968445	7.228396
282.476288	723.782715	899.731628	722.816895	-0.548921
282.848053	736.488586	900.325989	720.290588	-9.886630
283.219757	731.213074	909.985413	723.708496	-4.197841
283.591461	733.070618	924.251465	733.962219	0.466366
283.963135	728.835388	929.601257	733.442139	2.294589
284.334747	730.767273	930.418640	734.408020	1.823552
284.706360	724.600098	924.623047	727.869446	1.634487
285.077942	727.943665	929.007019	730.693054	1.367424
285.449524	722.519714	935.842773	728.761169	2.925823
285.821014	722.371094	932.573425	731.287415	4.241780
286.192535	716.649719	941.638367	727.869446	4.986797
286.563995	718.210144	938.814880	722.445313	1.919799
286.935425	723.188293	948.251282	720.439209	-1.221473
287.306824	726.383484	938.443359	722.148132	-1.997243
287.678223	722.222473	938.963440	722.519714	0.137141
288.049561	720.885010	944.610535	724.600098	1.660556
288.420898	717.615662	948.399902	729.504089	5.151317
288.792145	722.891113	953.675476	726.532043	1.577633
289.163452	722.965515	951.372070	724.748718	0.780715
289.534668	725.491760	963.632019	714.569275	-4.586576
289.905914	719.324707	972.845520	722.222412	1.142985
290.277039	727.943787	987.928955	728.166687	0.085736
290.648193	739.089172	995.210632	743.250183	1.624624
291.019318	737.677429	1002.195068	742.209900	1.713485
291.390381	725.194580	1004.424133	731.733154	2.341648
291.761475	713.157532	1006.430359	720.662109	2.558907
292.132507	716.278259	1011.631531	716.203918	-0.025170
292.503510	713.900574	1015.198059	716.946960	1.011089
292.874481	718.284363	1024.337280	728.018066	3.180399
293.245422	723.188416	1017.872986	733.516418	3.504766
293.616364	727.720886	1024.634644	737.528809	3.303290
293.987213	723.708496	1019.953430	730.841553	2.407824
294.358093	723.114075	1037.043091	731.213074	2.579882
294.728943	720.810730	1046.182251	729.058289	2.534813
295.099731	717.095520	1072.188354	727.126465	2.824880
295.470490	709.219482	1087.717529	729.504089	5.359237
295.841248	709.442383	1092.250122	737.454529	7.317550
296.211975	710.482605	1101.314941	735.671204	6.444860
296.582642	720.959290	1111.420044	731.435974	2.683159
296.953308	722.148132	1133.710938	727.869446	1.390144
297.323883	723.188416	1133.413696	728.612488	1.322218
297.694519	718.358704	1148.274170	726.531982	1.901136
298.065063	714.494934	1153.698242	722.742493	1.877845
298.435608	717.764343	1157.710693	730.544250	2.904879
298.806122	718.061523	1144.782104	728.092285	2.350663
299.176575	726.309082	1126.503540	731.435974	1.281100
299.547028	723.262695	1113.277710	727.497986	1.085930
299.917450	715.089355	1100.274780	730.470032	3.993058
300.287872	709.219543	1100.274780	719.473206	2.622050
300.658234	713.454773	1107.704956	709.665283	-0.961189
301.028564	720.439209	1107.184814	713.751953	-1.729110
301.398865	724.228577	1106.887573	728.835449	1.203911
301.769135	722.222473	1100.720459	735.374023	3.474669
302.139374	726.606384	1109.042358	736.414246	2.564576
302.509583	724.154358	1119.370483	724.451477	0.075179
302.879791	721.702332	1125.166138	725.417480	0.920813
303.249939	713.974854	1123.680054	718.433044	1.088146
303.620087	711.448547	1116.769897	720.216309	2.163163
303.990173	717.912903	1117.364258	711.968750	-1.488079
304.360260	724.005676	1121.079468	714.717957	-2.339041
304.730286	726.011902	1127.618164	716.798340	-2.294178
305.100281	714.717834	1132.522095	720.513489	1.387170
305.470276	710.705566	1134.379517	717.392822	1.578397
305.840179	710.705566	1140.398071	719.101746	1.953997
306.210144	713.677551	1148.125610	720.290588	1.522170
306.579987	717.838562	1160.014038	726.606262	1.982855
306.949890	713.157532	1164.472168	728.983948	3.506737
307.319702	718.358704	1171.308105	736.265625	3.953404
307.689484	717.169861	1182.899292	732.104675	3.206758
308.059265	725.045959	1204.447144	735.225403	2.123366
308.429016	722.593933	1220.348022	730.618652	1.612185
308.798737	721.776672	1239.592285	735.374023	2.625906
309.168396	720.364929	1248.434204	735.968445	2.954823
309.538055	718.358704	1267.158569	733.442200	2.748451
309.907684	719.844727	1272.359741	720.810730	0.174837
310.277313	714.494934	1280.904419	712.117188	-0.419793
310.646851	719.621887	1293.164551	713.231750	-1.114152
311.016388	713.974854	1309.808350	723.634216	1.621151
311.385895	717.838562	1319.839233	722.816895	0.826965
311.755371	714.717834	1317.015747	724.897278	1.690101
312.124817	720.067627	1321.473877	723.411316	0.555978
312.494232	720.885010	1326.823730	728.909729	1.324345
312.863617	719.250305	1321.251099	734.333801	2.505561
313.232971	724.600098	1317.461670	737.157288	2.118064
313.602295	726.234802	1308.099487	729.801331	0.612948
313.971619	724.154297	1312.483276	728.389587	0.719885
314.340820	721.627991	1308.025024	730.395691	1.495182
314.710083	721.850891	1326.154907	741.987000	3.332116
315.079285	722.222412	1347.479858	736.637207	2.305418
315.448486	725.566101	1369.696289	742.507080	2.630055
315.817596	716.649719	1372.817017	736.488586	3.023447
316.186707	720.439148	1360.408569	743.101563	3.541172
316.555786	706.841797	1348.445801	739.609314	5.107125
316.924866	712.042969	1333.139526	737.974609	4.175138
317.293884	709.962463	1328.978516	727.572266	2.844805
317.662872	716.575439	1323.182983	725.789001	1.518867
318.031830	714.569336	1328.532593	734.036621	3.170757
318.400757	719.101746	1335.071411	743.473083	3.956581
318.769684	719.027344	1350.303345	736.265686	2.730714
319.138550	720.513428	1358.996704	734.556702	2.199474
319.507416	716.426819	1368.878906	729.058289	1.936000
319.876190	710.259705	1362.191650	730.544434	3.111480
320.244995	711.597168	1369.399048	728.389587	2.552808
320.613770	716.946960	1364.643677	728.166687	1.732250
320.982483	727.349304	1370.959473	733.293518	0.923574
321.351166	723.782776	1366.798462	729.727051	0.924437
321.719818	719.473328	1366.872681	729.875671	1.606789
322.088440	714.123474	1370.513672	723.634216	1.448946
322.457062	716.426819	1381.287598	729.355530	1.944574
322.825623	717.244141	1389.237915	732.179016	2.222472
323.194183	714.643555	1404.692993	730.321472	2.271999
323.562653	708.922302	1416.358398	726.234802	2.447217
323.931183	708.773682	1445.559448	726.086182	2.349733
324.299591	714.569336	1478.178223	730.841553	2.130962
324.668060	718.581726	1511.020142	729.727051	1.406459
325.036407	712.414490	1551.589355	733.813660	2.550025
325.404755	708.625000	1563.255005	732.030457	2.738665
325.773102	708.104919	1568.679077	727.943787	2.305306
326.141388	715.980957	1568.158813	724.823059	1.037589
326.509674	716.352539	1562.957642	727.720886	1.342816
326.877899	719.621887	1569.942261	731.733215	1.424325
327.246124	717.021301	1567.638672	727.646484	1.249114
327.614288	720.810730	1576.629395	730.395752	1.119983
327.982422	717.541321	1584.802734	731.361633	1.593558
328.350525	715.460938	1585.991577	731.584534	1.852157
328.718628	708.104980	1591.712891	724.822998	1.892018
329.086700	709.739563	1582.202148	729.875549	2.307948
329.454712	703.944031	1583.167969	729.949890	2.957820
329.822693	707.584778	1595.948120	733.293518	2.893944
330.190674	705.207092	1618.907715	733.367859	3.082056
330.558563	713.603333	1642.535767	733.442200	2.135663
330.926483	713.826172	1648.480103	732.104736	1.955651
331.294312	719.770508	1646.994141	725.194580	0.584980
331.662231	726.309082	1653.532715	730.693054	0.472806
332.029999	722.816895	1672.405762	726.680664	0.406889
332.397766	724.302917	1703.910156	735.968445	1.190837
332.765503	718.433044	1737.197632	730.990173	1.232584
333.133240	714.494934	1766.547241	732.179016	1.680913
333.500916	710.185364	1796.268188	726.457703	1.498260
333.868561	710.185364	1808.231079	724.302917	1.285698
334.236176	714.346375	1803.252808	724.897400	0.968956
334.603790	705.429993	1800.057739	722.742615	1.581599
334.971344	696.439453	1795.971191	724.971680	2.594944
335.338867	695.919250	1801.469604	727.275085	2.836220
335.706360	707.436218	1796.714233	728.241028	1.909963
336.073853	719.250305	1806.076294	730.618652	1.046014
336.441284	724.005676	1819.748047	728.018066	0.366180
336.808655	716.501160	1825.989380	732.327576	1.426461
337.176086	711.745789	1811.351685	729.727051	1.635246
337.543396	708.922302	1769.890991	735.299744	2.486166
337.910706	716.055359	1744.702148	732.327637	1.581911
338.277954	711.225647	1752.206665	737.603088	2.533902
338.645264	708.922180	1823.240234	732.030457	2.073759
339.012421	710.482605	1903.635742	732.179016	1.818410
339.379669	714.940735	1971.548462	733.665039	1.490068
339.746796	721.702332	2014.792480	736.117126	1.114756
340.113953	719.176025	2035.820190	736.117004	1.286679
340.481018	716.055359	2041.987305	726.532043	0.790137
340.848114	711.225586	2034.111328	732.401917	1.600768
341.215118	712.414551	2032.773926	733.293640	1.581319
341.582153	713.380432	2045.851196	738.791992	1.907101
341.949066	712.488770	2055.510498	733.887939	1.593360
342.316010	708.030579	2070.742676	737.083008	2.131956
342.682922	711.448547	2076.686768	741.020996	2.166102
343.049835	714.123474	2112.649170	740.798157	1.907343
343.416656	722.668213	2147.348633	740.352356	1.241271
343.783478	722.222473	2193.267822	734.110901	0.808162
344.150269	727.943787	2226.481201	739.980774	0.803249
344.516998	722.668274	2272.251465	738.197510	1.002156
344.883728	729.504150	2316.015625	743.027161	0.852374
345.250427	721.107910	2354.801758	735.894043	0.905074
345.617065	722.816833	2369.364990	729.281189	0.392600
345.983704	714.792175	2363.941162	722.222412	0.450550
346.350281	710.111084	2358.814209	720.067688	0.603905
346.716827	710.408203	2339.569824	721.553711	0.684125
347.083405	707.064636	2339.421143	724.302917	1.056037
347.449860	728.538269	2336.003174	739.609192	0.688719
347.816376	724.080078	2347.148682	742.432800	1.130742
348.182770	730.990173	2339.198242	742.952881	0.743853
348.549194	718.804504	2327.012451	731.213074	0.771577
348.915558	726.531982	2333.476807	725.417419	-0.069359
349.281921	727.869446	2333.774170	720.216309	-0.476562
349.648193	725.417480	2360.523193	718.581726	-0.418062
350.014526	718.878845	2379.395752	727.943848	0.545915
350.380737	715.237976	2425.612305	735.151123	1.164257
350.746948	720.885010	2459.568604	745.479248	1.414532
351.113159	721.628113	2489.215576	737.751709	0.912181
351.479309	718.284424	2502.664307	733.739319	0.866121
351.845428	706.916016	2507.494141	722.148132	0.845957
352.211517	713.603333	2528.224365	726.086121	0.687901
352.577576	712.117249	2552.744141	734.408020	1.211042
352.943604	713.900574	2591.901611	728.835388	0.795251
353.309601	706.767517	2626.006836	728.909668	1.153694
353.675537	710.482666	2678.464600	722.445374	0.607867
354.041473	710.854187	2735.231689	734.556702	1.170855
354.407379	713.008972	2789.472900	733.070740	0.966151
354.773254	713.677673	2842.004883	729.504150	0.743611
355.139038	718.210144	2883.911377	729.875671	0.538649
355.504913	722.965515	2945.731445	733.219238	0.461305
355.870636	717.690002	3000.864014	738.494690	0.911218
356.236389	719.101746	3061.420654	729.726990	0.453621
356.602081	717.244141	3132.305420	733.367859	0.667632
356.967804	725.491760	3216.416016	733.070740	0.304264
357.333405	724.525879	3306.619873	736.042786	0.446030
357.699036	717.689941	3371.411865	723.336975	0.212797
358.064606	714.717834	3452.253174	716.649719	0.070570
358.430176	706.990417	3503.967529	711.745789	0.170018
358.795654	710.779785	3555.608154	719.101746	0.292529
359.161163	710.259705	3564.004639	724.005676	0.481682
359.526581	713.900574	3563.260986	736.340027	0.787526
359.892029	717.541321	3581.317139	740.129395	0.788751
360.257416	720.290527	3622.480469	737.083008	0.578614
360.622772	721.033630	3739.878906	732.550537	0.381500
360.988098	717.987122	3859.283203	724.971680	0.222346
361.353394	714.643616	4005.733643	728.538147	0.422186
361.718658	724.971680	4135.243652	730.544250	0.163405
362.083893	721.925293	4246.177246	735.374023	0.381605
362.449097	727.646545	4339.130371	736.637207	0.248946
362.814209	719.993408	4355.328125	735.448303	0.425130
363.179382	716.129578	4294.103027	735.671204	0.546165
363.544434	711.597168	4138.810059	737.083008	0.743632
363.909546	708.104980	3942.725342	737.454590	0.907359
364.274536	707.882080	3782.825928	737.974670	0.978639
364.639587	702.978027	3654.579346	735.522644	1.102609
365.004517	706.395996	3606.505127	734.779602	0.978708
365.369507	705.207214	3575.446533	732.476257	0.950062
365.734344	708.922302	3576.561523	738.271790	1.023472
366.099274	711.820068	3574.481201	736.414246	0.859137
366.464081	716.055359	3571.806396	741.615479	0.895040
366.828918	718.358704	3575.892822	741.987000	0.826877
367.193665	710.111084	3588.375732	750.160339	1.391438
367.558411	715.238037	3597.514893	748.971375	1.170371
367.923126	713.529053	3601.898682	748.971436	1.227072
368.287781	725.045959	3595.582764	743.621582	0.647113
368.652435	719.398926	3590.456055	741.318298	0.763460
369.017059	722.965515	3582.357178	737.380188	0.504117
369.381653	719.621887	3577.601563	748.674255	1.016535
369.746185	719.250305	3561.849609	750.754639	1.108293
370.110687	711.374268	3562.666992	751.349121	1.401991
370.475220	703.795410	3567.645264	740.203796	1.271309
370.839661	710.482666	3613.044189	740.649597	1.039321
371.204041	711.002747	3675.458740	740.352356	0.990050
371.568451	714.272034	3733.340088	741.615479	0.905692
371.932770	711.374207	3775.618408	738.197571	0.875366
372.297150	713.231750	3786.837891	742.284180	0.945223
372.661377	717.764343	3806.156982	735.299744	0.567784
373.025696	713.380432	3831.642578	737.380188	0.769652
373.389862	717.690002	3850.515625	727.497986	0.313071
373.754059	716.575439	3860.175049	738.123230	0.685450
374.118225	718.507324	3882.317139	731.435974	0.408642
374.482361	713.677551	3906.242432	732.922058	0.602791
374.846436	712.785950	3954.464844	728.240906	0.476758
375.210510	706.916016	4002.093018	731.733215	0.753137
375.574524	709.145203	4094.080078	736.934387	0.820967
375.938538	706.098816	4173.509766	738.494690	0.934296
376.302460	713.008972	4258.140625	741.615479	0.806924
376.666412	720.067688	4345.892090	739.683594	0.541005
377.030304	719.770508	4441.667969	743.101501	0.626858
377.394196	719.547546	4543.834473	739.906433	0.532358
377.757996	719.844727	4610.706543	744.959045	0.645469
378.121796	724.451477	4661.084473	739.014832	0.369944
378.485565	721.256531	4664.279297	737.008606	0.399492
378.849304	713.900574	4633.740723	728.240967	0.365841
379.212982	712.414551	4571.177734	729.801331	0.450579
379.576630	718.953186	4488.924805	737.528809	0.492726
379.940277	717.095642	4406.819824	738.643372	0.583993
380.303864	719.101746	4361.272949	735.522644	0.450855
380.667450	715.758118	4348.863770	732.550537	0.462206
381.030945	719.101746	4373.606934	734.482422	0.420869
381.394501	720.810730	4406.373535	739.089172	0.495947
381.757935	729.504089	4431.488770	741.169617	0.315116
382.121399	732.922058	4442.039551	745.256348	0.332540
382.484741	729.875671	4457.940918	746.816650	0.454417
382.848145	725.120300	4497.246582	748.302734	0.614572
383.211487	716.055359	4538.707520	740.872375	0.649209
383.574768	719.101746	4594.583496	740.352295	0.548333
383.938019	721.256531	4655.362793	731.436035	0.258750
384.301270	728.240967	4732.785645	735.596924	0.183690
384.664459	718.210144	4788.142090	734.333801	0.396165
385.027649	714.792175	4835.249512	744.661865	0.724912
385.390778	708.996582	4867.794434	751.646301	1.025530
385.753876	719.696106	4902.121582	752.017883	0.772800
386.116943	716.426819	4921.218262	746.370850	0.712141
386.479980	720.959290	4944.846191	746.742371	0.610411
386.842987	712.042969	4980.511719	746.965332	0.818147
387.205994	717.021240	5023.532715	754.767090	0.876483
387.568909	716.426819	5070.269043	755.138611	0.889141
387.931793	719.027405	5103.259277	765.243713	1.054148
388.294678	712.637390	5149.327148	765.466614	1.190735
388.657471	715.163757	5178.824707	770.073425	1.230149
389.020294	722.816895	5195.023438	777.280762	1.217830
389.383057	730.024231	5209.363770	787.311707	1.278927
389.745819	723.114075	5229.573730	782.259033	1.312449
390.108521	717.095520	5250.453125	784.265198	1.481676
390.471191	705.281433	5288.273438	783.893738	1.715305
390.833801	715.312317	5364.359863	805.218567	1.933864
391.196442	710.928406	5474.253418	814.283508	2.169810
391.558960	717.392761	5571.589844	829.961426	2.318996
391.921509	712.117371	5690.102051	839.546387	2.559851
392.284027	716.798340	5802.670410	847.571106	2.571295
392.646484	718.953125	5888.787598	860.128357	2.730750
393.008911	721.479431	5902.904785	876.474915	2.991368
393.371307	717.392761	5904.316895	902.332214	3.565494
393.733673	713.008972	5889.308594	929.006897	4.172825
394.096008	708.550781	5866.051270	945.799316	4.600068
394.458344	718.655945	5853.642578	966.975586	4.835838
394.820587	719.398987	5875.115723	980.721619	5.068599
395.182831	724.451477	5910.707031	1004.647156	5.402659
395.545013	712.414490	5902.459473	1018.838867	5.904079
395.907196	714.271973	5874.818848	1049.080078	6.487842
396.269287	710.482605	5834.175781	1073.451416	7.084125
396.631409	717.244202	5773.693359	1103.841309	7.645624
396.993469	717.689941	5700.950684	1118.701904	8.047180
397.355530	717.541321	5643.737793	1138.243408	8.540100
397.717499	717.318420	5634.449707	1150.949097	8.818773
398.079468	719.398987	5616.914551	1178.366821	9.371442
398.441376	718.284424	5627.539551	1209.796875	10.011956
398.803284	713.826233	5629.025879	1248.211426	10.872095
399.165131	704.389832	5662.907715	1280.681641	11.622259
399.526978	706.618896	5658.449219	1302.972534	12.043096
399.888763	713.157532	5685.718750	1328.978394	12.384380
400.250519	713.380371	5698.424316	1351.492065	12.800523
400.612244	711.522888	5735.427246	1394.067749	13.585945
400.973938	707.882019	5731.488770	1425.869141	14.292263
401.335602	714.272034	5740.182129	1463.094849	14.899248
401.697205	718.284485	5767.376953	1493.559082	15.354733
402.058807	715.906738	5818.645996	1519.639282	15.751001
402.420349	719.547607	5888.341797	1552.481079	16.114658
402.781860	716.203918	5955.140137	1596.914063	16.810860
403.143341	720.216309	6031.151855	1645.582397	17.423786
403.504822	720.810730	6139.634277	1685.260132	17.798132
403.866241	718.730225	6273.081543	1721.965454	18.062149
404.227631	714.792175	6397.687012	1772.268555	18.608057
404.588959	708.699402	6538.045410	1822.422852	19.105459
404.950287	711.225647	6646.527344	1875.846313	19.621927
405.311554	708.699402	6729.894531	1912.106079	19.986177
405.672821	703.944031	6768.086426	1952.304077	20.585930
406.034027	701.714844	6772.395996	1961.666016	20.754692
406.395203	702.458008	6747.429688	1963.375000	20.858940
406.756348	709.739563	6707.975098	1967.313110	20.965725
407.117493	710.333984	6669.857910	1984.848511	21.386181
407.478516	717.912903	6670.006348	2019.102051	21.861034
407.839600	718.953125	6679.591797	2027.869751	21.959335
408.200592	719.547546	6698.241699	2045.331055	22.175133
408.561554	715.535217	6709.164063	2063.981201	22.497990
408.922485	719.844727	6702.923340	2097.937256	23.033167
409.283417	718.284363	6705.746582	2120.450928	23.418377
409.644257	722.148132	6752.929199	2144.896484	23.591442
410.005096	718.284424	6833.695801	2189.032471	24.049864
410.365906	717.541443	6911.119141	2234.877197	24.498533
410.726715	711.968689	6998.424316	2268.536377	24.760656
411.087433	708.476379	7070.869629	2289.935791	24.856361
411.448120	711.745789	7143.983887	2305.539307	24.778210
411.808807	712.117249	7160.330078	2325.898193	25.026794
412.169434	713.974792	7133.507324	2336.151855	25.269394
412.530029	719.027405	7114.411621	2353.687256	25.559996
412.890564	719.324707	7116.491699	2357.551025	25.608622
413.251099	720.364929	7153.717285	2359.185791	25.473822
413.611572	717.987244	7191.537109	2364.981201	25.441896
413.972076	726.680664	7230.769531	2393.513428	25.627460
414.332489	724.748779	7259.673340	2414.466797	25.856733
414.692871	724.377258	7348.910645	2452.361328	26.084618
415.053223	710.928406	7440.005859	2477.995850	26.260172
415.413574	710.854187	7607.484375	2529.784668	26.374189
415.773834	707.807800	7715.445801	2569.165039	26.561832
416.134094	716.872620	7844.138184	2614.192627	26.620588
416.494263	717.467102	7919.257813	2656.768311	26.928043
416.854462	720.959290	8098.326660	2711.157959	26.977087
417.214630	721.702332	8296.046875	2764.655518	26.972012
417.574738	718.730225	8534.485352	2835.540283	27.083885
417.934784	722.965515	8746.098633	2892.976563	27.046926
418.294861	720.364807	8980.079102	2979.093506	27.346333
418.654846	727.869446	9246.528320	3047.971924	27.235537
419.014832	726.606262	9552.878906	3137.803711	27.318413
419.374756	726.457703	9887.463867	3234.397217	27.376245
419.734680	726.457703	10241.739258	3353.504639	27.608715
420.094543	720.067688	10582.714844	3468.748047	27.869600
420.454376	717.392761	10901.769531	3542.605469	27.740652
420.814148	712.191589	11229.370117	3616.239258	27.612421
421.173920	714.866516	11599.174805	3699.384033	27.420368
421.533691	719.250305	11943.196289	3799.841064	27.446592
421.893341	710.111084	12236.989258	3887.815674	27.567781
422.253021	704.241211	12446.225586	3947.852295	27.624044
422.612640	701.269104	12561.840820	3984.706299	27.683636
422.972260	707.956360	12570.905273	3994.662842	27.705645
423.331757	706.321716	12523.945313	3989.907471	27.785498
423.691315	714.792175	12524.094727	4011.678467	27.917704
424.050781	724.228577	12599.883789	4050.612549	28.010109
424.410248	727.275085	12638.372070	4066.662354	28.035934
424.769653	715.981018	12699.746094	4079.665283	28.068678
425.128998	711.002747	12749.901367	4091.851318	28.082708
425.488373	717.912903	12747.226563	4104.259766	28.150791
425.847656	728.315247	12663.635742	4089.844971	28.164555
426.206940	734.036621	12549.284180	4054.625000	28.104263
426.566193	735.299744	12366.276367	4013.981689	28.189222
426.925385	726.309082	12150.796875	3958.551758	28.292231
427.284576	719.919006	11821.710938	3876.001709	28.428589
427.643677	709.516602	11623.694336	3814.627686	28.450253
428.002777	716.129639	11403.832031	3764.844727	28.525450
428.361847	713.306152	11186.050781	3721.971924	28.728533
428.720856	714.643555	10937.805664	3665.279053	28.862259
429.079865	711.671387	10778.426758	3615.050537	28.841259
429.438812	713.454773	10680.421875	3582.580078	28.786343
429.797760	722.965515	10604.632813	3565.638672	28.767141
430.156616	720.216309	10479.804688	3536.512451	28.856712
430.515503	716.872620	10393.018555	3525.143799	29.022623
430.874268	715.089355	10357.056641	3529.304932	29.187153
431.233093	717.095520	10401.266602	3546.691650	29.218777
431.591827	718.210144	10461.823242	3552.561768	29.089327
431.950562	714.866516	10494.145508	3557.614014	29.069090
432.309204	707.956360	10523.420898	3574.035156	29.199625
432.667877	706.470215	10595.493164	3608.585938	29.346838
433.026459	700.971863	10707.616211	3640.610352	29.376865
433.385010	712.785950	10826.649414	3671.446045	29.253511
433.743561	712.860352	10941.817383	3726.132813	29.458258
434.102051	717.318420	11065.754883	3760.089111	29.403193
434.460510	716.724060	11202.472656	3799.692627	29.401510
434.818939	719.027344	11298.916992	3801.773193	29.137789
435.177338	716.278259	11341.567383	3825.475586	29.262238
435.535675	716.798340	11352.340820	3824.137939	29.216558
435.894012	711.522888	11318.757813	3832.088135	29.419212
436.252289	716.055359	11338.745117	3832.088623	29.333750
436.610535	706.395996	11322.472656	3830.825439	29.431114
436.968719	719.621826	11427.461914	3867.828125	29.400948
437.326935	719.176025	11507.485352	3907.654297	29.554939
437.685028	725.045898	11600.140625	3950.527344	29.659342
438.043152	718.507324	11664.932617	3950.155518	29.522406
438.401215	715.460938	11825.054688	3991.467773	29.488089
438.759277	715.832458	12000.558594	4042.141846	29.476206
439.117249	717.838623	12296.803711	4144.902832	29.597328
439.475250	722.371094	12504.850586	4199.515625	29.511145
439.833130	714.866455	12797.453125	4299.452637	29.667374
440.191071	714.197754	12995.395508	4356.666016	29.658901
440.548889	708.922302	13228.930664	4428.219238	29.706823
440.906708	715.312317	13456.296875	4467.525391	29.449947
441.264496	714.717957	13653.645508	4498.955566	29.246918
441.622223	723.336975	13831.452148	4541.382324	29.127340
441.979950	724.748718	13937.926758	4573.333008	29.126863
442.337616	718.210022	14000.862305	4610.930176	29.306799
442.695251	718.953125	13931.983398	4598.372559	29.360558
443.052887	713.826233	13806.932617	4575.115234	29.491009
443.410461	719.250305	13684.554688	4550.669922	29.551329
443.768005	707.659119	13583.502930	4527.190430	29.664318
444.125458	709.219482	13503.553711	4508.689453	29.696505
444.482941	713.008972	13487.429688	4512.403809	29.742208
444.840393	726.234863	13532.828125	4551.264160	29.867655
445.197754	731.584656	13727.206055	4618.508301	29.909487
445.555084	724.525879	13923.809570	4663.833496	29.844860
445.912415	716.649719	14221.391602	4741.999512	29.806936
446.269714	706.470215	14429.067383	4813.998535	29.932587
446.626953	707.436218	14668.026367	4905.391113	30.070042
446.984161	707.584778	14931.502930	4971.817871	29.979313
447.341309	715.758118	15143.042969	5043.668457	29.998091
447.698456	726.606262	15368.924805	5079.036621	29.725008
448.055542	719.101746	15474.583008	5121.315430	29.834431
448.412598	719.696106	15530.903320	5139.222168	29.839066
448.769653	711.002686	15442.781250	5148.956055	30.125032
449.126617	715.163635	15251.897461	5090.107910	30.095787
449.483582	720.810730	15078.696289	5047.830078	30.136885
449.840515	720.439148	14827.331055	4974.716309	30.157440
450.197388	724.971619	14690.613281	4939.125000	30.175150
450.554230	720.810608	14526.403320	4905.168457	30.309151
450.911041	720.141907	14434.789063	4893.800293	30.432121
451.267822	720.810730	14322.592773	4890.976563	30.658968
451.624573	718.507324	14221.465820	4836.512695	30.497059
451.981262	722.073792	14139.807617	4815.336426	30.506365
452.337921	725.789001	14008.663086	4771.349121	30.456963
452.694580	724.897278	13916.899414	4748.984375	30.503992
453.051147	723.188416	13910.881836	4734.792480	30.419300
453.407715	722.296692	13885.023438	4734.866699	30.484339
453.764221	732.847717	13982.804688	4781.826172	30.558428
454.120728	734.110901	13850.472656	4760.649902	30.698599
454.477142	732.847717	13859.834961	4749.132324	30.595631
454.833557	719.473328	13706.176758	4714.136230	30.759638
455.189911	717.095520	13602.598633	4691.770996	30.846104
455.546265	709.962463	13405.250977	4651.275879	31.045483
455.902557	710.111145	13280.273438	4595.103027	30.906458
456.258820	711.374207	13285.401367	4594.731445	30.883957
456.615051	712.637390	13368.321289	4618.731445	30.864346
456.971252	720.439209	13369.659180	4647.263672	31.044006
457.327393	717.764343	13481.039063	4689.541992	31.118797
457.683502	724.600098	13650.674805	4772.240723	31.313766
458.039612	723.559875	13995.437500	4886.295898	31.365086
458.395630	729.132629	14336.413086	4999.755859	31.384840
458.751648	724.897278	14651.679688	5088.547852	31.332796
459.107605	716.798340	15113.694336	5211.221680	31.218000
459.463562	716.278137	15583.657227	5364.656738	31.265621
459.819458	717.318420	16059.121094	5525.893066	31.342957
460.175323	714.643555	16490.892578	5656.517578	31.324772
460.531158	712.191589	16941.169922	5768.863281	31.158289
460.886932	707.584778	17254.875000	5842.274902	31.030396
461.242676	713.008972	17491.603516	5917.394531	31.018009
461.598419	713.900574	17470.724609	5924.453125	31.095108
461.954102	714.346375	17313.130859	5877.642090	31.106468
462.309723	712.563049	16884.847656	5750.807129	31.153572
462.665344	709.293762	16388.357422	5621.818359	31.331747
463.020905	718.507324	15981.178711	5511.552734	31.403711
463.376373	728.538269	15618.135742	5431.454590	31.585249
463.731873	735.596985	15345.592773	5349.572754	31.580950
464.087341	728.686768	15084.418945	5288.272949	31.761431
464.442749	728.315247	14968.358398	5252.310547	31.769533
464.798126	727.349304	14849.995117	5211.369629	31.750570
465.153503	730.915833	14889.002930	5206.763184	31.613361
465.508820	721.107849	14883.207031	5215.085449	31.732424
465.864105	722.371094	14995.032227	5247.035156	31.701614
466.219330	715.089355	15188.070313	5316.285645	31.791630
466.574524	711.002747	15354.805664	5364.210449	31.775951
466.929657	706.395996	15500.514648	5423.058594	31.882010
467.284790	720.290527	15632.698242	5482.500488	31.934547
467.639893	730.915833	15831.309570	5531.614746	31.791878
467.994934	725.417480	16075.245117	5619.068848	31.880821
468.349945	713.751953	16213.077148	5647.824219	31.834110
468.704926	716.575439	16264.346680	5670.560547	31.862993
469.059875	722.742493	16134.167969	5633.855469	31.866699
469.414764	729.206848	15961.116211	5614.017090	32.069584
469.769653	722.965515	15811.023438	5583.923828	32.217258
470.124451	723.559875	15728.995117	5549.595703	32.161915
470.479248	708.699402	15605.726563	5498.029785	32.149570
470.834015	700.377441	15492.786133	5482.797363	32.330231
471.188721	699.931641	15530.680664	5505.832031	32.404976
471.543365	711.894348	15587.596680	5537.632813	32.440407
471.898010	722.371033	15709.825195	5556.877441	32.257023
472.252625	728.835266	15817.713867	5597.001465	32.263271
472.607178	732.253235	16022.043945	5663.427734	32.251419
472.961700	728.835388	16192.272461	5729.854004	32.340923
473.316193	731.287415	16396.900391	5802.671387	32.372711
473.670654	729.281250	16576.789063	5849.259277	32.307781
474.025055	736.191345	16826.369141	5925.270020	32.249977
474.379456	725.343201	17046.677734	5980.477051	32.197941
474.733795	723.708496	17212.597656	6048.984375	32.296146
475.088104	721.182190	17339.580078	6116.228516	32.464298
475.442383	724.080078	17354.589844	6144.908691	32.595684
475.796570	727.869446	17448.730469	6187.039063	32.648853
476.150787	731.584656	17552.085938	6215.720215	32.603878
476.504944	735.894226	17716.220703	6278.505859	32.641373
476.859070	736.934387	17886.224609	6312.981934	32.514740
477.213135	735.374023	18069.306641	6369.451660	32.503170
477.567200	722.445313	18411.396484	6481.128906	32.555256
477.921173	711.894348	18778.080078	6595.109375	32.564789
478.275146	703.275208	19240.169922	6727.962891	32.501060
478.629089	710.854187	19547.263672	6821.584473	32.441055
478.983002	718.655945	19922.267578	6952.208496	32.460316
479.336823	718.730164	20216.656250	7064.703125	32.546913
479.690643	720.810730	20566.845703	7172.961426	32.511032
480.044403	720.364929	20941.851563	7301.208496	32.543819
480.398163	729.206848	21520.818359	7487.931641	32.506977
480.751862	724.005676	22252.921875	7739.000000	32.584057
481.105499	719.398926	23140.541016	8059.467285	32.737263
481.459137	719.027405	24271.130859	8452.825195	32.836971
481.812744	722.891113	25659.625000	8962.914063	33.043716
482.166290	728.612488	27348.080078	9576.431641	33.238155
482.519806	724.897278	29367.255859	10276.214844	33.346825
482.873291	724.377258	31705.341797	11044.727539	33.311909
483.226715	724.822998	34387.449219	11914.292969	33.240040
483.580139	723.262695	37057.144531	12818.854492	33.290115
483.933502	719.993347	39977.246094	13738.945313	33.163177
484.286804	727.275085	42839.312500	14599.147461	32.940395
484.640106	725.343079	45620.015625	15421.753906	32.735313
484.993347	723.485535	47723.156250	16137.585938	32.796188
485.346558	707.584778	48929.683594	16606.955078	32.971130
485.699738	706.916016	49084.972656	16752.292969	33.166645
486.052887	706.767395	48293.871094	16581.619141	33.359566
486.405975	710.631165	46882.863281	16171.616211	33.485462
486.759064	714.049133	45068.386719	15619.101563	33.604500
487.112061	730.098572	43296.121094	14983.960938	33.486477
487.464996	727.275085	41899.453125	14470.456055	33.379776
487.817963	721.479492	41166.160156	14155.559570	33.215939
488.170868	702.086426	40982.484375	14017.504883	33.056816
488.523743	705.429993	41161.851563	13999.226563	32.859547
488.876587	708.773682	41324.277344	13996.180664	32.715111
489.229401	715.312317	41310.082031	13995.363281	32.713699
489.582153	711.002747	40843.683594	13939.786133	32.962620
489.934845	712.265930	40112.917969	13799.129883	33.214840
490.287537	713.008850	39195.722656	13570.203125	33.410309
490.640198	718.507324	38341.910156	13319.579102	33.492645
490.992798	714.272034	37521.687500	13030.468750	33.461182
491.345337	704.241211	37024.453125	12853.851563	33.451378
491.697876	701.937805	36823.312500	12735.040039	33.312969
492.050354	711.225586	37062.566406	12761.418945	33.149242
492.402832	721.479431	37355.691406	12801.020508	32.973389
492.755219	727.720886	37559.578125	12825.838867	32.846889
493.107605	723.782776	37448.421875	12787.870117	32.850117
493.459930	727.126465	36953.269531	12677.010742	32.986908
493.812225	721.256531	35934.730469	12391.687500	33.141949
494.164490	715.163757	34496.527344	11943.715820	33.238895
494.516724	705.207214	32786.671875	11401.157227	33.339970
494.868896	707.510559	31028.296875	10823.825195	33.364288
495.221039	712.488770	29513.931641	10348.808594	33.457767
495.573120	720.662109	28248.187500	9930.410156	33.456505
495.925201	734.853943	27552.193359	9691.600586	33.399090
496.277222	737.900330	27067.587891	9547.453125	33.458630
496.629211	736.934387	26927.306641	9482.438477	33.392056
496.981140	713.008972	26779.517578	9450.117188	33.518524
497.333069	717.689941	26864.890625	9434.513672	33.337505
497.684967	724.377197	26923.591797	9447.368164	33.294857
498.036804	730.247070	27043.367188	9473.596680	33.228096
498.388580	717.987122	27032.218750	9482.141602	33.305756
498.740326	711.151367	26997.818359	9457.547852	33.273129
499.092072	714.643555	26801.658203	9400.483398	33.295643
499.443756	717.764343	26573.031250	9342.600586	33.358139
499.795410	713.900574	26276.638672	9289.994141	33.549198
500.147003	711.522888	26052.466797	9206.625977	33.523232
500.498566	716.575439	25720.333984	9118.503906	33.602665
500.850098	720.142029	25409.896484	9007.718750	33.566868
501.201599	722.668274	25101.093750	8917.589844	33.615467
501.553009	714.197754	24851.958984	8824.563477	33.600323
501.904449	714.494934	24669.617188	8759.920898	33.585407
502.255859	719.324646	24497.828125	8724.774414	33.666752
502.607178	725.937561	24435.041016	8706.272461	33.659370
502.958405	726.011902	24329.312500	8684.577148	33.718018
503.309692	719.621887	24229.820313	8655.003906	33.752934
503.660919	713.751953	24186.873047	8653.666992	33.825562
504.012115	713.826233	24188.431641	8658.346680	33.843040
504.363251	712.191589	24262.587891	8678.483398	33.826572
504.714294	718.507324	24321.806641	8687.176758	33.760830
505.065369	718.135742	24390.833984	8728.042969	33.836052
505.416443	727.200745	24454.289063	8755.164063	33.834591
505.767395	729.727051	24530.748047	8770.693359	33.784122
506.118317	722.296692	24532.974609	8767.274414	33.787270
506.469238	713.306152	24578.671875	8760.141602	33.717628
506.820160	708.327820	24557.271484	8784.512695	33.863911
507.170929	720.736389	24604.898438	8820.549805	33.912907
507.521729	727.126465	24616.568359	8874.122070	34.102913
507.872498	728.463867	24709.669922	8901.762695	34.082100
508.223236	722.816895	24875.806641	8936.536133	34.007046
508.573883	718.655945	25031.546875	8992.486328	34.030632
508.924500	720.216309	25186.095703	9060.993164	34.091469
509.275116	721.627991	25287.593750	9126.157227	34.212086
509.625702	723.857117	25526.476563	9191.692383	34.140892
509.976196	714.792175	25758.820313	9265.178711	34.141422
510.326660	715.609558	26026.087891	9332.124023	34.043270
510.677124	714.643555	26258.656250	9393.349609	33.975502
511.027557	732.402039	26482.083984	9494.030273	34.026161
511.377869	728.909668	26710.937500	9569.967773	34.027592
511.728180	729.058289	26833.462891	9654.375000	34.190845
512.078430	722.073792	26955.318359	9689.668945	34.184086
512.428650	723.931396	27047.677734	9738.485352	34.244949
512.778931	728.240967	27163.068359	9758.473633	34.160358
513.129028	721.256531	27206.833984	9764.343750	34.143436
513.479126	713.306152	27283.958984	9781.432617	34.128357
513.829285	705.281494	27295.476563	9771.550781	34.096287
514.179382	708.550781	27308.626953	9789.160156	34.137531
514.529297	717.244141	27276.751953	9783.366211	34.135128
514.879272	720.959290	27306.398438	9814.201172	34.203842
515.229187	722.593933	27204.380859	9786.783203	34.228012
515.579163	723.411316	27211.216797	9812.492188	34.314209
515.928955	724.228699	27226.671875	9830.918945	34.361702
516.278748	725.863281	27430.335938	9902.992188	34.365513
516.628540	728.835449	27629.095703	9994.383789	34.444088
516.978333	732.179016	27993.921875	10122.408203	34.444714
517.327942	728.984070	28433.646484	10299.768555	34.545753
517.677612	724.154297	28965.281250	10454.838867	34.455723
518.027222	721.925293	29419.568359	10620.979492	34.494312
518.376831	721.479492	30026.173828	10772.483398	34.298271
518.726379	719.547546	30598.751953	10954.821289	34.255508
519.075867	712.711670	31072.060547	11115.166992	34.264420
519.425293	709.665283	31522.853516	11294.831055	34.352715
519.774658	713.900452	31871.259766	11392.166992	34.272053
520.124084	720.439148	32157.623047	11463.721680	34.173805
520.473389	724.823059	32137.857422	11459.708008	34.173344
520.822693	723.262695	31971.642578	11438.309570	34.289928
521.171997	722.148132	31658.755859	11367.350586	34.409725
521.521240	719.101746	31316.962891	11277.889648	34.508255
521.870361	718.730225	30860.447266	11161.828125	34.646660
522.219482	714.197754	30531.656250	11027.117188	34.586849
522.568604	716.278137	30211.931641	10911.503906	34.565178
522.917664	714.643555	30045.943359	10839.280273	34.518200
523.266724	716.129578	30007.380859	10854.661133	34.612831
523.615662	714.717834	30135.255859	10899.391602	34.617565
523.964600	709.516602	30464.041016	11006.981445	34.608067
524.313538	712.340149	30863.494141	11162.795898	34.660217
524.662354	712.042969	31427.748047	11376.637695	34.720333
525.011169	726.531982	32110.068359	11640.487305	34.776051
525.359985	727.869446	32947.609375	11941.709961	34.804256
525.708740	724.080078	33925.511719	12276.145508	34.793880
526.057434	722.742676	35071.777344	12676.934570	34.802116
526.406067	724.005798	36418.214844	13148.757813	34.808872
526.754700	727.349304	37873.136719	13716.579102	34.968243
527.103333	724.971680	39587.597656	14358.481445	35.081287
527.451782	720.439209	41453.933594	15075.057617	35.240330
527.800293	722.445374	43406.980469	15798.617188	35.319984
528.148743	717.095520	45348.957031	16501.669922	35.366154
528.497131	715.460938	47227.625000	17160.138672	35.355648
528.845642	718.730225	48994.613281	17761.248047	35.302341
529.193909	721.256531	50521.761719	18341.849609	35.382359
529.542175	721.553711	51758.160156	18833.880859	35.488895
529.890503	720.736389	52567.464844	19224.861328	35.690056
530.238770	718.507324	52871.660156	19403.486328	35.827133
530.586914	723.262695	52737.324219	19412.701172	35.931507
530.934998	724.228699	52029.957031	19117.123047	35.849594
531.283142	726.532043	50914.230469	18685.423828	35.783455
531.631226	727.497864	49142.109375	18000.875000	35.678024
531.979248	723.336914	47148.421875	17262.082031	35.624588
532.327148	718.804504	45087.707031	16455.527344	35.467911
532.675110	712.265930	43406.906250	15772.312500	35.273857
533.023071	708.773682	42296.300781	15327.239258	35.151081
533.370850	712.191589	41753.449219	15088.877930	35.029839
533.718689	710.928406	41764.144531	15080.481445	35.002258
534.066467	713.157532	42032.378906	15137.620117	34.909813
534.414246	713.454773	42280.476563	15194.684570	34.838264
534.761963	715.163635	42492.832031	15246.918945	34.783546
535.109619	715.683838	42556.585938	15296.254883	34.847649
535.457153	718.581604	42291.250000	15266.459961	34.993851
535.804749	720.662109	41665.625000	15111.911133	35.147789
536.152344	719.621826	40842.199219	14842.489258	35.199303
536.499817	713.677551	39892.757813	14513.402344	35.222176
536.847229	712.563049	38922.660156	14109.567383	35.061424
537.194641	712.488770	38019.589844	13730.846680	34.895119
537.542114	720.364929	37388.906250	13480.000000	34.797222
537.889404	718.507324	36870.945313	13280.273438	34.746662
538.236694	720.364929	36469.933594	13146.304688	34.758289
538.583984	715.163757	36193.230469	13055.953125	34.784279
538.931213	716.501160	36103.621094	13087.234375	34.958294
539.278381	716.203918	35997.140625	13104.770508	35.114052
539.625488	716.872620	35928.781250	13129.364258	35.250832
539.972595	716.872620	35981.687500	13171.718750	35.318050
540.319641	718.433044	36286.480469	13290.082031	35.345348
540.666687	720.587708	36854.519531	13492.409180	35.345783
541.013611	725.863220	37734.414063	13791.031250	35.303104
541.360596	726.977844	38782.378906	14131.708008	35.224251
541.707458	723.931458	40076.437500	14508.645508	35.028805
542.054260	724.674500	41293.957031	14898.586914	34.937550
542.401062	713.900574	42513.488281	15296.924805	34.887962
542.747864	718.358704	43351.476563	15586.333008	34.874237
543.094666	713.306152	43804.644531	15754.554688	34.905502
543.441284	724.674500	43765.417969	15768.671875	34.952923
543.787903	720.810730	43305.558594	15650.976563	35.059891
544.134460	717.764221	42400.921875	15371.671875	35.155464
544.481079	724.228699	41146.246094	14962.116211	35.223103
544.827637	730.024231	39654.621094	14442.071289	35.227203
545.174072	732.253357	38064.316406	13854.114258	35.149040
545.520508	717.838562	36657.394531	13361.933594	35.181557
545.866943	704.018250	35460.972656	12896.945313	35.080540
546.213318	711.968750	34546.457031	12564.515625	35.030964
546.559631	717.244141	33745.324219	12245.682617	34.904964
546.905823	724.377197	33065.750000	12023.442383	34.936874
547.252136	721.256531	32524.458984	11828.175781	34.923901
547.598389	723.262695	32072.250000	11655.644531	34.873158
547.944458	719.919128	31692.708984	11541.144531	34.937847
548.290588	725.714661	31299.500000	11427.758789	35.003986
548.636658	728.166687	30846.552734	11289.035156	35.064522
548.982727	735.374023	30329.107422	11094.288086	35.003742
549.328735	725.045959	29772.208984	10877.843750	34.952805
549.674622	725.343201	29126.146484	10626.774414	34.863209
550.020569	725.343201	28487.884766	10415.012695	34.901955
550.366455	721.999573	27758.679688	10159.708984	34.907055
550.712280	715.906738	27119.228516	9954.855469	34.991615
551.058044	715.609558	26539.224609	9751.340820	34.990189
551.403748	724.228577	26106.929688	9601.100586	34.972134
551.749512	726.383301	25763.578125	9483.924805	34.978123
552.095154	723.634094	25500.916016	9406.723633	35.044563
552.440735	722.296692	25368.212891	9376.409180	35.113777
552.786316	720.662109	25329.423828	9355.456055	35.088291
553.131897	722.891174	25362.267578	9338.885742	34.968391
553.477417	719.844788	25388.646484	9331.456055	34.908916
553.822815	724.600098	25389.166016	9335.245117	34.910992
554.168213	724.080078	25361.599609	9312.583008	34.859447
554.513672	723.262695	25296.140625	9278.922852	34.817493
554.859009	715.089355	25214.626953	9227.952148	34.747036
555.204285	720.662109	25138.021484	9211.753906	34.774815
555.549500	724.525879	24990.009766	9159.593750	34.761589
555.894714	722.296692	24772.974609	9085.811523	34.774548
556.239990	710.556885	24452.281250	8992.635742	34.884068
556.585022	702.680847	24206.490234	8901.465820	34.882793
556.930115	706.618835	23968.718750	8823.596680	34.893574
557.275146	709.442383	23723.818359	8754.717773	34.957611
557.620178	707.807800	23499.427734	8697.875977	35.057045
557.965149	705.504395	23314.412109	8650.768555	35.142185
558.310059	703.349548	23207.490234	8582.038086	35.009949
558.654968	711.076965	23053.087891	8530.695313	34.999615
558.999756	711.076965	22917.931641	8473.630859	34.955662
559.344604	709.516663	22840.953125	8448.887695	34.970036
559.689331	710.705566	22779.208984	8407.874023	34.878525
560.033997	712.265869	22735.742188	8383.352539	34.831409
560.378723	719.473328	22697.994141	8370.499023	34.811378
560.723389	718.210144	22719.095703	8380.455078	34.826984
561.067932	718.655945	22712.412109	8418.200195	35.007866
561.412476	721.033630	22693.015625	8406.535156	34.978645
561.757019	722.965515	22686.478516	8417.161133	35.031715
562.101501	722.519592	22727.716797	8393.903320	34.861691
562.445862	723.485535	22747.181641	8389.223633	34.806774
562.790222	716.575439	22759.740234	8370.349609	34.721760
563.134644	716.649719	22760.705078	8377.333984	34.751701
563.478943	708.253601	22774.601563	8388.405273	34.804817
563.823181	717.467102	22761.599609	8394.719727	34.826736
564.167358	723.559875	22783.666016	8386.473633	34.736523
564.511536	727.423584	22809.968750	8406.906250	34.776257
564.855774	725.714600	22804.470703	8390.188477	34.714245
565.199768	720.959290	22864.728516	8427.562500	34.802578
565.543823	716.724060	22969.718750	8458.175781	34.788361
565.887817	712.265869	23166.474609	8537.679688	34.850544
566.231812	715.609558	23345.396484	8588.948242	34.791927
566.575745	710.482605	23544.156250	8630.781250	34.686924
566.919617	704.018311	23737.861328	8667.262695	34.571930
567.263428	697.554016	23935.208984	8714.000000	34.497654
567.607239	704.538391	24105.140625	8779.535156	34.507645
567.950989	714.792175	24210.873047	8846.556641	34.609028
568.294678	724.302917	24245.869141	8866.543945	34.616066
568.638367	724.748779	24190.068359	8845.218750	34.606258
568.981995	723.857117	24066.056641	8803.089844	34.612133
569.325623	723.931458	23938.107422	8781.244141	34.708588
569.669128	724.005676	23769.365234	8738.148438	34.775517
570.012573	721.479431	23629.453125	8680.043945	34.741459
570.356140	718.210144	23518.966797	8636.724609	34.729176
570.699524	718.730225	23457.515625	8614.508789	34.723835
571.042908	717.541321	23513.541016	8643.560547	34.769341
571.386230	715.015137	23564.212891	8648.018555	34.718960
571.729492	715.386536	23709.031250	8696.092773	34.708313
572.072815	713.306152	23846.046875	8717.641602	34.601761
572.416016	711.225647	23978.083984	8752.935547	34.562939
572.759094	716.872742	24119.181641	8776.563477	34.439724
573.102234	716.426819	24194.005859	8781.913086	34.353996
573.445374	724.228699	24239.406250	8804.426758	34.361629
573.788391	721.330872	24265.560547	8808.959961	34.350788
574.131409	728.389587	24305.833984	8838.754883	34.398830
574.474365	725.194580	24319.281250	8837.416992	34.382442
574.817261	726.829285	24206.119141	8801.378906	34.390095
575.160156	725.194519	24058.849609	8756.946289	34.421322
575.502930	719.176086	23837.576172	8663.696289	34.364487
575.845703	716.129639	23644.759766	8589.394531	34.338139
576.188477	718.655945	23373.478516	8512.639648	34.403202
576.531250	726.531982	23154.212891	8448.665039	34.431259
576.873901	724.377258	22906.859375	8364.182617	34.440712
577.216431	724.377258	22711.818359	8275.020508	34.340710
577.559082	718.878906	22495.521484	8192.247070	34.318275
577.901611	713.231750	22252.328125	8096.768066	34.279694
578.244080	703.721008	21997.320313	7998.761719	34.259312
578.586487	703.795410	21710.140625	7905.289551	34.282471
578.928955	750.977600	21566.587891	7855.506348	34.130775
579.271301	755.287170	21221.898438	7750.591309	34.179104
579.613647	757.293274	20829.060547	7637.650879	34.278782
579.955872	713.900574	20368.753906	7483.546875	34.442619
580.298157	716.501160	20097.326172	7383.164063	34.398243
580.640320	717.541443	19890.169922	7280.849609	34.232697
580.982483	716.649719	19665.402344	7207.810059	34.256401
581.324524	717.021301	19486.705078	7141.605957	34.228519
581.666626	718.433105	19350.582031	7100.812988	34.254665
582.008728	720.364929	19234.892578	7050.658691	34.190956
582.350647	722.668274	19065.484375	6998.572754	34.214508
582.692566	726.086243	18980.630859	6943.217285	34.057987
583.034424	727.052185	18874.525391	6917.954590	34.114407
583.376343	713.677673	18836.408203	6897.372559	34.121208
583.718201	705.727234	18800.519531	6901.235840	34.239182
584.059937	709.442383	18725.101563	6886.747559	34.288532
584.401611	716.872620	18656.966797	6865.125000	34.271015
584.743347	726.383301	18545.365234	6818.982910	34.191624
585.085022	718.135742	18471.136719	6779.528809	34.142921
585.426514	719.101746	18391.931641	6746.240723	34.103985
585.768127	706.916077	18303.806641	6711.616699	34.123646
586.109619	709.962585	18241.763672	6687.542969	34.095646
586.451172	712.711731	18169.615234	6661.388184	34.076351
586.792542	720.290527	18141.974609	6646.675781	34.017292
587.133850	725.566101	18088.328125	6623.419434	33.968407
587.475220	722.816833	18065.220703	6609.375488	33.943153
587.816589	722.371094	18042.853516	6594.366699	33.902031
588.157776	732.104736	18112.328125	6627.356934	33.919312
588.498962	734.928223	18151.041016	6641.251465	33.912983
588.840210	731.658875	18195.250000	6672.755371	34.019901
589.181335	729.949951	18225.638672	6659.604004	33.892086
589.522400	727.646545	18284.857422	6668.223145	33.835537
589.863403	727.349365	18342.369141	6670.081543	33.736736
590.204407	720.290527	18355.373047	6669.709473	33.736271
590.545410	720.885010	18385.240234	6675.579590	33.710228
590.886353	730.618652	18388.361328	6693.412109	33.768719
591.227112	725.714661	18395.125000	6697.646973	33.798141
591.567932	720.736389	18339.025391	6694.006348	33.903805
591.908752	708.104980	18278.841797	6659.901855	33.873348
592.249512	711.745789	18265.912109	6640.806152	33.775803
592.590149	719.547546	18237.306641	6605.363281	33.599136
592.930786	724.005676	18163.966797	6563.159668	33.481461
593.271423	712.265808	18016.923828	6524.299316	33.586529
593.612000	705.652893	17905.990234	6499.556152	33.684822
593.952576	711.448547	17877.978516	6492.571777	33.676716
594.292969	718.210144	17887.636719	6490.714844	33.620838
594.633484	716.203918	17931.251953	6500.076660	33.597771
594.973877	707.362000	17988.539063	6516.423340	33.614964
595.314209	715.089417	18114.335938	6552.979980	33.552547
595.654480	719.770508	18282.259766	6600.607422	33.485214
595.994812	720.142029	18439.408203	6665.845703	33.555023
596.335022	713.454773	18631.109375	6728.557129	33.570816
596.675171	715.535217	18798.513672	6777.894043	33.525223
597.015320	719.101807	18986.869141	6818.537598	33.389057
597.355408	726.160461	19077.224609	6846.698730	33.352497
597.695496	724.302917	19174.929688	6866.017090	33.287292
598.035461	719.919128	19216.689453	6868.171875	33.239605
598.375366	710.854065	19253.767578	6873.670410	33.235424
598.715271	705.281433	19244.998047	6852.717285	33.158199
599.055176	718.507324	19116.677734	6827.082520	33.202080
599.395081	721.553711	18955.218750	6761.474121	33.125107
599.734802	730.321472	18682.007813	6697.424316	33.239792
600.074524	719.621826	18420.982422	6579.729004	33.105404
600.414246	720.439209	18041.369141	6476.894531	33.234100
600.753906	725.343201	17676.541016	6344.857910	33.151138
601.093506	728.166687	17308.373047	6247.893066	33.291058
601.433044	732.922058	17063.025391	6134.061035	33.074738
601.772583	725.714661	16902.384766	6078.854004	33.091724
602.112122	732.030334	16836.998047	6041.554199	32.968235
602.451538	727.869446	16833.951172	6050.099121	33.044842
602.790894	727.275085	16883.212891	6061.541504	33.017376
603.130310	717.912903	16992.958984	6109.986816	33.130928
603.469604	719.696106	17147.505859	6145.801270	33.029995
603.808838	727.572266	17346.341797	6220.178223	33.050617
604.148010	725.417480	17590.648438	6285.416016	32.967224
604.487305	719.027405	17824.554688	6349.613281	32.916763
604.826416	712.488770	18035.498047	6410.244141	32.891254
605.165527	715.089417	18248.673828	6469.761230	32.820854
605.504456	714.049255	18466.232422	6507.135254	32.633091
605.843445	711.002747	18640.919922	6539.977051	32.509766
606.182434	710.408386	18717.896484	6562.787598	32.499699
606.521423	723.485596	18665.958984	6564.868652	32.556175
606.860229	727.497864	18554.578125	6521.698730	32.502243
607.199036	729.727051	18369.935547	6473.847656	32.562656
607.537903	719.696106	18194.283203	6431.718262	32.687592
607.876648	718.953125	17919.662109	6362.914063	32.812374
608.215271	723.411316	17624.679688	6256.884277	32.739990
608.553955	728.463867	17313.128906	6155.386230	32.722534
608.892578	735.596924	17037.687500	6063.845215	32.684444
609.231140	730.321472	16876.376953	5998.384277	32.627552
609.569641	726.680664	16753.333984	5943.994629	32.553982
609.908081	718.135742	16774.509766	5922.298340	32.411816
610.246521	721.999512	16771.462891	5903.276855	32.283184
610.584961	717.392822	16808.687500	5917.171387	32.314232
610.923340	708.773682	16797.244141	5914.421875	32.356392
611.261597	702.457947	16773.990234	5901.419434	32.348885
611.599854	703.721008	16707.560547	5881.654785	32.354321
611.938110	709.591003	16648.119141	5853.419922	32.272923
612.276245	721.628113	16500.181641	5810.324219	32.250713
612.614319	723.485596	16288.196289	5716.925781	32.081806
612.952393	728.240967	15962.453125	5622.486816	32.126678
613.290466	715.015076	15658.183594	5524.704590	32.186543
613.628479	712.785950	15355.176758	5436.358398	32.259571
613.966370	711.299988	15091.848633	5352.990723	32.277565
614.304260	716.203918	14847.094727	5270.514648	32.229465
614.642151	718.433044	14607.840820	5203.939453	32.294437
614.979980	718.655945	14435.831055	5139.816406	32.230839
615.317749	717.169861	14226.073242	5094.417480	32.402687
615.655396	726.977783	14133.121094	5043.222656	32.196022
615.993164	718.358704	14046.334961	5018.479980	32.263870
616.330811	724.377197	14047.969727	4990.988281	32.022980
616.668396	714.123474	14017.133789	4988.387207	32.130047
617.005859	723.485596	13989.567383	4966.691406	31.985374
617.343445	717.541321	13956.948242	4959.558594	32.040840
617.680908	720.439209	13937.333008	4967.806152	32.135895
618.018311	729.652771	13967.871094	4964.981934	31.993195
618.355652	735.894226	14018.397461	4959.483887	31.798147
618.692993	742.358459	14059.559570	4938.456055	31.508856
619.030273	733.293640	14047.820313	4942.171387	31.611174
619.367554	727.126465	14041.729492	4936.747559	31.616571
619.704712	724.525879	14017.135742	4935.261230	31.677267
620.041870	720.290527	14009.778320	4942.468750	31.770811
620.379028	719.696106	13986.893555	4945.291992	31.849951
620.716064	715.535156	13932.206055	4938.679199	31.953161
621.053040	715.906738	13886.659180	4892.982910	31.714788
621.389954	716.724060	13795.339844	4859.249512	31.674034
621.726929	713.751953	13719.551758	4844.834473	31.763388
622.063843	715.535156	13649.335938	4825.590332	31.777628
622.400635	716.278259	13607.875000	4800.179199	31.678783
622.737427	716.872620	13586.996094	4776.030273	31.539385
623.074219	725.640381	13506.153320	4745.789063	31.455301
623.410889	725.343201	13462.092773	4723.721191	31.392450
623.747559	730.098572	13440.618164	4709.751953	31.309919
624.084167	723.262695	13408.148438	4709.604004	31.425915
624.420715	720.216309	13389.348633	4722.458496	31.590498
624.757324	716.501160	13384.965820	4708.786621	31.513569
625.093750	721.256531	13433.858398	4712.501465	31.395973
625.430176	721.925232	13455.256836	4710.123535	31.320932
625.766602	730.692932	13461.424805	4720.526367	31.340176
626.102905	723.411316	13539.070313	4731.300293	31.273373
626.439209	726.977783	13622.363281	4737.689941	31.101917
626.775452	719.398926	13741.543945	4740.662598	30.880196
627.111694	722.148132	13822.164063	4757.157715	30.801563
627.447876	717.764343	13880.937500	4774.618652	30.819729
627.783997	723.931396	13934.063477	4793.417480	30.805794
628.120056	720.810730	13984.664063	4813.182129	30.853563
628.456055	732.699158	14017.729492	4822.469727	30.784803
628.792053	722.668274	14023.598633	4808.277832	30.716721
629.128052	726.977844	13976.045898	4773.875488	30.544771
629.463928	722.073914	13917.495117	4746.977539	30.502275
629.799744	724.228577	13799.129883	4715.398926	30.525434
630.135559	718.581726	13672.147461	4687.238281	30.637562
630.471375	710.779846	13542.636719	4633.071777	30.566832
630.807068	717.541321	13394.997070	4591.462402	30.557560
631.142700	721.776611	13265.413086	4547.177734	30.496746
631.478333	721.553711	13098.678711	4505.271484	30.570248
631.813965	715.312256	12954.308594	4448.727051	30.504257
632.149475	706.395996	12813.430664	4383.414551	30.370924
632.484924	716.575439	12713.270508	4350.498535	30.291035
632.820435	709.591003	12661.778320	4329.768066	30.288824
633.155884	718.953125	12587.921875	4320.777344	30.346563
633.491150	717.318420	12522.979492	4309.558105	30.428112
633.826477	724.674500	12457.742188	4285.335449	30.347229
634.161804	719.547546	12391.166992	4263.936035	30.367580
634.497009	713.306152	12338.858398	4214.524902	30.116579
634.832153	710.259705	12238.921875	4184.729004	30.137663
635.167297	713.751953	12179.776367	4150.401367	29.972458
635.502380	708.327820	12093.213867	4132.197266	30.073814
635.837463	705.058533	12017.350586	4110.426270	30.103251
636.172424	704.464172	11912.805664	4092.296875	30.225994
636.507324	701.640625	11821.191406	4074.018311	30.328363
636.842224	710.036804	11721.476563	4043.925537	30.276592
637.177124	712.637390	11621.762695	4002.761963	30.159380
637.511963	718.804504	11531.411133	3948.669189	29.871288
637.846741	707.882019	11434.891602	3911.146484	29.861671
638.181396	699.040039	11298.398438	3868.571289	29.903048
638.516113	706.395935	11182.484375	3844.199951	29.952055
638.850769	713.454773	11066.795898	3799.618408	29.808384
639.185303	721.776611	10993.086914	3771.829102	29.694872
639.519836	723.039795	10903.850586	3743.594482	29.669098
639.854370	727.423645	10827.689453	3734.157471	29.768860
640.188843	723.857117	10714.674805	3703.248047	29.821293
640.523254	714.197754	10628.038086	3681.997070	29.935921
640.857605	722.593933	10533.376953	3649.972656	29.838379
641.191895	728.984070	10472.894531	3626.344482	29.735088
641.526184	729.949951	10400.003906	3585.180664	29.526524
641.860413	719.919128	10333.948242	3559.620361	29.537056
642.194580	711.820068	10280.524414	3546.692139	29.626499
642.528748	710.854065	10210.084961	3528.041748	29.657011
642.862793	712.860291	10161.194336	3488.289795	29.374802
643.196838	714.940735	10111.113281	3458.568604	29.199419
643.530823	723.336914	10054.792969	3450.618408	29.226751
643.864746	719.324646	10019.424805	3446.531982	29.324492
644.198669	721.925232	9973.133789	3418.965576	29.153381
644.532532	719.324707	9921.641602	3401.504150	29.146786
644.866333	722.891174	9845.555664	3381.739502	29.145525
645.200073	724.228699	9790.125977	3389.318359	29.396864
645.533813	720.364929	9775.860352	3378.395752	29.352682
645.867554	713.900574	9773.928711	3384.117432	29.472500
646.201172	708.625061	9787.006836	3345.182861	29.042156
646.534729	714.792175	9820.665039	3346.148438	28.897352
646.868225	719.919128	9842.956055	3326.904297	28.575848
647.201782	714.643555	9848.008789	3329.802002	28.633022
647.535217	707.436218	9858.856445	3318.359619	28.530254
647.868591	709.293762	9880.331055	3333.443359	28.613445
648.201965	717.987244	9901.952148	3355.510986	28.718792
648.535278	719.547607	9877.432617	3344.588623	28.664272
648.868591	716.724060	9848.305664	3342.285156	28.752531
649.201782	721.107910	9794.064453	3319.399658	28.637760
649.534912	726.383362	9750.522461	3299.189453	28.510269
649.868103	724.674316	9709.434570	3274.075195	28.374725
650.201172	717.987122	9690.338867	3265.158936	28.389122
650.534180	716.649719	9644.344727	3258.917236	28.476191
650.867188	719.919006	9599.317383	3244.948486	28.436943
651.200134	727.869446	9557.782227	3215.821533	28.176405
651.533020	731.956116	9530.586914	3200.960938	28.061239
651.865845	736.414307	9461.930664	3182.682617	28.035799
652.198608	735.448425	9412.965820	3190.781982	28.295345
652.531433	725.937561	9387.256836	3173.469482	28.258188
652.864136	720.364929	9377.375000	3163.661377	28.223330
653.196777	1313.226196	10037.034180	3771.160400	28.175014
653.529358	1344.284790	9984.502930	3772.052002	28.098448
653.861938	1339.380859	9936.799805	3744.114258	27.970411
654.194519	737.380188	9178.836914	3088.541260	27.852551
654.526978	708.476379	9114.416992	3061.866455	27.996750
654.859375	713.454773	9060.176758	3047.377197	27.962145
655.191833	720.959290	9016.413086	3034.597412	27.890434
655.524170	715.906738	8967.000977	3003.167236	27.720695
655.856445	715.460938	8943.075195	2974.412354	27.455729
656.188660	735.076843	8947.905273	2979.464844	27.327833
656.520874	742.729980	8928.883789	2972.703369	27.240795
656.853088	743.398682	8908.672852	2982.585938	27.423294
657.185181	723.485596	8878.209961	2947.886475	27.277449
657.517212	721.553711	8879.397461	2948.109131	27.293430
657.849243	723.708496	8898.122070	2932.580078	27.021774
658.181274	722.816895	8950.059570	2956.208252	27.146294
658.513123	714.420593	9005.563477	2959.551758	27.078671
658.844971	710.111084	9074.813477	2967.873291	26.991543
659.176819	716.129639	9124.894531	2973.446289	26.844807
659.508667	730.544434	9192.287109	3000.566650	26.826889
659.840393	737.008728	9270.899414	3029.322021	26.861292
660.172058	729.578430	9337.474609	3052.504150	26.985987
660.503662	730.024231	9396.619141	3049.829346	26.767204
660.835266	731.287415	9436.372070	3050.349609	26.640318
661.166931	735.819885	9427.826172	3036.974854	26.474384
661.498413	736.934387	9392.383789	3026.498291	26.452284
661.829773	734.853821	9276.991211	3007.402588	26.603983
662.161194	737.528809	9161.599609	2973.372070	26.541128
662.492615	719.696228	9011.731445	2946.177002	26.850836
662.823975	723.782776	8880.140625	2915.044189	26.865686
663.155212	719.027405	8739.114258	2875.886719	26.893217
663.486450	727.126465	8624.911133	2831.156982	26.640768
663.817627	713.900574	8477.272461	2771.343018	26.501917
664.148743	711.820068	8337.656250	2728.395752	26.443995
664.479858	705.504395	8203.614258	2693.844971	26.517891
664.810913	710.333984	8113.114746	2675.195068	26.542202
665.141907	712.488770	8039.554688	2658.551514	26.559919
665.472778	720.364929	7959.307129	2623.703369	26.293045
665.803711	736.488586	7919.332520	2607.505615	26.048416
666.134583	735.894104	7863.902344	2589.375488	26.002796
666.465454	736.934387	7836.856934	2589.226807	26.088911
666.796143	722.519714	7777.711426	2553.784424	25.956270
667.126831	726.903564	7763.816895	2535.580322	25.702702
667.457458	724.302917	7740.485840	2525.995361	25.679096
667.788147	719.250305	7706.083496	2529.561768	25.910330
668.118774	715.089355	7681.860840	2509.648682	25.758837
668.449219	721.330811	7661.427734	2502.515625	25.665131
668.779663	726.680603	7668.634766	2503.035889	25.588692
669.110107	720.662109	7648.796875	2510.317627	25.831707
669.440552	712.414551	7643.372559	2488.695313	25.628214
669.770874	708.699402	7613.502441	2470.862549	25.520830
670.101135	714.643555	7587.423340	2454.590332	25.316492
670.431396	718.878906	7557.478516	2447.605713	25.278959
670.761597	717.838623	7512.228027	2428.287109	25.174425
671.091797	715.460938	7478.939941	2406.739502	25.006044
671.421875	718.655945	7420.984863	2387.718018	24.902716
671.751892	729.281250	7393.343750	2377.464111	24.732405
672.081909	732.996338	7361.914063	2371.371338	24.715572
672.411865	733.070618	7338.359375	2357.328125	24.590260
672.741821	723.634216	7305.146484	2340.610107	24.568455
673.071716	711.076965	7241.097656	2332.585449	24.831600
673.401550	709.145203	7177.271484	2325.749268	24.993389
673.731262	715.981018	7112.404785	2322.628662	25.117907
674.060974	727.126465	7069.308594	2312.597900	24.998831
674.390625	725.194519	7073.990234	2296.697021	24.752764
674.720276	718.507324	7067.822754	2275.966553	24.529562
675.049927	715.683777	7044.195313	2268.313232	24.533878
675.379395	714.643555	7004.814941	2268.462158	24.702326
675.708923	719.696106	6954.511719	2262.963623	24.752419
676.038330	717.987244	6927.316895	2232.796631	24.395699
676.367737	722.073792	6846.400879	2197.948730	24.098566
676.697083	721.553711	6826.190918	2188.809570	24.035103
677.026428	721.033630	6785.175781	2181.973877	24.091457
677.355652	714.717834	6767.492188	2191.484619	24.398180
677.684875	718.061523	6760.804688	2177.589844	24.153406
678.013977	713.306152	6755.603027	2156.636475	23.887114
678.343079	718.804504	6765.411621	2146.903076	23.618181
678.672180	713.306091	6737.993652	2146.308350	23.785503
679.001221	723.634094	6761.175781	2169.788086	23.952698
679.330139	722.073792	6794.166504	2170.753906	23.858006
679.659058	713.529053	6837.931152	2168.822266	23.762207
679.987976	716.872620	6857.249512	2156.562256	23.446276
680.316772	719.770508	6896.853027	2153.144287	23.204704
680.645630	731.584656	6928.653809	2149.354980	22.878077
680.974304	725.789001	6984.604004	2159.980225	22.914740
681.302979	722.222473	7007.191895	2172.165771	23.070015
681.631653	714.346375	7024.950684	2188.140869	23.354252
681.960266	715.386658	7037.953613	2190.518555	23.331217
682.288757	714.420715	7051.773438	2191.038330	23.300230
682.617249	717.689941	7074.732910	2189.701172	23.155596
682.945679	717.764343	7044.937988	2174.617676	23.025339
683.274109	722.371094	7017.817871	2164.661133	22.910051
683.602478	724.228577	6959.118652	2147.571533	22.828678
683.930725	730.247070	6906.363281	2132.933838	22.711470
684.259033	728.018066	6849.447754	2109.082764	22.561146
684.587280	727.349304	6790.525879	2088.426514	22.448252
684.915344	724.451477	6747.578613	2077.726807	22.467987
685.243469	728.612488	6688.285156	2062.569336	22.383055
685.571533	724.600098	6613.164551	2040.649902	22.349247
685.899536	722.148132	6520.509277	2025.492188	22.477798
686.227539	715.535156	6431.049316	2010.037231	22.648918
686.555420	716.798340	6392.263184	2002.532715	22.654257
686.883301	715.460938	6378.591309	1986.334595	22.441187
687.211121	720.587830	6363.730469	1978.235718	22.286304
687.538940	725.640381	6369.972168	1969.096313	22.030170
687.866638	722.965515	6368.485840	1966.347290	22.024220
688.194336	721.999512	6376.064941	1951.338257	21.742563
688.521973	719.473328	6377.476563	1950.892212	21.764196
688.849609	720.141907	6368.263672	1938.706665	21.574690
689.177063	720.736328	6353.476563	1945.765259	21.748365
689.504578	712.042969	6303.025391	1929.938965	21.783220
689.832031	717.689941	6258.964355	1912.923462	21.569651
690.159485	715.460876	6187.781738	1895.388062	21.561733
690.486816	716.352539	6103.745605	1873.988892	21.487877
690.814087	719.770508	6034.791504	1861.951782	21.489685
691.141296	723.559875	5959.003418	1839.215210	21.309662
691.468506	733.442200	5871.326660	1814.769653	21.046162
691.795715	727.052185	5755.042969	1785.345825	21.048044
692.122803	723.931396	5676.653809	1769.965210	21.120378
692.449829	718.210144	5616.319824	1761.717407	21.304285
692.776855	716.129639	5549.150391	1752.429688	21.442078
693.103821	713.454773	5475.887207	1718.844849	21.110851
693.430664	717.615662	5402.996582	1688.826660	20.728539
693.757568	712.934570	5351.579590	1678.572876	20.817249
694.084351	711.448547	5320.966309	1667.353149	20.737627
694.411133	708.402161	5281.585449	1668.096191	20.985252
694.737854	716.203918	5250.527344	1646.548340	20.517822
695.064575	714.197754	5197.177734	1642.907349	20.716345
695.391174	712.637390	5173.772461	1632.282227	20.614592
695.717773	707.659119	5150.367676	1627.006470	20.693398
696.044250	715.758118	5144.125977	1618.833374	20.392960
696.370789	711.522888	5132.237793	1608.208008	20.283712
696.697205	712.637390	5139.445313	1607.390747	20.212156
697.023621	707.510498	5169.017090	1604.641602	20.108253
697.349915	721.405090	5217.017090	1616.307007	19.906120
697.676208	724.302917	5287.753418	1629.384399	19.833269
698.002380	721.330872	5357.523438	1645.136353	19.925953
698.328674	718.135803	5452.110840	1658.659546	19.867527
698.654724	714.643555	5525.968262	1664.009399	19.731901
698.980896	720.662109	5632.146484	1686.820313	19.671410
699.306946	718.284424	5701.396484	1709.482788	19.891150
699.632935	718.878723	5777.333984	1726.275024	19.915098
699.958862	718.507324	5795.910156	1721.073853	19.745657
700.284729	718.061523	5796.578125	1708.665405	19.505772
700.610596	719.101746	5770.720703	1692.393188	19.266920
700.936340	717.764221	5717.000000	1674.486206	19.137365
701.262146	711.299988	5637.718750	1649.891968	19.052216
701.587830	709.813965	5516.530762	1636.591797	19.280891
701.913513	713.603333	5390.810547	1613.780762	19.246046
702.239075	721.925293	5250.007324	1590.969727	19.192329
702.564697	721.182190	5125.179199	1555.230103	18.938431
702.890137	724.377197	4996.337891	1516.964355	18.553240
703.215698	719.398926	4907.991699	1486.277344	18.308737
703.541016	720.513489	4794.605957	1467.553101	18.336344
703.866455	709.219543	4709.752441	1463.912231	18.864803
704.191711	713.157532	4633.443359	1451.800903	18.841570
704.517029	706.321594	4561.741211	1438.872192	19.000542
704.842163	709.739563	4502.224609	1425.571899	18.875021
705.167419	711.225586	4435.500977	1420.444946	19.043150
705.492493	715.089355	4415.439453	1405.733032	18.664280
705.817566	707.213318	4368.257324	1388.940796	18.621122
706.142578	699.560120	4337.792969	1375.937866	18.590832
706.467590	702.086426	4320.777344	1379.355835	18.715868
706.792480	707.436218	4306.957031	1380.024414	18.685493
707.117371	711.002747	4306.437012	1371.405273	18.367809
707.442200	719.696228	4290.461426	1365.758179	18.093096
707.766907	718.061523	4288.158691	1357.436401	17.909172
708.091675	717.912903	4282.883301	1355.355835	17.880735
708.416321	713.380371	4295.812012	1343.393188	17.586178
708.741028	710.928406	4317.433594	1338.192017	17.392561
709.065552	712.042969	4336.678223	1341.387085	17.362965
709.390137	709.516663	4348.641113	1344.879272	17.459215
709.714600	720.736389	4360.380859	1352.681030	17.362812
710.039063	718.878845	4392.999512	1349.783325	17.171577
710.363403	724.525818	4434.535156	1350.377686	16.869280
710.687744	713.231750	4489.741699	1350.749146	16.881126
711.012085	710.779785	4519.388184	1354.984253	16.914433
711.336304	702.160645	4550.520996	1369.696289	17.345976
711.660461	710.631165	4581.951172	1375.492065	17.174009
711.984619	712.563049	4609.517578	1381.064819	17.154467
712.308716	717.764343	4638.198730	1375.566406	16.778807
712.632751	725.120300	4650.235840	1374.303101	16.539202
712.956726	735.596924	4654.693848	1374.749023	16.308657
713.280701	737.157288	4622.000488	1368.730469	16.257366
713.604553	734.556702	4575.709961	1360.185669	16.287529
713.928467	731.064453	4493.902832	1339.083740	16.158527
714.252258	729.206970	4430.448242	1326.154907	16.128317
714.575989	722.816895	4365.210449	1317.164307	16.317495
714.899719	718.135803	4327.167480	1310.031250	16.400394
715.223267	715.163757	4285.186523	1299.926147	16.379795
715.546936	717.912842	4228.642090	1285.437134	16.165424
715.870422	718.655945	4173.806641	1270.873657	15.982450
716.193970	716.352539	4142.896973	1265.152466	16.016134
716.517395	712.785950	4123.652344	1260.842896	16.067968
716.840820	710.259766	4108.568848	1253.784180	15.993966
717.164124	717.021240	4058.489014	1242.638672	15.730136
717.487488	723.336975	4026.538818	1232.087769	15.401747
717.810730	725.417419	3990.501953	1227.555298	15.379017
718.133972	726.383301	3942.576904	1222.502808	15.425673
718.457092	724.302917	3880.905518	1212.100220	15.453238
718.780212	720.290527	3844.719727	1203.926880	15.479191
719.103210	706.247375	3795.382813	1186.168579	15.535777
719.426208	700.377441	3746.268311	1177.326660	15.658775
719.749207	713.677551	3691.210205	1165.066772	15.159841
720.072083	721.256531	3646.628906	1164.249390	15.143127
720.394958	727.943665	3607.991455	1158.453735	14.948018
720.717773	718.655945	3557.911377	1155.778809	15.395687
721.040527	715.460938	3514.815674	1143.964722	15.307234
721.363281	713.454773	3478.704834	1132.744995	15.162832
721.685913	722.816833	3446.754639	1130.218750	14.956359
722.008545	728.389587	3435.906494	1122.491211	14.555833
722.331055	722.891113	3414.656006	1117.141479	14.646538
722.653503	719.250305	3389.095703	1101.909302	14.332627
722.976013	715.535156	3357.294189	1100.646240	14.577827
723.298401	722.222473	3333.294189	1096.485229	14.333683
723.620789	717.169922	3315.239014	1093.810425	14.496940
723.943115	721.330811	3305.579834	1088.312012	14.200690
724.265381	717.912903	3302.755859	1082.516357	14.105439
724.587585	719.473206	3311.152100	1085.637085	14.128443
724.909790	712.191589	3297.480469	1084.151001	14.387538
725.231873	712.191589	3296.143311	1080.361572	14.248331
725.553894	711.076965	3298.149170	1081.253296	14.308697
725.875916	852.400696	3461.837891	1214.552368	13.878535
726.197937	865.552307	3482.123047	1219.679199	13.534008
726.519775	860.276855	3470.754639	1205.413086	13.221190
726.841675	722.371094	3337.975586	1072.708374	13.394123
727.163513	708.030579	3339.461670	1065.946777	13.601580
727.485291	708.922302	3352.389893	1072.411133	13.750456
727.806946	712.414551	3371.708984	1081.476074	13.878175
728.128662	715.609558	3395.188477	1085.339722	13.798070
728.450256	722.668274	3417.330811	1083.779419	13.400978
728.771790	723.188416	3420.822998	1064.609375	12.656309
729.093323	722.148132	3410.717529	1067.135620	12.831638
729.414795	714.792236	3424.389404	1069.810669	13.102259
729.736145	718.061462	3436.203369	1071.296753	12.995469
730.057495	718.061462	3458.717041	1064.832397	12.652846
730.378845	727.349304	3457.677002	1063.271973	12.303383
730.700134	724.674500	3449.503906	1066.912842	12.559992
731.021301	725.566101	3433.603271	1068.473267	12.662573
731.342468	729.206848	3434.345947	1068.770386	12.552535
731.663574	732.699158	3427.956055	1065.575439	12.350448
731.984680	734.556641	3433.454346	1062.826294	12.163101
732.305664	720.662109	3428.921875	1060.968628	12.565505
732.626648	716.872742	3448.166260	1057.848022	12.484022
732.947571	714.792175	3457.305664	1053.389771	12.346251
733.268433	718.953125	3453.144775	1044.993530	11.924563
733.589233	714.049133	3434.197510	1045.067749	12.169138
733.909973	717.615662	3423.498047	1053.984009	12.431005
734.230713	724.525818	3411.832275	1066.764160	12.735368
734.551331	729.058289	3383.820313	1061.562988	12.524840
734.871948	718.581543	3340.501709	1053.538208	12.775243
735.192505	710.631165	3295.919922	1029.910034	12.349833
735.513062	715.015076	3261.963623	1025.823364	12.203163
735.833435	724.377197	3215.970459	1016.386902	11.719798
736.153931	729.206848	3166.113281	1016.981262	11.809005
736.474304	724.228577	3124.429688	1014.157898	12.079376
736.794617	724.822998	3085.123291	1011.185791	12.132473
737.114807	723.931396	3059.266357	1007.619141	12.147626
737.434998	717.912903	3035.637939	999.371582	12.143747
737.755188	714.272034	3031.328125	999.668762	12.317212
738.075256	705.430115	3026.647217	990.232361	12.269523
738.395325	711.299988	3034.523193	981.093079	11.612879
738.715271	714.866516	3045.296875	975.594727	11.187985
739.035278	719.324707	3070.559814	966.752747	10.523322
739.355164	712.042969	3082.076904	975.743347	11.126439
739.675049	704.612610	3095.748291	973.217041	11.233341
739.994873	711.894348	3096.268555	984.065186	11.414770
740.314636	720.959290	3105.407959	979.904297	10.859743
740.634277	724.897278	3098.348877	978.343933	10.678400
740.953979	713.157532	3072.268799	979.161316	11.275593
741.273499	711.151367	3044.851318	975.891907	11.344241
741.593140	714.569275	2998.783203	975.074524	11.404591
741.912598	719.176025	2964.009766	965.563904	10.975774
742.232117	718.061523	2906.053711	957.910645	10.962065
742.551453	713.008972	2868.159424	953.303894	11.149798
742.870850	723.931396	2843.639404	957.539124	11.020750
743.190063	724.823059	2820.457031	953.303894	10.902707
743.509338	720.216309	2796.680420	939.855164	10.577541
743.828552	715.535156	2757.819580	926.034851	10.307071
744.147705	713.157532	2722.451904	920.462158	10.317285
744.466797	727.200684	2683.145508	913.477722	9.523635
744.785828	727.646484	2656.545166	910.356934	9.472268
745.104858	738.940613	2643.913818	911.397156	9.052964
745.423706	734.259460	2640.941650	908.425049	9.134484
745.742615	733.516418	2630.316406	906.641846	9.127236
746.061401	727.275085	2612.335205	903.223938	9.333859
746.380249	724.525879	2605.053467	912.883301	10.016201
746.698975	718.210022	2589.301270	907.310547	10.106429
747.017639	715.163635	2579.864746	903.372498	10.093246
747.336304	708.922180	2549.474854	898.022705	10.274117
747.654907	709.888184	2556.607910	891.409668	9.829401
747.973389	713.677551	2556.087891	890.666748	9.606394
748.291931	714.197754	2573.846436	891.409729	9.529325
748.610352	719.919128	2569.239502	905.155762	10.016471
748.928711	716.649719	2568.645264	909.539612	10.415246
749.247070	725.863281	2560.100342	904.561340	9.742365
749.565308	722.519592	2557.945313	898.245605	9.574128
749.883545	723.634094	2541.449951	899.657410	9.683231
750.201782	724.525818	2530.527588	896.016541	9.495602
750.519836	721.256531	2509.500000	901.886475	10.100971
750.837952	718.433044	2502.515869	890.518127	9.645577
751.155884	709.368103	2476.286865	895.645020	10.542473
751.473877	706.544617	2464.769775	883.162109	10.045215
751.791809	718.210144	2455.927734	882.270508	9.441141
752.109619	730.915833	2460.385986	873.725769	8.257439
752.427490	741.392578	2454.887451	874.691711	7.779372
752.745300	734.556641	2445.228271	880.190125	8.513234
753.062988	725.343079	2449.463379	876.995056	8.795904
753.380615	711.820068	2447.160156	875.360352	9.424106
753.698303	719.398926	2450.429443	874.097168	8.936771
754.015808	719.547546	2436.683350	874.765869	9.039374
754.333374	727.497986	2424.646484	882.344788	9.123940
754.650757	721.628113	2417.884766	879.298340	9.295187
754.968262	726.680603	2407.036865	877.143555	8.954229
755.285583	732.847717	2408.522705	870.902161	8.238736
755.602905	730.767273	2407.928467	865.552429	8.036506
755.920105	724.080078	2404.064697	867.187073	8.518352
756.237305	726.160461	2394.033936	860.945618	8.081258
756.554443	724.971680	2385.711914	850.320313	7.547757
756.871582	726.977844	2379.916260	844.376160	7.102401
757.188599	716.129639	2378.950195	842.518555	7.600875
757.505615	717.764343	2375.309326	856.487488	8.369194
757.822510	725.937561	2395.073975	860.054016	8.035080
758.139465	728.092346	2402.801514	854.109802	7.524736
758.456238	725.789001	2411.197510	848.685730	7.291807
758.773010	716.872742	2419.816650	855.818787	8.159167
759.089783	720.513489	2445.079590	870.084900	8.672988
759.406433	716.278320	2459.122803	868.078674	8.709920
759.723145	712.934570	2461.723633	859.013733	8.353161
760.039673	712.414551	2464.918457	852.475098	7.992025
760.356201	715.758118	2462.317871	862.505920	8.402105
760.672668	719.250305	2460.237305	863.471863	8.283896
760.989136	713.603333	2438.912842	868.227295	8.962100
761.305481	709.516663	2437.500732	860.797058	8.754733
761.621826	708.327820	2435.420166	866.518311	9.159353
761.938049	716.724060	2448.423584	866.815613	8.667298
762.254333	724.005676	2471.754395	863.546204	7.984015
762.570496	732.550537	2508.237061	862.357422	7.310236
762.886597	727.795166	2574.069092	856.858948	6.990500
763.202637	722.593994	2660.780518	866.146790	7.406552
763.518677	717.615662	2786.129150	877.737976	7.740937
763.834656	716.946960	2920.988525	885.094055	7.629035
764.150574	716.798340	3056.368164	891.409729	7.463397
764.466370	715.312256	3155.116455	890.740967	7.190278
764.782288	713.306152	3206.162109	902.926697	7.606558
765.097961	713.900574	3211.660889	911.025696	7.892076
765.413696	714.569336	3175.029297	907.384827	7.836563
765.729309	720.736389	3102.287109	893.044434	7.235119
766.044861	727.052185	3003.687500	877.663757	6.615534
766.360474	726.680664	2879.156250	866.666992	6.503504
766.675903	721.925232	2755.145264	861.391418	6.859375
766.991394	716.426819	2624.743652	850.320313	7.016314
767.306763	717.541321	2521.239990	851.732117	7.439756
767.622131	718.432922	2423.754639	843.781738	7.350450
767.937378	714.123352	2358.071045	835.385498	7.376277
768.252625	715.535156	2310.368652	831.224548	7.254011
768.567810	707.584778	2261.031982	820.227722	7.251160
768.882996	713.306152	2225.218018	823.571350	7.293097
769.197998	711.820129	2177.738525	813.094727	6.908610
769.513062	716.501160	2145.565430	817.627136	7.076377
769.828064	715.163757	2106.482178	810.939941	6.883844
770.142944	710.333984	2076.464111	812.277344	7.462200
770.457825	712.934570	2061.157471	814.877930	7.561314
770.772705	707.361877	2031.436523	814.432129	8.086421
771.087402	704.761292	2008.030884	816.586914	8.580391
771.402100	705.653015	1981.727905	811.460022	8.291598
771.716736	706.841797	1966.198608	811.385742	8.301376
772.031372	713.231750	1940.712769	800.091614	7.076270
772.345947	711.448547	1929.047241	789.243469	6.389209
772.660461	710.705505	1913.294922	783.150696	6.024100
772.974854	711.597168	1905.641968	789.912292	6.558810
773.289246	715.832336	1883.202515	798.531311	7.084212
773.603638	722.742493	1861.283081	799.423035	6.734986
773.917908	718.730225	1846.868286	794.593323	6.724629
774.232178	714.940735	1845.308105	788.426086	6.501015
774.546265	723.188416	1845.828247	789.614990	5.916997
774.860474	725.120300	1840.478516	791.324036	5.935648
775.174561	724.451477	1823.537476	795.113464	6.429160
775.488586	718.655945	1800.131958	794.519043	7.014773
775.802551	720.959290	1788.169312	792.958679	6.746507
776.116516	729.355469	1775.834961	790.580994	5.850619
776.430359	722.222473	1776.429565	791.323975	6.554832
776.744202	725.491760	1773.457397	787.385925	5.906126
777.057922	718.804443	1769.370605	786.271423	6.421964
777.371704	714.792175	1762.906250	774.011475	5.650082
777.685303	706.618896	1750.423462	766.135315	5.701874
777.998962	704.464172	1737.791992	762.643127	5.630251
778.312500	710.334045	1728.207031	772.376770	6.095331
778.626038	709.665344	1712.826172	774.085754	6.421743
778.939453	713.306152	1713.792114	780.252930	6.691426
779.252869	720.513489	1719.587891	783.150696	6.269524
779.566223	723.262695	1716.690063	784.265198	6.140610
779.879578	726.234802	1706.807983	784.190979	5.910439
780.192749	717.318420	1691.427124	782.184753	6.659045
780.505920	710.408386	1685.705933	786.642883	7.816537
780.819031	705.504333	1674.114624	776.240540	7.302855
781.132141	721.627991	1676.715210	793.255859	7.499616
781.445190	733.516418	1670.696655	790.060852	6.033464
781.758118	737.603088	1673.520142	796.005066	6.240080
782.071045	732.104675	1665.124023	772.599670	4.340209
782.383911	727.572266	1654.350098	772.896912	4.890562
782.696838	725.343201	1640.752563	768.958923	4.764614
783.009583	717.987122	1613.557983	774.531555	6.313787
783.322266	717.244141	1590.003906	770.742126	6.129749
783.634888	711.894348	1586.883179	768.735901	6.496260
783.947510	711.671387	1584.208374	760.636963	5.611863
784.260132	718.581543	1594.313477	756.698914	4.352630
784.572571	724.674500	1582.722290	759.225281	4.026673
784.885010	717.021301	1575.960571	761.380066	5.164366
785.197449	715.609558	1562.363281	763.386169	5.642327
785.509766	719.473206	1553.669922	767.621399	5.771803
785.822083	729.949951	1539.626587	764.649231	4.285573
786.134277	727.497864	1540.666992	762.494629	4.303750
786.446533	719.993347	1536.283081	753.949707	4.159842
786.758606	715.832458	1551.366577	763.163269	5.664737
787.070740	722.593994	1548.840210	770.445007	5.791375
787.382690	719.324707	1555.304565	774.160095	6.559415
787.694641	715.832458	1559.168335	766.581238	6.017624
788.006653	703.498230	1579.155762	760.562683	6.516755
788.318481	708.104980	1599.514648	761.677246	6.009837
788.630310	711.299988	1615.935547	761.231384	5.519504
788.942017	712.414490	1633.916870	761.157043	5.289466
789.253784	718.135742	1649.891724	763.906250	4.912285
789.565430	722.148132	1657.990845	775.646179	5.716564
789.877014	723.485596	1656.950562	772.153870	5.213723
790.188538	714.494934	1639.266602	772.451111	6.267080
790.500061	712.488770	1616.084106	760.488281	5.312058
790.811462	718.432922	1600.257690	765.986755	5.392663
791.122925	725.788879	1586.957397	755.732910	3.477139
791.434204	728.389587	1569.793457	751.646301	2.764037
791.745483	732.624817	1542.970215	749.417175	2.072247
792.056702	729.281189	1510.351196	755.361389	3.339035
792.367920	723.336914	1501.212280	753.503906	3.878127
792.678955	725.566101	1479.812988	749.937317	3.231199
792.990112	731.881836	1480.184448	745.553528	1.827027
793.301086	736.562927	1465.769897	745.330566	1.202353
793.612122	723.559875	1470.302368	749.714417	3.502485
793.922974	713.603333	1460.717285	749.342957	4.783691
794.233826	715.683838	1461.163086	759.373840	5.860660
794.544556	723.188416	1462.872070	761.677185	5.203410
794.855286	724.228699	1463.540649	756.921814	4.422100
795.166016	725.120300	1467.999023	758.259277	4.460886
795.476624	723.039734	1457.224976	753.949707	4.210105
795.787292	724.451477	1466.438477	763.163269	5.217314
796.097778	716.055359	1472.531250	756.253113	5.313818
796.408264	712.637390	1493.336060	752.017883	5.044263
796.718689	713.751953	1500.914917	742.878662	3.700213
797.029053	718.878845	1503.367065	736.488586	2.244743
797.339355	716.946960	1502.401001	736.042786	2.431183
797.649658	714.940735	1497.794434	733.813660	2.410786
797.959839	716.872620	1498.165894	739.089172	2.843561
798.270020	718.581543	1503.069824	749.268616	3.911731
798.580078	725.343079	1498.017212	757.887695	4.211946
798.890137	716.426819	1477.138062	754.915588	5.059577
799.200195	712.265869	1453.212524	750.308899	5.134382
799.510071	708.996582	1447.045532	751.126221	5.708244
799.820007	715.609558	1443.553223	748.376953	4.501364
800.129883	725.491760	1432.259277	747.262451	3.080318
800.439575	719.770508	1411.454468	747.188171	3.963900
800.749329	719.621887	1400.383423	752.240723	4.791522
801.058960	716.872742	1395.999634	750.531738	4.956216
801.368591	720.662109	1390.724121	748.079834	4.091819
801.678162	723.262695	1390.278320	750.383118	4.065935
801.987671	733.144958	1385.745728	750.903320	2.721168
802.297119	740.946716	1385.745728	751.720642	1.670897
802.606506	739.386292	1381.882202	744.587585	0.809545
802.915894	719.250305	1381.361938	746.073547	4.051166
803.225159	710.259705	1369.250610	743.250183	5.006211
803.534424	708.253601	1356.098999	746.593750	5.918102
803.843628	722.296692	1351.343628	745.702148	3.720781
804.152771	723.411316	1351.566528	744.661804	3.383000
804.461792	734.408020	1349.634644	745.627747	1.823674
804.770874	726.606384	1347.702759	743.844543	2.775440
805.079773	724.748718	1346.811157	740.723816	2.568086
805.388733	708.253479	1358.476685	734.705322	4.068118
805.697571	716.278259	1366.278320	731.881836	2.400550
806.006470	721.553711	1372.296875	740.798096	2.957294
806.315125	724.080078	1379.132813	746.742371	3.459614
806.623901	717.912903	1384.408203	750.011658	4.816051
806.932495	709.888184	1386.934570	753.206726	6.398165
807.241150	718.210144	1380.098755	749.268616	4.692401
807.549622	716.501160	1373.040039	758.482178	6.394293
807.858154	721.925293	1372.742798	749.268738	4.201400
808.166565	715.386658	1364.940918	754.841309	6.074111
808.474915	721.850891	1350.674927	747.411072	4.064759
808.783264	720.439148	1352.681030	753.578308	5.241532
809.091492	720.067688	1347.628418	753.429688	5.316139
809.399719	715.609558	1351.715088	746.296570	4.824202
809.707825	715.386536	1334.699707	739.237793	3.851243
810.015930	723.039795	1330.018677	741.838379	3.097074
810.323975	724.897278	1321.102417	750.977600	4.374387
810.632080	719.101746	1310.922852	754.395569	5.963596
810.939880	712.488770	1292.867310	745.181946	5.633078
811.247864	711.745789	1293.461792	740.426575	4.930376
811.555664	710.928406	1287.146118	740.798096	5.183751
811.863464	715.980957	1283.653809	747.188171	5.497394
812.171143	709.665344	1270.947998	744.810486	6.261576
812.478882	719.621887	1270.205078	737.454407	3.238842
812.786438	715.683838	1276.149170	735.299622	3.499910
813.094055	721.033691	1258.613770	739.014832	3.344830
813.401489	713.529053	1261.734497	738.866211	4.621836
813.708984	711.448547	1258.539429	735.448303	4.386795
814.016357	719.250305	1270.353638	738.271790	3.451528
814.323730	729.875671	1265.375366	744.513245	2.733442
814.630981	733.813721	1264.855225	745.479187	2.196715
814.938232	724.228699	1263.443481	739.534973	2.838623
815.245361	721.405212	1257.127808	736.488586	2.815520
815.552490	717.318542	1253.635498	735.225403	3.338858
815.859619	715.238037	1249.326050	741.466858	4.910955
816.166565	719.101746	1250.737671	739.386414	3.815519
816.473572	714.123474	1254.973022	736.265625	4.093957
816.780457	721.405090	1264.855103	731.807556	1.914153
817.087341	720.141907	1274.663208	729.355469	1.661534
817.394043	722.445374	1274.737549	729.504150	1.278087
817.700806	721.182129	1271.988281	720.736389	-0.080925
818.007507	711.671448	1281.053223	731.064453	3.405976
818.314209	719.027405	1297.028320	736.414246	3.008099
818.620667	719.176025	1309.213989	752.315002	5.616415
818.927246	724.228577	1317.833130	751.126221	4.531240
819.233704	720.885010	1334.105347	746.073669	4.107604
819.540161	711.374268	1354.092773	737.974609	4.138723
819.846497	715.163757	1386.860229	741.095398	3.860619
820.152832	718.135742	1423.119751	747.485352	4.163159
820.458984	728.538147	1470.896484	751.200500	3.052751
820.765259	727.497864	1531.973511	746.370850	2.345998
821.071350	728.538147	1613.929321	748.451355	2.249086
821.377502	722.445313	1764.392456	751.720703	2.809681
821.683472	723.337097	2009.294312	761.231384	2.946777
821.989441	715.312317	2443.370605	770.370605	3.186136
822.295349	721.925232	3021.371826	786.791504	2.820951
822.601196	716.872620	3675.086914	803.955383	2.943761
822.907043	718.135803	4255.837402	818.295898	2.831219
823.212769	715.535217	4641.170898	826.914978	2.837241
823.518494	715.386658	4797.875488	831.150208	2.835612
823.824097	721.256531	4690.879395	828.698242	2.706598
824.129700	713.603333	4468.194336	817.775696	2.774533
824.435242	714.717773	4187.404297	804.549866	2.586818
824.740723	711.448547	3939.827393	794.518982	2.573132
825.046082	717.169922	3677.167236	788.277588	2.402288
825.351501	712.860352	3395.485596	787.385925	2.778084
825.656799	710.779846	3083.636963	779.658386	2.902768
825.962036	718.061523	2791.553467	770.296204	2.519165
826.267212	718.135803	2530.082031	758.779297	2.243085
826.572449	719.770508	2386.157715	763.386169	2.617378
826.877502	711.374207	2339.644043	768.067200	3.481794
827.182495	716.798340	2418.553467	772.079590	3.248484
827.487488	712.042969	2515.221436	766.878418	3.041044
827.792419	707.659119	2608.248291	772.005188	3.385586
828.097290	700.748962	2625.486816	774.754456	3.844965
828.402100	705.652893	2586.477783	778.766846	3.887334
828.706848	712.711670	2494.045166	774.011475	3.441231
829.011597	716.872620	2384.077148	769.330383	3.146450
829.316223	712.563171	2267.422119	764.203430	3.321218
829.620789	711.225769	2155.967773	757.887695	3.229776
829.925354	718.358704	2034.631470	755.138611	2.794247
830.229797	727.795166	1910.843140	760.116882	2.732071
830.534302	734.333801	1778.212769	760.191162	2.477046
830.838562	730.395752	1644.022095	753.132324	2.488607
831.142944	726.903564	1532.419312	750.308838	2.905626
831.447144	723.559875	1441.026978	747.931152	3.396849
831.751404	723.931396	1395.925171	750.085938	3.892081
832.055542	725.714661	1357.585083	740.798157	2.387119
832.359619	721.033508	1346.885376	733.739441	2.030182
832.663635	724.525818	1338.266235	731.361633	1.113796
832.967651	725.491760	1365.163940	729.429871	0.615645
833.271545	729.504089	1409.671265	731.658936	0.316811
833.575439	727.423645	1492.295898	731.510315	0.534294
833.879211	717.244141	1590.895508	734.556702	1.981633
834.183044	712.785950	1705.396118	736.860107	2.425339
834.486694	705.429993	1785.494507	741.392578	3.329670
834.790344	721.925293	1851.178101	747.931213	2.302932
835.093933	717.318542	1851.178101	747.336853	2.647445
835.397522	718.878906	1840.924316	737.974609	1.701865
835.700928	712.711731	1771.897095	732.401917	1.858993
836.004395	728.909668	1722.337036	739.460693	1.062083
836.307739	734.185120	1663.415039	744.067444	1.063496
836.611023	729.875549	1601.520874	740.946777	1.270153
836.914307	716.055359	1528.852661	740.575195	3.016722
837.217529	719.696106	1456.258911	747.782532	3.813174
837.520691	714.940735	1393.547485	751.126221	5.332320
837.823730	720.587830	1326.823730	737.157288	2.733170
838.126831	714.197754	1265.821167	727.126465	2.343757
838.429749	726.754944	1225.697632	728.686829	0.387196
838.732727	718.730225	1200.063110	729.132629	2.161166
839.035522	717.467041	1179.852905	728.835449	2.458641
839.338379	713.231873	1161.945923	720.513489	1.622774
839.641113	720.736511	1153.847046	718.433105	-0.531829
839.943848	725.566101	1171.233765	718.581604	-1.567199
840.246460	720.513489	1192.410034	718.581604	-0.409387
840.549072	717.689941	1209.128296	722.073792	0.892045
840.851563	714.494934	1218.416138	729.132629	2.904759
841.154053	708.253479	1218.118896	733.813660	5.013123
841.456482	713.306152	1213.437744	733.590820	4.055866
841.758850	712.265930	1197.016846	726.754944	2.988961
842.061157	721.405090	1182.750732	722.296692	0.193261
842.363403	713.677673	1179.481445	725.045959	2.440574
842.665588	717.244141	1158.676636	724.228699	1.582248
842.967712	719.398926	1146.119507	728.018066	2.019856
843.269775	719.621826	1115.135254	725.417480	1.465350
843.571777	714.420654	1096.856812	732.030334	4.604607
843.873840	718.135742	1074.343140	738.494690	5.715476
844.175659	721.479431	1059.110962	738.048828	4.907538
844.477600	726.829285	1052.869507	735.374023	2.620762
844.779297	724.228699	1040.312378	726.011902	0.564155
845.081116	724.897400	1032.139038	736.191345	3.675916
845.382751	719.101807	1020.102051	734.185120	5.011064
845.684387	710.111145	1006.578918	731.733215	7.293228
845.985962	708.327820	1000.411865	724.674500	5.596567
846.287537	705.801575	995.582214	724.748718	6.538444
846.588989	702.457947	997.068298	733.739441	10.617921
846.890381	702.160706	986.963074	736.637207	12.105412
847.191711	707.807800	971.879578	735.968445	10.664011
847.493042	717.987122	970.913635	725.789001	3.084643
847.794250	721.033630	972.548340	721.256531	0.088623
848.095459	724.748718	973.068359	724.377258	-0.149589
848.396606	724.748718	955.904480	724.005676	-0.321446
848.697693	721.702332	948.102722	720.364929	-0.590724
848.998657	722.816895	940.969727	709.516663	-6.096750
849.299622	724.674377	950.777649	715.609558	-4.009150
849.600464	727.720886	952.932434	714.792175	-5.740696
849.901367	718.432922	956.944763	718.953125	0.218103
850.202087	714.272034	952.412292	711.225647	-1.279240
850.502808	713.380432	953.080872	722.816895	3.936773
850.803467	714.643555	956.424561	727.052246	5.132203
851.104065	730.247253	959.396667	742.804382	5.479887
851.404663	732.104736	949.142883	734.854004	1.266721
851.705139	738.940613	946.170898	733.739441	-2.509851
852.005615	726.011902	940.895325	724.080078	-0.899010
852.306030	722.371094	943.718933	723.114075	0.335662
852.606384	725.120300	936.139954	718.507324	-3.133820
852.906616	731.510254	934.282410	714.569275	-8.354687
853.206909	727.869446	931.681824	714.792175	-6.416328
853.506958	716.649719	941.787048	722.296814	2.508289
853.807129	712.637390	933.093567	726.977844	6.504900
854.107178	719.621887	936.734436	730.618652	5.065007
854.407166	725.268860	935.396973	728.463867	1.520504
854.707092	724.748718	939.780823	725.937561	0.552868
855.007019	716.055359	933.465088	726.754883	4.921364
855.306763	716.872620	926.109131	730.544373	6.534114
855.606567	713.157532	930.790222	730.247131	7.852497
855.906250	718.953125	930.195801	727.795166	4.185727
856.205933	716.872620	926.109070	723.485596	3.160528
856.505493	717.764221	927.372253	726.086182	3.970249
856.805054	718.878845	935.396973	724.971680	2.814007
857.104492	712.934631	935.619934	726.011902	5.872534
857.403931	714.792175	928.115234	726.309082	5.398810
857.703308	709.368103	922.691162	727.646545	8.568433
858.002563	714.272034	927.075012	727.497986	6.215116
858.301819	710.705566	934.059570	724.228699	6.054574
858.601013	717.541443	932.053284	725.789001	3.844803
858.900208	715.683838	920.016296	724.897278	4.509044
859.199219	716.426819	921.428040	722.445374	2.935863
859.498291	721.033508	922.022461	721.851013	0.406741
859.797302	722.222412	938.220459	726.903503	2.167192
860.096191	727.423645	934.505310	735.225403	3.767479
860.395020	718.581726	934.356689	733.962219	7.128025
860.693787	716.426941	923.880066	731.435974	7.234903
860.992554	713.826233	923.508484	723.931396	4.819274
861.291260	716.798340	921.056458	729.578430	6.256834
861.589844	717.244141	933.836609	719.919128	1.235033
861.888428	716.352539	927.892395	717.912842	0.737593
862.186890	725.343201	937.700378	708.030579	-8.152596
862.485413	728.018066	934.059509	716.798340	-5.445374
862.783813	724.451477	938.146179	717.169922	-3.407457
863.082153	714.569275	930.715881	721.925293	3.403254
863.380371	719.919128	922.988464	722.816895	1.426984
863.678589	725.863281	925.589050	728.240967	1.190475
863.976746	729.058289	926.629333	727.052063	-1.015445
864.274902	727.720886	929.229797	717.838562	-4.904162
864.572937	719.919128	932.945007	713.380371	-3.069466
864.870911	720.290527	935.917175	713.008972	-3.376927
865.168884	711.745789	933.910950	721.330811	4.314368
865.466736	713.974854	925.291809	726.160461	5.766508
865.764587	718.135742	917.118591	725.714661	3.808830
866.062317	725.268799	928.412537	727.869446	1.280200
866.360107	734.630920	927.446533	733.888000	-0.385301
866.657715	722.965393	931.458923	733.962341	5.274479
866.955322	720.662109	924.920227	729.727051	4.437984
867.252808	712.711731	927.966614	714.272034	0.724863
867.550293	721.851013	936.808655	714.346375	-3.491217
867.847717	717.095520	932.201965	708.699402	-3.903239
868.145081	717.392822	930.641602	711.077087	-2.961674
868.442383	711.448547	929.972839	708.253601	-1.462055
868.739624	721.553711	934.653870	711.448547	-4.741979
869.036804	718.878845	931.830383	721.256531	1.116538
869.333984	718.878845	932.647705	722.371094	1.633656
869.631042	710.705566	930.492920	724.228699	6.152825
869.928101	718.210144	929.378418	722.296814	1.935267
870.224976	715.906738	918.158691	721.107910	2.571630
870.521851	734.185120	934.059570	733.739441	-0.222979
870.818726	728.909668	945.725098	734.705261	2.673054
871.115479	732.773438	954.046936	741.318176	3.861619
871.412231	717.467041	939.112122	726.309082	3.989279
871.708862	716.203918	930.641602	720.959290	2.217601
872.005493	716.055359	933.316589	715.906738	-0.068406
872.302063	724.228699	933.613708	722.296692	-0.922705
872.598572	732.550537	933.242188	728.983948	-1.777149
872.895020	732.624817	929.155518	732.550537	-0.037796
873.191406	728.538269	934.728210	727.720886	-0.396422
873.487671	719.770508	944.684814	723.931458	1.850016
873.783997	724.005676	944.387695	728.315247	1.955500
874.080200	716.055359	944.016113	724.897278	3.878702
874.376343	719.547546	941.266846	724.451477	2.211774
874.672424	718.135742	956.944641	721.479431	1.400153
874.968445	724.600159	968.758789	726.754883	0.882510
875.264465	724.080078	971.136536	728.538147	1.804474
875.560364	718.210144	959.619629	724.302917	2.523834
875.856201	709.145203	946.542419	724.228699	6.353695
876.152039	710.259766	942.678711	719.398926	3.932192
876.447754	713.900574	942.604431	714.049133	0.064957
876.743469	714.569275	952.486633	713.380371	-0.499713
877.039063	713.677673	952.709534	708.625000	-2.113807
877.334595	715.089417	956.944824	714.494934	-0.245801
877.630127	723.634094	952.115051	714.866455	-3.837361
877.925537	723.336914	952.338074	721.033630	-1.005796
878.221008	715.386536	953.526855	721.182190	2.433714
878.516296	707.584717	953.972656	715.089355	3.045863
878.811646	702.903748	958.728027	715.312317	4.850427
879.106812	709.070801	971.582458	720.364929	4.302334
879.401978	710.482605	984.659668	719.770447	3.387534
879.697083	711.299988	1009.551025	720.364807	3.039325
879.992126	709.070984	1025.303223	719.250305	3.218939
880.287109	711.374268	1064.312134	724.823059	3.810527
880.582031	712.934570	1121.079468	722.222473	2.275639
880.876892	719.993347	1236.322876	719.696106	-0.057568
881.171753	725.045959	1416.135376	722.742493	-0.333310
881.466492	734.631042	1685.111328	734.259521	-0.039088
881.761230	728.835449	2002.978394	739.089172	0.804755
882.055786	730.693054	2330.133301	739.757874	0.566750
882.350403	723.782898	2584.545654	735.002502	0.602957
882.644958	722.965515	2725.052490	732.699158	0.486175
882.939453	711.225647	2750.240967	735.151123	1.173384
883.233826	704.464111	2704.544922	729.949890	1.274238
883.528137	703.349609	2650.229248	733.442200	1.545683
883.822449	706.024414	2579.641846	726.754883	1.106441
884.116577	705.058533	2501.103760	731.436035	1.468644
884.410828	707.436218	2385.489014	725.120178	1.053838
884.704956	705.801575	2228.561279	732.773438	1.771249
884.999023	711.448547	2029.578735	737.825989	2.001126
885.292969	711.374268	1815.066895	738.940613	2.497647
885.586914	714.123535	1616.901489	732.550476	2.041138
885.880798	713.603333	1467.850220	731.213074	2.334745
886.174622	716.649658	1351.715088	734.333801	2.784617
886.468384	712.637390	1273.994507	734.779602	3.944407
886.762085	709.888245	1214.700928	727.275085	3.444216
887.055664	709.665344	1177.178101	724.005676	3.067367
887.349304	715.460938	1147.977051	719.770447	0.996381
887.642822	719.844788	1116.026855	722.222412	0.600134
887.936340	715.981018	1089.129272	717.169861	0.318598
888.229736	713.529053	1063.346313	717.244141	1.062008
888.523071	708.922302	1049.526001	709.739563	0.239945
888.816284	710.631165	1034.368164	719.770447	2.823058
889.109619	716.278137	1027.680786	721.553711	1.694133
889.402710	715.015076	1011.780090	732.179016	5.783680
889.695862	712.340149	992.461426	728.463867	5.755978
889.988892	706.767517	981.241699	728.092468	7.769383
890.281921	709.516724	983.916626	717.764282	3.005671
>>>>>End Processed Spectral Data<<<<<
