Jaz Data File
++++++++++++++++++++++++++++++++++++
Date: Fri Jun 04 16:52:43 2021
User: jaz
Dark Spectrum Present: Yes
Reference Spectrum Present: Yes
Processed Spectrum Present: Yes
Spectrometers: JAZA3586
Integration Time (usec): 24600 (JAZA3586)
Spectra Averaged: 10 (JAZA3586)
Boxcar Smoothing: 1 (JAZA3586)
Correct for Electrical Dark: No (JAZA3586)
Strobe/Lamp Enabled: Yes (JAZA3586)
Correct for Detector Non-linearity: No (JAZA3586)
Correct for Stray Light: No (JAZA3586)
Number of Pixels in Processed Spectrum: 2048
>>>>>Begin Processed Spectral Data<<<<<
W	D	R	S	P
191.335022	0.000000	0.000000	0.000000	0.000000
191.713211	227.812149	233.756348	229.075317	21.250439
192.091385	455.401367	470.633423	464.614960	60.488174
192.469528	695.027649	713.083191	701.120544	33.745293
192.847641	705.281433	715.386536	712.191589	68.382843
193.225739	723.634216	724.748718	723.336914	-26.675795
193.603790	731.584534	727.275085	732.476135	-20.689461
193.981842	739.757813	742.507080	736.860046	-105.401382
194.359863	740.649475	740.798096	733.739319	-4649.527832
194.737854	744.141785	746.890930	731.436035	-462.170868
195.115829	742.284241	741.243958	739.980774	221.426895
195.493774	742.655762	746.445129	748.748535	160.786026
195.871704	739.609314	740.055176	756.847473	3866.256104
196.249603	745.256348	746.222229	748.376953	323.083740
196.627457	745.702148	748.674133	745.181946	-17.503542
197.005310	744.439026	752.835144	743.695862	-8.851281
197.383133	741.689758	753.875427	749.045715	60.365639
197.760910	735.076843	761.602844	749.491516	54.341675
198.138687	738.049011	765.838196	750.457520	44.652294
198.516449	736.191345	752.983826	742.581360	38.052834
198.894180	749.788757	743.398743	742.061218	120.931473
199.271866	750.085999	743.472961	734.259460	239.323288
199.649536	751.274902	751.497742	738.791992	-5601.752930
200.027191	749.342957	753.132385	733.070618	-429.414032
200.404816	752.760925	750.457520	737.305908	670.963745
200.782410	750.308899	760.265381	736.934387	-134.329697
201.159988	742.952881	773.119812	747.782654	16.010157
201.537537	735.671204	777.206482	750.085999	34.704945
201.915070	735.151184	784.116699	751.572021	33.535515
202.292557	731.064453	777.578064	744.810547	29.552841
202.670029	735.522644	780.772949	742.284180	14.942519
203.047485	736.042786	774.234375	741.615479	14.591413
203.424911	739.832214	775.571777	739.534973	-0.831687
203.802292	732.030457	776.686340	737.454529	12.146378
204.179688	728.686768	769.924805	735.522705	16.576777
204.557037	725.566101	758.184998	734.333801	26.879206
204.934357	724.451477	759.225281	731.733215	20.940298
205.311661	722.816895	760.116882	733.219238	27.888330
205.688934	724.377258	763.163269	729.801331	13.984610
206.066177	725.120300	758.036377	733.367859	25.056324
206.443390	730.544434	759.002258	734.631042	14.360229
206.820587	728.761169	761.825745	738.866211	30.561535
207.197769	722.965515	764.203430	734.556641	28.107933
207.574921	721.553711	757.813477	734.556641	35.860489
207.952042	718.210144	756.847473	732.179016	36.153824
208.329147	721.330811	761.602844	735.299744	34.686436
208.706223	727.126465	778.543884	737.305969	19.797773
209.083267	733.813721	777.875183	743.324402	21.585033
209.460297	745.404968	764.426453	748.971436	18.749680
209.837280	734.853943	752.686523	743.844543	50.416710
210.214264	733.219238	755.510071	734.333801	5.000096
210.591217	719.547546	763.460449	727.126404	17.258839
210.968124	720.513489	763.831970	722.965515	5.660462
211.345016	714.123474	763.906250	727.275085	26.417995
211.721893	713.677551	762.123047	728.984070	31.595339
212.098724	713.528992	764.723633	733.962341	39.913063
212.475555	717.764221	758.482239	737.825989	49.270000
212.852356	718.507324	753.875427	736.042786	49.579876
213.229126	714.420593	755.435730	733.665039	46.920349
213.605865	713.900574	759.076599	729.281189	34.045967
213.982590	721.553711	764.352051	727.497986	13.889031
214.359283	731.733215	758.630676	727.275085	-16.574537
214.735931	737.900330	759.002258	734.185242	-17.605442
215.112579	735.299744	759.448059	735.894226	2.461797
215.489197	728.909668	757.664856	737.157410	28.682621
215.865799	715.906738	747.559631	734.036621	57.277176
216.242355	709.516663	740.129395	730.767334	69.417755
216.618896	705.950134	738.866211	735.894226	90.971024
216.995407	700.154541	745.776367	729.652771	64.658150
217.371902	698.594238	745.479187	730.693054	68.462944
217.748367	703.200989	746.445129	726.531982	53.951805
218.124802	713.008850	748.302734	732.253357	54.526463
218.501236	716.426819	754.915588	743.027161	69.111954
218.877609	716.724060	761.825745	737.380188	45.799015
219.253983	721.553711	768.141541	733.219238	25.039860
219.630295	725.863220	773.416992	730.990173	10.781381
220.006592	727.423584	768.810242	736.265686	21.364620
220.382889	724.897278	761.231445	735.076843	28.016510
220.759140	723.634094	762.048767	726.754944	8.124108
221.135391	721.999512	764.946533	727.200745	12.110812
221.511581	719.250305	757.962097	730.544373	29.174747
221.887772	714.792175	749.342957	734.110901	55.914005
222.263931	707.287598	745.404846	731.435974	63.352886
222.640060	707.436218	755.881592	731.510254	49.693157
223.016159	711.968689	757.219055	730.321350	40.558041
223.392212	718.953125	762.866028	727.423645	19.289364
223.768265	726.829163	756.030212	724.451477	-8.142466
224.144302	725.714661	758.853699	723.931396	-5.381158
224.520294	732.104675	760.191162	723.559875	-30.423170
224.896286	724.080078	766.061035	735.522644	27.256563
225.272217	725.417480	767.101318	739.906494	34.759308
225.648148	720.513489	765.020813	742.730042	49.916622
226.024048	723.931396	771.633789	733.442200	19.937790
226.399902	724.005676	766.358215	734.556641	24.912235
226.775772	721.033630	769.033203	733.367859	25.696539
227.151581	722.965515	763.534729	733.070618	24.908302
227.527374	724.674500	762.717468	725.194580	1.367087
227.903137	724.302979	759.745361	724.451477	0.418986
228.278870	721.776672	766.135437	728.686768	15.577744
228.654572	716.946960	772.153992	732.773438	28.667503
229.030273	719.027405	773.119812	737.454529	34.066010
229.405930	718.730164	768.215820	732.996338	28.828907
229.781555	712.637390	773.045471	738.048889	42.066391
230.157181	708.699402	778.469666	732.402039	33.972404
230.532761	705.429993	778.618164	733.219299	37.969669
230.908325	713.900574	770.073425	727.052063	23.412537
231.283859	718.284424	765.763855	733.367859	31.768356
231.659332	720.885010	767.398499	734.259521	28.754049
232.034821	718.432922	766.283997	736.340027	37.422577
232.410263	717.095520	760.042664	734.259521	39.965408
232.785690	724.377197	762.791809	742.507141	47.195438
233.161087	725.789001	770.965088	742.729980	37.499882
233.536469	723.411316	775.125977	747.931152	47.413704
233.911804	717.318420	764.054871	737.974609	44.197170
234.287140	717.764343	755.658691	738.123230	53.725391
234.662430	718.655945	761.602844	735.596985	39.446480
235.037704	714.346375	766.729797	730.915833	31.631109
235.412933	710.779785	777.206543	728.612488	26.845661
235.788162	711.299988	767.101318	725.789001	25.965355
236.163345	718.581726	767.621399	734.928223	33.333210
236.538513	722.371094	756.773193	731.064453	25.269852
236.913635	728.463867	759.448059	730.990234	8.153729
237.288742	724.674500	762.717468	726.234802	4.101422
237.663834	728.612549	767.844299	731.064453	6.249796
238.038879	728.389648	769.627625	728.315186	-0.180569
238.413910	733.219238	771.633789	731.213074	-5.222408
238.788910	730.247070	770.370605	731.361633	2.777828
239.163879	721.925232	776.834961	728.909668	12.719851
239.538834	719.919006	779.658508	724.302917	7.338379
239.913757	715.386536	777.578064	722.668274	11.708570
240.288651	724.005676	777.503662	729.058289	9.444490
240.663528	716.946960	767.472839	728.463867	22.794075
241.038361	717.318420	772.674011	721.256531	7.114205
241.413177	712.117188	772.674011	716.501160	7.239436
241.787979	715.460876	777.652344	718.655945	5.137471
242.162735	724.748718	775.868958	731.213074	12.645393
242.537476	723.485596	767.324219	730.321472	15.593274
242.912170	726.903564	772.674011	729.727051	6.168798
243.286865	717.615723	778.618225	730.767273	21.559034
243.661514	722.222473	795.039063	736.117004	19.081547
244.036148	727.275085	798.308411	732.030457	6.694563
244.410751	724.971680	802.320801	726.234802	1.633015
244.785339	716.798340	791.323975	719.696106	3.888281
245.159882	710.705505	785.676941	721.702332	14.668021
245.534378	718.433044	780.624329	724.154297	9.199444
245.908890	725.417480	791.769836	724.005676	-2.127738
246.283356	724.748718	791.769836	724.823059	0.110921
246.657791	712.860291	796.227966	720.290588	8.912684
247.032196	712.042969	794.518982	727.572266	18.828865
247.406586	710.556946	803.955383	732.996277	24.025381
247.780960	717.987244	811.088562	739.609192	23.224106
248.155289	720.810730	816.661194	742.952942	23.100788
248.529602	720.885071	813.020447	744.364685	25.483822
248.903870	724.600159	798.605652	742.209961	23.795263
249.278122	727.572205	786.494324	733.665100	10.340591
249.652344	734.185120	787.831787	724.748718	-17.589912
250.026550	732.624756	794.890442	725.937561	-10.739776
250.400711	728.463867	803.435364	728.612488	0.198236
250.774857	722.668274	797.788330	733.887939	14.935646
251.148987	726.754883	800.240295	732.476257	7.785728
251.523071	720.513489	798.382813	734.779602	18.320581
251.897125	717.541321	803.732605	733.962219	19.051693
252.271164	715.460938	803.658203	729.949890	16.427893
252.645187	718.358704	800.834717	731.956055	16.486431
253.019165	718.878845	801.800598	734.110840	18.369118
253.393112	715.386536	806.184509	733.888000	20.376518
253.767044	712.265869	811.014160	729.355469	17.306223
254.140930	713.231750	811.905762	718.878845	5.722981
254.514801	708.699402	804.475586	719.696106	11.481668
254.888657	707.436218	806.481750	717.392761	10.052491
255.262466	707.584778	808.190674	724.897400	17.208357
255.636276	714.569336	814.209167	726.903503	12.378752
256.010010	725.045959	819.707520	735.002502	10.518043
256.383759	726.977783	818.147278	734.928223	8.720504
256.757446	725.268860	815.695251	735.225403	11.010660
257.131134	726.457703	807.967834	726.160461	-0.364668
257.504791	732.922058	807.744873	720.959290	-15.988130
257.878418	729.727051	818.221619	728.463867	-1.427414
258.252014	721.033630	830.630127	733.070618	10.983004
258.625580	713.083191	857.527771	739.014893	17.952700
258.999115	723.336975	870.010559	731.733215	5.724439
259.372650	727.572266	890.369446	731.881836	2.647202
259.746124	730.915833	907.979309	740.203674	5.245487
260.119598	730.172852	925.589050	741.466797	5.779431
260.493042	724.674377	937.700378	742.952881	8.580410
260.866425	719.547546	929.527039	737.974609	8.775649
261.239838	716.798340	920.462097	736.042725	9.449097
261.613159	716.575439	903.892578	739.832214	12.415722
261.986511	723.782776	898.617004	737.677429	7.947330
262.359802	720.587830	898.171204	737.900330	9.748942
262.733063	726.457703	888.586243	736.042725	5.911989
263.106293	723.336975	890.815369	736.711487	7.985813
263.479523	724.080078	880.413025	737.380188	8.507554
263.852692	720.216309	882.121887	731.658875	7.067431
264.225861	717.021301	872.165344	729.281250	7.902301
264.598969	716.798340	875.731934	732.327637	9.770934
264.972076	717.318420	881.378906	737.974609	12.590593
265.345154	720.884949	885.539795	738.940613	10.965765
265.718201	720.290527	884.425293	735.374023	9.189702
266.091217	722.296692	894.679016	732.476135	5.905155
266.464203	723.782898	904.189880	734.705261	6.054291
266.837158	725.640381	917.192871	731.510254	3.064368
267.210114	720.662109	921.502380	733.962219	6.622232
267.583038	718.730164	932.944885	736.117004	8.116548
267.955902	725.789001	940.672424	737.528809	5.463338
268.328766	732.030457	944.313293	736.414307	2.065099
268.701569	735.448303	944.536133	738.271790	1.350383
269.074371	728.389587	953.898254	734.185242	2.570036
269.447144	730.098450	965.192383	727.126465	-1.264169
269.819885	727.126465	967.793030	719.101807	-3.334347
270.192596	719.844727	974.926086	734.259521	5.651058
270.565277	716.501160	986.888855	741.541199	9.260791
270.937927	712.488770	1007.470642	745.404846	11.158678
271.310577	719.919128	1027.829590	737.974609	5.863874
271.683136	716.129639	1046.999634	733.665039	5.299786
272.055725	719.324707	1070.330688	735.002502	4.466532
272.428284	714.866455	1080.287476	735.968445	5.774706
272.800812	714.272034	1081.104614	736.340027	6.015821
273.173279	706.841797	1075.829224	734.482422	7.490940
273.545776	706.990417	1074.714478	733.590820	7.233795
273.918152	706.544617	1070.925049	742.284180	9.808311
274.290558	719.324646	1062.974609	743.175781	6.940532
274.662964	722.668274	1060.076904	739.014893	4.844754
275.035278	724.674500	1062.231812	731.956116	2.157150
275.407593	720.736389	1069.587524	735.151184	4.132076
275.779907	722.519714	1082.070557	734.705322	3.389120
276.152161	725.714661	1096.633911	733.962219	2.223546
276.524384	719.547546	1100.348999	730.024231	2.751220
276.896606	716.278259	1099.308716	733.962219	4.616855
277.268799	713.008850	1101.612183	740.946777	7.189317
277.640930	718.730225	1120.262085	743.547363	6.180615
278.013031	721.405090	1126.280640	737.231628	3.908988
278.385162	727.423645	1124.051636	727.943787	0.131141
278.757233	720.290527	1112.088867	725.640442	1.365477
279.129272	720.885010	1121.451050	735.671204	3.691325
279.501282	714.940735	1126.503540	741.095276	6.354933
279.873230	721.405090	1142.181396	737.528809	3.831898
280.245178	721.627991	1153.772705	724.748779	0.722163
280.617126	732.922058	1182.527832	719.696106	-2.941678
280.988983	735.819824	1211.357300	719.176086	-3.499985
281.360870	737.083008	1240.558228	727.497864	-1.903797
281.732697	730.024231	1264.335083	733.739258	0.695293
282.104492	731.881836	1286.031372	731.138672	-0.134109
282.476288	725.120300	1307.802124	732.179016	1.211419
282.848053	727.572266	1337.597534	740.426575	2.107177
283.219757	718.358704	1344.433350	739.312073	3.346785
283.591461	728.240967	1338.712036	738.791992	1.728342
283.963135	723.857117	1319.319092	729.281250	0.910912
284.334747	733.442200	1323.703003	733.219238	-0.037773
284.706360	726.234802	1343.616211	729.132629	0.469374
285.077942	718.655823	1375.789185	727.646484	1.368164
285.449524	711.968689	1407.739380	724.823059	1.847501
285.821014	713.380432	1428.395508	731.881836	2.587554
286.192535	727.349365	1448.234375	734.556641	0.999782
286.563995	730.024231	1464.655273	734.482422	0.606861
286.935425	731.584534	1477.732544	732.476257	0.119510
287.306824	727.423645	1477.583984	728.389587	0.128765
287.678223	721.999512	1468.593384	733.144836	1.492823
288.049561	723.708496	1459.082520	728.315247	0.626450
288.420898	724.600159	1445.708008	724.080017	-0.072131
288.792145	725.714661	1431.813354	725.789001	0.010528
289.163452	725.268860	1439.689453	728.612488	0.468020
289.534668	724.005676	1458.933960	732.253357	1.122243
289.905914	731.807434	1497.497070	730.618652	-0.155256
290.277039	730.470032	1524.617554	731.138733	0.084204
290.648193	727.275085	1567.267212	742.952881	1.866422
291.019318	723.931396	1603.675781	746.445129	2.559122
291.390381	724.823059	1622.845703	738.346191	1.505879
291.761475	731.584534	1625.372070	730.692932	-0.099755
292.132507	732.996399	1606.573364	730.172852	-0.323217
292.503510	726.457703	1592.604492	734.036560	0.875008
292.874481	727.052063	1575.737793	739.683594	1.488364
293.245422	719.844727	1582.053589	735.151123	1.775254
293.616364	719.324646	1606.647827	734.853943	1.750129
293.987213	713.083191	1643.724976	728.612488	1.668665
294.358093	717.689941	1684.962891	729.949951	1.267482
294.728943	724.228699	1731.848022	727.349365	0.309707
295.099731	726.531982	1778.807129	731.138733	0.437790
295.470490	727.646484	1814.398071	728.686768	0.095724
295.841248	726.680603	1831.562134	731.881836	0.470750
296.211975	727.497864	1847.537231	727.423645	-0.006626
296.582642	731.807434	1883.351196	730.172852	-0.141947
296.953308	724.822998	1932.688110	732.476257	0.633619
297.323883	720.885010	1981.281860	733.888000	1.031658
297.694519	716.129639	2010.185669	733.590820	1.349337
298.065063	721.479431	2014.866821	730.841553	0.723845
298.435608	728.389587	2000.229126	726.234863	-0.169418
298.806122	725.194519	1953.790039	724.748718	-0.036285
299.176575	720.959290	1911.065918	729.801270	0.742957
299.547028	708.699402	1871.239624	736.860046	2.422337
299.917450	714.494934	1845.308105	738.569031	2.128919
300.287872	721.553711	1829.927368	735.894104	1.293823
300.658234	731.584656	1815.289917	723.188416	-0.774772
301.028564	724.971680	1811.871704	734.779602	0.902376
301.398865	719.027405	1805.036011	738.940613	1.833614
301.769135	715.386536	1811.723267	749.342957	3.097262
302.139374	715.460938	1829.333008	735.448303	1.794404
302.509583	714.643555	1839.735352	735.819824	1.882182
302.879791	717.392761	1835.500122	729.949890	1.123070
303.249939	720.290527	1818.336304	734.482422	1.292468
303.620087	723.039795	1810.757324	735.894104	1.181769
303.990173	716.872620	1802.658203	741.987000	2.313015
304.360260	723.336975	1796.862671	735.151062	1.100494
304.730286	726.903503	1796.342407	723.188416	-0.347387
305.100281	727.349365	1810.311401	721.479431	-0.542026
305.470276	719.919128	1833.419556	726.903564	0.627250
305.840179	715.535156	1838.694946	734.631042	1.700193
306.210144	717.912903	1843.301758	733.516418	1.386500
306.579987	721.479492	1844.936523	734.110840	1.124328
306.949890	718.730286	1864.552368	740.649597	1.912977
307.319702	725.268860	1883.351074	743.472961	1.571918
307.689484	724.451477	1908.985718	741.020996	1.398821
308.059265	728.538147	1936.923462	733.219238	0.387384
308.429016	722.445313	1974.520508	727.423645	0.397607
308.798737	725.120178	2012.340698	730.172852	0.392526
309.168396	727.423584	2054.693359	731.287415	0.291111
309.538055	730.841553	2085.157471	735.968506	0.378564
309.907684	726.903503	2120.525391	736.860046	0.714436
310.277313	725.120300	2145.788330	737.900330	0.899579
310.646851	726.903503	2160.723145	742.655762	1.098622
311.016388	725.640381	2176.103760	742.135559	1.137235
311.385895	722.668213	2179.967529	739.906555	1.182896
311.755371	726.680664	2209.985840	741.169617	0.976802
312.124817	723.039795	2198.543213	738.569031	1.052470
312.494232	731.807556	2200.920654	738.271790	0.440009
312.863617	725.268860	2176.920898	724.897278	-0.025597
313.232971	727.943787	2170.531006	729.504089	0.108160
313.602295	721.256531	2157.825439	735.002441	0.956857
313.971619	718.581604	2158.642578	738.123230	1.357000
314.340820	718.953125	2167.038818	726.532043	0.523375
314.710083	730.618652	2188.735352	721.851013	-0.601299
315.079285	730.544250	2212.958008	723.708496	-0.461123
315.448486	737.751709	2256.350830	733.219238	-0.298464
315.817596	725.417480	2253.155518	731.658936	0.408542
316.186707	731.881775	2239.186768	726.606262	-0.349996
316.555786	724.005676	2196.165283	725.789001	0.121137
316.924866	723.931396	2165.849854	734.408020	0.726575
317.293884	717.615723	2137.986328	742.804260	1.773378
317.662872	720.885010	2133.454102	748.525574	1.956758
318.031830	725.194580	2139.621338	744.884766	1.392097
318.400757	725.120300	2152.549805	748.302734	1.624069
318.769684	723.039795	2168.004639	747.633972	1.702061
319.138550	721.776672	2195.868164	739.460693	1.199656
319.507416	732.550537	2220.759766	731.658936	-0.059911
319.876190	730.618652	2229.601807	723.336975	-0.485774
320.244995	733.070618	2225.738037	724.154358	-0.597337
320.613770	720.959290	2201.589600	723.559875	0.175640
320.982483	719.324646	2194.531006	728.538147	0.624557
321.351166	711.448547	2178.184326	732.550537	1.438704
321.719818	720.959290	2177.441406	735.522644	0.999899
322.088440	726.086182	2167.633057	736.860107	0.747386
322.457062	722.891174	2195.422607	737.751709	1.009183
322.825623	715.386536	2224.326416	735.894226	1.359079
323.194183	718.210144	2265.861572	729.058289	0.700942
323.562653	729.058289	2304.796143	727.720886	-0.084875
323.931183	727.572266	2363.272461	732.401917	0.295265
324.299591	722.965515	2415.061279	728.686768	0.338116
324.668060	722.073914	2481.636475	732.922058	0.616525
325.036407	722.965515	2527.184326	734.482422	0.638332
325.404755	719.398926	2564.187012	744.364685	1.353313
325.773102	716.203918	2558.614258	746.370789	1.637359
326.141388	714.569275	2571.097168	745.256287	1.652925
326.509674	717.689941	2575.927002	743.324402	1.379504
326.877899	719.621826	2592.793457	739.757874	1.074971
327.246124	719.324707	2599.480713	730.172852	0.576981
327.614288	718.730286	2601.338135	730.618652	0.631484
327.982422	716.798340	2592.644775	733.888000	0.911037
328.350525	713.008972	2571.691406	736.488525	1.263236
328.718628	709.293762	2549.623291	739.312012	1.631134
329.086700	707.733398	2543.159180	735.448425	1.510005
329.454712	712.934570	2553.561768	738.346191	1.380596
329.822693	715.535156	2574.589600	728.909668	0.719425
330.190674	721.553711	2598.589111	722.593933	0.055418
330.558563	719.919006	2604.830322	725.045959	0.272000
330.926483	728.538147	2623.257568	729.355469	0.043137
331.294312	725.268860	2641.907471	736.562927	0.589264
331.662231	732.476257	2689.535400	737.008606	0.231590
332.029999	728.240906	2738.723877	738.048889	0.487842
332.397766	729.578369	2785.088867	737.900330	0.404861
332.765503	730.247131	2825.806641	739.980774	0.464489
333.133240	729.801270	2875.069580	741.838379	0.561100
333.500916	727.869446	2931.836914	744.587585	0.758547
333.868561	726.977844	2969.731201	742.729980	0.702357
334.236176	726.606262	2979.836182	741.987000	0.682608
334.603790	728.835449	2976.195313	735.002502	0.274413
334.971344	716.946960	2976.864014	731.064453	0.624691
335.338867	714.420654	2983.254639	726.977844	0.553464
335.706360	714.420654	2985.037842	730.692932	0.716646
336.073853	722.371033	2984.888916	731.138733	0.387520
336.441284	724.005676	2986.746338	736.860046	0.568089
336.808655	718.953125	2983.105713	744.216003	1.115776
337.176086	720.141907	2943.353516	751.200500	1.397015
337.543396	721.256531	2877.892822	753.206726	1.481483
337.910706	720.810730	2811.391846	745.107666	1.162210
338.277954	723.411316	2826.401123	735.448303	0.572375
338.645264	718.210144	2888.444092	725.937561	0.356064
339.012421	724.897400	3024.566406	726.011902	0.048464
339.379669	721.627991	3144.936768	735.968445	0.591772
339.746796	726.532043	3270.657227	739.312073	0.502335
340.113953	720.959290	3336.712158	734.333801	0.511306
340.481018	715.683838	3368.291016	731.881836	0.610644
340.848114	715.386536	3358.037109	734.259521	0.714169
341.215118	720.662109	3339.833008	741.021057	0.777305
341.582153	724.377258	3353.356201	737.528809	0.500253
341.949066	722.816895	3378.544678	733.442139	0.400088
342.316010	724.971680	3415.696045	731.584534	0.245765
342.682922	736.637207	3437.615234	730.470032	-0.228331
343.049835	744.290344	3440.141357	731.510254	-0.474065
343.416656	741.020996	3481.379639	733.293518	-0.281988
343.783478	732.773438	3527.967529	735.819824	0.108987
344.150269	735.225403	3643.434326	737.380188	0.074093
344.516998	730.321472	3749.760986	736.488586	0.204247
344.883728	728.315247	3853.933594	733.516418	0.166405
345.250427	724.377197	3931.654297	739.534973	0.472606
345.617065	729.875671	3971.331787	740.798157	0.336962
345.983704	733.887939	3978.687500	745.553528	0.359516
346.350281	725.566101	3960.186279	747.485352	0.677645
346.716827	718.507324	3918.576904	745.181946	0.833564
347.083405	703.944031	3888.929932	743.918884	1.255103
347.449860	708.625000	3838.626953	742.729980	1.089615
347.816376	711.299988	3789.661377	741.689758	0.987206
348.182770	714.717834	3742.479248	741.318176	0.878548
348.549194	714.123474	3723.383545	742.358459	0.938270
348.915558	716.872620	3742.999268	751.051941	1.129474
349.281921	722.296692	3774.281006	754.767029	1.063909
349.648193	719.919006	3814.032471	750.680420	0.994191
350.014526	719.696106	3860.026367	747.336731	0.880182
350.380737	728.389587	3907.431641	738.346130	0.313193
350.746948	728.166687	3976.607422	730.247070	0.064043
351.113159	731.064453	4026.687500	727.869446	-0.096947
351.479309	726.754944	4061.386719	739.089172	0.369883
351.845428	725.640381	4066.811279	744.810547	0.573756
352.211517	721.628113	4090.736328	738.494812	0.500628
352.577576	723.857178	4130.934082	732.847839	0.263882
352.943604	728.686829	4177.447754	730.024231	0.038779
353.309601	727.646545	4233.694824	735.076843	0.211928
353.675537	720.142029	4314.833496	736.860046	0.465075
354.041473	721.999573	4426.807129	741.466858	0.525460
354.407379	715.535217	4538.039063	749.491516	0.888326
354.773254	718.433044	4645.703125	743.175781	0.630024
355.139038	718.358704	4738.284668	740.278015	0.545267
355.504913	722.519714	4839.187988	729.206848	0.162440
355.870636	728.166687	4935.335449	734.630920	0.153648
356.236389	719.621887	5037.724609	737.157227	0.406089
356.602081	725.789001	5152.225098	736.785706	0.248432
356.967804	717.912903	5290.056152	733.442139	0.339649
357.333405	726.977844	5431.677734	735.745544	0.186360
357.699036	719.770447	5594.103516	731.138733	0.233228
358.064606	715.906738	5751.402344	726.606262	0.212482
358.430176	714.940735	5869.840332	719.696106	0.092250
358.795654	716.798340	5904.763184	725.788879	0.173296
359.161163	721.628113	5881.878418	737.900330	0.315338
359.526581	722.073914	5857.432129	740.203674	0.353038
359.892029	724.822998	5874.224121	744.141785	0.375166
360.257416	724.451599	5962.718750	744.736145	0.387238
360.622772	719.324646	6160.290527	749.268555	0.550342
360.988098	717.764343	6441.674316	743.324402	0.446549
361.353394	716.352539	6748.692871	733.962219	0.291921
361.718658	720.364807	7013.879395	730.767273	0.165289
362.083893	734.036621	7220.367188	728.166687	-0.090497
362.449097	737.751770	7347.498535	732.996338	-0.071946
362.814209	734.036621	7372.241699	737.974609	0.059323
363.179382	725.268860	7190.942871	747.708252	0.347054
363.544434	723.336975	6863.788574	748.228333	0.405367
363.909546	725.937561	6474.962402	744.067444	0.315356
364.274536	720.662109	6182.357910	748.228333	0.504719
364.639587	727.720886	5956.774902	750.977539	0.444758
365.004517	730.544373	5828.974121	752.092102	0.422635
365.369507	726.160461	5739.514160	749.565857	0.466861
365.734344	719.473206	5704.442871	748.674255	0.585782
366.099274	712.042969	5662.312988	746.742371	0.700960
366.464081	724.302917	5635.192871	748.525635	0.493245
366.828918	720.959290	5621.817871	746.593750	0.523061
367.193665	719.473206	5625.459473	756.401672	0.752723
367.558411	713.677734	5643.812012	748.971436	0.715877
367.923126	717.244202	5645.595215	746.519470	0.594018
368.287781	725.417480	5625.310547	746.816650	0.436727
368.652435	727.795166	5577.904785	753.875427	0.537725
369.017059	724.897400	5551.007813	757.441956	0.674343
369.381653	722.073914	5520.915527	752.612305	0.636370
369.746185	716.724060	5498.772949	753.280945	0.764461
370.110687	720.142029	5512.518066	751.572021	0.655833
370.475220	714.569275	5574.858887	744.141785	0.608452
370.839661	716.649719	5646.040527	735.151184	0.375330
371.204041	709.962585	5718.114746	737.231628	0.544493
371.568451	718.210144	5768.640137	741.541199	0.461962
371.932770	719.621887	5823.400879	747.782654	0.551763
372.297150	721.182190	5852.378906	744.959167	0.463381
372.661377	713.974854	5880.316895	744.884766	0.598294
373.025696	707.882019	5898.372559	747.411072	0.761567
373.389862	713.974854	5889.902344	746.445129	0.627333
373.754059	720.439209	5883.437988	747.633972	0.526724
374.118225	725.863281	5906.620605	745.256287	0.374328
374.482361	720.810730	5960.936035	749.194336	0.541659
374.846436	720.959290	6026.768066	749.714417	0.541956
375.210510	720.513489	6113.554199	743.398743	0.424348
375.574524	726.680664	6223.893066	750.383118	0.431172
375.938538	728.835449	6378.740234	744.587585	0.278804
376.302460	729.058289	6518.949219	751.274841	0.383713
376.666412	729.281189	6685.685059	739.460693	0.170900
377.030304	730.618652	6841.645996	741.095276	0.171438
377.394196	737.305908	7020.195313	739.237793	0.030748
377.757996	734.482422	7163.079590	738.940613	0.069349
378.121796	720.736389	7226.013672	747.411133	0.410048
378.485565	713.008972	7218.286621	741.392578	0.436317
378.849304	717.912903	7128.007813	746.073669	0.439319
379.212982	725.268860	6988.542480	733.813721	0.136428
379.576630	724.748718	6807.912598	736.562927	0.194212
379.940277	715.238037	6667.108887	739.460693	0.406975
380.303864	715.683838	6580.546387	741.169678	0.434551
380.667450	715.758118	6573.784668	748.079773	0.551750
381.030945	723.039795	6572.224609	753.206726	0.515746
381.394501	725.863281	6608.558105	765.243713	0.669428
381.757935	724.302979	6632.632324	766.729797	0.718085
382.121399	720.067688	6641.919922	769.107422	0.828115
382.484741	718.804504	6668.817871	768.067200	0.827943
382.848145	715.163635	6682.935059	762.791687	0.798088
383.211487	714.866455	6736.285156	754.841370	0.663879
383.574768	709.145081	6836.816406	751.051941	0.683895
383.938019	718.210022	6955.626465	756.030212	0.606344
384.301270	720.959290	7095.910156	754.915710	0.532654
384.664459	727.869446	7151.711426	751.349121	0.365508
385.027649	729.132629	7211.079590	749.491516	0.314086
385.390778	727.572266	7262.942871	744.587585	0.260357
385.753876	724.674377	7306.410156	747.782532	0.351095
386.116943	717.912903	7343.264160	747.931152	0.453082
386.479980	717.764221	7360.501953	754.692688	0.555922
386.842987	719.919006	7413.925781	753.206726	0.497276
387.205994	721.107910	7461.182129	754.469910	0.494980
387.568909	724.897278	7515.794922	756.253113	0.461733
387.931793	720.364807	7561.639160	760.042664	0.579978
388.294678	717.764221	7616.771973	765.392395	0.690363
388.657471	711.522888	7630.369629	764.352051	0.763554
389.020294	710.779846	7651.992188	773.862793	0.908817
389.383057	718.358704	7665.662598	778.692566	0.868450
389.745819	718.210144	7693.601074	789.763611	1.025799
390.108521	722.445313	7696.350098	792.810059	1.008972
390.471191	721.702332	7751.482910	802.172180	1.144699
390.833801	729.132629	7873.414063	818.667297	1.253235
391.196442	733.293640	8062.216797	835.757019	1.398069
391.558960	731.510254	8251.093750	848.091309	1.550366
391.921509	726.680664	8436.478516	854.184082	1.653784
392.284027	719.621887	8611.165039	862.728943	1.813423
392.646484	716.946960	8707.312500	880.487305	2.046719
393.008911	726.234863	8699.511719	902.778015	2.214186
393.371307	733.590820	8640.811523	920.982178	2.369876
393.733673	735.819824	8573.344727	936.288574	2.557807
394.096008	725.714661	8554.843750	950.703308	2.873738
394.458344	716.649719	8556.329102	980.647278	3.367454
394.820587	716.129639	8594.819336	1008.436523	3.710095
395.182831	720.067688	8641.183594	1042.615723	4.072002
395.545013	724.154297	8600.911133	1060.151245	4.265676
395.907196	725.863281	8514.571289	1084.596802	4.605815
396.269287	729.058289	8346.573242	1108.968140	4.987320
396.631409	728.463867	8225.831055	1134.231079	5.412129
396.993469	722.816833	8100.185059	1156.298950	5.875837
397.355530	718.655945	8030.711426	1174.428833	6.233171
397.717499	712.637390	8000.024902	1210.391357	6.830348
398.079468	718.061523	7967.926270	1239.295044	7.189562
398.441376	715.163635	7987.765625	1271.170898	7.645232
398.803284	721.702332	7984.644531	1298.662964	7.943897
399.165131	724.302979	8040.148438	1333.287964	8.324191
399.526978	723.931396	8039.257324	1374.080200	8.887489
399.888763	722.073914	8040.148926	1413.906616	9.453753
400.250519	716.946960	8029.672363	1442.438843	9.920951
400.612244	721.627991	8067.937988	1475.726196	10.264993
400.973938	722.371094	8098.328125	1512.654907	10.714322
401.335602	726.011902	8112.148438	1560.877319	11.303141
401.697205	725.045898	8122.402344	1593.570679	11.741015
402.058807	724.748718	8189.646484	1631.390625	12.145403
402.420349	721.925232	8296.196289	1672.479980	12.549786
402.781860	715.832336	8416.640625	1728.504272	13.150204
403.143341	718.581604	8552.541016	1778.732910	13.532765
403.504822	720.439148	8695.796875	1839.141113	14.026980
403.866241	726.160461	8881.627930	1890.558594	14.277516
404.227631	718.061523	9036.102539	1946.582886	14.769360
404.588959	717.467102	9221.042969	1996.365723	15.039539
404.950287	719.176025	9366.006836	2059.002686	15.495002
405.311554	730.098633	9478.649414	2102.544189	15.687691
405.672821	730.247253	9530.883789	2140.735596	16.027117
406.034027	725.417480	9512.382813	2162.655029	16.356474
406.395203	721.702332	9427.975586	2190.593018	16.871634
406.756348	720.290527	9332.570313	2208.945557	17.285261
407.117493	719.770508	9259.976563	2226.703857	17.645164
407.478516	719.696106	9255.220703	2246.542725	17.888142
407.839600	720.959290	9253.511719	2281.539307	18.289721
408.200592	719.398926	9244.446289	2309.328613	18.650099
408.561554	717.541321	9219.036133	2336.820557	19.046995
408.922485	712.563049	9246.454102	2363.866943	19.349955
409.283417	720.439148	9276.100586	2384.225586	19.446613
409.644257	720.884949	9389.412109	2425.240967	19.661425
410.005096	724.005676	9488.680664	2469.525146	19.915394
410.365906	720.216248	9602.660156	2521.462891	20.278727
410.726715	724.897278	9701.780273	2571.840088	20.574434
411.087433	721.479431	9792.058594	2602.452881	20.737082
411.448120	714.643555	9863.166016	2648.074463	21.133804
411.808807	710.779785	9877.952148	2678.687256	21.466898
412.169434	709.813965	9836.862305	2687.083740	21.663845
412.530029	713.826172	9798.670898	2696.817383	21.827463
412.890564	715.237976	9763.081055	2699.566650	21.931511
413.251099	721.702393	9739.303711	2733.671143	22.311573
413.611572	726.309143	9764.418945	2755.070557	22.446747
413.972076	728.761047	9810.485352	2787.541016	22.669483
414.332489	733.367859	9881.221680	2818.970947	22.798824
414.692871	733.665039	10022.694336	2865.930420	22.954662
415.053223	721.999573	10160.451172	2919.279541	23.280090
415.413574	717.615723	10383.953125	2981.322266	23.418451
415.773834	718.655945	10528.545898	3030.882080	23.570358
416.134094	724.080017	10698.550781	3087.203857	23.691721
416.494263	723.039856	10823.602539	3139.364258	23.922672
416.854462	717.244202	11072.516602	3227.338867	24.239775
417.214630	713.454773	11340.824219	3301.046875	24.348379
417.574738	716.724121	11634.541992	3376.315674	24.360102
417.934784	713.529053	11936.805664	3458.569092	24.458456
418.294861	721.553711	12295.465820	3562.220947	24.543709
418.654846	717.541321	12759.116211	3695.966064	24.734512
419.014832	725.937561	13188.957031	3810.392334	24.748857
419.374756	726.977844	13673.855469	3940.867920	24.823669
419.734680	733.219238	14153.034180	4084.643555	24.973701
420.094543	730.395752	14662.825195	4230.796875	25.124126
420.454376	726.829163	15142.894531	4357.408691	25.184261
420.814148	721.999512	15613.304688	4478.150391	25.223785
421.173920	719.919128	16106.304688	4610.260254	25.284307
421.533691	727.275085	16547.810547	4752.550781	25.443359
421.893341	728.092346	16913.380859	4860.512207	25.531952
422.253021	728.389587	17128.486328	4949.824707	25.740305
422.612640	719.398926	17195.062500	4992.251465	25.934326
422.972260	717.318542	17112.955078	4995.297363	26.092180
423.331757	714.494934	17018.962891	4986.752930	26.202988
423.691315	716.575439	17007.447266	5010.529785	26.358038
424.050781	724.302917	17158.208984	5082.826172	26.521530
424.410248	732.550537	17304.361328	5133.352051	26.555950
424.769653	736.265686	17446.947266	5165.599609	26.506004
425.128998	730.544373	17451.257813	5191.754395	26.680740
425.488373	730.470032	17344.927734	5202.156250	26.914429
425.847656	735.076843	17134.353516	5175.036133	27.074116
426.206940	733.516418	16917.318359	5119.011719	27.098053
426.566193	725.491760	16592.837891	5034.751953	27.158041
426.925385	718.655945	16248.742188	4977.762207	27.424873
427.284576	713.231873	15763.916992	4882.580566	27.702051
427.643677	711.299988	15407.413086	4808.500488	27.879484
428.002777	703.349548	15061.829102	4726.841797	28.021715
428.361847	705.652893	14736.086914	4638.792480	28.032915
428.720856	715.312317	14431.074219	4570.137207	28.105074
429.079865	715.460938	14183.645508	4512.850098	28.195257
429.438812	714.569336	14023.078125	4488.404785	28.356562
429.797760	715.386536	13928.045898	4463.810547	28.369944
430.156616	720.662109	13767.551758	4419.451660	28.349972
430.515503	724.674500	13684.257813	4403.401855	28.386154
430.874268	716.798340	13642.945313	4417.296875	28.628010
431.233093	715.980957	13667.687500	4443.302734	28.778614
431.591827	720.067688	13740.504883	4463.215820	28.748253
431.950562	722.742493	13731.514648	4473.395020	28.831718
432.309204	717.838562	13814.808594	4494.273926	28.834421
432.667877	716.129639	13917.643555	4535.958008	28.934776
433.026459	723.782898	14078.210938	4584.774902	28.911699
433.385010	728.389587	14207.051758	4640.427734	29.023935
433.743561	731.510254	14368.882813	4695.857422	29.069727
434.102051	723.262695	14487.171875	4750.841309	29.261881
434.460510	734.259521	14663.641602	4813.032715	29.281796
434.818939	733.367859	14753.698242	4848.698242	29.352594
435.177338	733.739319	14825.770508	4866.159668	29.324520
435.535675	721.999512	14773.015625	4860.363770	29.452421
435.894012	716.203918	14697.003906	4858.803711	29.630634
436.252289	714.866455	14687.343750	4872.178223	29.753574
436.610535	717.689941	14692.620117	4866.679688	29.688807
436.968719	716.426819	14805.262695	4894.245605	29.653400
437.326935	722.371033	14910.772461	4937.489746	29.708200
437.685028	723.336914	15027.799805	4993.886230	29.854664
438.043152	730.024170	15131.897461	5038.393066	29.915339
438.401215	733.144958	15346.409180	5106.008789	29.923935
438.759277	729.355469	15591.756836	5177.265137	29.927261
439.117249	721.033630	15954.057617	5301.870605	30.071749
439.475250	719.176025	16259.885742	5386.278320	30.031464
439.833130	721.850891	16671.970703	5515.416504	30.053476
440.191071	725.937561	16969.033203	5603.093750	30.026026
440.548889	722.593933	17250.935547	5698.052734	30.102591
440.906708	718.655945	17557.583984	5815.302246	30.267050
441.264496	723.262695	17786.361328	5887.078613	30.263063
441.622223	719.250305	17979.251953	5950.904785	30.310856
441.979950	716.724121	17990.546875	5957.814941	30.341234
442.337616	719.101746	17957.406250	5987.313965	30.561081
442.695251	720.810730	17800.255859	5970.372559	30.736139
443.052887	730.692871	17596.296875	5917.691406	30.754894
443.410461	718.061523	17433.720703	5866.422363	30.799625
443.768005	721.776611	17322.044922	5832.688965	30.788132
444.125458	725.491760	17208.734375	5821.544434	30.916567
444.482941	733.516541	17241.873047	5820.058105	30.811918
444.840393	734.036621	17359.046875	5857.357910	30.816952
445.197754	727.349365	17687.912109	5940.725098	30.738226
445.555084	725.714661	17960.900391	6052.625488	30.907185
445.912415	727.423645	18352.029297	6178.419922	30.928329
446.269714	724.451477	18621.453125	6285.118652	31.070383
446.626953	723.857117	18976.693359	6395.829590	31.074474
446.984161	717.838562	19285.646484	6508.323730	31.185616
447.341309	720.439209	19537.603516	6596.967285	31.229618
447.698456	723.411316	19677.068359	6661.982422	31.332062
448.055542	728.166687	19721.279297	6718.526855	31.539644
448.412598	732.847717	19696.685547	6739.479980	31.674139
448.769653	732.922058	19526.681641	6709.312988	31.799870
449.126617	729.875671	19226.869141	6607.221191	31.774599
449.483582	723.559875	18941.845703	6518.652344	31.809208
449.840515	719.473328	18613.576172	6422.875488	31.873083
450.197388	716.872620	18350.841797	6365.365723	32.031887
450.554230	714.123474	18143.236328	6328.289063	32.211422
450.911041	716.203918	17994.335938	6281.849609	32.212078
451.267822	715.312317	17855.091797	6242.320313	32.246670
451.624573	720.513489	17644.220703	6190.382324	32.320747
451.981262	712.414551	17537.001953	6157.169434	32.361893
452.337921	710.928467	17388.025391	6127.150879	32.477009
452.694580	709.293762	17338.615234	6111.473145	32.485867
453.051147	715.238037	17306.369141	6126.482422	32.615284
453.407715	717.838623	17248.857422	6107.535156	32.603531
453.764221	720.513489	17268.919922	6125.888184	32.664021
454.120728	718.730225	17061.466797	6075.287598	32.776382
454.477142	723.411316	16993.478516	6071.200684	32.868885
454.833557	722.593933	16784.912109	6003.214355	32.875832
455.189911	729.281250	16638.906250	5962.792969	32.895256
455.546265	728.761047	16449.062500	5913.976563	32.984196
455.902557	732.476257	16347.491211	5881.134766	32.972488
456.258820	730.767273	16341.397461	5876.230469	32.961281
456.615051	730.544373	16441.408203	5876.527832	32.754299
456.971252	721.553711	16418.451172	5877.716797	32.848293
457.327393	714.494934	16588.677734	5936.564941	32.896622
457.683502	715.089355	16796.798828	6031.671875	33.059811
458.039612	722.519714	17250.269531	6165.640137	32.933224
458.395630	720.141907	17698.388672	6316.623047	32.962658
458.751648	717.615723	18156.615234	6453.638184	32.891922
459.107605	716.724060	18813.298828	6698.390625	33.054138
459.463562	730.544373	19462.705078	6916.468750	33.023018
459.819458	731.361633	20101.486328	7158.101563	33.178619
460.175323	735.745544	20652.812500	7338.285156	33.150162
460.531158	727.646545	21158.814453	7537.564941	33.331028
460.886932	723.188477	21447.035156	7663.062500	33.487381
461.242676	717.021301	21531.962891	7720.424316	33.646038
461.598419	718.135803	21283.568359	7647.681641	33.695114
461.954102	716.055359	20847.857422	7513.044922	33.762451
462.309723	712.785950	20175.419922	7298.013184	33.835228
462.665344	712.340149	19538.496094	7092.193848	33.888241
463.020905	723.039734	19019.861328	6925.533691	33.899296
463.376373	723.114075	18599.828125	6794.463379	33.962330
463.731873	717.244141	18275.646484	6692.445313	34.030437
464.087341	711.894348	18008.601563	6613.238770	34.118309
464.442749	715.312317	17880.652344	6588.942871	34.217968
464.798126	722.816895	17796.095703	6546.812500	34.111759
465.153503	727.572266	17878.943359	6551.345215	33.955147
465.508820	727.497864	17942.398438	6567.097168	33.921772
465.864105	725.937561	18096.427734	6637.388184	34.031570
466.219330	720.810730	18362.876953	6727.962891	34.050163
466.574524	723.634094	18563.644531	6797.807129	34.048035
466.929657	730.618652	18728.224609	6854.871582	34.028152
467.284790	733.962219	18844.656250	6922.710449	34.171791
467.639893	733.293518	18976.025391	6996.566406	34.332977
467.994934	725.566101	19131.761719	7085.285156	34.552059
468.349945	720.587830	19186.373047	7085.359375	34.467918
468.704926	718.730225	19129.011719	7063.736816	34.464474
469.059875	714.049133	18902.166016	6995.006348	34.533298
469.414764	719.473206	18664.769531	6938.239746	34.654018
469.769653	719.621887	18504.943359	6881.621094	34.646542
470.124451	719.993408	18460.806641	6838.673828	34.489292
470.479248	714.272034	18297.341797	6782.129395	34.509659
470.834015	712.414490	18190.716797	6755.231934	34.573250
471.188721	716.946960	18201.861328	6779.528809	34.673218
471.543365	721.553711	18329.216797	6823.218750	34.653461
471.898010	722.965515	18502.492188	6868.766113	34.566727
472.252625	720.513489	18641.140625	6914.239746	34.561993
472.607178	718.878845	18901.125000	7026.734375	34.692390
472.961700	720.662109	19088.443359	7114.337402	34.809185
473.316193	728.463867	19372.056641	7229.951660	34.872501
473.670654	728.018066	19514.197266	7274.979004	34.849880
474.025055	721.107910	19741.119141	7353.294434	34.869518
474.379456	715.535156	19908.447266	7399.956543	34.827553
474.733795	717.764343	20046.949219	7462.890625	34.896072
475.088104	722.296814	20184.259766	7526.419922	34.961136
475.442383	720.513489	20222.525391	7541.132324	34.973923
475.796570	714.494934	20321.423828	7591.509277	35.074406
476.150787	710.259705	20495.810547	7649.390625	35.071709
476.504944	720.364929	20729.046875	7744.052246	35.103199
476.859070	729.281250	21023.955078	7829.054199	34.983429
477.213135	737.380188	21324.287109	7917.623535	34.877720
477.567200	730.767273	21723.960938	8061.548340	34.919800
477.921173	727.869446	22134.408203	8188.753906	34.853294
478.275146	716.872742	22579.406250	8346.202148	34.896824
478.629089	718.953125	22896.531250	8431.724609	34.777340
478.983002	718.284424	23329.494141	8552.614258	34.647991
479.336823	721.330811	23668.912109	8687.844727	34.716137
479.690643	724.080078	24107.296875	8870.629883	34.839302
480.044403	718.655945	24575.625000	9059.135742	34.960350
480.398163	724.228699	25257.126953	9267.555664	34.823963
480.751862	715.980957	26127.882813	9558.749023	34.797741
481.105499	711.002686	27231.279297	9948.540039	34.831978
481.459137	708.550781	28680.927734	10457.290039	34.851307
481.812744	717.021301	30518.654297	11086.708008	34.795700
482.166290	730.470032	32763.931641	11841.921875	34.687016
482.519806	734.482361	35505.183594	12777.170898	34.634583
482.873291	732.401855	38694.777344	13865.260742	34.594410
483.226715	732.847717	42302.621094	15136.059570	34.648281
483.580139	730.172852	45790.609375	16449.210938	34.884346
483.933502	724.451477	49108.675781	17826.113281	35.345535
484.286804	716.426819	51761.062500	19128.195313	36.069935
484.640106	714.494934	53774.593750	20275.281250	36.865345
484.993347	716.129639	54840.390625	21027.373047	37.527061
485.346558	721.850891	55034.324219	21321.908203	37.928776
485.699738	719.919128	54350.957031	21044.462891	37.896976
486.052887	724.377197	53019.894531	20441.421875	37.703129
486.405975	724.748718	51417.042969	19602.171875	37.239239
486.759064	723.262695	49846.128906	18809.363281	36.818089
487.112061	718.061523	48611.140625	18118.794922	36.332462
487.464996	712.117371	47915.894531	17727.587891	36.046841
487.817963	715.386536	47776.425781	17587.529297	35.851616
488.170868	715.460938	47816.402344	17592.953125	35.832600
488.523743	716.055359	47902.519531	17629.583984	35.844028
488.876587	720.290588	47686.968750	17637.236328	36.019035
489.229401	724.228699	47258.093750	17491.457031	36.032314
489.582153	717.095520	46388.156250	17188.896484	36.066166
489.934845	711.968689	45325.175781	16785.654297	36.028984
490.287537	710.333984	44272.828125	16384.271484	35.980350
490.640198	715.832458	43422.363281	16052.360352	35.911434
490.992798	718.358704	42808.917969	15782.715820	35.790348
491.345337	719.844910	42628.730469	15724.536133	35.803127
491.697876	726.680664	42745.093750	15765.328125	35.790611
492.050354	729.355530	43172.335938	15920.101563	35.790951
492.402832	724.377258	43438.417969	16016.471680	35.801098
492.755219	723.411316	43265.808594	15995.073242	35.897511
493.107605	723.782776	42554.953125	15787.321289	36.010319
493.459930	723.634216	41241.203125	15397.083008	36.215027
493.812225	730.618652	39500.964844	14843.528320	36.401299
494.164490	730.024231	37490.476563	14148.651367	36.502888
494.516724	728.686768	35486.457031	13405.920898	36.473095
494.868896	719.250305	33689.445313	12703.387695	36.348396
495.221039	717.615723	32265.585938	12131.627930	36.179859
495.573120	728.092346	31122.212891	11681.577148	36.038166
495.925201	730.321472	30505.353516	11413.937500	35.881126
496.277222	730.841492	30159.548828	11285.097656	35.863811
496.629211	720.662109	30147.806641	11262.805664	35.824554
496.981140	714.866455	30137.109375	11270.385742	35.875988
497.333069	708.996582	30245.070313	11316.082031	35.912308
497.684967	717.021301	30323.384766	11334.956055	35.863689
498.036804	716.501160	30364.548828	11347.882813	35.858624
498.388580	718.210144	30251.537109	11309.395508	35.861813
498.740326	707.584778	30042.599609	11290.745117	36.076885
499.092072	711.077087	29740.033203	11220.602539	36.203594
499.443756	712.860352	29411.099609	11115.686523	36.249004
499.795410	717.615723	29090.927734	10996.059570	36.225742
500.147003	718.210144	28750.771484	10871.007813	36.217876
500.498566	718.655945	28391.812500	10760.074219	36.285770
500.850098	719.919006	27986.640625	10618.824219	36.303982
501.201599	716.575439	27647.521484	10509.375977	36.362633
501.553009	714.569275	27288.416016	10383.582031	36.385445
501.904449	715.238037	27052.208984	10306.083984	36.415901
502.255859	720.959290	26829.302734	10217.143555	36.372223
502.607178	721.702332	26765.625000	10199.385742	36.391155
502.958405	725.417480	26692.804688	10164.686523	36.350479
503.309692	725.566101	26650.228516	10154.507813	36.370548
503.660919	725.640381	26601.931641	10139.422852	36.379951
504.012115	725.863281	26664.867188	10127.460938	36.245022
504.363251	720.736328	26739.248047	10164.314453	36.295612
504.714294	723.262695	26847.134766	10206.666992	36.301682
505.065369	720.290527	26861.322266	10244.784180	36.435036
505.416443	724.302917	26867.416016	10250.952148	36.440380
505.767395	726.829285	26904.718750	10224.277344	36.280422
506.118317	720.141907	26887.554688	10253.850586	36.433517
506.469238	715.386536	26915.640625	10267.670898	36.458748
506.820160	710.482605	26896.990234	10293.898438	36.596771
507.170929	720.810730	26932.876953	10306.752930	36.570724
507.521729	727.646545	27030.437500	10309.650391	36.429607
507.872498	730.098450	27080.962891	10342.640625	36.479038
508.223236	729.578430	27270.513672	10410.405273	36.475079
508.573883	720.364807	27376.021484	10476.534180	36.600746
508.924500	721.627991	27575.599609	10553.215820	36.611301
509.275116	717.764343	27754.296875	10604.261719	36.567177
509.625702	722.593994	28013.984375	10703.009766	36.569832
509.976196	720.364929	28302.501953	10792.841797	36.518116
510.326660	719.770508	28551.265625	10883.119141	36.517437
510.677124	722.891113	28804.712891	10998.734375	36.592510
511.027557	722.445313	29004.662109	11080.468750	36.623802
511.377869	722.073914	29217.984375	11153.284180	36.605991
511.728180	723.708496	29340.880859	11179.290039	36.536041
512.078430	719.844788	29480.421875	11253.963867	36.626942
512.428650	720.067688	29596.333984	11302.484375	36.647457
512.778931	712.042969	29734.685547	11356.280273	36.675632
513.129028	723.634216	29793.830078	11360.143555	36.589054
513.479126	725.417480	29807.947266	11392.390625	36.678284
513.829285	731.881836	29757.197266	11366.309570	36.638454
514.179382	726.829163	29688.767578	11337.109375	36.635258
514.529297	724.525696	29584.443359	11307.090820	36.668732
514.879272	724.897278	29573.447266	11331.165039	36.765339
515.229187	721.776611	29480.494141	11300.848633	36.785622
515.579163	726.234802	29538.525391	11302.707031	36.708199
515.928955	724.600098	29535.625000	11293.122070	36.682213
516.278748	717.912903	29804.380859	11362.593750	36.596676
516.628540	711.374268	30066.146484	11474.495117	36.665661
516.978333	710.408386	30555.580078	11649.329102	36.652229
517.327942	719.993408	31088.037109	11864.659180	36.698666
517.677612	720.439209	31709.353516	12079.913086	36.656570
518.027222	718.581604	32332.607422	12318.276367	36.691608
518.376831	712.563171	33026.519531	12593.790039	36.768097
518.726379	716.352539	33713.222656	12830.667969	36.713528
519.075867	722.742493	34272.652344	13013.674805	36.634769
519.425293	727.052063	34653.968750	13189.698242	36.733799
519.774658	728.686829	34802.652344	13286.441406	36.854401
520.124084	724.600159	34757.699219	13321.289063	37.013054
520.473389	718.878906	34467.621094	13233.538086	37.081852
520.822693	715.609558	34089.863281	13090.726563	37.079830
521.171997	717.021240	33657.570313	12949.254883	37.134270
521.521240	719.844727	33229.214844	12784.526367	37.111397
521.870361	718.135742	32823.375000	12620.614258	37.073322
522.219482	719.101746	32466.945313	12478.695313	37.040607
522.568604	724.748718	32231.478516	12372.665039	36.969612
522.917664	726.309082	32088.671875	12345.843750	37.049297
523.266724	726.383362	32173.078125	12342.796875	36.940014
523.615662	723.485596	32415.755859	12423.563477	36.917767
523.964600	730.247131	32853.468750	12584.206055	36.901527
524.313538	723.114075	33369.722656	12799.535156	36.991348
524.662354	724.154297	34054.496094	13046.293945	36.969734
525.011169	714.346375	34932.535156	13358.664063	36.952038
525.359985	720.810730	36002.492188	13730.624023	36.874134
525.708740	724.302917	37282.652344	14177.331055	36.798786
526.057434	732.030457	38654.800781	14673.895508	36.763836
526.406067	727.497986	40217.160156	15250.411133	36.776493
526.754700	726.754883	41854.792969	15895.729492	36.882320
527.103333	728.018066	43783.394531	16603.982422	36.873363
527.451782	730.692932	45926.511719	17476.296875	37.051220
527.800293	729.652771	48109.152344	18386.654297	37.267178
528.148743	728.835449	50213.187500	19364.775391	37.660267
528.497131	733.070618	52009.378906	20264.134766	38.089840
528.845642	718.953125	53560.519531	21135.556641	38.637394
529.193909	716.203918	54727.667969	21934.757813	39.285278
529.542175	711.671387	55507.031250	22564.697266	39.881161
529.890503	721.405090	55802.160156	22901.289063	40.267941
530.238770	718.953125	55556.000000	22834.044922	40.328743
530.586914	717.615723	54788.300781	22384.958984	40.072258
530.934998	718.284424	53497.511719	21678.263672	39.712555
531.283142	713.380432	51917.980469	20817.986328	39.263279
531.631226	713.529053	50084.417969	19916.992188	38.896328
531.979248	715.312256	48289.484375	19035.093750	38.507832
532.327148	720.290527	46704.093750	18265.986328	38.156250
532.675110	724.302917	45583.902344	17675.947266	37.788223
533.023071	721.702332	45033.468750	17364.398438	37.558186
533.370850	725.343079	44908.046875	17265.798828	37.436493
533.718689	730.098572	45118.843750	17377.326172	37.503265
534.066467	737.751770	45379.792969	17498.289063	37.544289
534.414246	740.649597	45451.718750	17571.849609	37.644367
534.761963	742.507080	45341.230469	17533.882813	37.649902
535.109619	742.061279	44932.417969	17424.732422	37.751839
535.457153	735.819885	44332.269531	17222.849609	37.817368
535.804749	725.268860	43502.753906	16905.353516	37.823833
536.152344	719.101807	42613.132813	16537.259766	37.757545
536.499817	721.033630	41679.667969	16148.432617	37.665806
536.847229	723.782776	40795.832031	15779.446289	37.571480
537.194641	726.531982	39982.964844	15445.528320	37.494480
537.542114	724.377197	39376.285156	15204.713867	37.463448
537.889404	724.674500	38812.699219	15002.684570	37.486874
538.236694	728.686768	38361.089844	14829.114258	37.468849
538.583984	724.822998	37935.105469	14684.743164	37.516296
538.931213	722.148132	37733.816406	14593.648438	37.478722
539.278381	716.946960	37568.566406	14523.804688	37.466080
539.625488	719.993347	37569.316406	14513.699219	37.432724
539.972595	719.324646	37863.105469	14588.225586	37.338421
540.319641	718.953125	38562.519531	14808.903320	37.232090
540.666687	724.822998	39601.421875	15104.554688	36.988144
541.013611	726.903503	40894.878906	15554.903320	36.914978
541.360596	721.182312	42318.964844	16073.090820	36.905594
541.707458	721.405090	43731.828125	16671.300781	37.083794
542.054260	717.392822	44878.988281	17204.646484	37.333920
542.401062	723.114075	45824.343750	17702.773438	37.647888
542.747864	718.358704	46370.917969	17998.199219	37.850758
543.094666	721.405090	46319.125000	18063.140625	38.032024
543.441284	719.176086	45637.699219	17835.699219	38.105713
543.787903	720.364929	44561.644531	17455.568359	38.172249
544.134460	713.603333	43309.125000	16989.019531	38.209217
544.481079	714.271973	41910.894531	16435.539063	38.161545
544.827637	715.906738	40306.179688	15805.377930	38.114086
545.174072	725.343079	38691.136719	15138.436523	37.963367
545.520508	728.092346	37330.652344	14604.273438	37.910412
545.866943	727.126465	36236.027344	14154.742188	37.814785
546.213318	722.519714	35416.390625	13815.551758	37.738747
546.559631	725.937683	34731.324219	13495.901367	37.552769
546.905823	721.107910	34176.578125	13266.378906	37.498417
547.252136	719.993408	33711.519531	13059.743164	37.402786
547.598389	713.454773	33172.972656	12896.351563	37.532585
547.944458	710.185364	32731.908203	12737.270508	37.559143
548.290588	720.364929	32193.734375	12578.708008	37.677387
548.636658	720.736328	31625.390625	12364.567383	37.676624
548.982727	724.525818	30912.234375	12122.711914	37.757706
549.328735	719.993347	30201.826172	11858.640625	37.781395
549.674622	725.045959	29446.986328	11600.214844	37.863628
550.020569	731.064453	28714.955078	11330.570313	37.877171
550.366455	732.476257	27964.720703	11044.429688	37.866703
550.712280	728.909668	27347.638672	10797.819336	37.826412
551.058044	726.011902	26865.412109	10612.657227	37.822769
551.403748	725.937500	26474.431641	10475.642578	37.865147
551.749512	724.451477	26215.857422	10353.563477	37.773956
552.095154	721.182190	26037.158203	10278.741211	37.753071
552.440735	719.101746	25974.296875	10229.776367	37.658291
552.786316	720.810608	25939.974609	10196.785156	37.574501
553.131897	728.389587	25973.333984	10160.153320	37.361000
553.477417	724.451477	26031.958984	10189.355469	37.399590
553.822815	721.925232	26038.349609	10198.418945	37.432198
554.168213	719.473206	25967.015625	10174.569336	37.449566
554.513672	727.423584	25843.154297	10118.172852	37.389912
554.859009	730.247070	25666.166016	10057.467773	37.404762
555.204285	729.578369	25480.927734	10012.959961	37.506569
555.549500	724.377197	25213.958984	9949.952148	37.671429
555.894714	722.519714	24973.587891	9861.605469	37.685291
556.239990	719.770447	24627.787109	9755.352539	37.793106
556.585022	722.222412	24374.562500	9640.035156	37.703724
556.930115	726.383484	24099.716797	9542.327148	37.717953
557.275146	733.590759	23844.484375	9435.776367	37.654041
557.620178	731.658936	23635.474609	9362.366211	37.682396
557.965149	729.132568	23445.703125	9282.936523	37.654469
558.310059	721.182190	23293.978516	9239.023438	37.734982
558.654968	717.021240	23134.302734	9155.358398	37.642105
558.999756	712.934570	23023.960938	9116.571289	37.665844
559.344604	715.981018	23005.906250	9073.179688	37.493164
559.689331	714.792175	22947.056641	9056.164063	37.519222
560.033997	719.176086	22890.958984	9026.145508	37.466404
560.378723	718.358704	22828.619141	9017.081055	37.533356
560.723389	721.776672	22827.357422	9019.235352	37.535587
561.067932	716.055359	22863.541016	9046.580078	37.613861
561.412476	713.157532	22846.900391	9041.452148	37.627144
561.757019	712.860352	22849.724609	9032.908203	37.584583
562.101501	715.015137	22823.195313	9017.303711	37.553020
562.445862	719.770508	22854.701172	9023.842773	37.515694
562.790222	717.764343	22817.843750	9009.130859	37.517357
563.134644	713.231873	22800.310547	9009.874023	37.563332
563.478943	715.386658	22784.484375	9011.879883	37.593258
563.823181	723.262695	22786.117188	9020.721680	37.608273
564.167358	737.825989	22835.601563	9002.888672	37.402237
564.511536	726.606262	22902.552734	8997.836914	37.298206
564.855774	725.491699	22950.771484	9021.613281	37.327412
565.199768	715.312317	23051.529297	9066.492188	37.388515
565.543823	718.433044	23172.271484	9106.319336	37.356136
565.887817	723.411316	23455.437500	9182.999023	37.214405
566.231812	726.680664	23636.216797	9256.856445	37.234173
566.575745	724.674500	23821.677734	9330.266602	37.258476
566.919617	715.683777	23944.197266	9382.056641	37.309200
567.263428	715.163635	24088.273438	9426.118164	37.269127
567.607239	725.566101	24193.634766	9473.002930	37.273781
567.950989	727.200745	24220.681641	9470.699219	37.216698
568.294678	726.234863	24225.806641	9479.466797	37.248474
568.638367	722.148193	24076.681641	9448.185547	37.363354
568.981995	721.182312	23905.193359	9415.566406	37.501637
569.325623	723.634277	23698.037109	9345.276367	37.527168
569.669128	716.575439	23597.353516	9266.217773	37.366051
570.012573	719.696106	23480.476563	9226.019531	37.372723
570.356140	719.176025	23437.603516	9230.775391	37.465618
570.699524	721.033508	23446.818359	9215.618164	37.378620
571.042908	719.250305	23577.068359	9226.019531	37.216019
571.386230	716.501160	23707.248047	9231.370117	37.036072
571.729492	728.166687	23818.257813	9311.245117	37.172127
572.072815	733.888000	23941.228516	9358.354492	37.162670
572.416016	740.426575	24045.251953	9404.273438	37.176189
572.759094	732.847717	24221.869141	9450.118164	37.112106
573.102234	733.293640	24289.783203	9480.581055	37.133236
573.445374	727.720886	24329.609375	9481.769531	37.090458
573.788391	724.822998	24289.708984	9477.460938	37.142712
574.131409	715.609436	24245.421875	9461.931641	37.171238
574.474365	713.603333	24190.884766	9449.225586	37.208832
574.817261	717.244141	24081.734375	9397.362305	37.150898
575.160156	718.358704	23922.724609	9343.566406	37.170628
575.502930	715.089355	23725.380859	9241.029297	37.052723
575.845703	712.934570	23498.978516	9173.637695	37.131077
576.188477	713.157532	23255.265625	9064.487305	37.047691
576.531250	723.039734	23005.087891	8984.536133	37.076916
576.873901	726.754883	22751.865234	8860.153320	36.927845
577.216431	728.092346	22503.843750	8766.532227	36.914639
577.559082	722.816895	22234.494141	8667.338867	36.931206
577.901611	723.782776	21915.662109	8563.313477	36.993088
578.244080	719.696106	21595.787109	8469.172852	37.121300
578.586487	728.018066	21231.779297	8354.598633	37.196007
578.928955	732.996338	20909.675781	8242.030273	37.216400
579.271301	740.426575	20575.611328	8104.718262	37.127415
579.613647	736.117004	20253.212891	7974.093750	37.085316
579.955872	725.268860	19950.949219	7853.351074	37.075840
580.298157	715.981018	19630.556641	7742.714844	37.149834
580.640320	717.541443	19371.091797	7640.994141	37.116005
580.982483	719.176025	19157.619141	7566.394531	37.135559
581.324524	733.590759	18971.564453	7498.259277	37.091118
581.666626	728.240967	18860.037109	7468.166504	37.171860
582.008728	726.829163	18747.839844	7403.523438	37.049503
582.350647	723.857117	18688.916016	7364.588379	36.964706
582.692566	731.361633	18548.041016	7310.050293	36.924324
583.034424	728.909668	18447.361328	7264.947754	36.888313
583.376343	726.829285	18339.621094	7228.093750	36.912178
583.718201	718.730286	18290.431641	7212.341797	36.954937
584.059937	726.160461	18215.611328	7194.732422	36.985561
584.401611	719.770508	18132.763672	7161.370605	36.993069
584.743347	719.844727	18063.289063	7117.531738	36.888214
585.085022	718.953125	17938.162109	7077.854004	36.929111
585.426514	722.148132	17871.884766	7042.114746	36.851685
585.768127	727.052063	17773.285156	7005.780762	36.833527
586.109619	726.234863	17702.400391	6986.015625	36.873936
586.451172	724.748779	17642.662109	6950.276855	36.798439
586.792542	722.296692	17616.060547	6944.109375	36.829048
587.133850	722.519714	17615.318359	6924.270996	36.712399
587.475220	725.417480	17589.535156	6921.818848	36.743111
587.816589	717.095520	17591.763672	6918.994629	36.752716
588.157776	719.027527	17650.462891	6938.016113	36.730427
588.498962	717.912903	17720.677734	6959.118652	36.707001
588.840210	726.903564	17778.708984	6957.483887	36.539124
589.181335	724.228699	17829.681641	6956.592285	36.434952
589.522400	720.736389	17882.583984	6974.647949	36.440784
589.863403	716.352539	17903.240234	6995.155762	36.532524
590.204407	723.336975	17892.613281	6993.000488	36.516762
590.545410	727.349304	17921.146484	6992.406250	36.437893
590.886353	733.887939	17945.962891	6992.628906	36.362503
591.227112	724.674500	17942.919922	6988.245605	36.377522
591.567932	719.696106	17879.908203	6950.053223	36.306992
591.908752	712.860352	17799.810547	6905.917969	36.244373
592.249512	715.460876	17752.333984	6891.578125	36.251472
592.590149	712.414490	17631.591797	6853.312012	36.295483
592.930786	717.838562	17515.826172	6839.342285	36.441887
593.271423	714.123352	17424.212891	6808.135254	36.469055
593.612000	722.519592	17393.226563	6785.175781	36.367123
593.952576	721.033508	17414.253906	6766.748535	36.216587
594.292969	724.971619	17479.566406	6768.383301	36.070171
594.633484	723.114075	17538.861328	6793.498047	36.099400
594.973877	722.891113	17634.488281	6821.286621	36.060432
595.314209	722.519592	17721.718750	6850.189941	36.046818
595.654480	730.024231	17897.744141	6933.558105	36.134872
595.994812	721.628113	18108.318359	6979.700684	35.993469
596.335022	717.689941	18327.509766	7038.176270	35.891827
596.675171	710.631165	18531.470703	7074.361816	35.709488
597.015320	717.838562	18690.775391	7138.484863	35.723969
597.355408	717.912903	18792.421875	7179.945801	35.752190
597.695496	714.494934	18874.005859	7220.664063	35.827885
598.035461	716.278137	18881.806641	7239.165527	35.908051
598.375366	720.810730	18823.330078	7230.472168	35.959976
598.715271	726.977844	18697.089844	7174.968262	35.881748
599.055176	732.550537	18447.730469	7098.437012	35.934643
599.395081	736.191406	18236.189453	7024.208496	35.931530
599.734802	734.110840	17923.154297	6922.189941	36.000137
600.074524	727.943787	17613.607422	6810.067871	36.019455
600.414246	726.829285	17227.904297	6672.012207	36.029068
600.753906	723.782776	16910.705078	6566.576660	36.095768
601.093506	724.674500	16641.060547	6460.472656	36.037064
601.433044	724.377258	16447.056641	6377.996582	35.958370
601.772583	731.138733	16323.860352	6319.520996	35.839684
602.112122	725.194580	16307.960938	6298.790527	35.767689
602.451538	723.039795	16347.118164	6309.936035	35.758247
602.790894	714.420715	16438.734375	6326.356934	35.689545
603.130310	715.312317	16608.888672	6374.579590	35.607262
603.469604	712.785950	16799.919922	6445.314941	35.634247
603.808838	716.278259	17073.353516	6532.101074	35.555397
604.148010	722.148132	17379.257813	6612.645020	35.363262
604.487305	726.234802	17683.453125	6688.879395	35.162868
604.826416	727.720886	17926.792969	6774.402344	35.157021
605.165527	726.754883	18061.654297	6831.392578	35.215885
605.504456	725.194519	18203.869141	6880.803223	35.217827
605.843445	721.479431	18267.843750	6904.060547	35.235680
606.182434	719.919006	18267.398438	6921.446777	35.341419
606.521423	715.163635	18129.568359	6898.636230	35.507805
606.860229	722.816833	17888.380859	6827.082520	35.561111
607.199036	716.946960	17596.816406	6746.687500	35.721489
607.537903	724.228699	17341.736328	6642.812500	35.616554
607.876648	720.290527	17088.437500	6531.729004	35.504562
608.215271	725.417480	16865.455078	6427.333496	35.327774
608.553955	721.107910	16632.960938	6338.393066	35.302521
608.892578	722.816833	16468.529297	6258.369629	35.155937
609.231140	723.411316	16358.635742	6205.985840	35.065533
609.569641	729.058289	16298.450195	6169.652344	34.944168
609.908081	730.395752	16328.096680	6169.205566	34.869301
610.246521	739.683594	16310.116211	6169.206543	34.870728
610.584961	727.275085	16327.725586	6169.058105	34.882217
610.923340	721.553711	16254.538086	6168.314941	35.065773
611.261597	708.847961	16163.293945	6138.445313	35.132912
611.599854	714.643555	16033.858398	6110.061035	35.219936
611.938110	720.587830	15878.043945	6069.046387	35.285992
612.276245	730.321533	15723.272461	5993.628906	35.105213
612.614319	726.977844	15445.975586	5905.803223	35.184631
612.952393	724.005798	15143.042969	5775.179688	35.031284
613.290466	714.346375	14826.067383	5665.880371	35.088097
613.628479	718.878906	14538.218750	5565.274902	35.069664
613.966370	718.730225	14285.367188	5487.107910	35.147827
614.304260	719.844788	14067.882813	5411.467285	35.148407
614.642151	717.095520	13881.308594	5326.539063	35.014957
614.979980	712.637390	13735.750000	5262.267090	34.935043
615.317749	721.107910	13590.933594	5212.484375	34.898502
615.655396	723.708496	13531.640625	5191.456543	34.882668
615.993164	723.336914	13470.860352	5182.837402	34.983269
616.330811	715.015076	13453.101563	5167.902832	34.957272
616.668396	712.117249	13396.632813	5150.515625	34.990681
617.005859	722.816895	13382.885742	5133.946777	34.842861
617.343445	727.200745	13370.031250	5119.754395	34.743439
617.680908	728.389587	13378.651367	5103.779785	34.587349
618.018311	719.398926	13359.479492	5082.380371	34.517040
618.355652	720.959290	13323.963867	5086.912598	34.642159
618.692993	725.343201	13269.945313	5088.845215	34.783901
619.030273	725.045959	13277.672852	5083.940918	34.724964
619.367554	726.086182	13296.249023	5083.494629	34.664692
619.704712	718.804504	13284.360352	5090.702637	34.792713
620.041870	718.655945	13239.409180	5103.334473	35.019291
620.379028	711.448547	13188.584961	5072.572754	34.952923
620.716064	712.488770	13157.301758	5038.467285	34.761299
621.053040	720.587708	13093.104492	4998.121582	34.572868
621.389954	721.330811	13029.500977	4974.716309	34.557419
621.726929	727.497986	12962.332031	4941.650879	34.443890
622.063843	722.222473	12937.960938	4929.911133	34.444817
622.400635	721.776611	12917.825195	4919.360352	34.417572
622.737427	725.566101	12891.151367	4919.955078	34.477497
623.074219	727.720886	12831.932617	4899.373047	34.464470
623.410889	731.436035	12769.145508	4865.936523	34.346241
623.747559	724.823059	12743.437500	4843.497070	34.269123
624.084167	721.627991	12710.817383	4828.859375	34.257790
624.420715	715.683838	12719.139648	4827.299316	34.253593
624.757324	714.272034	12720.847656	4825.441895	34.240986
625.093750	714.866516	12776.872070	4824.178711	34.068230
625.430176	721.553711	12840.476563	4833.392090	33.929073
625.766602	726.086182	12905.639648	4848.103516	33.843750
626.102905	732.327637	13010.925781	4891.719727	33.875141
626.439209	729.504150	13104.622070	4933.626465	33.972378
626.775452	725.714661	13246.243164	4942.319824	33.677532
627.111694	713.900574	13312.446289	4939.570801	33.540939
627.447876	716.352539	13358.366211	4954.579590	33.524937
627.783997	716.352539	13388.903320	4974.566895	33.601871
628.120056	719.473206	13406.514648	4996.263184	33.709911
628.456055	716.872620	13408.593750	4985.415527	33.632500
628.792053	713.826233	13394.403320	4983.780762	33.673187
629.128052	712.191589	13320.249023	4945.663574	33.577515
629.463928	711.671448	13204.856445	4913.861816	33.635864
629.799744	712.488770	13062.864258	4873.960938	33.695107
630.135559	720.587830	12942.790039	4830.122559	33.623520
630.471375	724.971680	12815.508789	4776.401855	33.509102
630.807068	727.200684	12648.848633	4725.058594	33.534439
631.142700	723.708496	12515.846680	4686.347168	33.604073
631.478333	712.265930	12380.468750	4632.997559	33.601845
631.813965	718.581604	12279.565430	4582.248535	33.419884
632.149475	722.222412	12161.497070	4538.855957	33.364296
632.484924	735.522644	12072.854492	4502.521973	33.226505
632.820435	731.436035	11993.647461	4463.066895	33.134087
633.155884	729.504150	11911.765625	4431.414551	33.105202
633.491150	720.884949	11858.491211	4413.210449	33.151875
633.826477	721.850891	11760.559570	4396.863281	33.292049
634.161804	712.340149	11697.551758	4368.925781	33.286438
634.497009	709.145203	11632.610352	4359.563477	33.418137
634.832153	710.854187	11592.562500	4336.455566	33.318310
635.167297	714.792175	11526.209961	4319.514648	33.341808
635.502380	713.306091	11454.507813	4289.644531	33.295513
635.837463	702.012146	11383.622070	4248.927246	33.205807
636.172424	703.349609	11316.824219	4218.388184	33.118641
636.507324	714.197754	11235.165039	4173.509766	32.880173
636.842224	725.268860	11129.210938	4153.744629	32.953621
637.177124	728.909668	11003.936523	4101.956055	32.827614
637.511963	720.364929	10889.733398	4054.773438	32.788746
637.846741	715.163757	10786.600586	4006.328125	32.678200
638.181396	716.055359	10676.557617	3970.588867	32.674393
638.516113	724.748779	10581.451172	3942.427734	32.644581
638.850769	732.699219	10490.950195	3909.288818	32.552856
639.185303	727.052185	10406.393555	3880.533936	32.579506
639.519836	723.708496	10292.933594	3847.468750	32.643818
639.854370	720.142029	10206.592773	3820.497314	32.681931
640.188843	724.748779	10122.110352	3786.763672	32.583775
640.523254	729.504150	10056.724609	3759.569092	32.486259
640.857605	730.990234	9983.685547	3722.343506	32.329533
641.191895	730.767273	9914.137695	3703.173096	32.367264
641.526184	725.491760	9843.328125	3672.189209	32.317947
641.860413	718.135803	9788.416992	3656.585693	32.396458
642.194580	716.278259	9764.343750	3629.316406	32.195148
642.528748	716.649719	9725.631836	3615.421875	32.176468
642.862793	716.724060	9655.490234	3591.124756	32.156570
643.196838	716.946960	9575.911133	3570.245361	32.208038
643.530823	708.104980	9502.203125	3545.874268	32.269020
643.864746	716.352539	9440.829102	3530.122314	32.251446
644.198669	718.507324	9385.696289	3511.620850	32.226288
644.532532	724.971680	9341.412109	3495.348633	32.152222
644.866333	719.696106	9361.028320	3471.274414	31.842062
645.200073	711.820068	9346.985352	3466.667969	31.902666
645.533813	717.095520	9331.084961	3464.587158	31.895695
645.867554	714.569275	9282.787109	3462.432617	32.070419
646.201172	718.061523	9295.790039	3446.754639	31.811373
646.534729	722.965515	9291.852539	3439.027344	31.696787
646.868225	725.120300	9298.985352	3433.380127	31.587385
647.201782	717.244141	9281.598633	3432.636963	31.705750
647.535217	715.981018	9302.477539	3437.392578	31.694088
647.868591	719.473328	9290.366211	3440.884766	31.751785
648.201965	727.720886	9293.115234	3445.937500	31.734867
648.535278	722.593933	9264.286133	3425.578125	31.644596
648.868591	724.005676	9263.914063	3419.856689	31.567682
649.201782	730.544373	9226.911133	3390.953125	31.312309
649.534912	731.287415	9206.775391	3378.024658	31.228140
649.868103	723.188416	9144.659180	3346.668945	31.152285
650.201172	717.838623	9116.274414	3332.700195	31.135103
650.534180	711.522888	9088.411133	3322.074951	31.163742
650.867188	712.786072	9072.362305	3313.975586	31.116283
651.200134	716.426819	9038.406250	3311.672119	31.185432
651.533020	722.593933	8990.629883	3289.604492	31.047403
651.865845	725.714661	8954.072266	3286.929688	31.126688
652.198608	726.383484	8896.414063	3267.313477	31.100616
652.531433	729.504150	8885.862305	3254.830811	30.961449
652.864136	725.566101	8856.512695	3232.019531	30.826096
653.196777	794.370422	8915.805664	3334.706299	31.279398
653.529358	797.639709	8867.286133	3325.121094	31.320845
653.861938	801.280579	8814.829102	3299.487061	31.174786
654.194519	735.894226	8691.487305	3157.345703	30.437094
654.526978	739.237793	8651.141602	3142.707764	30.377897
654.859375	739.312073	8583.897461	3125.989502	30.424520
655.191833	730.692932	8549.791016	3119.154053	30.546505
655.524170	720.513489	8492.800781	3103.625000	30.661652
655.856445	719.547607	8464.491211	3077.693359	30.447554
656.188660	729.801331	8422.288086	3050.349609	30.166426
656.520874	729.578430	8382.758789	3021.371826	29.945635
656.853088	727.349304	8395.835938	3033.037109	30.067049
657.185181	724.674500	8395.464844	3036.752197	30.141321
657.517212	719.919006	8435.737305	3039.055664	30.056911
657.849243	724.600159	8460.107422	3034.820313	29.865141
658.181274	721.405090	8517.692383	3034.523193	29.669483
658.513123	731.956055	8565.914063	3040.021484	29.462317
658.844971	730.915833	8664.588867	3059.563232	29.351442
659.176819	735.968445	8757.988281	3084.974609	29.281977
659.508667	730.098572	8864.983398	3106.076416	29.207270
659.840393	730.841553	8920.636719	3114.918701	29.110340
660.172058	725.417480	8985.799805	3127.847412	29.083759
660.503662	723.114075	9006.678711	3150.361084	29.301964
660.835266	720.290527	9006.233398	3158.831299	29.429852
661.166931	716.798340	8936.611328	3141.964844	29.503916
661.498413	724.674500	8890.320313	3122.719971	29.367491
661.829773	724.228699	8791.275391	3086.014893	29.276960
662.161194	734.036621	8692.377930	3054.733398	29.160559
662.492615	725.491760	8540.056641	2995.216797	29.044804
662.823975	731.287354	8389.147461	2959.328857	29.094831
663.155212	726.234802	8227.019531	2906.573975	29.068148
663.486450	730.841553	8071.801270	2865.038818	29.072454
663.817627	727.943787	7956.781250	2806.339111	28.751446
664.148743	723.411316	7829.203125	2760.271729	28.664789
664.479858	719.844727	7755.568848	2732.408203	28.604923
664.810913	722.593933	7654.889160	2705.436279	28.602968
665.141907	727.497986	7582.890137	2702.390137	28.807865
665.472778	725.417480	7495.509766	2676.904297	28.825113
665.803711	720.587830	7469.578125	2661.300537	28.755600
666.134583	718.061523	7449.813965	2646.068604	28.640493
666.465454	729.727051	7427.746094	2646.737305	28.620556
666.796143	731.658875	7381.752441	2639.232666	28.684916
667.126831	731.287415	7365.628906	2618.799561	28.450634
667.457458	725.491760	7347.498535	2604.013184	28.367857
667.788147	719.919128	7332.267090	2599.554932	28.426146
668.118774	716.055359	7292.737793	2586.997803	28.448118
668.449219	714.346375	7265.394531	2565.895752	28.263405
668.779663	719.919006	7263.313965	2563.220947	28.170422
669.110107	727.200745	7258.781250	2540.633057	27.764067
669.440552	723.411316	7248.676270	2534.688721	27.757912
669.770874	726.160461	7209.816406	2514.552734	27.583086
670.101135	725.789001	7189.308594	2529.710449	27.909275
670.431396	723.931396	7160.924316	2524.880859	27.978117
670.761597	717.912903	7128.380371	2511.729248	27.982615
671.091797	718.358704	7097.990234	2484.237061	27.679945
671.421875	722.891113	7048.876465	2461.426025	27.482437
671.751892	729.132568	7006.672363	2435.271484	27.178463
672.081909	723.857117	6952.208496	2426.058350	27.329884
672.411865	724.228577	6927.836426	2407.779541	27.138256
672.741821	727.423645	6880.060059	2398.789063	27.165030
673.071716	729.058350	6846.029785	2376.349854	26.929853
673.401550	728.241028	6807.169434	2360.894775	26.857594
673.731262	727.497864	6796.841309	2358.442871	26.871855
674.060974	726.606262	6754.786621	2359.037109	27.079996
674.390625	731.436035	6722.093262	2353.315674	27.073484
674.720276	725.640381	6661.610840	2318.541992	26.834728
675.049927	726.309082	6639.765625	2287.483398	26.400368
675.379395	727.200684	6604.620605	2272.400146	26.290438
675.708923	725.640381	6570.515625	2266.158691	26.356737
676.038330	722.891174	6519.767090	2255.681885	26.441669
676.367737	720.959290	6474.367676	2242.084717	26.438684
676.697083	724.080017	6459.135254	2230.419189	26.265469
677.026428	733.219238	6440.634277	2221.131104	26.069803
677.355652	729.206848	6410.021484	2202.555420	25.935518
677.684875	732.773438	6402.665527	2205.304688	25.971064
678.013977	725.045898	6395.384277	2207.385254	26.141991
678.343079	726.309082	6420.720703	2210.134521	26.057573
678.672180	722.371094	6422.875488	2198.171631	25.888947
679.001221	721.182190	6472.138184	2199.211914	25.700592
679.330139	725.491760	6514.342285	2207.310791	25.597813
679.659058	723.782776	6530.837402	2212.735107	25.640406
679.987976	729.949951	6557.215332	2216.004395	25.501745
680.316772	726.160461	6591.468750	2221.576904	25.495958
680.645630	727.126465	6651.356934	2220.833984	25.213528
680.974304	719.250305	6695.417969	2217.861572	25.076462
681.302979	719.473328	6731.380859	2218.679443	24.937277
681.631653	718.804504	6763.925293	2226.183838	24.935472
681.960266	726.680664	6776.408203	2238.072510	24.982809
682.288757	725.937561	6796.023926	2229.007568	24.761923
682.617249	723.485596	6797.064453	2230.939209	24.819857
682.945679	718.135742	6764.742188	2218.159180	24.807692
683.274109	719.027405	6713.696777	2220.834229	25.052372
683.602478	723.857117	6644.966309	2196.537354	24.871693
683.930725	725.714661	6566.057129	2165.329834	24.649502
684.259033	723.411316	6470.280762	2138.580811	24.625048
684.587280	724.674500	6393.674316	2122.382813	24.655287
684.915344	723.336975	6333.936035	2107.373779	24.668255
685.243469	727.646545	6264.313965	2088.203613	24.573574
685.571533	724.302917	6197.961426	2081.442139	24.794004
685.899536	731.658936	6138.445313	2068.736328	24.729614
686.227539	729.801270	6105.826172	2042.655884	24.420546
686.555420	728.761047	6081.603516	2011.077271	23.955799
686.883301	722.965515	6076.328125	1989.826782	23.664776
687.211121	719.176025	6074.693359	1990.124023	23.731562
687.538940	718.135742	6076.402344	1986.334595	23.668081
687.866638	719.844727	6065.182129	1994.730835	23.850433
688.194336	720.513489	6054.854004	1983.065308	23.668377
688.521973	718.210144	6027.733887	1977.864136	23.724426
688.849609	713.454773	6032.191895	1972.960083	23.680534
689.177063	719.101746	5996.824219	1970.285278	23.706884
689.504578	723.857117	5948.230469	1951.263672	23.493851
689.832031	729.949951	5864.267578	1919.536499	23.169323
690.159485	726.309082	5795.166504	1897.171265	23.099134
690.486816	723.485657	5726.659668	1884.762695	23.210808
690.814087	716.352539	5662.015625	1876.217896	23.452171
691.141296	716.352539	5561.039063	1846.942749	23.336704
691.468506	714.569275	5486.067871	1822.645874	23.222822
691.795715	718.953125	5395.640625	1790.546875	22.913521
692.122803	713.826172	5355.740234	1777.915527	22.923504
692.449829	720.141907	5298.824219	1767.438843	22.873325
692.776855	723.559875	5252.607910	1742.324585	22.494015
693.103821	732.550598	5199.109863	1729.990234	22.331276
693.430664	730.618652	5137.587402	1708.665405	22.193186
693.757568	722.519714	5089.067871	1706.139038	22.526243
694.084351	711.597168	5026.207520	1680.727539	22.461597
694.411133	707.733398	5006.294434	1669.507813	22.374334
694.737854	710.259766	4963.124512	1653.086914	22.169226
695.064575	715.981018	4951.458984	1653.458374	22.133921
695.391174	716.055359	4914.010254	1643.056030	22.082195
695.717773	711.151367	4909.478027	1643.204712	22.200592
696.044250	715.460876	4911.410156	1633.545288	21.880255
696.370789	715.832458	4924.115723	1628.641235	21.690763
696.697205	730.915833	4965.650879	1632.653687	21.293844
697.023621	726.606262	5017.811035	1641.049805	21.309717
697.349915	736.637207	5071.086426	1644.690796	20.949688
697.676208	729.132568	5106.156738	1650.486328	21.049774
698.002380	733.962219	5175.258301	1661.929077	20.894056
698.328674	725.640320	5269.474121	1690.015259	21.223816
698.654724	729.206848	5375.355957	1701.012207	20.916363
698.980896	725.789001	5467.937500	1723.228882	21.033503
699.306946	731.807556	5570.846191	1730.213257	20.632315
699.632935	727.943848	5653.248047	1742.547485	20.599817
699.958862	729.206848	5687.947266	1739.203735	20.368013
700.284729	721.405090	5664.393066	1731.625000	20.437435
700.610596	720.216248	5610.673340	1725.012085	20.546051
700.936340	714.940735	5530.945801	1704.281616	20.542772
701.262146	720.587708	5424.098145	1677.978394	20.354813
701.587830	719.398926	5284.929688	1642.981934	20.229477
701.913513	724.228699	5148.212891	1618.387695	20.211622
702.239075	715.609558	5014.319336	1591.267212	20.370243
702.564697	712.042969	4897.143555	1568.604858	20.466936
702.890137	714.346375	4763.547363	1533.533813	20.230843
703.215698	720.290588	4661.752441	1509.459595	20.022242
703.541016	726.457703	4573.406738	1490.512573	19.861320
703.866455	723.188416	4516.193848	1479.144165	19.930258
704.191711	720.885010	4439.884766	1460.345703	19.883322
704.517029	717.095520	4367.291016	1444.667847	19.932421
704.842163	720.810730	4303.315918	1436.048828	19.964746
705.167419	723.485657	4262.152832	1421.782593	19.733332
705.492493	725.268860	4235.329590	1408.185181	19.455969
705.817566	723.559875	4210.215332	1391.838501	19.166752
706.142578	723.931458	4187.106934	1390.575317	19.249496
706.467590	724.897278	4156.494141	1381.139038	19.123508
706.792480	725.714661	4145.794434	1370.142212	18.842470
707.117371	729.801270	4146.983887	1366.204102	18.623611
707.442200	732.401855	4152.630371	1359.145386	18.324610
707.766907	727.720886	4147.875488	1365.015259	18.633497
708.091675	721.628113	4146.983887	1357.287720	18.557478
708.416321	713.900574	4158.500488	1349.708984	18.458120
708.741028	711.522766	4163.775391	1342.724365	18.283760
709.065552	704.241211	4178.264648	1345.547974	18.460058
709.390137	708.179199	4190.599121	1353.423950	18.528631
709.714600	716.278137	4209.397949	1356.916382	18.340002
710.039063	717.689941	4228.345215	1361.151489	18.328815
710.363403	717.838623	4259.700684	1361.002930	18.158932
710.687744	718.730225	4311.415527	1367.541504	18.059229
711.012085	722.593994	4360.455566	1372.891235	17.875811
711.336304	726.903503	4402.138672	1373.411499	17.590929
711.660461	723.411316	4439.513184	1370.513672	17.413473
711.984619	728.240967	4467.599609	1365.906860	17.052814
712.308716	725.343201	4490.559082	1368.284546	17.075817
712.632751	722.816895	4467.822754	1371.033813	17.308836
712.956726	726.160461	4426.213379	1365.238281	17.272125
713.280701	730.767273	4377.693359	1373.114258	17.613380
713.604553	735.448303	4324.121094	1357.510742	17.334053
713.928467	729.206848	4279.613770	1346.588135	17.389029
714.252258	721.553711	4222.177734	1321.176636	17.129030
714.575989	720.513489	4179.453613	1307.579224	16.972416
714.899719	722.816895	4134.648926	1297.548462	16.845247
715.223267	722.371094	4102.550781	1293.758911	16.904066
715.546936	719.770447	4065.250732	1284.248291	16.872850
715.870422	721.702209	4036.866943	1276.892334	16.746984
716.193970	723.857117	4008.631836	1258.539429	16.277596
716.517395	723.559875	3982.328857	1259.728271	16.453096
716.840820	719.919128	3943.171143	1248.434204	16.396952
717.164124	720.662109	3903.121826	1247.245483	16.546427
717.487488	725.045898	3875.778564	1229.932983	16.024435
717.810730	727.423645	3852.224609	1223.914429	15.888717
718.133972	730.915833	3800.955811	1199.914673	15.276636
718.457092	730.767273	3761.129639	1195.010620	15.319731
718.780212	730.024231	3710.529297	1187.208862	15.339166
719.103210	726.457703	3668.548096	1191.815796	15.817261
719.426208	724.823059	3615.570313	1181.784790	15.807737
719.749207	727.349304	3561.403564	1167.741577	15.539303
720.072083	726.903564	3524.549561	1162.540405	15.571549
720.394958	723.114075	3485.912109	1156.447510	15.684586
720.717773	718.210144	3441.405029	1151.543579	15.912685
721.040527	717.021301	3397.194580	1140.472412	15.799393
721.363281	716.203918	3355.733643	1134.751099	15.856884
721.685913	716.203918	3338.198486	1121.302246	15.450006
722.008545	720.662109	3321.554688	1113.277710	15.095418
722.331055	720.141907	3297.480469	1102.057983	14.818234
722.653503	721.702332	3285.592529	1106.813354	15.020575
722.976013	727.423645	3258.174561	1107.779297	15.029359
723.298401	734.556702	3254.162109	1102.280884	14.594514
723.620789	727.646667	3242.645264	1091.878540	14.482389
723.943115	721.256531	3227.487549	1088.832153	14.666471
724.265381	719.844788	3213.295654	1088.386353	14.780382
724.587585	724.302917	3195.091553	1090.095215	14.804678
724.909790	717.764221	3202.001709	1082.887817	14.697612
725.231873	711.671387	3204.676514	1083.036377	14.896278
725.553894	714.420715	3204.379150	1089.203613	15.051773
725.875916	766.209656	3254.087646	1126.057739	14.464057
726.197937	773.045471	3254.161865	1129.847168	14.380692
726.519775	773.937195	3261.740479	1116.992798	13.789499
726.841675	727.943787	3221.617188	1087.048828	14.400645
727.163513	723.708496	3244.725586	1083.036499	14.253295
727.485291	716.872620	3258.545898	1091.655640	14.745522
727.806946	710.333984	3284.180420	1083.333618	14.491915
728.128662	711.448547	3288.415283	1079.544312	14.284071
728.450256	714.866516	3310.483398	1071.148071	13.726276
728.771790	721.776611	3321.777344	1072.336914	13.483085
729.093323	726.086243	3334.706055	1076.349243	13.427138
729.414795	724.302917	3332.403076	1076.423462	13.501037
729.736145	721.850891	3322.372070	1076.274902	13.628961
730.057495	715.312317	3322.446289	1076.497681	13.853732
730.378845	716.129639	3343.919922	1078.578247	13.792905
730.700134	718.804504	3349.269531	1072.485474	13.445568
731.021301	721.182190	3342.433594	1061.265869	12.974096
731.342468	720.810730	3323.486328	1062.380371	13.123789
731.663574	719.473328	3331.510986	1061.637329	13.099505
731.984680	726.309082	3348.971924	1065.723999	12.941614
732.305664	725.640381	3358.780273	1064.386475	12.864720
732.626648	728.983948	3363.758545	1066.912720	12.825718
732.947571	725.268860	3369.776611	1069.438965	13.014524
733.268433	728.315247	3376.984375	1064.832275	12.705136
733.589233	715.535156	3361.455078	1056.287598	12.878411
733.909973	710.111084	3343.771240	1046.850952	12.786003
734.230713	714.717957	3319.177002	1040.683838	12.515685
734.551331	722.445313	3300.303955	1037.340210	12.215367
734.871948	723.782776	3250.075439	1028.646851	12.067646
735.192505	720.810608	3198.657959	1020.176331	12.081685
735.513062	722.222473	3147.612061	1018.095886	12.199005
735.833435	724.228699	3110.014648	1012.448914	12.080725
736.153931	723.634216	3066.027344	1016.386902	12.498017
736.474304	720.810730	3024.120850	1014.603577	12.755245
736.794617	719.919128	2985.780518	1012.300232	12.903751
737.114807	720.662109	2960.963623	1002.863770	12.596593
737.434998	724.600159	2949.966797	991.644043	11.999994
737.755188	726.457703	2953.458984	987.706055	11.730947
738.075256	728.018066	2970.845703	983.916687	11.409643
738.395325	724.674500	2979.613281	986.888733	11.628442
738.715271	726.532043	3005.619141	990.455261	11.580216
739.035278	723.782776	3016.319092	993.204407	11.752120
739.355164	726.309082	3039.352783	990.009460	11.400579
739.675049	727.200684	3034.820313	982.281982	11.053871
739.994873	724.005798	3032.888428	983.693787	11.247345
740.314636	724.302917	3025.978516	977.526611	11.001711
740.634277	723.336975	3013.346924	974.331604	10.960416
740.953979	728.166687	2992.764893	964.969421	10.456722
741.273499	733.442200	2969.582275	961.254333	10.187739
741.593140	727.572266	2921.731689	955.904541	10.406366
741.912598	728.092346	2874.251953	951.372070	10.403687
742.232117	722.891174	2824.097900	945.502136	10.594434
742.551453	724.823059	2803.070313	942.901550	10.493385
742.870850	722.965515	2773.423828	940.820984	10.624721
743.190063	718.210144	2745.485596	935.694153	10.727897
743.509338	718.284424	2715.021484	935.471191	10.877084
743.828552	717.169861	2685.597656	924.028625	10.508832
744.147705	718.432922	2652.458740	922.691101	10.561295
744.466797	718.878906	2619.616943	920.833679	10.625072
744.785828	713.380432	2597.771729	922.691162	11.107604
745.104858	718.953125	2580.162109	923.508545	10.990459
745.423706	719.993347	2573.326172	922.171082	10.908874
745.742615	726.680603	2559.877441	916.969910	10.380190
746.061401	717.392761	2552.670166	911.545715	10.578943
746.380249	719.473328	2535.654541	905.452942	10.240147
746.698975	717.838623	2533.276855	910.208252	10.596319
747.017639	727.497986	2516.484619	903.595398	9.843417
747.336304	727.275085	2499.023438	899.954590	9.746278
747.654907	732.996338	2491.816162	890.072266	8.930758
747.973389	735.745544	2488.620850	898.319885	9.274724
748.291931	733.590759	2494.490967	901.217773	9.519394
748.610352	729.578369	2500.063721	901.960754	9.736448
748.928711	726.829285	2514.106934	893.118713	9.304063
749.247070	724.674500	2531.642334	886.134277	8.935399
749.565308	727.720886	2523.766357	888.511963	8.952506
749.883545	730.692932	2506.453857	896.536621	9.339302
750.201782	732.104675	2483.939941	894.158997	9.250546
750.519836	731.584534	2478.738770	883.682312	8.705458
750.837952	728.315247	2472.943115	875.583252	8.441227
751.155884	731.733154	2462.169434	874.840149	8.269995
751.473877	725.640320	2438.912598	877.960938	8.890626
751.791809	722.965393	2422.640137	873.205566	8.839348
752.109619	722.965515	2424.274658	874.765930	8.922565
752.427490	725.194519	2428.064453	879.224060	9.045291
752.745300	728.983948	2434.974365	883.533691	9.059238
753.062988	731.287354	2427.544189	887.397461	9.203212
753.380615	727.795166	2417.216064	885.465515	9.332805
753.698303	722.965515	2410.157227	887.174500	9.732681
754.015808	715.832336	2391.433350	876.549255	9.591598
754.333374	715.609436	2387.346680	869.862000	9.227081
754.650757	713.231750	2385.265869	865.775208	9.123226
754.968262	717.244141	2393.364990	875.583252	9.446760
755.285583	720.587708	2394.553711	878.629700	9.441171
755.602905	722.668274	2388.460938	875.880554	9.197559
755.920105	714.420654	2376.646729	865.478088	9.087659
756.237305	708.253479	2360.225830	858.642273	9.103590
756.554443	706.470276	2352.498291	861.762939	9.434387
756.871582	712.934570	2356.585205	862.357422	9.090913
757.188599	729.504150	2368.250732	865.255188	8.283834
757.505615	730.692871	2380.287598	860.276855	7.855505
757.822510	731.361633	2379.247314	855.744385	7.548020
758.139465	715.535156	2389.055420	855.298645	8.351467
758.456238	715.906738	2397.228760	859.533936	8.542516
758.773010	712.117371	2423.457275	859.013855	8.583712
759.089783	718.507324	2435.865967	856.710388	8.047421
759.406433	724.748779	2438.986572	849.651550	7.286199
759.723145	727.052185	2447.977295	855.595886	7.469454
760.039673	730.915833	2458.082764	860.425537	7.498389
760.356201	727.349365	2461.426270	860.425537	7.674180
760.672668	724.748779	2455.927734	864.140625	8.051845
760.989136	718.284424	2455.705078	859.459534	8.125557
761.305481	714.346375	2449.834961	859.087952	8.340106
761.621826	714.717834	2447.754639	849.577332	7.781687
761.938049	722.445374	2456.225098	854.184082	7.598353
762.254333	724.228577	2481.859375	848.388489	7.064049
762.570496	725.120300	2528.967529	853.366760	7.109608
762.886597	724.377258	2602.898682	845.787903	6.463096
763.202637	726.829285	2727.132568	861.614441	6.738236
763.518677	724.154358	2879.750244	862.951721	6.438932
763.834656	719.176086	3021.965576	885.985657	7.243804
764.150574	721.850891	3137.283936	891.484070	7.022889
764.466370	727.423645	3207.648438	900.474609	6.977229
764.782288	730.618652	3238.855469	894.233215	6.523091
765.097961	733.293457	3222.509033	887.397278	6.190859
765.413696	741.689758	3168.045166	887.694519	6.017451
765.729309	742.209961	3071.377686	880.561523	5.939957
766.044861	738.643372	2952.864502	880.561523	6.409394
766.360474	728.389587	2822.686279	868.301575	6.680619
766.675903	729.578430	2700.680908	857.899231	6.510103
766.991394	729.132629	2603.195557	850.097473	6.454684
767.306763	734.110840	2506.825195	851.509094	6.622514
767.622131	724.897400	2432.671143	848.537048	7.239815
767.937378	728.463867	2352.349854	839.620667	6.845111
768.252625	725.566101	2308.214111	827.212158	6.422531
768.567810	732.104675	2265.787109	819.484680	5.697399
768.882996	719.919006	2230.270508	814.729309	6.277367
769.197998	722.222412	2185.317139	818.147278	6.556299
769.513062	724.302917	2145.490967	817.181335	6.535266
769.828064	732.550537	2114.506592	822.456787	6.505724
770.142944	726.680664	2092.810303	812.500244	6.281950
770.457825	721.479492	2071.337158	813.689148	6.831065
770.772705	715.312317	2052.241211	810.048340	7.086092
771.087402	720.141907	2029.058594	819.559021	7.595373
771.402100	725.045898	1997.851563	814.209229	7.005259
771.716736	731.584656	1979.350098	812.500244	6.484840
772.031372	729.727051	1962.260376	806.555969	6.233415
772.345947	728.315247	1963.375000	804.847107	6.196612
772.660461	725.343201	1948.068481	798.457031	5.979579
772.974854	731.510254	1930.161743	791.844055	5.033473
773.289246	733.590759	1905.716187	792.215637	5.001587
773.603638	732.327637	1893.159180	797.119629	5.581515
773.917908	724.674377	1886.323242	793.181458	5.897400
774.232178	717.095520	1877.704102	796.748047	6.862996
774.546265	718.210144	1861.506226	791.695496	6.427499
774.860474	724.600159	1847.388672	798.531311	6.584601
775.174561	732.179016	1831.710571	796.896667	5.885930
775.488586	730.247070	1821.308228	796.822327	6.101881
775.802551	729.355469	1814.472290	797.714050	6.299652
776.116516	724.897400	1807.710938	798.977234	6.841422
776.430359	726.977783	1799.240356	800.537537	6.860237
776.744202	720.885010	1777.543945	793.107239	6.834961
777.057922	723.262695	1773.902954	783.670898	5.749656
777.371704	729.132629	1773.605835	783.373596	5.193141
777.685303	732.179016	1764.169434	782.110535	4.838370
777.998962	732.847717	1747.525757	785.899902	5.228475
778.312500	723.634094	1721.891235	782.630554	5.909946
778.626038	728.761047	1728.281250	786.197083	5.746361
778.939453	723.336975	1724.937866	782.110413	5.867950
779.252869	727.275085	1748.120117	786.419983	5.793719
779.566223	713.306152	1738.460815	773.268372	5.849090
779.879578	715.981018	1747.674194	774.234375	5.646384
780.192749	706.990417	1735.339966	768.810242	6.011557
780.505920	715.237976	1736.974609	776.091980	5.955938
780.819031	717.467102	1717.804565	775.868958	5.838215
781.132141	728.463867	1699.823242	778.766846	5.178617
781.445190	731.138855	1692.096069	783.819336	5.482084
781.758118	730.321472	1681.470581	785.082520	5.757357
782.071045	722.742615	1675.303345	779.807129	5.990643
782.383911	717.838623	1659.328491	775.571838	6.132112
782.696838	711.968689	1657.247925	771.039368	6.249019
783.009583	716.055359	1649.520508	773.862854	6.192786
783.322266	721.850891	1646.696899	772.525391	5.479237
783.634888	724.897400	1633.545410	778.618164	5.912164
783.947510	720.364929	1621.211060	775.646057	6.136578
784.260132	715.089355	1600.629272	779.509827	7.274711
784.572571	718.432922	1601.743774	778.766785	6.830422
784.885010	723.336975	1600.183594	788.351868	7.414626
785.197449	726.011902	1610.511597	780.921570	6.207992
785.509766	718.284424	1599.068848	781.144531	7.136832
785.822083	720.513489	1599.366211	770.667786	5.706792
786.134277	715.683838	1589.929688	771.039368	6.331803
786.446533	727.423645	1581.533569	761.751465	4.019134
786.758606	726.531982	1584.951294	766.506836	4.656798
787.070740	735.522644	1586.140137	768.736023	3.904620
787.382690	734.853943	1592.307251	779.732727	5.233963
787.694641	734.853821	1601.743774	775.943359	4.739880
788.006653	730.692932	1614.598145	774.754456	4.984870
788.318481	733.739319	1649.520508	772.971191	4.283979
788.630310	733.293518	1668.318970	772.896973	4.235548
788.942017	732.699158	1689.272461	779.807068	4.924653
789.253784	727.572266	1691.352905	777.875183	5.219333
789.565430	725.491760	1691.129883	779.064026	5.547862
789.877014	718.284424	1683.699707	776.091980	5.987844
790.188538	711.968750	1675.823608	780.995911	7.161572
790.500061	709.665344	1652.715454	777.057800	7.146222
790.811462	714.049133	1637.186157	771.336609	6.205739
791.122925	717.095520	1612.740601	757.739197	4.537922
791.434204	716.501160	1589.186523	760.488281	5.040433
791.745483	717.467041	1560.282837	757.961975	4.804719
792.056702	709.293762	1540.741211	763.088928	6.470062
792.367920	707.956360	1526.549438	763.683350	6.807655
792.678955	707.362000	1510.500000	762.568848	6.873893
792.990112	717.838623	1504.778809	768.958801	6.496069
793.301086	724.080078	1498.091431	768.810303	5.779014
793.612122	728.092285	1498.537109	774.828796	6.066173
793.922974	732.104675	1485.459961	765.318054	4.408727
794.233826	734.185242	1476.617798	756.996094	3.072448
794.544556	730.841553	1483.082397	752.612305	2.894120
794.855286	723.188416	1489.323730	752.612305	3.840560
795.166016	721.479431	1502.029663	748.748535	3.493575
795.476624	721.553711	1505.521851	749.491516	3.563640
795.787292	726.011902	1507.379272	747.633972	2.767209
796.097778	728.835388	1502.921265	748.079834	2.486087
796.408264	724.080017	1508.865356	753.355286	3.730354
796.718689	719.027405	1520.233765	756.624573	4.692570
797.029053	717.838562	1538.437866	764.426453	5.677301
797.339355	724.377258	1545.199341	761.082764	4.471798
797.649658	733.590820	1543.118774	762.717468	3.597979
797.959839	730.544373	1532.270874	757.887756	3.410563
798.270020	731.436035	1511.465942	752.092102	2.648112
798.580078	732.253235	1497.571289	747.485352	1.990299
798.890137	736.117004	1478.921265	746.445129	1.390424
799.200195	731.138733	1476.320679	743.547363	1.665181
799.510071	721.553711	1467.181641	741.987000	2.740413
799.820007	718.655945	1469.262085	749.268738	4.078410
800.129883	719.101746	1453.286987	756.847473	5.141172
800.439575	725.789001	1461.460327	761.900085	4.908589
800.749329	722.593994	1453.361328	759.225281	5.012715
801.058960	726.383362	1445.485229	758.110657	4.412072
801.368591	716.649719	1428.321289	763.757629	6.619333
801.678162	719.919128	1417.324341	762.197266	6.062205
801.987671	721.182190	1411.380249	767.547058	6.717618
802.297119	726.680603	1406.030273	765.763733	5.753021
802.606506	732.996277	1406.699219	765.243652	4.786587
802.915894	728.835388	1403.504028	764.649353	5.308379
803.225159	721.256531	1397.782715	759.299500	5.623281
803.534424	718.730225	1382.996582	762.717468	6.621929
803.843628	721.627991	1379.504272	758.556458	5.613285
804.152771	727.869446	1379.727173	753.058105	3.864135
804.461792	724.005676	1395.479370	745.776428	3.242234
804.770874	722.073792	1393.027344	745.256348	3.455166
805.079773	723.782898	1390.575562	747.708313	3.588134
805.388733	719.250305	1390.723999	747.633972	4.227071
805.697571	722.445313	1402.686890	750.680420	4.150747
806.006470	717.838562	1409.299805	753.280945	5.125722
806.315125	719.473206	1406.179077	758.259277	5.648135
806.623901	717.615662	1416.284180	756.030090	5.498234
806.932495	717.169861	1427.875366	757.144714	5.624672
807.241150	717.467102	1421.485352	751.646301	4.854874
807.549622	713.974915	1416.655640	749.788757	5.096745
807.858154	718.730225	1398.897339	750.011719	4.599090
808.166565	724.005676	1405.361694	751.572083	4.045815
808.474915	728.315247	1388.866577	754.321289	3.937021
808.783264	724.005676	1386.042969	755.732971	4.792373
809.091492	720.067688	1370.736694	750.977539	4.750473
809.399719	719.770447	1370.067871	746.296570	4.079075
809.707825	729.281250	1355.578735	748.525635	3.072723
810.015930	730.915833	1344.730591	757.739075	4.369925
810.323975	729.727051	1342.427246	765.243713	5.796744
810.632080	725.789001	1339.975220	761.157043	5.758521
810.939880	720.810730	1339.009277	759.150879	6.201915
811.247864	727.572266	1327.640991	751.349121	3.962355
811.555664	724.525879	1315.604004	740.723816	2.740405
811.863464	724.748718	1313.969360	741.169617	2.786885
812.171143	717.615723	1302.675293	737.305908	3.365501
812.478882	724.451477	1307.727905	746.593750	3.796189
812.786438	732.104675	1308.693726	742.135559	1.739694
813.094055	733.962219	1309.659668	746.296570	2.142506
813.401489	731.138855	1300.074585	744.513245	2.350773
813.708984	722.816895	1296.285278	745.107666	3.887010
814.016357	723.039856	1291.678589	744.438904	3.763206
814.323730	718.433105	1296.879761	740.649475	3.840695
814.630981	710.928467	1289.523804	742.432800	5.444968
814.938232	706.990417	1285.362915	740.426575	5.781076
815.245361	703.944031	1275.257690	742.209900	6.697874
815.552490	718.507324	1277.115234	742.135559	4.229843
815.859619	718.581604	1277.115112	743.250061	4.416647
816.166565	722.445313	1284.396851	743.250061	3.702232
816.473572	719.324646	1278.749756	739.089172	3.533007
816.780457	719.398926	1277.040894	741.021057	3.877422
817.087341	722.222412	1274.217407	741.912659	3.567106
817.394043	723.262634	1283.876709	746.147949	4.082187
817.700806	728.463867	1301.486450	745.404846	2.956424
818.007507	725.714661	1312.706177	741.020996	2.607591
818.314209	725.343201	1322.662720	736.562927	1.878346
818.620667	722.519714	1322.959961	736.860046	2.388303
818.927246	724.005676	1335.739868	737.157227	2.149880
819.233704	725.714661	1350.674927	728.315247	0.416120
819.540161	722.148193	1381.436157	724.228699	0.315569
819.846497	714.049133	1418.290405	723.114075	1.287193
820.152832	706.395996	1472.382813	741.912659	4.636720
820.458984	712.414551	1534.945679	746.073669	4.092139
820.765259	719.993408	1598.251587	753.578186	3.824021
821.071350	722.073914	1686.300171	746.445129	2.527541
821.377502	715.386658	1843.450562	751.051941	3.161637
821.683472	714.346375	2149.652100	751.126160	2.562505
821.989441	724.302917	2670.811279	763.683350	2.023132
822.295349	729.206848	3390.953125	776.017639	1.758650
822.601196	726.531982	4195.577637	798.085510	2.062629
822.907043	720.364807	4861.329590	806.258789	2.074250
823.212769	718.730164	5260.409668	819.781921	2.224987
823.518494	725.937500	5311.455566	820.822083	2.069223
823.824097	722.148132	5085.352539	826.766418	2.397740
824.129700	714.346375	4702.544922	813.243347	2.479740
824.435242	710.185364	4325.532715	809.082336	2.735476
824.740723	714.272156	3991.468018	803.658203	2.727516
825.046082	722.073914	3680.734131	789.392090	2.275293
825.351501	719.844727	3351.572998	780.921570	2.320788
825.656799	718.804504	3037.123779	767.472717	2.099288
825.962036	717.169861	2759.380127	772.525391	2.710570
826.267212	722.816895	2545.388428	769.627625	2.568389
826.572449	720.216309	2433.191162	772.599792	3.058042
826.877502	727.943787	2439.952881	763.163269	2.057202
827.182495	720.439209	2545.759766	756.253113	1.962061
827.487488	728.018066	2683.888428	752.315125	1.242263
827.792419	719.993347	2787.986572	763.014648	2.080341
828.097290	727.275085	2820.531250	763.311829	1.721564
828.402100	726.606262	2763.169678	762.866028	1.780439
828.706848	726.086182	2629.721924	757.962097	1.674476
829.011597	720.216309	2459.940186	764.054871	2.519857
829.316223	715.163757	2284.883057	769.701904	3.474389
829.620789	717.987122	2132.265381	768.513000	3.572556
829.925354	722.668274	1994.805054	769.627625	3.691376
830.229797	722.668274	1872.874390	763.014648	3.507752
830.534302	718.061523	1757.853882	759.299500	3.965982
830.838562	717.615662	1640.604126	755.732971	4.129771
831.142944	714.866394	1533.682495	748.228455	4.074427
831.447144	718.655823	1454.698608	751.423401	4.451858
831.751404	723.114075	1405.138672	740.723816	2.581980
832.055542	729.058350	1376.309204	741.689697	1.951538
832.359619	729.727051	1351.046387	747.708252	2.894035
832.663635	726.977844	1359.516846	755.807312	4.557737
832.967651	725.937683	1400.680664	763.757751	5.605107
833.271545	723.559875	1477.212280	748.822815	3.352068
833.575439	720.216309	1582.796509	745.330566	2.911527
833.879211	717.467041	1702.869751	740.203674	2.307344
834.183044	721.330811	1836.911743	743.101501	1.951512
834.486694	723.559875	1926.372437	742.507080	1.575242
834.790344	728.315247	1960.922974	751.720642	1.898852
835.093933	720.810730	1931.796387	758.259277	3.092402
835.397522	716.649719	1878.818481	758.556458	3.605908
835.700928	712.637390	1804.070190	748.451355	3.281371
836.004395	718.581543	1737.049194	746.890930	2.779606
836.307739	721.627991	1668.616211	743.770325	2.338185
836.611023	722.073914	1614.449585	738.420471	1.831802
836.914307	720.736328	1539.626587	736.785828	1.959908
837.217529	726.903503	1463.689331	737.974670	1.502630
837.520691	729.949890	1395.776733	742.284180	1.852477
837.823730	729.355469	1332.470703	732.030334	0.443508
838.126831	719.101807	1281.721924	730.915833	2.099823
838.429749	716.649719	1232.384888	729.578430	2.506851
838.732727	720.142029	1209.871216	735.225403	3.079942
839.035522	721.479492	1189.437988	738.791992	3.699580
839.338379	719.250305	1181.487671	735.819824	3.584634
839.641113	715.683777	1185.574219	734.408020	3.984810
839.943848	721.850891	1207.345093	729.652649	1.606972
840.246460	725.640381	1238.923462	733.145020	1.462086
840.549072	725.491699	1259.653931	733.888000	1.571864
840.851563	716.426819	1268.570313	733.293640	3.054790
841.154053	713.231750	1260.471313	736.562927	4.263430
841.456482	723.708496	1244.570679	741.095276	3.338077
841.758850	728.686768	1226.217773	739.089172	2.090805
842.061157	731.956116	1207.790649	732.327637	0.078078
842.363403	719.621887	1186.614380	729.206970	2.052513
842.665588	720.364929	1164.026489	727.572266	1.624512
842.967712	721.330811	1145.450806	732.476257	2.627899
843.269775	726.829285	1130.070190	737.900391	2.745532
843.571777	731.435974	1109.191040	739.460693	2.124318
843.873840	733.070618	1085.191284	737.157288	1.160588
844.175659	730.692932	1064.683716	726.903503	-1.134591
844.477600	725.343201	1049.228638	734.259521	2.752924
844.779297	726.532043	1037.860474	733.293518	2.171814
845.081116	728.166687	1025.823364	741.541199	4.493268
845.382751	733.070618	1010.368408	742.358459	3.349411
845.684387	725.789063	1005.018555	743.027161	6.173452
845.985962	719.324707	995.582092	743.547363	8.768148
846.287537	711.745789	993.501648	742.432800	10.891348
846.588989	714.569275	986.888733	737.231628	8.321974
846.890381	725.789001	986.368652	724.822998	-0.370713
847.191711	732.550537	983.842285	723.559875	-3.577778
847.493042	726.829285	982.281982	731.510315	1.832445
847.794250	727.349365	975.594727	732.030457	1.885671
848.095459	727.646545	973.365723	726.383362	-0.514076
848.396606	733.813721	961.997314	715.758118	-7.912753
848.697693	728.166687	964.746582	717.690002	-4.428392
848.998657	722.668274	960.659973	719.621887	-1.280039
849.299622	721.925293	962.666077	725.417480	1.450601
849.600464	717.541321	955.904480	730.544373	5.455143
849.901367	717.987122	957.316223	729.652771	4.874313
850.202087	719.547546	958.876648	729.058289	3.973918
850.502808	723.262695	960.882813	727.497986	1.782379
850.803467	723.782776	964.152039	722.965515	-0.340002
851.104065	718.507324	967.049866	727.349304	3.557532
851.404663	723.114075	968.833191	726.011902	1.179325
851.705139	729.727051	960.585510	730.470032	0.321834
852.005615	733.665039	949.440125	726.086182	-3.512388
852.306030	723.262695	946.022217	733.739441	4.703164
852.606384	718.655945	939.632141	735.968445	7.834554
852.906616	713.751953	935.471191	731.064453	7.808299
853.206909	718.655945	935.396973	723.039795	2.022621
853.506958	714.643555	935.917053	718.878845	1.914052
853.807129	720.810730	940.746765	720.884949	0.033746
854.107178	726.383484	938.740540	724.005676	-1.119722
854.407166	722.073792	946.988098	723.411316	0.594682
854.707092	717.541321	943.867493	729.949951	5.482632
855.007019	710.408264	943.124512	727.423645	7.311643
855.306763	711.151367	945.353577	727.720886	7.074877
855.606567	709.516785	951.149170	727.795166	7.564541
855.906250	717.912903	945.799316	720.884949	1.304179
856.205933	721.107910	937.774658	729.801270	4.012318
856.505493	730.321472	930.270020	726.829163	-1.746604
856.805054	729.281250	933.985168	738.197571	4.355716
857.104492	731.881836	932.722107	731.881836	0.000000
857.403931	730.915833	938.740540	733.219299	1.108370
857.703308	731.064453	938.369080	732.847717	0.860214
858.002563	730.841614	934.802490	735.894226	2.477246
858.301819	727.572266	931.830383	734.779602	3.528543
858.601013	719.621887	930.790222	734.482422	7.037293
858.900208	717.987244	945.353516	728.761047	4.738523
859.199219	717.392761	945.204895	723.411316	2.641894
859.498291	716.352539	946.245117	725.194519	3.846135
859.797302	720.216309	941.192566	721.999573	0.806994
860.096191	723.262695	934.579590	726.977844	1.758094
860.395020	725.491699	933.465088	719.324707	-2.965280
860.693787	725.045898	925.440430	726.606384	0.778707
860.992554	721.850891	926.554932	722.296692	0.217778
861.291260	721.702332	916.969910	724.228577	1.293735
861.589844	724.451599	911.768738	718.730164	-3.054411
861.888428	722.073792	912.214539	720.587830	-0.781506
862.186890	723.931396	917.044189	724.823059	0.461731
862.485413	716.501160	920.907898	729.355469	6.288594
862.783813	712.637390	921.279480	736.785828	11.574097
863.082153	706.395996	922.988342	731.436035	11.560906
863.380371	704.166809	918.307312	732.401917	13.185319
863.678589	716.798340	914.443604	722.668274	2.969934
863.976746	725.566101	915.260986	724.674500	-0.470019
864.274902	733.367859	925.068909	720.587830	-6.666646
864.572937	728.984070	930.492981	728.240967	-0.368769
864.870911	727.349304	929.155518	735.076843	3.829188
865.168884	732.030457	931.236023	734.408142	1.193584
865.466736	729.281250	931.384521	733.070618	1.874966
865.764587	730.767273	936.511475	725.268799	-2.672481
866.062317	722.816895	940.375183	726.829285	1.844283
866.360107	727.646545	943.124451	719.621887	-3.724121
866.657715	727.200684	938.517761	719.696106	-3.551335
866.955322	730.544373	935.322693	719.844727	-5.224989
867.252808	725.566101	931.087402	725.268799	-0.144658
867.550293	721.628113	933.242188	727.646484	2.844032
867.847717	720.216309	920.239197	723.931396	1.857331
868.145081	717.838623	915.706726	718.284424	0.225302
868.442383	717.912903	918.753113	715.683838	-1.109870
868.739624	714.272034	922.914124	717.095520	1.353268
869.036804	721.330872	934.505371	719.547546	-0.836557
869.333984	724.823059	929.898621	719.027405	-2.826107
869.631042	731.510254	931.236023	723.782898	-3.868983
869.928101	733.442139	921.873840	726.829285	-3.509417
870.224976	725.194519	927.149231	729.504150	2.133959
870.521851	723.262695	933.093567	731.287415	3.824375
870.818726	714.940735	940.598145	731.510254	7.342776
871.115479	720.513489	929.898621	734.631042	6.742386
871.412231	715.163757	931.904785	732.476257	7.987643
871.708862	716.649719	931.830383	737.083008	9.495875
872.005493	715.015076	938.443359	731.807556	7.515826
872.302063	717.987122	936.437195	727.349304	4.285731
872.598572	721.850891	937.625977	720.141907	-0.792021
872.895020	725.640320	940.598145	724.748718	-0.414780
873.191406	725.491760	944.090393	728.612488	1.427606
873.487671	719.250305	950.108948	731.213074	5.181859
873.783997	718.135925	961.625793	729.429871	4.638363
874.080200	719.696228	960.585632	730.544250	4.503321
874.376343	725.045959	960.659912	730.915833	2.491310
874.672424	718.655945	950.257507	732.550476	5.999325
874.968445	718.135803	940.598145	738.866211	9.318614
875.264465	709.591003	931.087402	739.163391	13.351182
875.560364	709.516785	933.242188	735.151123	11.457947
875.856201	717.244141	943.050110	723.485596	2.764079
876.152039	728.538147	950.480469	721.256531	-3.280860
876.447754	731.435974	947.285400	721.553711	-4.578313
876.743469	725.194519	949.885925	728.538269	1.488152
877.039063	715.460938	943.124451	730.618652	6.657947
877.334595	720.959290	944.981995	728.835449	3.515786
877.630127	714.049133	943.347351	716.426819	1.036940
877.925537	718.210144	956.350342	710.854187	-3.088919
878.221008	708.922302	962.740295	716.946960	3.161580
878.516296	709.293762	968.238708	728.538147	7.431844
878.811646	709.591003	972.473938	722.891174	5.059351
879.106812	716.724060	987.185974	720.290588	1.318680
879.401978	722.148132	1004.870056	721.999512	-0.052568
879.697083	725.640381	1016.461243	729.281250	1.251928
879.992126	724.451477	1036.374390	725.194519	0.238213
880.287109	728.018066	1075.680542	722.816895	-1.496041
880.582031	733.367859	1147.085449	718.730225	-3.538074
880.876892	734.333740	1265.895508	719.770508	-2.739707
881.171753	736.265625	1462.426147	719.473328	-2.312477
881.466492	731.138855	1772.193970	734.482422	0.321171
881.761230	730.692932	2149.874756	741.318298	0.748697
882.055786	728.240906	2521.834229	735.002502	0.376986
882.350403	720.141907	2771.268555	731.881836	0.572365
882.644958	720.513428	2876.406982	731.510315	0.510085
882.939453	713.528992	2836.060547	742.507141	1.365264
883.233826	717.615662	2727.801514	745.256348	1.375031
883.528137	709.665222	2578.601563	746.147949	1.952058
883.822449	708.476379	2450.652344	735.076904	1.526856
884.116577	709.293762	2329.761963	737.008728	1.710306
884.410828	714.569336	2210.654785	735.894226	1.425379
884.704956	720.513489	2058.854248	741.912659	1.598933
884.999023	723.262695	1881.567871	736.637207	1.154662
885.292969	721.925293	1695.959595	732.773438	1.113733
885.586914	721.182312	1534.871460	735.968445	1.817172
885.880798	724.451599	1404.321411	733.367859	1.311466
886.174622	728.018066	1314.638062	735.002502	1.190624
886.468384	726.086182	1255.270142	730.395752	0.814380
886.762085	717.615723	1217.450073	727.869446	2.051424
887.055664	716.352539	1175.617676	727.572266	2.442974
887.349304	716.946960	1134.082397	732.401917	3.705021
887.642822	713.974792	1091.655640	735.225403	5.626605
887.936340	710.705505	1072.336914	732.104736	5.917415
888.229736	708.625000	1062.900513	720.959290	3.481553
888.523071	712.488770	1054.801392	723.485657	3.212528
888.816284	718.210022	1041.501221	722.668274	1.379021
889.109619	728.018066	1020.473572	726.383484	-0.558917
889.402710	729.727051	1007.322021	718.284363	-4.122080
889.695862	734.185242	993.501709	716.203918	-6.934123
889.988892	727.498047	978.195374	715.981018	-4.593997
890.281921	723.114136	961.403015	718.878845	-1.777377
>>>>>End Processed Spectral Data<<<<<
