Jaz Data File
++++++++++++++++++++++++++++++++++++
Date: Fri Jun 04 17:07:09 2021
User: jaz
Dark Spectrum Present: Yes
Reference Spectrum Present: Yes
Processed Spectrum Present: Yes
Spectrometers: JAZA3586
Integration Time (usec): 120000 (JAZA3586)
Spectra Averaged: 10 (JAZA3586)
Boxcar Smoothing: 1 (JAZA3586)
Correct for Electrical Dark: No (JAZA3586)
Strobe/Lamp Enabled: Yes (JAZA3586)
Correct for Detector Non-linearity: No (JAZA3586)
Correct for Stray Light: No (JAZA3586)
Number of Pixels in Processed Spectrum: 2048
>>>>>Begin Processed Spectral Data<<<<<
W	D	R	S	P
191.335022	0.000000	0.000000	0.000000	0.000000
191.713211	229.818314	229.892624	221.347794	-11398.850586
192.091385	460.082428	468.552979	452.800781	-85.964264
192.469528	686.408508	696.142273	684.105164	-23.663452
192.847641	692.724304	707.659180	699.411438	44.775291
193.225739	702.606506	714.197754	707.213196	39.742828
193.603790	719.547546	727.423584	719.993347	5.660216
193.981842	727.869446	730.915833	730.098572	73.172783
194.359863	736.340027	734.408020	736.637207	-15.381942
194.737854	738.791992	737.900208	739.312073	-58.319077
195.115829	739.163513	739.312012	739.757813	400.205505
195.493774	740.203796	734.631042	741.169617	-17.331114
195.871704	741.615479	730.247131	744.884766	-28.757805
196.249603	741.912659	727.200745	747.411133	-37.374294
196.627457	738.346191	728.166687	750.606140	-120.437576
197.005310	736.934387	731.658875	743.621765	-126.762619
197.383133	741.169678	738.346130	736.191406	176.312668
197.760910	750.383118	746.445129	734.928223	392.456604
198.138687	758.556458	749.268738	741.318176	185.602951
198.516449	765.095154	740.203674	744.884766	81.194000
198.894180	755.064270	727.052185	741.987000	46.684387
199.271866	748.451355	730.544373	739.089172	52.282303
199.649536	735.819824	735.076843	739.683594	-520.036133
200.027191	733.144958	743.324524	744.736145	113.867203
200.404816	728.909668	743.547363	744.513245	106.598587
200.782410	730.544373	754.989929	743.250183	51.975952
201.159988	727.200684	768.513000	742.952942	38.129688
201.537537	725.566101	774.308594	744.364685	38.567139
201.915070	721.702332	775.051758	744.290344	42.339748
202.292557	726.606262	771.930969	744.438965	39.344330
202.670029	730.470032	773.194153	746.296570	37.043568
203.047485	734.259460	771.633789	751.349121	45.725666
203.424911	728.389587	768.215820	742.284180	34.888042
203.802292	722.296692	763.163269	736.860107	35.636494
204.179688	716.872742	763.014648	732.179016	33.172176
204.557037	725.640381	759.819641	733.590820	23.261005
204.934357	727.052063	759.522461	735.374023	25.629375
205.311661	731.658875	760.934143	737.008728	18.274311
205.688934	723.188416	759.225159	741.541199	50.927975
206.066177	728.389648	764.054871	735.671204	20.416403
206.443390	721.851013	758.184998	730.172852	22.903732
206.820587	725.045959	758.259277	727.275085	6.711543
207.197769	728.761169	754.915710	735.819824	26.988256
207.574921	732.773438	757.962097	732.773438	0.000000
207.952042	733.219299	761.454285	730.692932	-8.947648
208.329147	719.101746	760.488342	727.646667	20.646593
208.706223	758.482178	803.212402	777.355164	42.192917
209.083267	762.717468	802.915222	773.937195	27.911327
209.460297	767.547119	795.782166	768.735901	4.210306
209.837280	729.132629	745.702148	725.863281	-19.731098
210.214264	718.061523	745.553528	728.612488	38.378300
210.591217	714.792236	749.045715	732.253357	50.976196
210.968124	715.981018	758.630798	733.293518	40.592236
211.345016	722.519714	766.432556	738.271790	35.871227
211.721893	724.971680	778.469666	744.513245	36.527664
212.098724	721.627991	778.469543	737.677429	28.235397
212.475555	712.860168	778.692566	734.408020	32.731380
212.852356	708.922180	769.850403	729.727051	34.146526
213.229126	712.117188	770.965027	731.510254	32.954594
213.605865	719.621826	762.048645	722.891174	7.705853
213.982590	725.120300	768.364441	718.655945	-14.948512
214.359283	720.513489	757.590515	718.507324	-5.410802
214.735931	718.284424	757.218994	729.429871	28.626095
215.112579	707.733459	751.274841	725.937561	41.808735
215.489197	701.343445	748.302734	728.463867	57.753052
215.865799	704.241211	744.216003	727.423645	57.992630
216.242355	718.284424	742.804260	729.132629	44.242569
216.618896	730.767273	749.417297	727.943848	-15.138989
216.995407	727.423645	758.184998	720.439270	-22.705032
217.371902	721.702332	761.602844	721.479492	-0.558487
217.748367	724.005676	764.352051	721.850891	-5.340716
218.124802	723.039734	757.887695	719.844788	-9.168244
218.501236	722.593933	754.841309	713.603333	-27.880100
218.877609	714.197754	751.274841	714.197754	0.000000
219.253983	724.154297	754.767029	719.101746	-16.504738
219.630295	728.835449	757.590576	731.956055	10.852345
220.006592	728.761047	758.927979	736.191345	24.630606
220.382889	718.284363	751.126221	731.064453	38.914028
220.759140	717.169922	746.370850	724.823059	26.208542
221.135391	713.306152	746.965271	717.169922	11.479116
221.511581	715.906738	745.181946	718.284424	8.121840
221.887772	711.225586	747.931152	721.256531	27.328131
222.263931	717.764343	757.739197	724.080017	15.799117
222.640060	717.541321	772.599670	729.504150	21.727549
223.016159	724.748718	769.553223	728.092346	7.462705
223.392212	717.764343	758.556458	727.869446	24.772196
223.768265	719.324646	756.253113	728.538147	24.949591
224.144302	708.699402	757.293396	727.275085	38.226295
224.520294	707.807800	757.293396	723.039856	30.780787
224.896286	717.021301	761.528564	715.683838	-3.005045
225.272217	722.965515	765.912415	709.368103	-31.660986
225.648148	734.853943	771.336609	712.785950	-60.488983
226.024048	723.634094	767.695801	714.049072	-21.753633
226.399902	719.176025	770.370605	716.798340	-4.644409
226.775772	702.235046	760.414063	706.321594	7.024092
227.151581	703.646790	756.401672	708.550781	9.295806
227.527374	703.721130	751.274841	706.841797	6.562404
227.903137	715.089355	760.636902	717.244202	4.730982
228.278870	718.433044	765.020813	719.176025	1.594798
228.654572	714.717957	763.609070	724.080078	19.148922
229.030273	711.002747	763.609070	725.120300	26.836229
229.405930	707.436279	760.636963	725.194641	33.379951
229.781555	708.402161	757.070374	729.652832	43.664375
230.157181	714.866516	755.807312	732.401917	42.831116
230.532761	711.597168	753.280945	730.172852	44.563339
230.908325	716.203918	762.568848	725.120300	19.230875
231.283859	715.089417	760.339783	731.361755	35.960678
231.659332	719.547546	759.671082	736.117004	41.296108
232.034821	715.535217	758.407898	733.144958	41.074505
232.410263	709.516663	755.732971	728.240906	40.514362
232.785690	702.978027	755.287109	726.457703	44.886421
233.161087	706.098816	748.377014	731.213074	59.402386
233.536469	708.773682	755.212891	726.309082	37.759903
233.911804	713.900574	747.411072	724.525818	31.707211
234.287140	713.751953	754.098328	724.451477	26.519171
234.662430	707.584778	751.943542	727.646545	45.226162
235.037704	703.795410	758.928040	734.482422	55.660343
235.412933	706.321594	760.339783	730.841553	45.392040
235.788162	715.906738	763.683411	722.593933	13.996778
236.163345	724.748779	773.416992	719.547546	-10.687125
236.538513	728.018066	774.977356	728.909668	1.898669
236.913635	730.693054	774.531555	735.596985	11.186356
237.288742	733.739441	767.844238	737.825989	11.982326
237.663834	732.104736	759.373779	735.299744	11.716610
238.038879	729.949951	753.058105	731.510315	6.752438
238.413910	719.176025	747.039551	728.240967	32.533360
238.788910	711.522888	746.593750	725.640381	40.254192
239.163879	712.191589	752.017822	723.857117	29.291063
239.538834	713.603333	758.259277	721.182190	16.971664
239.913757	722.445374	761.157043	720.959290	-3.838853
240.288651	721.330872	759.150940	720.216309	-2.947015
240.663528	720.290527	765.243713	722.296692	4.462786
241.038361	713.900574	773.491394	722.519592	14.463668
241.413177	710.111084	772.005310	724.451477	23.169193
241.787979	708.402161	763.980652	718.804504	18.716492
242.162735	710.556946	760.339661	716.129639	11.194032
242.537476	710.854187	761.602844	713.157532	4.538731
242.912170	719.993408	775.125977	724.897278	8.894688
243.286865	717.838623	773.342712	726.011902	14.725543
243.661514	715.980957	770.965027	730.544373	26.486609
244.036148	715.609558	767.472717	722.371094	13.037261
244.410751	718.878723	774.457275	721.702332	5.080392
244.785339	723.931396	775.125977	722.891113	-2.032018
245.159882	714.346375	765.838135	729.429749	29.292791
245.534378	718.581604	760.488342	733.590759	35.815613
245.908890	720.290527	768.661621	729.058289	18.126034
246.283356	720.290527	769.627625	732.699158	25.150711
246.657791	720.587830	765.243713	729.578430	20.133070
247.032196	718.061523	765.540955	738.271790	42.566360
247.406586	721.776672	764.797913	724.005676	5.181171
247.780960	714.494934	769.627625	723.336975	16.037746
248.155289	714.494934	767.175598	718.581604	7.757438
248.529602	715.312317	774.011414	721.182312	10.000146
248.903870	719.770508	769.330383	718.284424	-2.998563
249.278122	715.832336	759.671082	719.919128	9.322329
249.652344	715.535156	757.961975	724.897278	22.066519
250.026550	711.820068	763.906250	729.801331	34.522137
250.400711	717.764343	776.091980	726.754944	15.413963
250.774857	720.290588	769.999084	722.445313	4.334720
251.148987	727.795227	771.113586	717.318420	-24.185604
251.523071	722.222473	764.426331	715.237976	-16.549429
251.897125	719.770447	771.039307	721.628113	3.623381
252.271164	710.705566	766.952637	723.411316	22.589176
252.645187	706.916077	769.330383	723.634277	26.785847
253.019165	703.126709	767.101318	717.987122	23.228611
253.393112	711.374268	776.091980	723.857117	19.288149
253.767044	715.980957	775.051758	732.773438	28.427717
254.140930	722.148132	772.376770	745.702148	46.893600
254.514801	718.878845	764.129211	748.897156	66.338272
254.888657	723.559875	768.958801	746.519470	50.572990
255.262466	722.296814	776.909241	737.157288	27.210793
255.636276	726.606384	776.537781	734.556641	15.922359
256.010010	723.782898	778.469543	726.754883	5.434572
256.383759	728.686768	769.627502	723.114075	-13.611609
256.757446	720.216248	770.965027	719.473206	-1.464157
257.131134	718.432922	764.872070	723.708496	11.360187
257.504791	709.591003	772.674011	722.148193	19.905821
257.878418	713.603271	777.503662	719.250427	8.837436
258.252014	725.714661	783.819397	714.420654	-19.437325
258.625580	725.491760	782.853516	717.912903	-13.212387
258.999115	723.485596	779.658508	721.107910	-4.232797
259.372650	713.677673	777.206482	722.668274	14.152005
259.746124	715.238037	782.927734	724.748718	14.050412
260.119598	717.095520	791.695496	720.216248	4.183282
260.493042	725.640320	802.766602	723.634094	-2.601222
260.866425	730.098450	797.342468	731.436035	1.989152
261.239838	732.476257	796.525146	735.596985	4.872415
261.613159	721.256531	789.986572	735.225403	20.324259
261.986511	722.742493	800.240295	720.736389	-2.588594
262.359802	714.792175	795.930847	718.433044	4.487218
262.733063	716.575439	788.351868	724.600098	11.180075
263.106293	708.625061	780.995911	731.807434	32.032749
263.479523	711.671387	783.968018	738.197510	36.690678
263.852692	704.984192	789.020569	733.590759	34.040695
264.225861	710.333984	791.918396	727.720886	21.311548
264.598969	716.129639	793.181458	721.999512	7.618085
264.972076	722.296875	792.215637	725.194519	4.144301
265.345154	729.132629	795.262024	736.265625	10.786422
265.718201	726.829285	792.958679	736.637146	14.831319
266.091217	731.584534	803.286682	735.968445	6.114058
266.464203	731.435974	801.875000	730.544250	-1.265951
266.837158	730.395691	803.286804	729.949890	-0.611598
267.210114	724.079895	792.958679	723.411316	-0.970660
267.583038	712.934570	788.054626	725.120300	16.221674
267.955902	711.151367	792.066956	718.135803	8.631756
268.328766	718.135742	808.859375	730.247131	13.349762
268.701569	716.129578	813.243225	728.909729	13.159995
269.074371	711.522888	814.729309	734.110840	21.886189
269.447144	708.402161	802.543701	724.971619	17.600580
269.819885	715.460938	807.596375	722.148132	7.258005
270.192596	723.337097	802.915222	731.658875	10.457368
270.565277	723.262695	816.809814	737.305908	15.011914
270.937927	719.398926	818.147278	736.711426	17.531939
271.310577	717.615723	820.004883	728.240967	10.377314
271.683136	719.398926	820.970886	722.593933	3.145560
272.055725	724.154297	819.261902	721.925232	-2.343729
272.428284	729.206848	829.812805	718.135742	-11.004424
272.800812	725.714661	824.463074	715.386536	-10.459029
273.173279	721.330811	831.670410	708.922363	-11.245688
273.545776	712.860291	826.989258	719.398987	5.729217
273.918152	711.448547	827.509460	727.423645	13.764408
274.290558	712.562988	822.308167	736.265625	21.597885
274.662964	713.231750	828.846863	725.863220	10.925448
275.035278	716.055359	826.394836	716.723938	0.605929
275.407593	712.488770	829.738464	718.878845	5.449972
275.779907	714.569275	833.082092	731.733154	14.482720
276.152161	708.847961	840.958191	736.785828	21.147390
276.524384	716.872620	842.147034	732.699158	12.633496
276.896606	717.244141	838.283386	724.823059	6.261538
277.268799	722.593994	847.273926	721.925293	-0.536334
277.640930	717.615723	853.366699	719.919128	1.696788
278.013031	727.720886	857.750671	723.262695	-3.428592
278.385162	729.949951	852.177917	731.510254	1.276551
278.757233	731.881836	851.211914	735.745605	3.237884
279.129272	721.405090	852.475098	730.618652	7.029497
279.501282	723.857117	851.583496	723.782776	-0.058203
279.873230	727.052063	845.713562	721.925232	-4.320551
280.245178	732.550537	854.184082	725.268799	-5.986620
280.617126	722.371094	863.546204	727.274963	3.473608
280.988983	714.866455	879.967102	727.646484	7.740751
281.360870	713.826233	889.254883	734.333801	11.689977
281.732697	711.077087	898.096924	731.287354	10.806482
282.104492	722.965515	902.852295	734.110840	6.195744
282.476288	723.782715	899.731628	726.234802	1.393636
282.848053	736.488586	900.325989	729.801270	-4.081679
283.219757	731.213074	909.985413	726.383362	-2.701599
283.591461	733.070618	924.251465	732.550537	-0.272036
283.963135	728.835388	929.601257	737.974609	4.552179
284.334747	730.767273	930.418640	738.271790	3.758811
284.706360	724.600098	924.623047	734.631042	5.014897
285.077942	727.943665	929.007019	727.646545	-0.147774
285.449524	722.519714	935.842773	730.841553	3.901050
285.821014	722.371094	932.573425	730.024231	3.640843
286.192535	716.649719	941.638367	730.990173	6.373857
286.563995	718.210144	938.814880	730.544373	5.591099
286.935425	723.188293	948.251282	733.367859	4.522985
287.306824	726.383484	938.443359	733.665039	3.433726
287.678223	722.222473	938.963440	728.612488	2.948226
288.049561	720.885010	944.610535	722.073914	0.531412
288.420898	717.615662	948.399902	715.163757	-1.062423
288.792145	722.891113	953.675476	714.866455	-3.477124
289.163452	722.965515	951.372070	719.027527	-1.724113
289.534668	725.491760	963.632019	724.302917	-0.499220
289.905914	719.324707	972.845520	723.782776	1.758463
290.277039	727.943787	987.928955	718.284424	-3.715352
290.648193	739.089172	995.210632	725.491699	-5.308994
291.019318	737.677429	1002.195068	732.104675	-2.106761
291.390381	725.194580	1004.424133	735.002441	3.512473
291.761475	713.157532	1006.430359	735.076843	7.474034
292.132507	716.278259	1011.631531	729.058289	4.327032
292.503510	713.900574	1015.198059	734.556641	6.855705
292.874481	718.284363	1024.337280	741.689758	7.647500
293.245422	723.188416	1017.872986	745.850769	7.690377
293.616364	727.720886	1024.634644	746.222229	6.231218
293.987213	723.708496	1019.953430	730.544373	2.307508
294.358093	723.114075	1037.043091	732.476257	2.982261
294.728943	720.810730	1046.182251	725.268860	1.370166
295.099731	717.095520	1072.188354	724.005676	1.946014
295.470490	709.219482	1087.717529	730.692871	5.673316
295.841248	709.442383	1092.250122	730.247131	5.434777
296.211975	710.482605	1101.314941	734.036560	6.026614
296.582642	720.959290	1111.420044	722.519714	0.399637
296.953308	722.148132	1133.710938	724.600098	0.595769
297.323883	723.188416	1133.413696	721.850891	-0.326046
297.694519	718.358704	1148.274170	723.634216	1.227105
298.065063	714.494934	1153.698242	725.937561	2.605314
298.435608	717.764343	1157.710693	726.829285	2.060465
298.806122	718.061523	1144.782104	724.600098	1.532285
299.176575	726.309082	1126.503540	730.098572	0.946912
299.547028	723.262695	1113.277710	733.665039	2.667165
299.917450	715.089355	1100.274780	731.881836	4.359583
300.287872	709.219543	1100.274780	730.172852	5.358145
300.658234	713.454773	1107.704956	726.234863	3.241619
301.028564	720.439209	1107.184814	736.785828	4.226711
301.398865	724.228577	1106.887573	732.476257	2.155360
301.769135	722.222473	1100.720459	738.123230	4.201015
302.139374	726.606384	1109.042358	731.138855	1.185158
302.509583	724.154358	1119.370483	730.024231	1.485231
302.879791	721.702332	1125.166138	730.395752	2.154696
303.249939	713.974854	1123.680054	730.470032	4.026109
303.620087	711.448547	1116.769897	728.315247	4.161315
303.990173	717.912903	1117.364258	721.776611	0.967254
304.360260	724.005676	1121.079468	723.485596	-0.130978
304.730286	726.011902	1127.618164	728.909668	0.721544
305.100281	714.717834	1132.522095	730.915833	3.876935
305.470276	710.705566	1134.379517	726.754883	3.788129
305.840179	710.705566	1140.398071	723.782776	3.043388
306.210144	713.677551	1148.125610	722.445313	2.018138
306.579987	717.838562	1160.014038	734.482422	3.764085
306.949890	713.157532	1164.472168	732.327637	4.247614
307.319702	718.358704	1171.308105	742.061340	5.232955
307.689484	717.169861	1182.899292	732.476257	3.286543
308.059265	725.045959	1204.447144	731.064453	1.255419
308.429016	722.593933	1220.348022	719.324707	-0.656795
308.798737	721.776672	1239.592285	720.810730	-0.186542
309.168396	720.364929	1248.434204	722.296814	0.365839
309.538055	718.358704	1267.158569	724.005676	1.028968
309.907684	719.844727	1272.359741	718.953125	-0.161371
310.277313	714.494934	1280.904419	715.758118	0.223016
310.646851	719.621887	1293.164551	724.377197	0.829112
311.016388	713.974854	1309.808350	731.733154	2.980413
311.385895	717.838562	1319.839233	747.411072	4.912372
311.755371	714.717834	1317.015747	743.027161	4.700220
312.124817	720.067627	1321.473877	737.825989	2.952806
312.494232	720.885010	1326.823730	728.909668	1.324335
312.863617	719.250305	1321.251099	724.748718	0.913356
313.232971	724.600098	1317.461670	730.544373	1.002641
313.602295	726.234802	1308.099487	724.971680	-0.217082
313.971619	724.154297	1312.483276	726.754883	0.442029
314.340820	721.627991	1308.025024	721.702332	0.012678
314.710083	721.850891	1326.154907	725.789001	0.651677
315.079285	722.222412	1347.479858	721.702332	-0.083179
315.448486	725.566101	1369.696289	727.795105	0.346049
315.817596	716.649719	1372.817017	725.640381	1.370178
316.186707	720.439148	1360.408569	730.915833	1.637060
316.555786	706.841797	1348.445801	727.200745	3.173133
316.924866	712.042969	1333.139526	722.742615	1.722703
317.293884	709.962463	1328.978516	724.971619	2.424680
317.662872	716.575439	1323.182983	727.274963	1.763830
318.031830	714.569336	1328.532593	738.569031	3.908979
318.400757	719.101746	1335.071411	739.163391	3.256921
318.769684	719.027344	1350.303345	737.974609	3.001423
319.138550	720.513428	1358.996704	731.287354	1.687425
319.507416	716.426819	1368.878906	727.126404	1.639904
319.876190	710.259705	1362.191650	723.634216	2.051520
320.244995	711.597168	1369.399048	731.733154	3.061102
320.613770	716.946960	1364.643677	729.652771	1.961691
320.982483	727.349304	1370.959473	737.083008	1.512360
321.351166	723.782776	1366.798462	728.538269	0.739561
321.719818	719.473328	1366.872681	731.287415	1.824853
322.088440	714.123474	1370.513672	727.646545	2.060218
322.457062	716.426819	1381.287598	730.544373	2.123385
322.825623	717.244141	1389.237915	735.374084	2.697933
323.194183	714.643555	1404.692993	725.417480	1.561327
323.562653	708.922302	1416.358398	730.767273	3.087907
323.931183	708.773682	1445.559448	716.575439	1.058891
324.299591	714.569336	1478.178223	722.891174	1.089804
324.668060	718.581726	1511.020142	719.027527	0.056257
325.036407	712.414490	1551.589355	732.104736	2.346382
325.404755	708.625000	1563.255005	732.253357	2.764747
325.773102	708.104919	1568.679077	730.544373	2.607498
326.141388	715.980957	1568.158813	727.646545	1.368915
326.509674	716.352539	1562.957642	729.429871	1.544679
326.877899	719.621887	1569.942261	731.956116	1.450539
327.246124	717.021301	1567.638672	730.693054	1.607274
327.614288	720.810730	1576.629395	734.853943	1.640910
327.982422	717.541321	1584.802734	735.596985	2.081917
328.350525	715.460938	1585.991577	737.008606	2.475234
328.718628	708.104980	1591.712891	733.739441	2.901113
329.086700	709.739563	1582.202148	732.401855	2.597509
329.454712	703.944031	1583.167969	727.126404	2.636686
329.822693	707.584778	1595.948120	729.801270	2.500834
330.190674	705.207092	1618.907715	732.996338	3.041395
330.558563	713.603333	1642.535767	738.123230	2.639578
330.926483	713.826172	1648.480103	733.367859	2.090794
331.294312	719.770508	1646.994141	721.033630	0.136226
331.662231	726.309082	1653.532715	721.850891	-0.480811
332.029999	722.816895	1672.405762	720.959290	-0.195622
332.397766	724.302917	1703.910156	727.052185	0.280650
332.765503	718.433044	1737.197632	729.875671	1.123187
333.133240	714.494934	1766.547241	732.996338	1.758601
333.500916	710.185364	1796.268188	738.197571	2.579196
333.868561	710.185364	1808.231079	728.538147	1.671404
334.236176	714.346375	1803.252808	724.377258	0.921189
334.603790	705.429993	1800.057739	724.748718	1.764867
334.971344	696.439453	1795.971191	733.293457	3.351791
335.338867	695.919250	1801.469604	732.699036	3.326831
335.706360	707.436218	1796.714233	726.011902	1.705321
336.073853	719.250305	1806.076294	720.810730	0.143576
336.441284	724.005676	1819.748047	725.343201	0.122066
336.808655	716.501160	1825.989380	735.596924	1.721133
337.176086	711.745789	1811.351685	737.825989	2.371777
337.543396	708.922302	1769.890991	736.934387	2.640237
337.910706	716.055359	1744.702148	726.531982	1.018486
338.277954	711.225647	1752.206665	719.770508	0.820847
338.645264	708.922180	1823.240234	724.600281	1.406968
339.012421	710.482605	1903.635742	735.299805	2.079968
339.379669	714.940735	1971.548462	741.095398	2.081371
339.746796	721.702332	2014.792480	747.931152	2.028383
340.113953	719.176025	2035.820190	744.736145	1.941308
340.481018	716.055359	2041.987305	745.850647	2.247121
340.848114	711.225586	2034.111328	736.637207	1.920923
341.215118	712.414551	2032.773926	730.841614	1.395610
341.582153	713.380432	2045.851196	740.426575	2.029774
341.949066	712.488770	2055.510498	739.832214	2.035964
342.316010	708.030579	2070.742676	749.714417	3.058888
342.682922	711.448547	2076.686768	738.048828	1.948398
343.049835	714.123474	2112.649170	733.665039	1.397298
343.416656	722.668213	2147.348633	728.166687	0.385944
343.783478	722.222473	2193.267822	728.389648	0.419238
344.150269	727.943787	2226.481201	734.853943	0.461127
344.516998	722.668274	2272.251465	741.689758	1.227523
344.883728	729.504150	2316.015625	748.748535	1.213000
345.250427	721.107910	2354.801758	744.290344	1.419019
345.617065	722.816833	2369.364990	726.383362	0.216606
345.983704	714.792175	2363.941162	728.092346	0.806487
346.350281	710.111084	2358.814209	724.600098	0.878813
346.716827	710.408203	2339.569824	729.801270	1.190371
347.083405	707.064636	2339.421143	719.547546	0.764717
347.449860	728.538269	2336.003174	743.844543	0.952200
347.816376	724.080078	2347.148682	754.469910	1.872369
348.182770	730.990173	2339.198242	758.630798	1.718722
348.549194	718.804504	2327.012451	740.649475	1.358342
348.915558	726.531982	2333.476807	734.333801	0.485506
349.281921	727.869446	2333.774170	736.340027	0.527465
349.648193	725.417480	2360.523193	731.510315	0.372626
350.014526	718.878845	2379.395752	731.956055	0.787539
350.380737	715.237976	2425.612305	736.191406	1.225079
350.746948	720.885010	2459.568604	748.897156	1.611112
351.113159	721.628113	2489.215576	746.965271	1.433432
351.479309	718.284424	2502.664307	744.141785	1.449095
351.845428	706.916016	2507.494141	741.838379	1.939508
352.211517	713.603333	2528.224365	746.296570	1.801656
352.577576	712.117249	2552.744141	742.804382	1.667211
352.943604	713.900574	2591.901611	742.952942	1.546984
353.309601	706.767517	2626.006836	745.479187	2.017032
353.675537	710.482666	2678.464600	746.370850	1.823603
354.041473	710.854187	2735.231689	732.179016	1.053402
354.407379	713.008972	2789.472900	732.996277	0.962565
354.773254	713.677673	2842.004883	735.299744	1.015918
355.139038	718.210144	2883.911377	742.135559	1.104742
355.504913	722.965515	2945.731445	740.649597	0.795589
355.870636	717.690002	3000.864014	737.380188	0.862404
356.236389	719.101746	3061.420654	729.727051	0.453623
356.602081	717.244141	3132.305420	727.275085	0.415349
356.967804	725.491760	3216.416016	727.052063	0.062640
357.333405	724.525879	3306.619873	736.340027	0.457541
357.699036	717.689941	3371.411865	729.355469	0.439591
358.064606	714.717834	3452.253174	731.064453	0.597129
358.430176	706.990417	3503.967529	727.572266	0.735860
358.795654	710.779785	3555.608154	730.172852	0.681695
359.161163	710.259705	3564.004639	733.070618	0.799333
359.526581	713.900574	3563.260986	733.888000	0.701471
359.892029	717.541321	3581.317139	738.940613	0.747240
360.257416	720.290527	3622.480469	739.386414	0.657982
360.622772	721.033630	3739.878906	741.318298	0.671935
360.988098	717.987122	3859.283203	736.488586	0.588975
361.353394	714.643616	4005.733643	732.104736	0.530557
361.718658	724.971680	4135.243652	731.584656	0.193913
362.083893	721.925293	4246.177246	732.179016	0.290947
362.449097	727.646545	4339.130371	727.795166	0.004115
362.814209	719.993408	4355.328125	724.080017	0.112414
363.179382	716.129578	4294.103027	719.176086	0.085146
363.544434	711.597168	4138.810059	724.005676	0.362058
363.909546	708.104980	3942.725342	729.355469	0.656970
364.274536	707.882080	3782.825928	734.779602	0.874732
364.639587	702.978027	3654.579346	728.538147	0.865975
365.004517	706.395996	3606.505127	720.290527	0.479104
365.369507	705.207214	3575.446533	717.615723	0.432316
365.734344	708.922302	3576.561523	729.132568	0.704770
366.099274	711.820068	3574.481201	739.237793	0.957771
366.464081	716.055359	3571.806396	738.197510	0.775353
366.828918	718.358704	3575.892822	735.968445	0.616257
367.193665	710.111084	3588.375732	731.435974	0.740894
367.558411	715.238037	3597.514893	739.980774	0.858444
367.923126	713.529053	3601.898682	739.460693	0.897795
368.287781	725.045959	3595.582764	751.126221	0.908550
368.652435	719.398926	3590.456055	741.095398	0.755696
369.017059	722.965515	3582.357178	738.197571	0.532703
369.381653	719.621887	3577.601563	734.333801	0.514766
369.746185	719.250305	3561.849609	736.860046	0.619494
370.110687	711.374268	3562.666992	740.649475	1.026735
370.475220	703.795410	3567.645264	730.172852	0.921048
370.839661	710.482666	3613.044189	740.500916	1.034199
371.204041	711.002747	3675.458740	743.993164	1.112866
371.568451	714.272034	3733.340088	751.572021	1.235480
371.932770	711.374207	3775.618408	745.924988	1.127547
372.297150	713.231750	3786.837891	745.256348	1.041923
372.661377	717.764343	3806.156982	742.729980	0.808370
373.025696	713.380432	3831.642578	737.454529	0.772036
373.389862	717.690002	3850.515625	727.497864	0.313068
373.754059	716.575439	3860.175049	731.733215	0.482179
374.118225	718.507324	3882.317139	735.596924	0.540159
374.482361	713.677551	3906.242432	742.432800	0.900694
374.846436	712.785950	3954.464844	732.996338	0.623454
375.210510	706.916016	4002.093018	730.693054	0.721571
375.574524	709.145203	4094.080078	732.624817	0.693650
375.938538	706.098816	4173.509766	739.163513	0.953585
376.302460	713.008972	4258.140625	738.494812	0.718897
376.666412	720.067688	4345.892090	736.265625	0.446738
377.030304	719.770508	4441.667969	741.318298	0.578946
377.394196	719.547546	4543.834473	743.844543	0.635334
377.757996	719.844727	4610.706543	739.757996	0.511796
378.121796	724.451477	4661.084473	737.157288	0.322758
378.485565	721.256531	4664.279297	742.432800	0.537057
378.849304	713.900574	4633.740723	737.677429	0.606577
379.212982	712.414551	4571.177734	726.606262	0.367779
379.576630	718.953186	4488.924805	730.767273	0.313373
379.940277	717.095642	4406.819824	737.157410	0.543720
380.303864	719.101746	4361.272949	746.816650	0.760945
380.667450	715.758118	4348.863770	734.556641	0.517423
381.030945	719.101746	4373.606934	739.906433	0.569289
381.394501	720.810730	4406.373535	732.179016	0.308455
381.757935	729.504089	4431.488770	744.364685	0.401422
382.121399	732.922058	4442.039551	737.900330	0.134217
382.484741	729.875671	4457.940918	751.646301	0.583966
382.848145	725.120300	4497.246582	743.993164	0.500324
383.211487	716.055359	4538.707520	747.782532	0.829978
383.574768	719.101746	4594.583496	743.398743	0.626941
383.938019	721.256531	4655.362793	752.092102	0.783801
384.301270	728.240967	4732.785645	752.463623	0.604879
384.664459	718.210144	4788.142090	753.503906	0.867183
385.027649	714.792175	4835.249512	750.606018	0.869172
385.390778	708.996582	4867.794434	751.943542	1.032677
385.753876	719.696106	4902.121582	751.423401	0.758586
386.116943	716.426819	4921.218262	749.714417	0.791659
386.479980	720.959290	4944.846191	749.194336	0.668461
386.842987	712.042969	4980.511719	750.680420	0.905183
387.205994	717.021240	5023.532715	747.411133	0.705673
387.568909	716.426819	5070.269043	751.200500	0.798689
387.931793	719.027405	5103.259277	752.537903	0.764341
388.294678	712.637390	5149.327148	754.544189	0.944551
388.657471	715.163757	5178.824707	753.652527	0.862269
389.020294	722.816895	5195.023438	758.407898	0.795826
389.383057	730.024231	5209.363770	766.283997	0.809489
389.745819	723.114075	5229.573730	777.057861	1.197033
390.108521	717.095520	5250.453125	780.104309	1.389892
390.471191	705.281433	5288.273438	784.859619	1.736381
390.833801	715.312317	5364.359863	780.624329	1.404847
391.196442	710.928406	5474.253418	789.837891	1.656605
391.558960	717.392761	5571.589844	799.497253	1.691412
391.921509	712.117371	5690.102051	812.723145	2.021014
392.284027	716.798340	5802.670410	823.794250	2.103787
392.646484	718.953125	5888.787598	833.379395	2.213345
393.008911	721.479431	5902.904785	843.930359	2.363267
393.371307	717.392761	5904.316895	849.503113	2.546988
393.733673	713.008972	5889.308594	859.979675	2.839300
394.096008	708.550781	5866.051270	873.205505	3.192529
394.458344	718.655945	5853.642578	895.496399	3.443835
394.820587	719.398987	5875.115723	909.465332	3.686516
395.182831	724.451477	5910.707031	926.777832	3.901203
395.545013	712.414490	5902.459473	941.415466	4.412312
395.907196	714.271973	5874.818848	970.244934	4.960191
396.269287	710.482605	5834.175781	988.003235	5.416418
396.631409	717.244202	5773.693359	1001.303528	5.617763
396.993469	717.689941	5700.950684	1016.535461	5.996987
397.355530	717.541321	5643.737793	1035.557007	6.455603
397.717499	717.318420	5634.449707	1066.021118	7.091588
398.079468	719.398987	5616.914551	1093.364624	7.635823
398.441376	718.284424	5627.539551	1128.955566	8.365244
398.803284	713.826233	5629.025879	1152.583862	8.926547
399.165131	704.389832	5662.907715	1181.859009	9.629272
399.526978	706.618896	5658.449219	1202.366577	10.011403
399.888763	713.157532	5685.718750	1232.533569	10.444839
400.250519	713.380371	5698.424316	1263.071899	11.026814
400.612244	711.522888	5735.427246	1304.012817	11.793416
400.973938	707.882019	5731.488770	1333.733765	12.458215
401.335602	714.272034	5740.182129	1350.600586	12.660961
401.697205	718.284485	5767.376953	1374.228882	12.991333
402.058807	715.906738	5818.645996	1401.869507	13.443030
402.420349	719.547607	5888.341797	1443.033203	13.997184
402.781860	716.203918	5955.140137	1478.995605	14.560050
403.143341	720.216309	6031.151855	1519.564941	15.050995
403.504822	720.810730	6139.634277	1561.174438	15.508231
403.866241	718.730225	6273.081543	1610.957397	16.063570
404.227631	714.792175	6397.687012	1658.362671	16.603693
404.588959	708.699402	6538.045410	1704.281616	17.078796
404.950287	711.225647	6646.527344	1744.627930	17.411118
405.311554	708.699402	6729.894531	1779.475952	17.783457
405.672821	703.944031	6768.086426	1813.357910	18.294653
406.034027	701.714844	6772.395996	1841.890137	18.781670
406.395203	702.458008	6747.429688	1863.066406	19.199568
406.756348	709.739563	6707.975098	1875.772095	19.439592
407.117493	710.333984	6669.857910	1878.967163	19.609505
407.478516	717.912903	6670.006348	1894.942383	19.775051
407.839600	718.953125	6679.591797	1911.066040	19.999752
408.200592	719.547546	6698.241699	1940.415649	20.420315
408.561554	715.535217	6709.164063	1963.152222	20.815720
408.922485	719.844727	6702.923340	1992.650391	21.273424
409.283417	718.284363	6705.746582	2014.346680	21.646269
409.644257	722.148132	6752.929199	2048.526123	21.993467
410.005096	718.284424	6833.695801	2084.785889	22.345211
410.365906	717.541443	6911.119141	2111.237549	22.502277
410.726715	711.968689	6998.424316	2143.410400	22.770250
411.087433	708.476379	7070.869629	2172.908936	23.017010
411.448120	711.745789	7143.983887	2209.391357	23.283426
411.808807	712.117249	7160.330078	2243.422119	23.747742
412.169434	713.974792	7133.507324	2250.778076	23.939487
412.530029	719.027405	7114.411621	2272.623047	24.292452
412.890564	719.324707	7116.491699	2268.833740	24.221800
413.251099	720.364929	7153.717285	2289.341064	24.388157
413.611572	717.987244	7191.537109	2304.499023	24.507601
413.972076	726.680664	7230.769531	2333.774170	24.708973
414.332489	724.748779	7259.673340	2356.585205	24.971004
414.692871	724.377258	7348.910645	2379.098877	24.978691
415.053223	710.928406	7440.005859	2404.510498	25.168116
415.413574	710.854187	7607.484375	2455.110596	25.291430
415.773834	707.807800	7715.445801	2505.413574	25.652090
416.134094	716.872620	7844.138184	2556.310791	25.808470
416.494263	717.467102	7919.257813	2588.260742	25.976786
416.854462	720.959290	8098.326660	2648.743408	26.131060
417.214630	721.702332	8296.046875	2706.848389	26.208815
417.574738	718.730225	8534.485352	2771.937256	26.270105
417.934784	722.965515	8746.098633	2829.967773	26.261587
418.294861	720.364807	8980.079102	2920.171143	26.632961
418.654846	727.869446	9246.528320	3009.334229	26.781971
419.014832	726.606262	9552.878906	3100.281006	26.893288
419.374756	726.457703	9887.463867	3174.955078	26.727385
419.734680	726.457703	10241.739258	3277.790039	26.813000
420.094543	720.067688	10582.714844	3374.235107	26.911308
420.454376	717.392761	10901.769531	3463.621094	26.965109
420.814148	712.191589	11229.370117	3548.251953	26.965981
421.173920	714.866516	11599.174805	3647.371826	26.942505
421.533691	719.250305	11943.196289	3743.667969	26.946117
421.893341	710.111084	12236.989258	3816.187500	26.946381
422.253021	704.241211	12446.225586	3866.490479	26.931131
422.612640	701.269104	12561.840820	3903.865234	27.002039
422.972260	707.956360	12570.905273	3915.902100	27.041723
423.331757	706.321716	12523.945313	3916.347900	27.163042
423.691315	714.792175	12524.094727	3939.678955	27.308020
424.050781	724.228577	12599.883789	3978.761963	27.405085
424.410248	727.275085	12638.372070	4013.312744	27.588036
424.769653	715.981018	12699.746094	4020.222900	27.572655
425.128998	711.002747	12749.901367	4032.037109	27.585867
425.488373	717.912903	12747.226563	4023.566650	27.479988
425.847656	728.315247	12663.635742	4000.607422	27.416878
426.206940	734.036621	12549.284180	3967.765625	27.369116
426.566193	735.299744	12366.276367	3922.886719	27.406013
426.925385	726.309082	12150.796875	3890.787842	27.699085
427.284576	719.919006	11821.710938	3804.225342	27.782059
427.643677	709.516602	11623.694336	3755.408203	27.907660
428.002777	716.129639	11403.832031	3691.582031	27.839964
428.361847	713.306152	11186.050781	3639.941650	27.945259
428.720856	714.643555	10937.805664	3582.654297	28.054047
429.079865	711.671387	10778.426758	3551.967041	28.214607
429.438812	713.454773	10680.421875	3536.066406	28.319664
429.797760	722.965515	10604.632813	3519.051025	28.295687
430.156616	720.216309	10479.804688	3483.311523	28.311598
430.515503	716.872620	10393.018555	3470.828857	28.461294
430.874268	715.089355	10357.056641	3463.546875	28.505154
431.233093	717.095520	10401.266602	3475.435303	28.482973
431.591827	718.210144	10461.823242	3491.781982	28.465536
431.950562	714.866516	10494.145508	3520.462891	28.689194
432.309204	707.956360	10523.420898	3542.456299	28.877899
432.667877	706.470215	10595.493164	3576.561523	29.023001
433.026459	700.971863	10707.616211	3600.858643	28.979612
433.385010	712.785950	10826.649414	3642.096680	28.963322
433.743561	712.860352	10941.817383	3678.876221	28.996269
434.102051	717.318420	11065.754883	3725.167236	29.065733
434.460510	716.724060	11202.472656	3766.999268	29.089722
434.818939	719.027344	11298.916992	3790.999268	29.035954
435.177338	716.278259	11341.567383	3808.385986	29.101398
435.535675	716.798340	11352.340820	3806.454102	29.050287
435.894012	711.522888	11318.757813	3804.373779	29.157936
436.252289	716.055359	11338.745117	3810.541016	29.130905
436.610535	706.395996	11322.472656	3808.311523	29.219040
436.968719	719.621826	11427.461914	3841.748047	29.157387
437.326935	719.176025	11507.485352	3859.060303	29.104507
437.685028	725.045898	11600.140625	3889.896240	29.101818
438.043152	718.507324	11664.932617	3886.775391	28.943403
438.401215	715.460938	11825.054688	3936.929688	28.997179
438.759277	715.832458	12000.558594	4004.694092	29.144361
439.117249	717.838623	12296.803711	4113.026855	29.322037
439.475250	722.371094	12504.850586	4174.326660	29.297361
439.833130	714.866455	12797.453125	4249.000977	29.249817
440.191071	714.197754	12995.395508	4308.369141	29.265644
440.548889	708.922302	13228.930664	4376.728027	29.295551
440.906708	715.312317	13456.296875	4440.107910	29.234756
441.264496	714.717957	13653.645508	4488.850098	29.168816
441.622223	723.336975	13831.452148	4540.861816	29.123369
441.979950	724.748718	13937.926758	4567.611328	29.083561
442.337616	718.210022	14000.862305	4590.570801	29.153521
442.695251	718.953125	13931.983398	4567.611328	29.127748
443.052887	713.826233	13806.932617	4545.395020	29.264017
443.410461	719.250305	13684.554688	4518.497559	29.303186
443.768005	707.659119	13583.502930	4495.462891	29.417908
444.125458	709.219482	13503.553711	4471.909180	29.409031
444.482941	713.008972	13487.429688	4486.621582	29.540380
444.840393	726.234863	13532.828125	4524.589844	29.659370
445.197754	731.584656	13727.206055	4601.642090	29.779703
445.555084	724.525879	13923.809570	4668.588379	29.880884
445.912415	716.649719	14221.391602	4748.612305	29.855902
446.269714	706.470215	14429.067383	4809.837891	29.902266
446.626953	707.436218	14668.026367	4883.397949	29.912504
446.984161	707.584778	14931.502930	4955.396973	29.863867
447.341309	715.758118	15143.042969	5019.595215	29.831232
447.698456	726.606262	15368.924805	5059.495117	29.591549
448.055542	719.101746	15474.583008	5101.253418	29.698467
448.412598	719.696106	15530.903320	5102.145020	29.588734
448.769653	711.002686	15442.781250	5083.791992	29.682697
449.126617	715.163635	15251.897461	5036.981445	29.730324
449.483582	720.810730	15078.696289	5018.108398	29.929878
449.840515	720.439148	14827.331055	4965.799316	30.094229
450.197388	724.971619	14690.613281	4916.164551	30.010744
450.554230	720.810608	14526.403320	4861.255371	29.991068
450.911041	720.141907	14434.789063	4840.748047	30.045292
451.267822	720.810730	14322.592773	4834.357422	30.242704
451.624573	718.507324	14221.465820	4815.039063	30.338030
451.981262	722.073792	14139.807617	4793.714355	30.345219
452.337921	725.789001	14008.663086	4748.463867	30.284672
452.694580	724.897278	13916.899414	4704.848145	30.169424
453.051147	723.188416	13910.881836	4705.591309	30.197872
453.407715	722.296692	13885.023438	4707.746582	30.278301
453.764221	732.847717	13982.804688	4771.274902	30.478794
454.120728	734.110901	13850.472656	4740.959473	30.548477
454.477142	732.847717	13859.834961	4733.454590	30.476200
454.833557	719.473328	13706.176758	4695.634766	30.617172
455.189911	717.095520	13602.598633	4686.941406	30.808622
455.546265	709.962463	13405.250977	4663.833496	31.144398
455.902557	710.111145	13280.273438	4628.984863	31.176001
456.258820	711.374207	13285.401367	4620.960449	31.092554
456.615051	712.637390	13368.321289	4634.186035	30.986462
456.971252	720.439209	13369.659180	4623.858887	30.858976
457.327393	717.764343	13481.039063	4662.570313	30.907475
457.683502	724.600098	13650.674805	4741.257324	31.074070
458.039612	723.559875	13995.437500	4852.562012	31.110910
458.395630	729.132629	14336.413086	4972.412109	31.183889
458.751648	724.897278	14651.679688	5061.426270	31.138052
459.107605	716.798340	15113.694336	5210.255371	31.211290
459.463562	716.278137	15583.657227	5351.653320	31.178160
459.819458	717.318420	16059.121094	5506.648926	31.217522
460.175323	714.643555	16490.892578	5631.626465	31.166996
460.531158	712.191589	16941.169922	5754.820313	31.071758
460.886932	707.584778	17254.875000	5833.432129	30.976957
461.242676	713.008972	17491.603516	5899.041504	30.908625
461.598419	713.900574	17470.724609	5906.620605	30.988689
461.954102	714.346375	17313.130859	5857.283203	30.983816
462.309723	712.563049	16884.847656	5743.972168	31.111309
462.665344	709.293762	16388.357422	5611.416016	31.265402
463.020905	718.507324	15981.178711	5497.955566	31.314623
463.376373	728.538269	15618.135742	5422.315430	31.523870
463.731873	735.596985	15345.592773	5337.461426	31.498053
464.087341	728.686768	15084.418945	5268.285645	31.622202
464.442749	728.315247	14968.358398	5219.914551	31.542034
464.798126	727.349304	14849.995117	5206.986328	31.719534
465.153503	730.915833	14889.002930	5230.688965	31.782352
465.508820	721.107849	14883.207031	5236.707520	31.885099
465.864105	722.371094	14995.032227	5245.771973	31.692764
466.219330	715.089355	15188.070313	5318.663086	31.808056
466.574524	711.002747	15354.805664	5383.529297	31.907875
466.929657	706.395996	15500.514648	5437.398438	31.978939
467.284790	720.290527	15632.698242	5480.865723	31.923584
467.639893	730.915833	15831.309570	5538.673340	31.838623
467.994934	725.417480	16075.245117	5628.728516	31.943752
468.349945	713.751953	16213.077148	5671.601563	31.987518
468.704926	716.575439	16264.346680	5688.913574	31.981033
469.059875	722.742493	16134.167969	5662.238281	32.050869
469.414764	729.206848	15961.116211	5620.406250	32.111530
469.769653	722.965515	15811.023438	5581.322754	32.200020
470.124451	723.559875	15728.995117	5551.898926	32.177265
470.479248	708.699402	15605.726563	5509.769531	32.228378
470.834015	700.377441	15492.786133	5480.123047	32.312153
471.188721	699.931641	15530.680664	5490.673828	32.302765
471.543365	711.894348	15587.596680	5516.902832	32.301052
471.898010	722.371033	15709.825195	5530.054688	32.078053
472.252625	728.835266	15817.713867	5557.546387	32.001789
472.607178	732.253235	16022.043945	5627.836426	32.018639
472.961700	728.835388	16192.272461	5711.724609	32.223682
473.316193	731.287415	16396.900391	5795.389160	32.326225
473.670654	729.281250	16576.789063	5845.841309	32.286213
474.025055	736.191345	16826.369141	5921.109375	32.224117
474.379456	725.343201	17046.677734	5984.044434	32.219799
474.733795	723.708496	17212.597656	6065.851563	32.398441
475.088104	721.182190	17339.580078	6112.959473	32.444626
475.442383	724.080078	17354.589844	6141.417480	32.574692
475.796570	727.869446	17448.730469	6149.590332	32.424889
476.150787	731.584656	17552.085938	6186.816406	32.432041
476.504944	735.894226	17716.220703	6241.354004	32.422581
476.859070	736.934387	17886.224609	6301.687988	32.448883
477.213135	735.374023	18069.306641	6372.721191	32.522030
477.567200	722.445313	18411.396484	6450.591309	32.382622
477.921173	711.894348	18778.080078	6545.623535	32.290874
478.275146	703.275208	19240.169922	6676.842285	32.225285
478.629089	710.854187	19547.263672	6789.336426	32.269855
478.983002	718.655945	19922.267578	6932.889160	32.359711
479.336823	718.730164	20216.656250	7026.511719	32.351040
479.690643	720.810730	20566.845703	7132.020996	32.304741
480.044403	720.364929	20941.851563	7256.255371	32.321514
480.398163	729.206848	21520.818359	7460.216309	32.373676
480.751862	724.005676	22252.921875	7719.234863	32.492249
481.105499	719.398926	23140.541016	8018.898438	32.556324
481.459137	719.027405	24271.130859	8413.891602	32.671665
481.812744	722.891113	25659.625000	8920.784180	32.874763
482.166290	728.612488	27348.080078	9547.675781	33.130127
482.519806	724.897278	29367.255859	10265.217773	33.308430
482.873291	724.377258	31705.341797	11049.855469	33.328461
483.226715	724.822998	34387.449219	11895.346680	33.183758
483.580139	723.262695	37057.144531	12727.090820	33.037560
483.933502	719.993347	39977.246094	13620.208008	32.860718
484.286804	727.275085	42839.312500	14519.940430	32.752308
484.640106	725.343079	45620.015625	15390.098633	32.664803
484.993347	723.485535	47723.156250	16090.699219	32.696426
485.346558	707.584778	48929.683594	16522.619141	32.796238
485.699738	706.916016	49084.972656	16682.595703	33.022575
486.052887	706.767395	48293.871094	16524.626953	33.239803
486.405975	710.631165	46882.863281	16165.449219	33.472107
486.759064	714.049133	45068.386719	15582.323242	33.521580
487.112061	730.098572	43296.121094	14966.203125	33.444759
487.464996	727.275085	41899.453125	14413.762695	33.242077
487.817963	721.479492	41166.160156	14066.174805	32.994934
488.170868	702.086426	40982.484375	13924.999023	32.827164
488.523743	705.429993	41161.851563	13926.856445	32.680664
488.876587	708.773682	41324.277344	13973.964844	32.660412
489.229401	715.312317	41310.082031	13994.100586	32.710590
489.582153	711.002747	40843.683594	13908.726563	32.885227
489.934845	712.265930	40112.917969	13751.354492	33.093586
490.287537	713.008850	39195.722656	13500.953125	33.230358
490.640198	718.507324	38341.910156	13252.781250	33.315098
490.992798	714.272034	37521.687500	12975.038086	33.310585
491.345337	704.241211	37024.453125	12793.589844	33.285458
491.697876	701.937805	36823.312500	12653.828125	33.088139
492.050354	711.225586	37062.566406	12699.672852	32.979382
492.402832	721.479431	37355.691406	12760.825195	32.863670
492.755219	727.720886	37559.578125	12787.351563	32.742393
493.107605	723.782776	37448.421875	12670.916992	32.531654
493.459930	727.126465	36953.269531	12494.002930	32.481728
493.812225	721.256531	35934.730469	12222.573242	32.661694
494.164490	715.163757	34496.527344	11832.708008	32.910290
494.516724	705.207214	32786.671875	11321.727539	33.092381
494.868896	707.510559	31028.296875	10776.420898	33.207943
495.221039	712.488770	29513.931641	10300.512695	33.290081
495.573120	720.662109	28248.187500	9898.832031	33.341789
495.925201	734.853943	27552.193359	9636.022461	33.191841
496.277222	737.900330	27067.587891	9480.581055	33.204651
496.629211	736.934387	26927.306641	9416.606445	33.140697
496.981140	713.008972	26779.517578	9385.399414	33.270245
497.333069	717.689941	26864.890625	9385.995117	33.151939
497.684967	724.377197	26923.591797	9400.557617	33.116184
498.036804	730.247070	27043.367188	9434.215820	33.078434
498.388580	717.987122	27032.218750	9435.182617	33.127304
498.740326	711.151367	26997.818359	9427.676758	33.159492
499.092072	714.643555	26801.658203	9344.383789	33.080597
499.443756	717.764343	26573.031250	9287.691406	33.145767
499.795410	713.900574	26276.638672	9191.321289	33.163197
500.147003	711.522888	26052.466797	9123.853516	33.196598
500.498566	716.575439	25720.333984	9008.758789	33.163750
500.850098	720.142029	25409.896484	8917.440430	33.201218
501.201599	722.668274	25101.093750	8829.689453	33.254898
501.553009	714.197754	24851.958984	8763.931641	33.349133
501.904449	714.494934	24669.617188	8732.278320	33.470016
502.255859	719.324646	24497.828125	8701.739258	33.569878
502.607178	725.937561	24435.041016	8662.286133	33.473846
502.958405	726.011902	24329.312500	8606.038086	33.385273
503.309692	719.621887	24229.820313	8590.954102	33.480499
503.660919	713.751953	24186.873047	8590.063477	33.554600
504.012115	713.826233	24188.431641	8614.731445	33.657246
504.363251	712.191589	24262.587891	8604.403320	33.512012
504.714294	718.507324	24321.806641	8637.096680	33.548656
505.065369	718.135742	24390.833984	8641.109375	33.468822
505.416443	727.200745	24454.289063	8676.477539	33.502960
505.767395	729.727051	24530.748047	8694.532227	33.464130
506.118317	722.296692	24532.974609	8693.417969	33.477085
506.469238	713.306152	24578.671875	8708.279297	33.500317
506.820160	708.327820	24557.271484	8712.440430	33.561707
507.170929	720.736389	24604.898438	8764.303711	33.677410
507.521729	727.126465	24616.568359	8804.426758	33.811172
507.872498	728.463867	24709.669922	8854.877930	33.886593
508.223236	722.816895	24875.806641	8889.800781	33.813553
508.573883	718.655945	25031.546875	8939.286133	33.811817
508.924500	720.216309	25186.095703	8991.223633	33.806297
509.275116	721.627991	25287.593750	9051.334961	33.907509
509.625702	723.857117	25526.476563	9106.319336	33.796680
509.976196	714.792175	25758.820313	9179.580078	33.799629
510.326660	715.609558	26026.087891	9255.740234	33.741482
510.677124	714.643555	26258.656250	9341.189453	33.771305
511.027557	732.402039	26482.083984	9430.650391	33.780022
511.377869	728.909668	26710.937500	9510.897461	33.800243
511.728180	729.058289	26833.462891	9563.502930	33.842735
512.078430	722.073792	26955.318359	9620.270508	33.919540
512.428650	723.931396	27047.677734	9652.666016	33.918934
512.778931	728.240967	27163.068359	9671.985352	33.833183
513.129028	721.256531	27206.833984	9686.028320	33.847748
513.479126	713.306152	27283.958984	9714.857422	33.877792
513.829285	705.281494	27295.476563	9725.185547	33.921917
514.179382	708.550781	27308.626953	9705.198242	33.821888
514.529297	717.244141	27276.751953	9716.343750	33.882778
514.879272	720.959290	27306.398438	9744.207031	33.940563
515.229187	722.593933	27204.380859	9736.925781	34.039742
515.579163	723.411316	27211.216797	9731.427734	34.008167
515.928955	724.228699	27226.671875	9739.229492	34.015736
516.278748	725.863281	27430.335938	9818.510742	34.049156
516.628540	728.835449	27629.095703	9904.329102	34.109314
516.978333	732.179016	27993.921875	10025.592773	34.089581
517.327942	728.984070	28433.646484	10156.512695	34.028671
517.677612	724.154297	28965.281250	10299.471680	33.905579
518.027222	721.925293	29419.568359	10465.834961	33.953697
518.376831	721.479492	30026.173828	10671.282227	33.952930
518.726379	719.547546	30598.751953	10883.194336	34.015785
519.075867	712.711670	31072.060547	11054.536133	34.064709
519.425293	709.665283	31522.853516	11186.422852	34.000889
519.774658	713.900452	31871.259766	11267.338867	33.871414
520.124084	720.439148	32157.623047	11344.093750	33.793278
520.473389	724.823059	32137.857422	11329.678711	33.759411
520.822693	723.262695	31971.642578	11305.084961	33.863586
521.171997	722.148132	31658.755859	11235.463867	33.983414
521.521240	719.101746	31316.962891	11158.856445	34.119232
521.870361	718.730225	30860.447266	11041.012695	34.245834
522.219482	714.197754	30531.656250	10886.389648	34.114883
522.568604	716.278137	30211.931641	10764.309570	34.066143
522.917664	714.643555	30045.943359	10688.222656	34.003193
523.266724	716.129578	30007.380859	10710.142578	34.119446
523.615662	714.717834	30135.255859	10810.823242	34.316525
523.964600	709.516602	30464.041016	10934.313477	34.363842
524.313538	712.340149	30863.494141	11114.424805	34.499790
524.662354	712.042969	31427.748047	11300.479492	34.472385
525.011169	726.531982	32110.068359	11566.333008	34.539768
525.359985	727.869446	32947.609375	11846.456055	34.508617
525.708740	724.080078	33925.511719	12191.665039	34.539433
526.057434	722.742676	35071.777344	12555.600586	34.448879
526.406067	724.005798	36418.214844	13025.936523	34.464779
526.754700	727.349304	37873.136719	13542.934570	34.500774
527.103333	724.971680	39587.597656	14197.614258	34.667351
527.451782	720.439209	41453.933594	14885.065430	34.773903
527.800293	722.445374	43406.980469	15608.104492	34.873657
528.148743	717.095520	45348.957031	16318.734375	34.956280
528.497131	715.460938	47227.625000	16974.976563	34.957554
528.845642	718.730225	48994.613281	17579.873047	34.926636
529.193909	721.256531	50521.761719	18128.673828	34.954300
529.542175	721.553711	51758.160156	18602.947266	35.036411
529.890503	720.736389	52567.464844	19001.435547	35.259121
530.238770	718.507324	52871.660156	19163.341797	35.366673
530.586914	723.262695	52737.324219	19179.912109	35.483959
530.934998	724.228699	52029.957031	18923.863281	35.472912
531.283142	726.532043	50914.230469	18541.501953	35.496689
531.631226	727.497864	49142.109375	17902.794922	35.475441
531.979248	723.336914	47148.421875	17129.080078	35.338097
532.327148	718.804504	45087.707031	16328.394531	35.181374
532.675110	712.265930	43406.906250	15657.885742	35.005844
533.023071	708.773682	42296.300781	15204.268555	34.855392
533.370850	712.191589	41753.449219	14946.809570	34.683678
533.718689	710.928406	41764.144531	14916.717773	34.603355
534.066467	713.157532	42032.378906	14952.457031	34.461685
534.414246	713.454773	42280.476563	15016.504883	34.409607
534.761963	715.163635	42492.832031	15042.213867	34.293560
535.109619	715.683838	42556.585938	15094.523438	34.365509
535.457153	718.581604	42291.250000	15071.637695	34.525223
535.804749	720.662109	41665.625000	14923.702148	34.688126
536.152344	719.621826	40842.199219	14670.848633	34.771511
536.499817	713.677551	39892.757813	14335.668945	34.768532
536.847229	712.563049	38922.660156	13986.965820	34.740562
537.194641	712.488770	38019.589844	13639.156250	34.649349
537.542114	720.364929	37388.906250	13348.411133	34.438362
537.889404	718.507324	36870.945313	13155.594727	34.401794
538.236694	720.364929	36469.933594	13015.311523	34.391872
538.583984	715.163757	36193.230469	12956.313477	34.503429
538.931213	716.501160	36103.621094	12932.536133	34.521133
539.278381	716.203918	35997.140625	12932.760742	34.626507
539.625488	716.872620	35928.781250	12969.911133	34.797993
539.972595	716.872620	35981.687500	13020.958008	34.890541
540.319641	718.433044	36286.480469	13142.293945	34.929840
540.666687	720.587708	36854.519531	13310.367188	34.841984
541.013611	725.863220	37734.414063	13586.030273	34.749176
541.360596	726.977844	38782.378906	13905.382813	34.629524
541.707458	723.931458	40076.437500	14296.957031	34.490879
542.054260	724.674500	41293.957031	14676.645508	34.390480
542.401062	713.900574	42513.488281	15094.449219	34.403568
542.747864	718.358704	43351.476563	15398.644531	34.433998
543.094666	713.306152	43804.644531	15594.432617	34.533916
543.441284	724.674500	43765.417969	15570.061523	34.491474
543.787903	720.810730	43305.558594	15441.070313	34.566978
544.134460	717.764221	42400.921875	15127.809570	34.570427
544.481079	724.228699	41146.246094	14770.488281	34.749035
544.827637	730.024231	39654.621094	14251.114258	34.736622
545.174072	732.253357	38064.316406	13687.601563	34.703007
545.520508	717.838562	36657.394531	13174.168945	34.659111
545.866943	704.018250	35460.972656	12741.579102	34.633533
546.213318	711.968750	34546.457031	12424.307617	34.616570
546.559631	717.244141	33745.324219	12116.395508	34.513515
546.905823	724.377197	33065.750000	11893.041992	34.533676
547.252136	721.256531	32524.458984	11676.968750	34.448456
547.598389	723.262695	32072.250000	11504.809570	34.392010
547.944458	719.919128	31692.708984	11370.694336	34.387524
548.290588	725.714661	31299.500000	11259.239258	34.452797
548.636658	728.166687	30846.552734	11109.074219	34.467010
548.982727	735.374023	30329.107422	10914.920898	34.397644
549.328735	725.045959	29772.208984	10723.145508	34.420227
549.674622	725.343201	29126.146484	10511.011719	34.455608
550.020569	725.343201	28487.884766	10276.883789	34.404419
550.366455	721.999573	27758.679688	10030.198242	34.428036
550.712280	715.906738	27119.228516	9802.683594	34.415279
551.058044	715.609558	26539.224609	9617.000977	34.469967
551.403748	724.228577	26106.929688	9442.314453	34.346565
551.749512	726.383301	25763.578125	9329.300781	34.360550
552.095154	723.634094	25500.916016	9251.504883	34.418106
552.440735	722.296692	25368.212891	9246.454102	34.586491
552.786316	720.662109	25329.423828	9236.200195	34.603683
553.131897	722.891174	25362.267578	9237.461914	34.556759
553.477417	719.844788	25388.646484	9215.543945	34.439045
553.822815	724.600098	25389.166016	9206.033203	34.387119
554.168213	724.080078	25361.599609	9194.813477	34.381439
554.513672	723.262695	25296.140625	9170.515625	34.376328
554.859009	715.089355	25214.626953	9144.659180	34.407059
555.204285	720.662109	25138.021484	9113.451172	34.372223
555.549500	724.525879	24990.009766	9081.500977	34.439758
555.894714	722.296692	24772.974609	9008.684570	34.453865
556.239990	710.556885	24452.281250	8912.685547	34.547318
556.585022	702.680847	24206.490234	8817.429688	34.525253
556.930115	706.618835	23968.718750	8738.668945	34.528484
557.275146	709.442383	23723.818359	8664.366211	34.565022
557.620178	707.807800	23499.427734	8618.149414	34.707241
557.965149	705.504395	23314.412109	8566.954102	34.771469
558.310059	703.349548	23207.490234	8515.834961	34.715767
558.654968	711.076965	23053.087891	8450.596680	34.641106
558.999756	711.076965	22917.931641	8412.182617	34.678955
559.344604	709.516663	22840.953125	8389.222656	34.700443
559.689331	710.705566	22779.208984	8352.071289	34.625664
560.033997	712.265869	22735.742188	8299.911133	34.452534
560.378723	719.473328	22697.994141	8272.270508	34.364449
560.723389	718.210144	22719.095703	8264.691406	34.300808
561.067932	718.655945	22712.412109	8286.982422	34.411251
561.412476	721.033630	22693.015625	8281.186523	34.408150
561.757019	722.965515	22686.478516	8294.858398	34.474873
562.101501	722.519592	22727.716797	8290.772461	34.393024
562.445862	723.485535	22747.181641	8314.995117	34.469738
562.790222	716.575439	22759.740234	8318.561523	34.486820
563.134644	716.649719	22760.705078	8326.363281	34.520481
563.478943	708.253601	22774.601563	8322.796875	34.507492
563.823181	717.467102	22761.599609	8313.508789	34.458336
564.167358	723.559875	22783.666016	8318.114258	34.426643
564.511536	727.423584	22809.968750	8332.752930	34.440456
564.855774	725.714600	22804.470703	8335.205078	34.465214
565.199768	720.959290	22864.728516	8348.208008	34.444218
565.543823	716.724060	22969.718750	8359.799805	34.346279
565.887817	712.265869	23166.474609	8405.940430	34.263844
566.231812	715.609558	23345.396484	8458.993164	34.217659
566.575745	710.482605	23544.156250	8507.883789	34.148693
566.919617	704.018311	23737.861328	8559.673828	34.104839
567.263428	697.554016	23935.208984	8622.459961	34.103725
567.607239	704.538391	24105.140625	8680.787109	34.085655
567.950989	714.792175	24210.873047	8713.108398	34.041069
568.294678	724.302917	24245.869141	8743.126953	34.091370
568.638367	724.748779	24190.068359	8749.219727	34.197151
568.981995	723.857117	24066.056641	8729.901367	34.298588
569.325623	723.931458	23938.107422	8662.136719	34.195507
569.669128	724.005676	23769.365234	8600.168945	34.176785
570.012573	721.479431	23629.453125	8561.531250	34.224117
570.356140	718.210144	23518.966797	8524.528320	34.237103
570.699524	718.730225	23457.515625	8497.184570	34.207870
571.042908	717.541321	23513.541016	8498.077148	34.131145
571.386230	715.015137	23564.212891	8527.054688	34.189556
571.729492	715.386536	23709.031250	8566.063477	34.142811
572.072815	713.306152	23846.046875	8603.958008	34.110321
572.416016	711.225647	23978.083984	8637.914063	34.068581
572.759094	716.872742	24119.181641	8665.703125	33.966011
573.102234	716.426819	24194.005859	8690.000977	33.962509
573.445374	724.228699	24239.406250	8698.471680	33.911049
573.788391	721.330872	24265.560547	8715.040039	33.951881
574.131409	728.389587	24305.833984	8688.959961	33.763496
574.474365	725.194580	24319.281250	8699.585938	33.798264
574.817261	726.829285	24206.119141	8681.159180	33.878071
575.160156	725.194519	24058.849609	8656.193359	33.989529
575.502930	719.176086	23837.576172	8580.330078	34.003883
575.845703	716.129639	23644.759766	8500.602539	33.950882
576.188477	718.655945	23373.478516	8427.118164	34.025703
576.531250	726.531982	23154.212891	8326.437500	33.886272
576.873901	724.377258	22906.859375	8236.009766	33.862904
577.216431	724.377258	22711.818359	8146.550293	33.756420
577.559082	718.878906	22495.521484	8063.479004	33.726963
577.901611	713.231750	22252.328125	7987.318848	33.771553
578.244080	703.721008	21997.320313	7919.629395	33.887688
578.586487	703.795410	21710.140625	7856.843750	34.051846
578.928955	750.977600	21566.587891	7905.734863	34.372078
579.271301	755.287170	21221.898438	7787.371094	34.358810
579.613647	757.293274	20829.060547	7644.783691	34.314320
579.955872	713.900574	20368.753906	7382.867188	33.930382
580.298157	716.501160	20097.326172	7279.066406	33.861126
580.640320	717.541443	19890.169922	7216.280762	33.895920
580.982483	716.649719	19665.402344	7130.980957	33.850941
581.324524	717.021301	19486.705078	7055.340332	33.768917
581.666626	718.433105	19350.582031	6993.520996	33.678822
582.008728	720.364929	19234.892578	6962.982422	33.717403
582.350647	722.668274	19065.484375	6923.453125	33.804977
582.692566	726.086243	18980.630859	6894.177734	33.789345
583.034424	727.052185	18874.525391	6854.797363	33.766384
583.376343	713.677673	18836.408203	6835.627441	33.780502
583.718201	705.727234	18800.519531	6798.476563	33.671288
584.059937	709.442383	18725.101563	6768.234863	33.630699
584.401611	716.872620	18656.966797	6729.449219	33.514744
584.743347	726.383301	18545.365234	6708.496094	33.571575
585.085022	718.135742	18471.136719	6679.963379	33.582085
585.426514	719.101746	18391.931641	6666.217285	33.651180
585.768127	706.916077	18303.806641	6626.019531	33.637211
586.109619	709.962585	18241.763672	6604.100098	33.619694
586.451172	712.711731	18169.615234	6576.459473	33.589848
586.792542	720.290527	18141.974609	6575.195801	33.607002
587.133850	725.566101	18088.328125	6559.592285	33.600796
587.475220	722.816833	18065.220703	6543.915527	33.565697
587.816589	722.371094	18042.853516	6533.513184	33.550694
588.157776	732.104736	18112.328125	6547.853027	33.461872
588.498962	734.928223	18151.041016	6562.787598	33.462456
588.840210	731.658875	18195.250000	6553.128906	33.334896
589.181335	729.949951	18225.638672	6572.075684	33.391804
589.522400	727.646545	18284.857422	6580.322754	33.334885
589.863403	727.349365	18342.369141	6612.793457	33.411510
590.204407	720.290527	18355.373047	6593.399902	33.303555
590.545410	720.885010	18385.240234	6595.035156	33.254257
590.886353	730.618652	18388.361328	6595.703125	33.215370
591.227112	725.714661	18395.125000	6593.548828	33.208996
591.567932	720.736389	18339.025391	6584.409668	33.281742
591.908752	708.104980	18278.841797	6556.843750	33.286816
592.249512	711.745789	18265.912109	6545.326660	33.231888
592.590149	719.547546	18237.306641	6526.379395	33.148258
592.930786	724.005676	18163.966797	6500.670410	33.123150
593.271423	712.265808	18016.923828	6468.498047	33.264065
593.612000	705.652893	17905.990234	6427.557129	33.266232
593.952576	711.448547	17877.978516	6404.671875	33.164673
594.292969	718.210144	17887.636719	6393.748535	33.056076
594.633484	716.203918	17931.251953	6389.514160	32.955528
594.973877	707.362000	17988.539063	6411.953613	33.010433
595.314209	715.089417	18114.335938	6453.117188	32.978600
595.654480	719.770508	18282.259766	6536.187500	33.118412
595.994812	720.142029	18439.408203	6604.992188	33.211590
596.335022	713.454773	18631.109375	6656.929688	33.171055
596.675171	715.535217	18798.513672	6681.152344	32.990234
597.015320	719.101807	18986.869141	6713.994141	32.816776
597.355408	726.160461	19077.224609	6742.749512	32.786049
597.695496	724.302917	19174.929688	6758.947266	32.706989
598.035461	719.919128	19216.689453	6770.464355	32.711365
598.375366	710.854065	19253.767578	6787.553223	32.771004
598.715271	705.281433	19244.998047	6799.590332	32.871639
599.055176	718.507324	19116.677734	6758.277832	32.828106
599.395081	721.553711	18955.218750	6685.461426	32.708225
599.734802	730.321472	18682.007813	6605.585938	32.728207
600.074524	719.621826	18420.982422	6507.209473	32.695721
600.414246	720.439209	18041.369141	6408.015625	32.836437
600.753906	725.343201	17676.541016	6278.060059	32.757076
601.093506	728.166687	17308.373047	6178.419922	32.872047
601.433044	732.922058	17063.025391	6094.755371	32.834045
601.772583	725.714661	16902.384766	6036.130371	32.827618
602.112122	732.030334	16836.998047	6018.520996	32.825218
602.451538	727.869446	16833.951172	6007.523438	32.780499
602.790894	727.275085	16883.212891	6047.350098	32.929535
603.130310	717.912903	16992.958984	6069.194824	32.880287
603.469604	719.696106	17147.505859	6122.915527	32.890682
603.808838	727.572266	17346.341797	6185.404785	32.841377
604.148010	725.417480	17590.648438	6255.917480	32.792316
604.487305	719.027405	17824.554688	6304.140137	32.650925
604.826416	712.488770	18035.498047	6345.154785	32.515514
605.165527	715.089417	18248.673828	6388.547363	32.357662
605.504456	714.049255	18466.232422	6445.761230	32.287361
605.843445	711.002747	18640.919922	6470.206543	32.120636
606.182434	710.408386	18717.896484	6498.664551	32.143608
606.521423	723.485596	18665.958984	6498.887207	32.188435
606.860229	727.497864	18554.578125	6473.029785	32.229237
607.199036	729.727051	18369.935547	6401.476563	32.152393
607.537903	719.696106	18194.283203	6340.622559	32.166286
607.876648	718.953125	17919.662109	6275.830566	32.306095
608.215271	723.411316	17624.679688	6201.527832	32.412460
608.553955	728.463867	17313.128906	6101.294434	32.396378
608.892578	735.596924	17037.687500	6014.136719	32.379528
609.231140	730.321472	16876.376953	5953.877441	32.351902
609.569641	726.680664	16753.333984	5902.236816	32.293430
609.908081	718.135742	16774.509766	5863.821777	32.047623
610.246521	721.999512	16771.462891	5825.481934	31.798462
610.584961	717.392822	16808.687500	5807.425781	31.632215
610.923340	708.773682	16797.244141	5816.268066	31.746300
611.261597	702.457947	16773.990234	5818.200684	31.831083
611.599854	703.721008	16707.560547	5830.906250	32.037216
611.938110	709.591003	16648.119141	5796.503906	31.915827
612.276245	721.628113	16500.181641	5746.052246	31.843376
612.614319	723.485596	16288.196289	5664.021973	31.741907
612.952393	728.240967	15962.453125	5569.583496	31.779411
613.290466	715.015076	15658.183594	5487.627441	31.938421
613.628479	712.785950	15355.176758	5382.191895	31.889641
613.966370	711.299988	15091.848633	5294.960449	31.874031
614.304260	716.203918	14847.094727	5202.230469	31.746239
614.642151	718.433044	14607.840820	5129.710938	31.760014
614.979980	718.655945	14435.831055	5063.730469	31.676163
615.317749	717.169861	14226.073242	5033.414551	31.951111
615.655396	726.977783	14133.121094	5001.390137	31.883980
615.993164	718.358704	14046.334961	4990.021973	32.050350
616.330811	724.377197	14047.969727	4962.232910	31.807152
616.668396	714.123474	14017.133789	4943.731445	31.794367
617.005859	723.485596	13989.567383	4924.412598	31.666672
617.343445	717.541321	13956.948242	4918.097168	31.727673
617.680908	720.439209	13937.333008	4916.388184	31.746864
618.018311	729.652771	13967.871094	4909.106445	31.571117
618.355652	735.894226	14018.397461	4908.660645	31.415514
618.692993	742.358459	14059.559570	4904.871094	31.256662
619.030273	733.293640	14047.820313	4911.930176	31.384043
619.367554	727.126465	14041.729492	4901.898926	31.354839
619.704712	724.525879	14017.135742	4907.917480	31.471561
620.041870	720.290527	14009.778320	4904.128418	31.482309
620.379028	719.696106	13986.893555	4906.283203	31.555925
620.716064	715.535156	13932.206055	4884.958496	31.546700
621.053040	715.906738	13886.659180	4852.190918	31.405073
621.389954	716.724060	13795.339844	4810.358398	31.300209
621.726929	713.751953	13719.551758	4787.473145	31.322342
622.063843	715.535156	13649.335938	4774.915527	31.385828
622.400635	716.278259	13607.875000	4764.810547	31.404428
622.737427	716.872620	13586.996094	4738.433105	31.247257
623.074219	725.640381	13506.153320	4712.501465	31.194845
623.410889	725.343201	13462.092773	4684.117676	31.081511
623.747559	730.098572	13440.618164	4672.377441	31.015875
624.084167	723.262695	13408.148438	4652.836426	30.978394
624.420715	720.216309	13389.348633	4660.118164	31.098434
624.757324	716.501160	13384.965820	4657.145996	31.105938
625.093750	721.256531	13433.858398	4667.697266	31.043533
625.430176	721.925232	13455.256836	4658.854980	30.918299
625.766602	730.692932	13461.424805	4656.625977	30.838236
626.102905	723.411316	13539.070313	4687.907715	30.934782
626.439209	726.977783	13622.363281	4703.511230	30.836870
626.775452	719.398926	13741.543945	4728.996582	30.790609
627.111694	722.148132	13822.164063	4702.768066	30.386375
627.447876	717.764343	13880.937500	4705.814453	30.297028
627.783997	723.931396	13934.063477	4718.668457	30.239948
628.120056	720.810730	13984.664063	4745.491699	30.343225
628.456055	732.699158	14017.729492	4765.182129	30.353584
628.792053	722.668274	14023.598633	4773.727051	30.456957
629.128052	726.977844	13976.045898	4763.547363	30.466818
629.463928	722.073914	13917.495117	4739.101563	30.442587
629.799744	724.228577	13799.129883	4695.412109	30.372570
630.135559	718.581726	13672.147461	4651.944824	30.365099
630.471375	710.779846	13542.636719	4597.406738	30.288891
630.807068	717.541321	13394.997070	4542.719727	30.173077
631.142700	721.776611	13265.413086	4495.686035	30.086246
631.478333	721.553711	13098.678711	4451.550293	30.136211
631.813965	715.312256	12954.308594	4404.441895	30.142420
632.149475	706.395996	12813.430664	4379.179199	30.335943
632.484924	716.575439	12713.270508	4358.671875	30.359165
632.820435	709.591003	12661.778320	4336.381348	30.344154
633.155884	718.953125	12587.921875	4295.960449	30.137474
633.491150	717.318420	12522.979492	4270.474609	30.097054
633.826477	724.674500	12457.742188	4246.326660	30.014761
634.161804	719.547546	12391.166992	4235.478027	30.123758
634.497009	713.306152	12338.858398	4203.304688	30.020065
634.832153	710.259705	12238.921875	4168.902344	30.000381
635.167297	713.751953	12179.776367	4135.095215	29.838966
635.502380	708.327820	12093.213867	4109.683594	29.876064
635.837463	705.058533	12017.350586	4084.197510	29.871391
636.172424	704.464172	11912.805664	4053.956299	29.883923
636.507324	701.640625	11821.191406	4036.346680	29.989574
636.842224	710.036804	11721.476563	4020.668945	30.065390
637.177124	712.637390	11621.762695	3985.969482	30.005449
637.511963	718.804504	11531.411133	3937.226563	29.765461
637.846741	707.882019	11434.891602	3874.441162	29.519495
638.181396	699.040039	11298.398438	3837.289307	29.607918
638.516113	706.395935	11182.484375	3798.800781	29.518696
638.850769	713.454773	11066.795898	3781.042236	29.628962
639.185303	721.776611	10993.086914	3738.392578	29.369339
639.519836	723.039795	10903.850586	3709.637939	29.335564
639.854370	727.423645	10827.689453	3678.356201	29.216387
640.188843	723.857117	10714.674805	3653.241943	29.320772
640.523254	714.197754	10628.038086	3639.347412	29.505718
640.857605	722.593933	10533.376953	3610.146484	29.432436
641.191895	728.984070	10472.894531	3583.100342	29.291283
641.526184	729.949951	10400.003906	3546.542969	29.126963
641.860413	719.919128	10333.948242	3525.143799	29.178450
642.194580	711.820068	10280.524414	3519.645508	29.343842
642.528748	710.854065	10210.084961	3497.726318	29.337875
642.862793	712.860291	10161.194336	3470.234375	29.183706
643.196838	714.940735	10111.113281	3432.637451	28.923445
643.530823	723.336914	10054.792969	3423.794922	28.939299
643.864746	719.324646	10019.424805	3417.405029	29.011303
644.198669	721.925232	9973.133789	3410.197510	29.058605
644.532532	719.324707	9921.641602	3383.671631	28.953003
644.866333	722.891174	9845.555664	3369.108398	29.007067
645.200073	724.228699	9790.125977	3353.876221	29.005926
645.533813	720.364929	9775.860352	3341.913330	28.949806
645.867554	713.900574	9773.928711	3332.774170	28.905798
646.201172	708.625061	9787.006836	3315.313232	28.713137
646.534729	714.792175	9820.665039	3311.746826	28.519556
646.868225	719.919128	9842.956055	3292.724854	28.201197
647.201782	714.643555	9848.008789	3302.904297	28.338522
647.535217	707.436218	9858.856445	3299.412109	28.323210
647.868591	709.293762	9880.331055	3315.833252	28.421427
648.201965	717.987244	9901.952148	3311.226563	28.236599
648.535278	719.547607	9877.432617	3315.684326	28.348650
648.868591	716.724060	9848.305664	3296.217529	28.248045
649.201782	721.107910	9794.064453	3282.619873	28.232384
649.534912	726.383362	9750.522461	3264.416016	28.124929
649.868103	724.674316	9709.434570	3251.561523	28.124149
650.201172	717.987122	9690.338867	3239.895752	28.107555
650.534180	716.649719	9644.344727	3230.087891	28.153271
650.867188	719.919006	9599.317383	3226.818359	28.232761
651.200134	727.869446	9557.782227	3220.428467	28.228580
651.533020	731.956116	9530.586914	3200.441162	28.055332
651.865845	736.414307	9461.930664	3189.518555	28.114143
652.198608	735.448425	9412.965820	3165.518799	28.004211
652.531433	725.937561	9387.256836	3155.636719	28.052299
652.864136	720.364929	9377.375000	3133.865967	27.879152
653.196777	1313.226196	10037.034180	3499.212646	25.057709
653.529358	1344.284790	9984.502930	3487.769775	24.808228
653.861938	1339.380859	9936.799805	3462.729736	24.697515
654.194519	737.380188	9178.836914	3054.436279	27.448534
654.526978	708.476379	9114.416992	3018.028076	27.475233
654.859375	713.454773	9060.176758	2995.440186	27.339899
655.191833	720.959290	9016.413086	2983.477295	27.274191
655.524170	715.906738	8967.000977	2973.891846	27.365889
655.856445	715.460938	8943.075195	2962.598389	27.312140
656.188660	735.076843	8947.905273	2982.139893	27.360405
656.520874	742.729980	8928.883789	2970.474365	27.213566
656.853088	743.398682	8908.672852	2964.381592	27.200346
657.185181	723.485596	8878.209961	2919.576904	26.930294
657.517212	721.553711	8879.397461	2920.765625	26.958250
657.849243	723.708496	8898.122070	2917.644775	26.839066
658.181274	722.816895	8950.059570	2948.703125	27.055071
658.513123	714.420593	9005.563477	2950.635498	26.971130
658.844971	710.111084	9074.813477	2977.607178	27.107912
659.176819	716.129639	9124.894531	2986.300781	26.997677
659.508667	730.544434	9192.287109	3001.235596	26.834795
659.840393	737.008728	9270.899414	3011.266357	26.649715
660.172058	729.578430	9337.474609	3015.650391	26.557848
660.503662	730.024231	9396.619141	3022.337646	26.449991
660.835266	731.287415	9436.372070	3019.216797	26.282679
661.166931	735.819885	9427.826172	3013.421143	26.203403
661.498413	736.934387	9392.383789	3016.987549	26.342402
661.829773	734.853821	9276.991211	2997.891846	26.492643
662.161194	737.528809	9161.599609	2963.192627	26.420290
662.492615	719.696228	9011.731445	2907.985596	26.390257
662.823975	723.782776	8880.140625	2865.261719	26.255335
663.155212	719.027405	8739.114258	2824.023438	26.246550
663.486450	727.126465	8624.911133	2794.897217	26.181656
663.817627	713.900574	8477.272461	2756.705322	26.313368
664.148743	711.820068	8337.656250	2726.464111	26.418665
664.479858	705.504395	8203.614258	2682.625244	26.368258
664.810913	710.333984	8113.114746	2643.839111	26.118633
665.141907	712.488770	8039.554688	2619.022217	26.020422
665.472778	720.364929	7959.307129	2595.988525	25.910187
665.803711	736.488586	7919.332520	2594.354004	25.865320
666.134583	735.894104	7863.902344	2575.035156	25.801613
666.465454	736.934387	7836.856934	2563.518311	25.726816
666.796143	722.519714	7777.711426	2549.177490	25.890972
667.126831	726.903564	7763.816895	2535.283203	25.698479
667.457458	724.302917	7740.485840	2518.639404	25.574253
667.788147	719.250305	7706.083496	2505.784912	25.570021
668.118774	715.089355	7681.860840	2504.001709	25.677782
668.449219	721.330811	7661.427734	2496.571289	25.579477
668.779663	726.680603	7668.634766	2479.630127	25.251528
669.110107	720.662109	7648.796875	2464.323975	25.167839
669.440552	712.414551	7643.372559	2456.522217	25.164021
669.770874	708.699402	7613.502441	2443.816406	25.129129
670.101135	714.643555	7587.423340	2419.816650	24.810530
670.431396	718.878906	7557.478516	2409.785889	24.725925
670.761597	717.838623	7512.228027	2398.566162	24.736990
671.091797	715.460938	7478.939941	2393.587891	24.811594
671.421875	718.655945	7420.984863	2378.207275	24.760815
671.751892	729.281250	7393.343750	2361.934814	24.499374
672.081909	732.996338	7361.914063	2363.123779	24.591154
672.411865	733.070618	7338.359375	2357.328125	24.590260
672.741821	723.634216	7305.146484	2352.126709	24.743439
673.071716	711.076965	7241.097656	2326.418213	24.737156
673.401550	709.145203	7177.271484	2309.328369	24.739515
673.731262	715.981018	7112.404785	2294.913818	24.684620
674.060974	727.126465	7069.308594	2275.818115	24.418909
674.390625	725.194519	7073.990234	2267.793213	24.297499
674.720276	718.507324	7067.822754	2255.459229	24.206577
675.049927	715.683777	7044.195313	2247.211670	24.200443
675.379395	714.643555	7004.814941	2238.592529	24.227463
675.708923	719.696106	6954.511719	2227.149658	24.177999
676.038330	717.987244	6927.316895	2215.261230	24.113295
676.367737	722.073792	6846.400879	2197.577148	24.092499
676.697083	721.553711	6826.190918	2185.911865	23.987637
677.026428	721.033630	6785.175781	2177.144287	24.011816
677.355652	714.717834	6767.492188	2171.274170	24.064278
677.684875	718.061523	6760.804688	2170.234131	24.031679
678.013977	713.306152	6755.603027	2169.119385	24.093706
678.343079	718.804504	6765.411621	2162.952148	23.883604
678.672180	713.306091	6737.993652	2166.444336	24.119726
679.001221	723.634094	6761.175781	2165.329834	23.878855
679.330139	722.073792	6794.166504	2171.125244	23.864120
679.659058	713.529053	6837.931152	2159.831299	23.615402
679.987976	716.872620	6857.249512	2159.385742	23.492258
680.316772	719.770508	6896.853027	2152.550049	23.195086
680.645630	731.584656	6928.653809	2154.258789	22.957207
680.974304	725.789001	6984.604004	2161.317627	22.936108
681.302979	722.222473	7007.191895	2179.447266	23.185871
681.631653	714.346375	7024.950684	2188.735352	23.363672
681.960266	715.386658	7037.953613	2189.032227	23.307709
682.288757	714.420715	7051.773438	2178.332764	23.099743
682.617249	717.689941	7074.732910	2166.295898	22.787418
682.945679	717.764343	7044.937988	2160.648682	22.804562
683.274109	722.371094	7017.817871	2156.859375	22.786123
683.602478	724.228577	6959.118652	2142.890625	22.753603
683.930725	730.247070	6906.363281	2131.968018	22.695831
684.259033	728.018066	6849.447754	2107.299561	22.532015
684.587280	727.349304	6790.525879	2086.940674	22.423746
684.915344	724.451477	6747.578613	2062.718018	22.218801
685.243469	728.612488	6688.285156	2049.714844	22.167362
685.571533	724.600098	6613.164551	2037.752075	22.300035
685.899536	722.148132	6520.509277	2023.040161	22.435513
686.227539	715.535156	6431.049316	1999.932007	22.472115
686.555420	716.798340	6392.263184	1986.854614	22.378014
686.883301	715.460938	6378.591309	1967.536011	22.109240
687.211121	720.587830	6363.730469	1962.631958	22.009796
687.538940	725.640381	6369.972168	1948.886108	21.672108
687.866638	722.965515	6368.485840	1942.867554	21.608320
688.194336	721.999512	6376.064941	1937.146118	21.491556
688.521973	719.473328	6377.476563	1934.842896	21.480539
688.849609	720.141907	6368.263672	1933.431274	21.481289
689.177063	720.736328	6353.476563	1928.898804	21.448929
689.504578	712.042969	6303.025391	1917.381714	21.558622
689.832031	717.689941	6258.964355	1911.511841	21.544176
690.159485	715.460876	6187.781738	1878.075562	21.245369
690.486816	716.352539	6103.745605	1866.187134	21.343061
690.814087	719.770508	6034.791504	1845.382446	21.177940
691.141296	723.559875	5959.003418	1831.562134	21.163483
691.468506	733.442200	5871.326660	1805.630493	20.868282
691.795715	727.052185	5755.042969	1773.605957	20.814550
692.122803	723.931396	5676.653809	1764.986816	21.019861
692.449829	718.210144	5616.319824	1749.680298	21.058537
692.776855	716.129639	5549.150391	1733.408081	21.048502
693.103821	713.454773	5475.887207	1707.401978	20.870577
693.430664	717.615662	5402.996582	1691.204102	20.779282
693.757568	712.934570	5351.579590	1669.507813	20.621824
694.084351	711.448547	5320.966309	1653.086914	20.428133
694.411133	708.402161	5281.585449	1636.368774	20.291481
694.737854	716.203918	5250.527344	1640.307007	20.380177
695.064575	714.197754	5197.177734	1637.854858	20.603642
695.391174	712.637390	5173.772461	1633.471069	20.641241
695.717773	707.659119	5150.367676	1616.604370	20.459259
696.044250	715.758118	5144.125977	1605.607422	20.094296
696.370789	711.522888	5132.237793	1592.604492	19.930750
696.697205	712.637390	5139.445313	1606.647827	20.195374
697.023621	707.510498	5169.017090	1611.254517	20.256475
697.349915	721.405090	5217.017090	1627.155396	20.147430
697.676208	724.302917	5287.753418	1624.034546	19.716038
698.002380	721.330872	5357.523438	1627.749634	19.550930
698.328674	718.135803	5452.110840	1644.393555	19.566174
698.654724	714.643555	5525.968262	1662.077515	19.691748
698.980896	720.662109	5632.146484	1689.123901	19.718311
699.306946	718.284424	5701.396484	1705.470337	19.810629
699.632935	718.878723	5777.333984	1704.281616	19.480312
699.958862	718.507324	5795.910156	1698.337280	19.297857
700.284729	718.061523	5796.578125	1679.835938	18.938097
700.610596	719.101746	5770.720703	1675.897827	18.940384
700.936340	717.764221	5717.000000	1658.213867	18.811869
701.262146	711.299988	5637.718750	1645.730957	18.967752
701.587830	709.813965	5516.530762	1623.514282	19.008823
701.913513	713.603333	5390.810547	1610.139771	19.168201
702.239075	721.925293	5250.007324	1586.437500	19.092237
702.564697	721.182190	5125.179199	1557.830933	18.997486
702.890137	724.377197	4996.337891	1528.332642	18.819353
703.215698	719.398926	4907.991699	1496.531128	18.553539
703.541016	720.513489	4794.605957	1478.624023	18.608084
703.866455	709.219543	4709.752441	1457.373535	18.701359
704.191711	713.157532	4633.443359	1453.212524	18.877577
704.517029	706.321594	4561.741211	1432.333618	18.830946
704.842163	709.739563	4502.224609	1424.457397	18.845633
705.167419	711.225586	4435.500977	1409.002563	18.735912
705.492493	715.089355	4415.439453	1404.915894	18.642197
705.817566	707.213318	4368.257324	1382.996582	18.458759
706.142578	699.560120	4337.792969	1373.188477	18.515263
706.467590	702.086426	4320.777344	1358.848145	18.149153
706.792480	707.436218	4306.957031	1360.111328	18.132278
707.117371	711.002747	4306.437012	1351.194946	17.805698
707.442200	719.696228	4290.461426	1356.173218	17.824667
707.766907	718.061523	4288.158691	1350.452026	17.713537
708.091675	717.912903	4282.883301	1347.554199	17.661894
708.416321	713.380371	4295.812012	1338.043457	17.436846
708.741028	710.928406	4317.433594	1339.380859	17.425526
709.065552	712.042969	4336.678223	1333.065063	17.133368
709.390137	709.516663	4348.641113	1335.219849	17.193783
709.714600	720.736389	4360.380859	1339.083618	16.989220
710.039063	718.878845	4392.999512	1344.210449	17.019899
710.363403	724.525818	4434.535156	1358.550903	17.089582
710.687744	713.231750	4489.741699	1361.597412	17.168383
711.012085	710.779785	4519.388184	1370.959473	17.333881
711.336304	702.160645	4550.520996	1356.396118	17.000370
711.660461	710.631165	4581.951172	1351.194946	16.546392
711.984619	712.563049	4609.517578	1355.653198	16.502377
712.308716	717.764343	4638.198730	1368.804810	16.606335
712.632751	725.120300	4650.235840	1374.972046	16.556246
712.956726	735.596924	4654.693848	1365.238159	16.065977
713.280701	737.157288	4622.000488	1355.504517	15.916916
713.604553	734.556702	4575.709961	1348.223022	15.976095
713.928467	731.064453	4493.902832	1339.306519	16.164448
714.252258	729.206970	4430.448242	1326.823608	16.146385
714.575989	722.816895	4365.210449	1315.901245	16.282820
714.899719	718.135803	4327.167480	1302.080933	16.180105
715.223267	715.163757	4285.186523	1285.288574	15.969781
715.546936	717.912842	4228.642090	1271.765381	15.775997
715.870422	718.655945	4173.806641	1260.842896	15.692137
716.193970	716.352539	4142.896973	1264.929565	16.009628
716.517395	712.785950	4123.652344	1254.601440	15.884981
716.840820	710.259766	4108.568848	1252.743896	15.963355
717.164124	717.021240	4058.489014	1240.260986	15.658979
717.487488	723.336975	4026.538818	1235.654175	15.509715
717.810730	725.417419	3990.501953	1226.663696	15.351709
718.133972	726.383301	3942.576904	1216.335571	15.233917
718.457092	724.302917	3880.905518	1197.239746	14.982464
718.780212	720.290527	3844.719727	1195.233643	15.200956
719.103210	706.247375	3795.382813	1183.567993	15.451592
719.426208	700.377441	3746.268311	1182.379272	15.824658
719.749207	713.677551	3691.210205	1172.422729	15.406890
720.072083	721.256531	3646.628906	1164.843872	15.163449
720.394958	727.943665	3607.991455	1158.899536	14.963497
720.717773	718.655945	3557.911377	1155.704590	15.393073
721.040527	715.460938	3514.815674	1154.144165	15.670870
721.363281	713.454773	3478.704834	1154.812866	15.960875
721.685913	722.816833	3446.754639	1139.878052	15.310967
722.008545	728.389587	3435.906494	1120.410767	14.478993
722.331055	722.891113	3414.656006	1105.104370	14.199355
722.653503	719.250305	3389.095703	1098.937378	14.221313
722.976013	715.535156	3357.294189	1103.543945	14.687516
723.298401	722.222473	3333.294189	1097.005371	14.353603
723.620789	717.169922	3315.239014	1091.432617	14.405417
723.943115	721.330811	3305.579834	1090.912476	14.301318
724.265381	717.912903	3302.755859	1087.866089	14.312405
724.587585	719.473206	3311.152100	1083.705078	14.053896
724.909790	712.191589	3297.480469	1068.398804	13.778236
725.231873	712.191589	3296.143311	1063.048950	13.578325
725.553894	711.076965	3298.149170	1058.962280	13.447066
725.875916	852.400696	3461.837891	1268.347412	15.940093
726.197937	865.552307	3482.123047	1275.554810	15.669459
726.519775	860.276855	3470.754639	1273.920166	15.845502
726.841675	722.371094	3337.975586	1065.649536	13.124249
727.163513	708.030579	3339.461670	1064.089355	13.530993
727.485291	708.922302	3352.389893	1068.918945	13.618349
727.806946	712.414551	3371.708984	1083.036499	13.936852
728.128662	715.609558	3395.188477	1089.055054	13.936724
728.450256	722.668274	3417.330811	1090.392456	13.646391
728.771790	723.188416	3420.822998	1085.414185	13.427533
729.093323	722.148132	3410.717529	1075.457642	13.141171
729.414795	714.792236	3424.389404	1074.120117	13.261303
729.736145	718.061462	3436.203369	1070.776489	12.976329
730.057495	718.061462	3458.717041	1072.113892	12.918530
730.378845	727.349304	3457.677002	1076.349243	12.782347
730.700134	724.674500	3449.503906	1078.058105	12.969018
731.021301	725.566101	3433.603271	1077.761108	13.005546
731.342468	729.206848	3434.345947	1072.485474	12.689869
731.663574	732.699158	3427.956055	1066.838501	12.397310
731.984680	734.556641	3433.454346	1069.216187	12.399860
732.305664	720.662109	3428.921875	1061.265747	12.576476
732.626648	716.872742	3448.166260	1059.185303	12.532984
732.947571	714.792175	3457.305664	1053.092407	12.335408
733.268433	718.953125	3453.144775	1052.423828	12.196318
733.589233	714.049133	3434.197510	1054.429932	12.513317
733.909973	717.615662	3423.498047	1052.572266	12.378831
734.230713	724.525818	3411.832275	1056.361816	12.348275
734.551331	729.058289	3383.820313	1051.309204	12.138599
734.871948	718.581543	3340.501709	1038.974976	12.219801
735.192505	710.631165	3295.919922	1030.058594	12.355580
735.513062	715.015076	3261.963623	1021.811035	12.045629
735.833435	724.377197	3215.970459	1017.501465	11.764531
736.153931	729.206848	3166.113281	1009.253906	11.491908
736.474304	724.228577	3124.429688	1001.229187	11.540725
736.794617	724.822998	3085.123291	998.851501	11.609900
737.114807	723.931396	3059.266357	992.535706	11.501746
737.434998	717.912903	3035.637939	988.969177	11.694928
737.755188	714.272034	3031.328125	986.294250	11.739992
738.075256	705.430115	3026.647217	985.179688	12.051849
738.395325	711.299988	3034.523193	984.362366	11.753601
738.715271	714.866516	3045.296875	980.275818	11.388853
739.035278	719.324707	3070.559814	980.721619	11.117430
739.355164	712.042969	3082.076904	971.582336	10.950871
739.675049	704.612610	3095.748291	969.353271	11.071754
739.994873	711.894348	3096.268555	972.548340	10.931757
740.314636	720.959290	3105.407959	976.857910	10.731982
740.634277	724.897278	3098.348877	983.619446	10.900671
740.953979	713.157532	3072.268799	972.845520	11.007874
741.273499	711.151367	3044.851318	965.861023	10.914413
741.593140	714.569275	2998.783203	956.201660	10.578361
741.912598	719.176025	2964.009766	950.183289	10.290618
742.232117	718.061523	2906.053711	944.090515	10.330430
742.551453	713.008972	2868.159424	931.979065	10.160316
742.870850	723.931396	2843.639404	936.288757	10.018236
743.190063	724.823059	2820.457031	938.369141	10.190046
743.509338	720.216309	2796.680420	942.084290	10.684894
743.828552	715.535156	2757.819580	931.904785	10.594490
744.147705	713.157532	2722.451904	925.440430	10.565047
744.466797	727.200684	2683.145508	920.239258	9.869327
744.785828	727.646484	2656.545166	919.273254	9.934517
745.104858	738.940613	2643.913818	927.149414	9.879867
745.423706	734.259460	2640.941650	918.678894	9.672270
745.742615	733.516418	2630.316406	911.099915	9.362267
746.061401	727.275085	2612.335205	911.694336	9.783203
746.380249	724.525879	2605.053467	913.477722	10.047811
746.698975	718.210022	2589.301270	915.038086	10.519426
747.017639	715.163635	2579.864746	904.932861	10.176925
747.336304	708.922180	2549.474854	905.973145	10.706076
747.654907	709.888184	2556.607910	909.911133	10.831257
747.973389	713.677551	2556.087891	911.025696	10.711411
748.291931	714.197754	2573.846436	906.939026	10.364391
748.610352	719.919128	2569.239502	893.564514	9.389687
748.928711	716.649719	2568.645264	892.450012	9.492479
749.247070	725.863281	2560.100342	890.072266	8.952440
749.565308	722.519592	2557.945313	892.227051	9.246218
749.883545	723.634094	2541.449951	885.465515	8.902520
750.201782	724.525818	2530.527588	889.254944	9.121205
750.519836	721.256531	2509.500000	885.168396	9.166082
750.837952	718.433044	2502.515869	876.400635	8.854275
751.155884	709.368103	2476.286865	869.341858	9.053826
751.473877	706.544617	2464.769775	877.886719	9.745174
751.791809	718.210144	2455.927734	872.611145	8.885276
752.109619	730.915833	2460.385986	875.063171	8.334768
752.427490	741.392578	2454.887451	872.239685	7.636271
752.745300	734.556641	2445.228271	880.338684	8.521918
753.062988	725.343079	2449.463379	879.447083	8.938124
753.380615	711.820068	2447.160156	867.187073	8.953115
753.698303	719.398926	2450.429443	874.840332	8.979703
754.015808	719.547546	2436.683350	869.341858	8.723498
754.333374	727.497986	2424.646484	869.193298	8.349023
754.650757	721.628113	2417.884766	862.877502	8.327124
754.968262	726.680603	2407.036865	863.992004	8.171565
755.285583	732.847717	2408.522705	871.868164	8.296385
755.602905	730.767273	2407.928467	865.255188	8.018784
755.920105	724.080078	2404.064697	857.156189	7.921269
756.237305	726.160461	2394.033936	849.354309	7.386282
756.554443	724.971680	2385.711914	847.942566	7.404583
756.871582	726.977844	2379.916260	855.595764	7.781168
757.188599	716.129639	2378.950195	851.509216	8.141562
757.505615	717.764343	2375.309326	854.035461	8.221262
757.822510	725.937561	2395.073975	851.657898	7.532059
758.139465	728.092346	2402.801514	858.790833	7.804249
758.456238	725.789001	2411.197510	852.326477	7.507823
758.773010	716.872742	2419.816650	852.995300	7.993367
759.089783	720.513489	2445.079590	851.880676	7.617405
759.406433	716.278320	2459.122803	856.784668	8.061898
759.723145	712.934570	2461.723633	860.648376	8.446633
760.039673	712.414551	2464.918457	864.363464	8.670389
760.356201	715.758118	2462.317871	862.654541	8.410615
760.672668	719.250305	2460.237305	853.366699	7.703469
760.989136	713.603333	2438.912842	846.902405	7.726096
761.305481	709.516663	2437.500732	846.233704	7.911939
761.621826	708.327820	2435.420166	849.725891	8.187059
761.938049	716.724060	2448.423584	860.871338	8.324036
762.254333	724.005676	2471.754395	866.964111	8.179576
762.570496	732.550537	2508.237061	865.329407	7.477608
762.886597	727.795166	2574.069092	855.224304	6.901963
763.202637	722.593994	2660.780518	859.385254	7.057693
763.518677	717.615662	2786.129150	865.478088	7.148246
763.834656	716.946960	2920.988525	880.338623	7.413275
764.150574	716.798340	3056.368164	888.586243	7.342713
764.466370	715.312256	3155.116455	899.285828	7.540505
764.782288	713.306152	3206.162109	896.090820	7.332340
765.097961	713.900574	3211.660889	901.291992	7.502378
765.413696	714.569336	3175.029297	894.604797	7.317147
765.729309	720.736389	3102.287109	892.152832	7.197681
766.044861	727.052185	3003.687500	870.010559	6.279371
766.360474	726.680664	2879.156250	856.487488	6.030583
766.675903	721.925232	2755.145264	848.834290	6.241777
766.991394	716.426819	2624.743652	851.063293	7.055247
767.306763	717.541321	2521.239990	854.109802	7.571579
767.622131	718.432922	2423.754639	848.091248	7.603159
767.937378	714.123352	2358.071045	831.596008	7.145766
768.252625	715.535156	2310.368652	822.159668	6.685620
768.567810	707.584778	2261.031982	815.546631	6.949824
768.882996	713.306152	2225.218018	818.890320	6.983487
769.197998	711.820129	2177.738525	818.518738	7.278618
769.513062	716.501160	2145.565430	816.586914	7.003587
769.828064	715.163757	2106.482178	811.608582	6.931902
770.142944	710.333984	2076.464111	812.277344	7.462200
770.457825	712.934570	2061.157471	812.946106	7.418027
770.772705	707.361877	2031.436523	815.620911	8.176203
771.087402	704.761292	2008.030884	806.778992	7.827828
771.402100	705.653015	1981.727905	795.782043	7.062989
771.716736	706.841797	1966.198608	797.491028	7.198058
772.031372	713.231750	1940.712769	800.611816	7.118649
772.345947	711.448547	1929.047241	806.035889	7.768352
772.660461	710.705505	1913.294922	804.549866	7.803525
772.974854	711.597168	1905.641968	803.732483	7.716236
773.289246	715.832336	1883.202515	797.714050	7.014204
773.603638	722.742493	1861.283081	790.580994	5.958374
773.917908	718.730225	1846.868286	785.231140	5.894750
774.232178	714.940735	1845.308105	787.311707	6.402429
774.546265	723.188416	1845.828247	788.723450	5.837583
774.860474	725.120300	1840.478516	786.568665	5.509295
775.174561	724.451477	1823.537476	790.283752	5.989729
775.488586	718.655945	1800.131958	789.317871	6.533841
775.802551	720.959290	1788.169312	791.621155	6.621178
776.116516	729.355469	1775.834961	784.413818	5.261293
776.430359	722.222473	1776.429565	785.676941	6.019166
776.744202	725.491760	1773.457397	788.054688	5.969941
777.057922	718.804443	1769.370605	789.317871	6.711946
777.371704	714.792175	1762.906250	788.723450	7.053743
777.685303	706.618896	1750.423462	778.841125	6.919133
777.998962	704.464172	1737.791992	777.280762	7.046804
778.312500	710.334045	1728.207031	773.194153	6.175634
778.626038	709.665344	1712.826172	777.503723	6.762463
778.939453	713.306152	1713.792114	782.259033	6.891939
779.252869	720.513489	1719.587891	780.921631	6.046411
779.566223	723.262695	1716.690063	784.042297	6.118173
779.879578	726.234802	1706.807983	779.807129	5.463368
780.192749	717.318420	1691.427124	779.658447	6.399699
780.505920	710.408386	1685.705933	773.491272	6.468066
780.819031	705.504333	1674.114624	769.033203	6.558764
781.132141	721.627991	1676.715210	789.986511	7.157307
781.445190	733.516418	1670.696655	794.444763	6.501241
781.758118	737.603088	1673.520142	794.593262	6.089233
782.071045	732.104675	1665.124023	769.256104	3.981850
782.383911	727.572266	1654.350098	764.129211	3.944521
782.696838	725.343201	1640.752563	764.797852	4.310055
783.009583	717.987122	1613.557983	765.912415	5.351368
783.322266	717.244141	1590.003906	766.432617	5.635970
783.634888	711.894348	1586.883179	765.020813	6.071673
783.947510	711.671387	1584.208374	763.534729	5.943971
784.260132	718.581543	1594.313477	762.420166	5.005941
784.572571	724.674500	1582.722290	762.568787	4.416337
784.885010	717.021301	1575.960571	763.386169	5.397922
785.197449	715.609558	1562.363281	766.283936	5.984547
785.509766	719.473206	1553.669922	771.262207	6.208248
785.822083	729.949951	1539.626587	777.429382	5.863999
786.134277	727.497864	1540.666992	776.537781	6.030715
786.446533	719.993347	1536.283081	775.646057	6.817764
786.758606	715.832458	1551.366577	767.324219	6.162736
787.070740	722.593994	1548.840210	763.980530	5.008984
787.382690	719.324707	1555.304565	759.671082	4.826238
787.694641	715.832458	1559.168335	763.832031	5.691632
788.006653	703.498230	1579.155762	766.283997	7.170128
788.318481	708.104980	1599.514648	770.593567	7.010086
788.630310	711.299988	1615.935547	769.033203	6.381931
788.942017	712.414490	1633.916870	763.906250	5.587805
789.253784	718.135742	1649.891724	761.231384	4.625207
789.565430	722.148132	1657.990845	759.893860	4.033341
789.877014	723.485596	1656.950562	762.345886	4.163015
790.188538	714.494934	1639.266602	757.962097	4.700313
790.500061	712.488770	1616.084106	759.522461	5.205172
790.811462	718.432922	1600.257690	761.082764	4.836544
791.122925	725.788879	1586.957397	765.318054	4.590179
791.434204	728.389587	1569.793457	764.203430	4.256439
791.745483	732.624817	1542.970215	760.191162	3.401802
792.056702	729.281189	1510.351196	748.525635	2.463857
792.367920	723.336914	1501.212280	750.829041	3.534259
792.678955	725.566101	1479.812988	748.748535	3.073587
792.990112	731.881836	1480.184448	759.671082	3.713637
793.301086	736.562927	1465.769897	756.401672	2.720592
793.612122	723.559875	1470.302368	758.779358	4.716416
793.922974	713.603333	1460.717285	754.767090	5.509703
794.233826	715.683838	1461.163086	755.064270	5.282566
794.544556	723.188416	1462.872070	757.367615	4.620786
794.855286	724.228699	1463.540649	749.565857	3.427127
795.166016	725.120300	1467.999023	749.045654	3.220627
795.476624	723.039734	1457.224976	749.565857	3.613001
795.787292	724.451477	1466.438477	756.178772	4.275990
796.097778	716.055359	1472.531250	751.646301	4.704835
796.408264	712.637390	1493.336060	757.664856	5.767586
796.718689	713.751953	1500.914917	758.259277	5.654144
797.029053	718.878845	1503.367065	756.550293	4.802041
797.339355	716.946960	1502.401001	748.005432	3.954206
797.649658	714.940735	1497.794434	739.312012	3.113133
797.959839	716.872620	1498.165894	742.878601	3.328581
798.270020	718.581543	1503.069824	744.216064	3.267674
798.580078	725.343079	1498.017212	759.671082	4.442753
798.890137	716.426819	1477.138062	758.259277	5.499125
799.200195	712.265869	1453.212524	752.389343	5.415164
799.510071	708.996582	1447.045532	743.027161	4.610884
799.820007	715.609558	1443.553223	740.055115	3.358166
800.129883	725.491760	1432.259277	747.039551	3.048780
800.439575	719.770508	1411.454468	756.401672	5.295939
800.749329	719.621887	1400.383423	765.095154	6.679764
801.058960	716.872742	1395.999634	756.921814	5.897141
801.368591	720.662109	1390.724121	752.240723	4.712790
801.678162	723.262695	1390.278320	742.952881	2.951983
801.987671	733.144958	1385.745728	749.640137	2.527606
802.297119	740.946716	1385.745728	749.937317	1.394326
802.606506	739.386292	1381.882202	754.544128	2.359211
802.915894	719.250305	1381.361938	753.429626	5.162169
803.225159	710.259705	1369.250610	746.222351	5.457230
803.534424	708.253601	1356.098999	740.278015	4.943219
803.843628	722.296692	1351.343628	733.962219	1.854476
804.152771	723.411316	1351.566528	729.578430	0.981782
804.461792	734.408020	1349.634644	736.414246	0.326095
804.770874	726.606384	1347.702759	744.438965	2.871145
805.079773	724.748718	1346.811157	754.246887	4.741995
805.388733	708.253479	1358.476685	752.463684	6.799235
805.697571	716.278259	1366.278320	750.829041	5.315504
806.006470	721.553711	1372.296875	749.194336	4.247548
806.315125	724.080078	1379.132813	743.472961	2.960507
806.623901	717.912903	1384.408203	739.980774	3.311032
806.932495	709.888184	1386.934570	736.414246	3.917909
807.241150	718.210144	1380.098755	740.352295	3.345299
807.549622	716.501160	1373.040039	751.423523	5.319161
807.858154	721.925293	1372.742798	753.429626	4.840733
808.166565	715.386658	1364.940918	754.321289	5.994054
808.474915	721.850891	1350.674927	745.702148	3.792994
808.783264	720.439148	1352.681030	749.565857	4.606894
809.091492	720.067688	1347.628418	751.349121	4.984607
809.399719	715.609558	1351.715088	752.166443	5.746984
809.707825	715.386536	1334.699707	746.073547	4.955007
810.015930	723.039795	1330.018677	737.305908	2.350348
810.323975	724.897278	1321.102417	728.612488	0.623143
810.632080	719.101746	1310.922852	729.132629	1.694918
810.939880	712.488770	1292.867310	724.748718	2.112406
811.247864	711.745789	1293.461792	731.510254	3.397614
811.555664	710.928406	1287.146118	734.853943	4.152170
811.863464	715.980957	1283.653809	735.819824	3.494771
812.171143	709.665344	1270.947998	733.219238	4.196441
812.478882	719.621887	1270.205078	733.144958	2.456136
812.786438	715.683838	1276.149170	740.055115	4.348401
813.094055	721.033691	1258.613770	741.020996	3.718014
813.401489	713.529053	1261.734497	732.773438	3.510433
813.708984	711.448547	1258.539429	735.225403	4.346052
814.016357	719.250305	1270.353638	734.185242	2.710006
814.323730	729.875671	1265.375366	738.494812	1.609551
814.630981	733.813721	1264.855225	733.590820	-0.041974
814.938232	724.228699	1263.443481	728.984070	0.881907
815.245361	721.405212	1257.127808	728.612488	1.345337
815.552490	717.318542	1253.635498	728.909668	2.161245
815.859619	715.238037	1249.326050	732.550476	3.241496
816.166565	719.101746	1250.737671	730.544373	2.152343
816.473572	714.123474	1254.973022	730.247131	2.981172
816.780457	721.405090	1264.855103	732.030457	1.955169
817.087341	720.141907	1274.663208	733.888000	2.478912
817.394043	722.445374	1274.737549	736.117004	2.475435
817.700806	721.182129	1271.988281	729.355469	1.483887
818.007507	711.671448	1281.053223	736.414246	4.345555
818.314209	719.027405	1297.028320	738.494812	3.368058
818.620667	719.176025	1309.213989	743.844543	4.180836
818.927246	724.228577	1317.833130	740.798096	2.791340
819.233704	720.885010	1334.105347	731.881836	1.793291
819.540161	711.374268	1354.092773	732.476257	3.283240
819.846497	715.163757	1386.860229	735.151123	2.975654
820.152832	718.135742	1423.119751	744.587585	3.752120
820.458984	728.538147	1470.896484	750.531738	2.962665
820.765259	727.497864	1531.973511	743.175842	1.948844
821.071350	728.538147	1613.929321	747.633972	2.156767
821.377502	722.445313	1764.392456	745.924988	2.253442
821.683472	723.337097	2009.294312	753.801086	2.368974
821.989441	715.312317	2443.370605	765.540955	2.906652
822.295349	721.925232	3021.371826	782.779114	2.646458
822.601196	716.872620	3675.086914	801.429138	2.858363
822.907043	718.135803	4255.837402	813.020325	2.682095
823.212769	715.535217	4641.170898	821.193665	2.691499
823.518494	715.386658	4797.875488	820.227722	2.568067
823.824097	721.256531	4690.879395	817.924316	2.435188
824.129700	713.603333	4468.194336	809.305176	2.548928
824.435242	714.717773	4187.404297	799.422913	2.439182
824.740723	711.448547	3939.827393	780.252869	2.131234
825.046082	717.169922	3677.167236	777.875183	2.050855
825.351501	712.860352	3395.485596	777.057861	2.393085
825.656799	710.779846	3083.636963	779.658447	2.902771
825.962036	718.061523	2791.553467	769.107422	2.461833
826.267212	718.135803	2530.082031	763.460449	2.501434
826.572449	719.770508	2386.157715	754.023926	2.055550
826.877502	711.374207	2339.644043	749.491516	2.340970
827.182495	716.798340	2418.553467	752.686523	2.108892
827.487488	712.042969	2515.221436	754.618408	2.361133
827.792419	707.659119	2608.248291	762.123047	2.865634
828.097290	700.748962	2625.486816	764.649353	3.319953
828.402100	705.652893	2586.477783	767.621399	3.294751
828.706848	712.711670	2494.045166	763.906250	2.873947
829.011597	716.872620	2384.077148	753.949768	2.223911
829.316223	712.563171	2267.422119	752.017883	2.537511
829.620789	711.225769	2155.967773	756.773254	3.152638
829.925354	718.358704	2034.631470	762.791687	3.375667
830.229797	727.795166	1910.843140	758.333557	2.581331
830.534302	734.333801	1778.212769	759.596741	2.420103
830.838562	730.395752	1644.022095	755.361511	2.732601
831.142944	726.903564	1532.419312	756.327454	3.652801
831.447144	723.559875	1441.026978	738.494690	2.081603
831.751404	723.931396	1395.925171	734.631042	1.592224
832.055542	725.714661	1357.585083	731.807434	0.964244
832.359619	721.033508	1346.885376	731.658875	1.697745
832.663635	724.525818	1338.266235	730.247131	0.932204
832.967651	725.491760	1365.163940	725.566101	0.011622
833.271545	729.504089	1409.671265	727.869446	-0.240330
833.575439	727.423645	1492.295898	723.485657	-0.514856
833.879211	717.244141	1590.895508	728.686829	1.309754
834.183044	712.785950	1705.396118	730.024231	1.736662
834.486694	705.429993	1785.494507	733.367859	2.586685
834.790344	721.925293	1851.178101	742.729980	1.842341
835.093933	717.318542	1851.178101	749.491516	2.837474
835.397522	718.878906	1840.924316	748.302734	2.622339
835.700928	712.711731	1771.897095	742.878601	2.848120
836.004395	728.909668	1722.337036	743.547302	1.473448
836.307739	734.185120	1663.415039	744.364685	1.095484
836.611023	729.875549	1601.520874	743.547302	1.568500
836.914307	716.055359	1528.852661	737.231628	2.605357
837.217529	719.696106	1456.258911	743.918762	3.288607
837.520691	714.940735	1393.547485	736.340027	3.153416
837.823730	720.587830	1326.823730	731.807434	1.850699
838.126831	714.197754	1265.821167	721.405090	1.306568
838.429749	726.754944	1225.697632	726.606384	-0.029775
838.732727	718.730225	1200.063110	731.881836	2.732332
839.035522	717.467041	1179.852905	737.305847	4.290530
839.338379	713.231873	1161.945923	736.340027	5.149862
839.641113	720.736511	1153.847046	738.346191	4.065863
839.943848	725.566101	1171.233765	735.002502	2.117363
840.246460	720.513489	1192.410034	733.442200	2.739734
840.549072	717.689941	1209.128296	722.519714	0.982783
840.851563	714.494934	1218.416138	721.330811	1.356537
841.154053	708.253479	1218.118896	726.680603	3.614115
841.456482	713.306152	1213.437744	729.058350	3.149611
841.758850	712.265930	1197.016846	735.151184	4.721034
842.061157	721.405090	1182.750732	724.451477	0.660326
842.363403	713.677673	1179.481445	729.355530	3.365764
842.665588	717.244141	1158.676636	726.011902	1.986207
842.967712	719.398926	1146.119507	737.751709	4.300890
843.269775	719.621826	1115.135254	736.339905	4.226931
843.571777	714.420654	1096.856812	728.463867	3.672041
843.873840	718.135742	1074.343140	725.343201	2.023388
844.175659	721.479431	1059.110962	723.188416	0.506168
844.477600	726.829285	1052.869507	736.265625	2.894226
844.779297	724.228699	1040.312378	736.488586	3.878684
845.081116	724.897400	1032.139038	736.711487	3.845210
845.382751	719.101807	1020.102051	737.900391	6.245372
845.684387	710.111145	1006.578918	735.968445	8.721791
845.985962	708.327820	1000.411865	738.123230	10.200972
846.287537	705.801575	995.582214	732.104736	9.076921
846.588989	702.457947	997.068298	734.928223	11.021431
846.890381	702.160706	986.963074	735.745605	11.792353
847.191711	707.807800	971.879578	731.733154	9.060171
847.493042	717.987122	970.913635	725.789063	3.084667
847.794250	721.033630	972.548340	723.559875	1.004413
848.095459	724.748718	973.068359	732.847717	3.261522
848.396606	724.748718	955.904480	736.934387	5.271627
848.697693	721.702332	948.102722	735.819824	6.235631
848.998657	722.816895	940.969727	725.789001	1.362397
849.299622	724.674377	950.777649	728.612488	1.741731
849.600464	727.720886	952.932434	732.253357	2.012539
849.901367	718.432922	956.944763	730.470032	5.046755
850.202087	714.272034	952.412292	723.931396	4.056165
850.502808	713.380432	953.080872	718.061523	1.952892
850.803467	714.643555	956.424561	725.417480	4.456068
851.104065	730.247253	959.396667	730.470032	0.097220
851.404663	732.104736	949.142883	735.522644	1.574796
851.705139	738.940613	946.170898	724.971680	-6.740778
852.005615	726.011902	940.895325	720.290588	-2.662520
852.306030	722.371094	943.718933	723.262695	0.402806
852.606384	725.120300	936.139954	729.727051	2.183091
852.906616	731.510254	934.282410	733.888000	1.172620
853.206909	727.869446	931.681824	732.104736	2.078034
853.506958	716.649719	941.787048	735.745605	8.481884
853.807129	712.637390	933.093567	733.070740	9.268667
854.107178	719.621887	936.734436	719.844788	0.102666
854.407166	725.268860	935.396973	715.832336	-4.490843
854.707092	724.748718	939.780823	709.070801	-7.290966
855.007019	716.055359	933.465088	716.055237	-0.000056
855.306763	716.872620	926.109131	717.689941	0.390621
855.606567	713.157532	930.790222	719.176025	2.765436
855.906250	718.953125	930.195801	717.541321	-0.668333
856.205933	716.872620	926.109070	714.792175	-0.994303
856.505493	717.764221	927.372253	719.324646	0.744449
856.805054	718.878845	935.396973	716.649719	-1.029533
857.104492	712.934631	935.619934	721.553711	3.870520
857.403931	714.792175	928.115234	721.553772	3.169651
857.703308	709.368103	922.691162	725.566101	7.593177
858.002563	714.272034	927.075012	713.529053	-0.349140
858.301819	710.705566	934.059570	716.798340	2.727855
858.601013	717.541443	932.053284	716.203918	-0.623520
858.900208	715.683838	920.016296	722.148132	3.163616
859.199219	716.426819	921.428040	718.433044	0.978641
859.498291	721.033508	922.022461	720.141907	-0.443607
859.797302	722.222412	938.220459	728.686768	2.992784
860.096191	727.423645	934.505310	733.813660	3.085746
860.395020	718.581726	934.356689	733.293640	6.818175
860.693787	716.426941	923.880066	726.680603	4.942640
860.992554	713.826233	923.508484	716.649719	1.346555
861.291260	716.798340	921.056458	714.866516	-0.945776
861.589844	717.244141	933.836609	713.528992	-1.715271
861.888428	716.352539	927.892395	718.210144	0.878135
862.186890	725.343201	937.700378	724.228577	-0.524882
862.485413	728.018066	934.059509	724.971680	-1.478531
862.783813	724.451477	938.146179	731.361633	3.233658
863.082153	714.569275	930.715881	733.590820	8.800298
863.380371	719.919128	922.988464	733.442200	6.659337
863.678589	725.863281	925.589050	730.915955	2.529805
863.976746	729.058289	926.629333	722.668274	-3.234287
864.274902	727.720886	929.229797	729.132629	0.700586
864.572937	719.919128	932.945007	725.863342	2.790372
864.870911	720.290527	935.917175	735.002625	6.822949
865.168884	711.745789	933.910950	729.429871	7.959881
865.466736	713.974854	925.291809	728.463867	6.856532
865.764587	718.135742	917.118591	721.405090	1.643030
866.062317	725.268799	928.412537	721.330811	-1.938523
866.360107	734.630920	927.446533	721.479431	-6.820759
866.657715	722.965393	931.458923	721.999512	-0.463267
866.955322	720.662109	924.920227	719.398926	-0.618425
867.252808	712.711731	927.966614	725.714661	6.040713
867.550293	721.851013	936.808655	728.909729	3.283771
867.847717	717.095520	932.201965	727.052246	4.628744
868.145081	717.392822	930.641602	716.352539	-0.487826
868.442383	711.448547	929.972839	715.609558	1.904141
868.739624	721.553711	934.653870	722.891113	0.627593
869.036804	718.878845	931.830383	729.578430	5.024423
869.333984	718.878845	932.647705	722.816895	1.842200
869.631042	710.705566	930.492920	716.203918	2.501669
869.928101	718.210144	929.378418	714.272156	-1.864858
870.224976	715.906738	918.158691	714.346375	-0.771495
870.521851	734.185120	934.059570	726.977844	-3.605901
870.818726	728.909668	945.725098	727.646545	-0.582580
871.115479	732.773438	954.046936	733.665039	0.402941
871.412231	717.467041	939.112122	723.634216	2.782455
871.708862	716.203918	930.641602	725.491699	4.331226
872.005493	716.055359	933.316589	725.788879	4.480100
872.302063	724.228699	933.613708	723.262695	-0.461353
872.598572	732.550537	933.242188	715.906738	-8.293220
872.895020	732.624817	929.155518	717.912903	-7.485810
873.191406	728.538269	934.728210	719.473328	-4.396403
873.487671	719.770508	944.684814	723.039795	1.453570
873.783997	724.005676	944.387695	719.621887	-1.989177
874.080200	716.055359	944.016113	722.296692	2.737898
874.376343	719.547546	941.266846	718.730225	-0.368629
874.672424	718.135742	956.944641	725.194519	2.955827
874.968445	724.600159	968.758789	721.107910	-1.430320
875.264465	724.080078	971.136536	726.457703	0.962381
875.560364	718.210144	959.619629	721.182190	1.231122
875.856201	709.145203	946.542419	720.959290	4.976506
876.152039	710.259766	942.678711	721.182190	4.699455
876.447754	713.900574	942.604431	723.485535	4.190992
876.743469	714.569275	952.486633	729.504089	6.277312
877.039063	713.677673	952.709534	728.909668	6.372370
877.334595	715.089417	956.944824	725.120300	4.147471
877.630127	723.634094	952.115051	718.507324	-2.243850
877.925537	723.336914	952.338074	718.581726	-2.076491
878.221008	715.386536	953.526855	725.714661	4.336991
878.516296	707.584717	953.972656	727.126465	7.931293
878.811646	702.903748	958.728027	720.439148	6.854471
879.106812	709.070801	971.582458	719.993347	4.160785
879.401978	710.482605	984.659668	717.615662	2.601624
879.697083	711.299988	1009.551025	718.804504	2.516175
879.992126	709.070984	1025.303223	714.643555	1.762177
880.287109	711.374268	1064.312134	721.256531	2.800001
880.582031	712.934570	1121.079468	732.104675	4.696887
880.876892	719.993347	1236.322876	730.692871	2.072228
881.171753	725.045959	1416.135376	730.990173	0.860122
881.466492	734.631042	1685.111328	730.172852	-0.469046
881.761230	728.835449	2002.978394	736.265625	0.583151
882.055786	730.693054	2330.133301	739.014832	0.520293
882.350403	723.782898	2584.545654	736.562805	0.686810
882.644958	722.965515	2725.052490	731.584534	0.430502
882.939453	711.225647	2750.240967	730.767273	0.958385
883.233826	704.464111	2704.544922	730.247131	1.289099
883.528137	703.349609	2650.229248	733.442139	1.545680
883.822449	706.024414	2579.641846	738.048889	1.709232
884.116577	705.058533	2501.103760	740.278015	1.960946
884.410828	707.436218	2385.489014	732.624817	1.501061
884.704956	705.801575	2228.561279	729.801270	1.576066
884.999023	711.448547	2029.578735	724.525818	0.992108
885.292969	711.374268	1815.066895	731.510254	1.824420
885.586914	714.123535	1616.901489	723.782776	1.069946
885.880798	713.603333	1467.850220	727.126465	1.792932
886.174622	716.649658	1351.715088	728.018066	1.790116
886.468384	712.637390	1273.994507	734.408142	3.878236
886.762085	709.888245	1214.700928	733.590759	4.695309
887.055664	709.665344	1177.178101	730.098572	4.370625
887.349304	715.460938	1147.977051	724.525879	2.095862
887.642822	719.844788	1116.026855	724.302917	1.125273
887.936340	715.981018	1089.129272	721.330811	1.433691
888.229736	713.529053	1063.346313	718.433044	1.401872
888.523071	708.922302	1049.526001	720.587830	3.424956
888.816284	710.631165	1034.368164	729.801331	5.921525
889.109619	716.278137	1027.680786	741.689758	8.160374
889.402710	715.015076	1011.780090	739.757874	8.337505
889.695862	712.340149	992.461426	735.076843	8.116733
889.988892	706.767517	981.241699	721.627991	5.414161
890.281921	709.516724	983.916626	704.612671	-1.787192
>>>>>End Processed Spectral Data<<<<<
