Jaz Data File
++++++++++++++++++++++++++++++++++++
Date: Fri Jun 04 16:55:53 2021
User: jaz
Dark Spectrum Present: Yes
Reference Spectrum Present: Yes
Processed Spectrum Present: Yes
Spectrometers: JAZA3586
Integration Time (usec): 26900 (JAZA3586)
Spectra Averaged: 10 (JAZA3586)
Boxcar Smoothing: 1 (JAZA3586)
Correct for Electrical Dark: No (JAZA3586)
Strobe/Lamp Enabled: Yes (JAZA3586)
Correct for Detector Non-linearity: No (JAZA3586)
Correct for Stray Light: No (JAZA3586)
Number of Pixels in Processed Spectrum: 2048
>>>>>Begin Processed Spectral Data<<<<<
W	D	R	S	P
191.335022	0.000000	0.000000	0.000000	0.000000
191.713211	231.824478	223.576904	231.230042	7.207412
192.091385	465.580902	454.658356	464.466278	10.204800
192.469528	703.795410	697.033875	700.303040	51.650555
192.847641	715.832458	712.340149	710.185364	161.700867
193.225739	725.120300	725.268860	720.662109	-3000.945068
193.603790	738.123230	728.761047	726.160461	127.777557
193.981842	739.089172	738.197571	733.962219	575.027405
194.359863	739.460632	743.324463	743.547363	105.768898
194.737854	732.624817	745.702148	753.726807	161.363113
195.115829	740.278015	744.216003	750.011658	247.172974
195.493774	746.890930	744.884766	734.036621	640.740540
195.871704	745.627747	747.856873	732.104736	-606.650757
196.249603	741.912598	747.485352	738.420471	-62.664288
196.627457	744.661865	747.782532	742.358582	-73.807426
197.005310	745.107727	743.175781	737.603210	388.443420
197.383133	743.324463	743.398743	729.801331	-18205.669922
197.760910	734.036621	739.386414	736.711426	49.998287
198.138687	732.327637	735.894104	735.596985	91.669090
198.516449	729.281250	735.299805	736.711487	123.455498
198.894180	729.206848	732.624817	731.584534	69.564285
199.271866	735.299744	734.556641	735.076843	29.995893
199.649536	736.934387	730.247070	739.460693	-37.777576
200.027191	736.042725	729.504089	735.448303	9.090909
200.404816	733.962219	731.361633	735.968445	-77.145134
200.782410	733.367859	754.321289	738.569092	24.822823
201.159988	737.454529	773.788574	752.092102	40.286110
201.537537	735.151123	779.138367	755.212891	45.608150
201.915070	731.658875	774.457275	746.445129	34.548615
202.292557	737.454529	775.943359	746.222168	22.779697
202.670029	740.426575	783.522217	743.472961	7.068897
203.047485	742.284180	778.692566	755.435730	36.122311
203.424911	730.098572	769.701904	751.423340	53.845894
203.802292	728.018066	760.042480	754.469910	82.598991
204.179688	728.166687	759.968201	746.593750	57.943981
204.557037	732.699158	756.104492	741.987000	39.682587
204.934357	727.423645	767.547180	736.934387	23.703650
205.311661	730.470032	764.277832	728.538147	-5.714317
205.688934	726.383362	771.039368	732.030457	12.645767
206.066177	728.166687	760.711243	730.767273	7.990848
206.443390	717.541321	768.587402	741.392578	46.724953
206.820587	723.039734	772.451111	741.764099	37.894848
207.197769	728.092346	776.166260	742.878601	30.757336
207.574921	731.213074	773.491394	736.340027	12.126672
207.952042	731.510254	767.175598	732.178955	1.874933
208.329147	725.714661	766.581116	732.699036	17.090729
208.706223	728.463867	778.766785	748.599915	40.029583
209.083267	718.730225	781.590332	753.429504	55.200798
209.460297	714.717834	779.509827	750.531738	55.275200
209.837280	715.460876	770.965088	730.024231	26.238287
210.214264	715.163757	768.736023	721.405090	11.650307
210.591217	727.052063	772.748291	723.485596	-7.804730
210.968124	728.018066	770.816406	734.333801	14.756962
211.345016	736.637146	770.593567	741.095398	13.129334
211.721893	729.206848	763.386169	734.110840	14.347833
212.098724	721.256531	751.869324	729.578430	27.184385
212.475555	717.467102	755.064270	723.262695	15.414973
212.852356	712.265930	756.847473	731.584656	43.333462
213.229126	721.330750	768.290100	724.080078	5.854699
213.605865	715.609436	765.318054	730.470032	29.895411
213.982590	722.296692	764.946472	730.024231	18.118591
214.359283	716.129639	755.138489	732.327637	41.523907
214.735931	724.005676	754.321228	726.829163	9.313657
215.112579	722.296814	755.807312	728.538269	18.625372
215.489197	725.343079	759.225281	733.888000	25.219500
215.865799	720.439148	750.531738	734.408142	46.420044
216.242355	717.021301	753.875488	734.185242	46.572567
216.618896	712.934631	757.144714	732.476257	44.201740
216.995407	711.968689	766.283997	735.076843	42.544460
217.371902	714.049133	764.872253	728.761047	28.947287
217.748367	719.621826	759.893860	723.857117	10.516704
218.124802	722.891113	757.441895	716.575439	-18.279396
218.501236	721.256531	755.064270	720.587891	-1.977772
218.877609	711.299988	755.212891	719.621887	18.950920
219.253983	714.123352	758.333496	726.086182	27.059015
219.630295	715.312256	760.562683	728.092285	28.242891
220.006592	720.216309	758.556458	739.757813	50.968773
220.382889	716.946960	753.875427	748.154114	84.507034
220.759140	720.662109	754.841309	740.649475	58.478157
221.135391	726.383484	756.996094	738.346130	39.077511
221.511581	726.754944	762.866028	734.110840	20.370190
221.887772	727.646545	759.893982	746.222168	57.603409
222.263931	728.835388	769.256042	748.897156	49.632465
222.640060	725.788879	762.568848	745.107727	52.525459
223.016159	716.055359	765.838196	739.980774	48.059566
223.392212	713.083191	765.392395	735.299622	42.471359
223.768265	717.912903	772.005310	735.894043	33.241524
224.144302	728.389465	775.348877	734.482422	12.974942
224.520294	722.965393	780.252869	738.791992	27.626631
224.896286	727.126465	777.429382	737.380188	20.383953
225.272217	727.349365	776.091980	736.785706	19.359528
225.648148	729.281189	769.479004	730.172852	2.218187
226.024048	727.349365	766.952698	731.733215	11.069397
226.399902	729.206848	768.884521	732.699036	8.801392
226.775772	731.138733	765.020813	733.813660	7.894813
227.151581	728.240967	774.977356	732.624817	9.379951
227.527374	725.120300	771.485107	729.875671	10.256424
227.903137	725.194580	770.519226	731.807556	14.590243
228.278870	721.776611	765.095154	734.928223	30.360235
228.654572	721.256531	765.689514	745.479248	54.515171
229.030273	723.931396	767.398499	745.776367	50.256332
229.405930	727.646484	770.742188	750.977600	54.137917
229.781555	721.107910	769.999207	744.364685	47.568333
230.157181	719.770508	775.794739	744.364685	43.899178
230.532761	710.334045	776.463379	736.414246	39.438171
230.908325	713.528992	774.605774	733.293640	32.360329
231.283859	714.792175	772.822571	731.213074	28.297064
231.659332	722.519714	766.878357	735.522644	29.313183
232.034821	723.039795	774.011414	737.825989	29.008680
232.410263	719.770508	771.410828	744.587585	48.057560
232.785690	722.148132	770.593506	736.191406	28.987854
233.161087	726.457703	770.742188	734.853943	18.959778
233.536469	723.114075	775.646179	731.807434	16.548660
233.911804	720.810730	776.983582	736.414246	27.777681
234.287140	712.414490	773.045471	736.488586	39.705933
234.662430	713.974854	764.872253	730.915833	33.284565
235.037704	719.027405	758.779358	733.293457	35.887676
235.412933	723.931396	758.556458	725.863281	5.579441
235.788162	727.423645	761.974426	724.897400	-7.311687
236.163345	725.343079	769.627625	721.330811	-9.060199
236.538513	725.714661	767.398499	728.166687	5.882439
236.913635	722.668213	768.438782	730.841553	17.857195
237.288742	711.076965	767.101318	735.002625	42.705818
237.663834	713.231873	767.992981	739.014832	47.082611
238.038879	718.507324	768.810242	750.308899	63.220139
238.413910	725.640381	770.742126	756.847473	69.192650
238.788910	725.343201	773.194092	753.801086	59.472008
239.163879	730.544250	770.593445	746.222229	39.146801
239.538834	730.841492	773.714172	741.392578	24.610279
239.913757	729.206848	771.336609	747.336853	43.033722
240.288651	717.244141	767.101318	743.547363	52.757145
240.663528	715.312317	772.153870	740.649597	44.575279
241.038361	716.203918	778.098145	737.528809	34.453762
241.413177	722.742615	790.283752	739.534973	24.862415
241.787979	725.268860	781.367432	740.352295	26.887379
242.162735	722.668274	787.831787	735.299744	19.384268
242.537476	718.284363	787.088684	735.819824	25.485989
242.912170	713.974854	802.692383	735.819824	24.623060
243.286865	716.129578	799.868835	740.798157	29.458797
243.661514	723.039734	803.583984	743.101563	24.907835
244.036148	728.612488	795.336365	738.940613	15.478904
244.410751	730.321472	796.079346	733.590820	4.971797
244.785339	719.919128	795.782166	727.869446	10.479830
245.159882	718.804504	802.097839	726.754883	9.545035
245.534378	720.662109	799.571594	724.525879	4.896458
245.908890	727.126465	796.227966	732.401917	7.634352
246.283356	733.813660	792.067078	735.374023	2.678579
246.657791	730.841553	797.862610	741.318298	15.632021
247.032196	723.039734	808.785095	735.522644	14.558117
247.406586	715.386536	814.803650	739.237793	23.991098
247.780960	715.163757	827.732361	734.036621	16.765656
248.155289	719.398926	834.568176	738.346191	16.451670
248.529602	719.919128	839.472168	740.426575	17.153429
248.903870	722.073914	829.367004	738.420410	15.235368
249.278122	722.222412	819.410400	733.442139	11.544355
249.652344	723.336975	813.837646	731.138733	8.620663
250.026550	718.358704	811.905762	739.014832	22.081001
250.400711	725.491760	809.602356	734.631042	10.865792
250.774857	722.593994	807.224670	728.240967	6.672489
251.148987	732.476257	807.967773	719.696106	-16.929255
251.523071	727.943665	813.837646	726.680664	-1.470418
251.897125	728.612488	814.729309	728.686829	0.086326
252.271164	714.494934	817.701416	733.516418	18.430513
252.645187	711.597168	816.735535	726.011902	13.710251
253.019165	708.402161	820.896484	731.956116	20.937906
253.393112	713.826233	816.958435	727.497864	13.256413
253.767044	714.346375	815.175110	737.454407	22.918102
254.140930	725.788879	804.401306	737.603088	15.028424
254.514801	718.878845	802.246399	744.810486	31.105196
254.888657	724.897400	800.166016	739.832214	19.842020
255.262466	723.411316	812.128723	730.395752	7.872678
255.636276	735.002502	815.546692	732.996338	-2.490763
256.010010	733.070618	822.159668	738.569031	6.171817
256.383759	724.377258	826.172058	748.525635	23.722603
256.757446	720.885010	830.630127	747.188171	23.967501
257.131134	715.758118	831.521790	750.085999	29.653414
257.504791	719.398987	829.887024	749.342957	27.101549
257.878418	715.832458	836.871582	748.971436	27.378733
258.252014	714.569336	855.595886	743.993164	20.864035
258.625580	715.832458	871.050781	739.832214	15.461935
258.999115	721.330811	893.861633	735.225403	8.053397
259.372650	726.086243	902.778015	733.442139	4.163123
259.746124	720.067688	921.502380	739.089111	9.442973
260.119598	710.408264	937.254578	737.974609	12.151992
260.493042	706.990417	950.851990	738.123230	12.766592
260.866425	711.076965	960.511292	729.578430	7.417369
261.239838	715.683777	950.926270	742.581360	11.433982
261.613159	717.392761	937.403137	739.534973	10.064167
261.986511	721.107910	912.288879	738.569031	9.133294
262.359802	725.566101	896.536621	726.680603	0.651868
262.733063	730.024231	886.431458	731.658936	1.045159
263.106293	729.355530	886.208557	736.340027	4.452893
263.479523	736.562805	884.351013	743.473083	4.675798
263.852692	732.922058	881.304504	740.872498	5.358073
264.225861	729.875671	881.378845	739.014893	6.032363
264.598969	722.296692	882.864807	731.436035	5.691879
264.972076	723.857117	890.666687	734.705261	6.503311
265.345154	729.652649	891.261169	734.408020	2.942525
265.718201	730.544373	903.966980	741.243958	6.169660
266.091217	731.138733	914.517883	739.757874	4.700175
266.464203	722.965515	928.189514	748.079773	12.237486
266.837158	721.627991	936.065674	746.222229	11.469177
267.210114	721.405090	947.582520	738.717590	7.654389
267.583038	724.228577	962.666016	729.652649	2.274841
267.955902	724.080017	965.563782	727.274963	1.323048
268.328766	725.640381	974.405945	732.253235	2.658267
268.701569	725.863281	967.421387	736.339905	4.337103
269.074371	726.309143	971.508057	733.962219	3.121171
269.447144	719.250427	972.845459	732.253357	5.127439
269.819885	716.872620	988.374756	727.200684	3.804045
270.192596	714.866516	994.096008	730.470032	5.588061
270.565277	723.411316	1006.727539	736.934387	4.773137
270.937927	724.971680	1021.662354	738.643372	4.608063
271.310577	726.606384	1053.241089	735.076843	2.593251
271.683136	717.318542	1078.652588	733.219238	4.400553
272.055725	720.810730	1106.218872	735.448425	3.797972
272.428284	715.609558	1112.757568	747.782654	8.101034
272.800812	724.302917	1114.540894	753.652527	7.520952
273.173279	719.844788	1101.314941	759.522461	10.401253
273.545776	726.457703	1109.116699	759.893860	8.737847
273.918152	720.885071	1102.057983	757.516174	9.610102
274.290558	720.885071	1099.828979	748.079773	7.176445
274.662964	715.683838	1084.076782	740.872375	6.837410
275.035278	720.067688	1082.293457	742.061279	6.071791
275.407593	720.513489	1095.073486	744.661865	6.447132
275.779907	721.851013	1107.779175	748.599915	6.931057
276.152161	716.798340	1123.234253	736.488586	4.844613
276.524384	714.494934	1127.692383	742.432800	6.761384
276.896606	721.107910	1147.828491	732.996338	2.785998
277.268799	714.643555	1161.128540	740.872375	5.874514
277.640930	720.141907	1172.496948	732.624817	2.759538
278.013031	714.346375	1163.432007	742.358459	6.237582
278.385162	719.250305	1164.843750	744.141785	5.586141
278.757233	711.077148	1162.688843	747.411072	8.045390
279.129272	711.671448	1175.171875	746.296570	7.470354
279.501282	714.717957	1186.540161	735.076843	4.314949
279.873230	717.838562	1203.778320	735.448303	3.623853
280.245178	719.027405	1222.576904	728.389587	1.859238
280.617126	719.324646	1243.827515	741.318176	4.193214
280.988983	716.872620	1269.610474	740.872375	4.341978
281.360870	706.470276	1287.369019	743.175781	6.318744
281.732697	702.755188	1313.597778	740.129395	6.118468
282.104492	705.801575	1338.414917	745.033447	6.201556
282.476288	714.272034	1366.204102	745.181946	4.741278
282.848053	720.587708	1385.151367	744.810486	3.644915
283.219757	722.668213	1396.891113	740.278015	2.611866
283.591461	726.829163	1403.801392	743.324402	2.436620
283.963135	723.039795	1399.640259	745.181946	3.272559
284.334747	714.940735	1397.114258	750.085938	5.151945
284.706360	710.259766	1418.884766	748.154114	5.347589
285.077942	707.287598	1453.658325	747.411133	5.375818
285.449524	716.129639	1487.540405	737.603088	2.783660
285.821014	716.352539	1496.828125	735.151123	2.408606
286.192535	722.965515	1511.985962	734.779602	1.497311
286.563995	717.764343	1537.397827	742.655701	3.036889
286.935425	714.866455	1566.152832	741.615417	3.142181
287.306824	715.683777	1568.233398	731.435974	1.847658
287.678223	723.931458	1554.561523	734.556702	1.279179
288.049561	734.036621	1536.208618	743.175781	1.139302
288.420898	732.179016	1520.530884	749.342957	2.177193
288.792145	736.191345	1516.221191	743.175842	0.895414
289.163452	732.401917	1522.239868	736.191345	0.479773
289.534668	730.321472	1549.731812	744.959167	1.786369
289.905914	723.114075	1576.852173	752.240723	3.411661
290.277039	723.857117	1612.963379	753.875427	3.376234
290.648193	728.092346	1651.526733	751.274719	2.510452
291.019318	730.915833	1693.804810	745.627747	1.527893
291.390381	735.002502	1715.575562	749.120056	1.439725
291.761475	732.253418	1715.798462	749.863098	1.790429
292.132507	726.532043	1702.795410	748.748535	2.275666
292.503510	714.866455	1689.049438	744.364685	3.027997
292.874481	718.061523	1673.297363	741.243896	2.426874
293.245422	722.073914	1679.390137	736.711487	1.529022
293.616364	729.206848	1696.331055	734.779602	0.576219
293.987213	726.606384	1740.095337	732.996338	0.630491
294.358093	732.104736	1787.277710	735.671204	0.337998
294.728943	730.321472	1849.469116	740.055115	0.869737
295.099731	727.126404	1901.629761	738.420410	0.961598
295.470490	715.535156	1936.254517	741.838379	2.154731
295.841248	717.541443	1960.402954	739.980774	1.805457
296.211975	719.176086	1987.300659	738.123230	1.494107
296.582642	726.160583	2035.077271	746.965271	1.589458
296.953308	721.033630	2082.185059	751.646301	2.249028
297.323883	721.405090	2127.063965	757.218994	2.547837
297.694519	728.538147	2156.041992	743.398743	1.041020
298.065063	728.686768	2159.757324	739.386414	0.747667
298.435608	727.423645	2126.915527	739.683594	0.876029
298.806122	718.581604	2070.148193	745.776367	2.012092
299.176575	720.959290	2008.774048	744.810547	1.852072
299.547028	722.148132	1959.139771	743.250183	1.705917
299.917450	719.993408	1933.356812	744.513367	2.020826
300.287872	718.358704	1927.486938	754.841309	3.017265
300.658234	720.587830	1937.443359	757.441956	3.028636
301.028564	724.897278	1937.963501	754.618408	2.450083
301.398865	726.903503	1928.973022	746.890930	1.662751
301.769135	726.309082	1923.474487	741.541199	1.272349
302.139374	724.971680	1919.684937	742.507080	1.467750
302.509583	726.383362	1928.601196	739.312012	1.075400
302.879791	721.330872	1935.362915	745.107666	1.958498
303.249939	719.621887	1935.140137	745.924988	2.163941
303.620087	721.107910	1923.103027	748.674133	2.293372
303.990173	724.748779	1904.898926	748.971436	2.052506
304.360260	730.172852	1898.880249	753.058105	1.958168
304.730286	730.098450	1904.973145	752.612305	1.916277
305.100281	730.395691	1913.369141	750.606140	1.708445
305.470276	730.990173	1928.972778	741.912659	0.911740
305.840179	732.253235	1952.229492	743.324463	0.907495
306.210144	730.024231	1976.675171	739.534973	0.762903
306.579987	717.392822	1995.325195	747.708313	2.372230
306.949890	706.990417	2007.213501	744.067383	2.851585
307.319702	711.745789	2022.445679	752.537903	3.112239
307.689484	723.039795	2038.420898	751.274841	2.146530
308.059265	732.327637	2069.256592	754.618408	1.667312
308.429016	731.733215	2112.723633	746.742371	1.086840
308.798737	725.714661	2176.103760	746.890930	1.460041
309.168396	725.343079	2225.069336	746.890930	1.436786
309.538055	722.445313	2266.381592	744.141785	1.405270
309.907684	728.538086	2287.409180	735.374023	0.438518
310.277313	731.658875	2309.997314	740.278015	0.546090
310.646851	731.213074	2330.578857	746.222168	0.938440
311.016388	728.463867	2347.594482	749.120056	1.275758
311.385895	728.686768	2351.606689	747.559631	1.162896
311.755371	736.340027	2347.446045	736.934387	0.036891
312.124817	738.717590	2346.554443	743.324402	0.286522
312.494232	730.544373	2348.263184	740.798157	0.633842
312.863617	721.627991	2345.588135	745.330627	1.459558
313.232971	714.049133	2341.947510	741.021057	1.656855
313.602295	716.946960	2323.817627	740.872498	1.488952
313.971619	716.501160	2323.817627	747.411133	1.923080
314.340820	712.414551	2321.216797	746.222229	2.101419
314.710083	709.516663	2363.718018	747.188171	2.277323
315.079285	708.402161	2404.213135	740.723816	1.905970
315.448486	721.776672	2449.389160	739.163513	1.006409
315.817596	720.587830	2450.132080	732.699219	0.700265
316.186707	724.080078	2408.299805	736.191406	0.719106
316.555786	720.216309	2353.167236	737.083008	1.032897
316.924866	722.222473	2305.687744	744.587585	1.412416
317.293884	727.423645	2294.170654	747.782532	1.299437
317.662872	730.172852	2293.502197	751.051941	1.335553
318.031830	722.445313	2310.517578	750.903320	1.791984
318.400757	720.587830	2319.730713	749.714539	1.821395
318.769684	721.999512	2331.544922	744.736145	1.412612
319.138550	728.241028	2346.405518	742.061279	0.854070
319.507416	724.228699	2373.006104	742.432800	1.104097
319.876190	720.141907	2386.529053	745.404846	1.516031
320.244995	722.073792	2386.157715	744.290344	1.335062
320.613770	722.371094	2358.962891	745.256287	1.398345
320.982483	721.702332	2338.529541	747.262451	1.580881
321.351166	722.222473	2316.684570	747.931213	1.612377
321.719818	720.067688	2313.638428	744.438965	1.529350
322.088440	717.764343	2317.873291	746.370850	1.787785
322.457062	718.878845	2339.124023	746.519470	1.705953
322.825623	720.662109	2375.904053	755.212891	2.087355
323.194183	720.959290	2426.058350	749.268616	1.660275
323.562653	726.829285	2481.042236	758.184875	1.787445
323.931183	731.287415	2549.697754	758.705078	1.507782
324.299591	732.922058	2615.084229	760.636963	1.472504
324.668060	726.606262	2674.452393	754.767090	1.445742
325.036407	721.033630	2709.597412	749.863037	1.449760
325.404755	719.547546	2731.887939	750.903320	1.558174
325.773102	719.398926	2742.364502	750.234619	1.524282
326.141388	726.457703	2746.897217	749.491516	1.140040
326.509674	732.030457	2755.739258	753.058044	1.039062
326.877899	729.652649	2772.606201	747.336731	0.865613
327.246124	724.823059	2785.980469	753.726746	1.402304
327.614288	723.485657	2780.853516	751.200500	1.347102
327.982422	726.606384	2765.844482	753.132324	1.300777
328.350525	728.315247	2746.897217	749.491516	1.049067
328.718628	723.634094	2734.340088	752.240723	1.422716
329.086700	719.027405	2743.553711	763.460449	2.194738
329.454712	713.529053	2759.677490	766.729797	2.600043
329.822693	715.238037	2788.209717	767.101257	2.501878
330.190674	714.569336	2805.373779	759.819641	2.164253
330.558563	715.386658	2815.775635	758.110657	2.034099
330.926483	711.077087	2832.568359	753.652527	2.006864
331.294312	714.792175	2861.100586	752.760925	1.769026
331.662231	721.925293	2908.877197	756.847473	1.596843
332.029999	718.581604	2939.044189	768.364441	2.242003
332.397766	715.758057	2981.916748	775.497559	2.636157
332.765503	710.185364	3034.894531	770.742188	2.604920
333.133240	720.364929	3098.572021	765.318054	1.890211
333.500916	720.067688	3149.841064	761.082825	1.688023
333.868561	724.674500	3184.763428	760.414063	1.452775
334.236176	717.169861	3218.050781	762.271545	1.803432
334.603790	722.296692	3227.858643	764.129211	1.669586
334.971344	719.473206	3223.177734	772.228210	2.107078
335.338867	725.640381	3221.765625	781.070251	2.220637
335.706360	723.188416	3228.750244	794.890564	2.861719
336.073853	722.742615	3247.326172	798.679932	3.007915
336.441284	717.764343	3252.230225	800.463196	3.262970
336.808655	718.507324	3247.326172	789.763489	2.817765
337.176086	720.587830	3198.434814	780.921570	2.434926
337.543396	727.869446	3122.200439	784.265198	2.355386
337.910706	729.875549	3040.541748	788.797668	2.550006
338.277954	726.086121	3053.395752	806.184509	3.441673
338.645264	727.126404	3141.073242	802.692322	3.130389
339.012421	729.132568	3283.065674	803.658264	2.918076
339.379669	738.717712	3404.476318	799.423035	2.277225
339.746796	730.172852	3512.809814	798.679932	2.461948
340.113953	736.191406	3596.028564	808.487976	2.527996
340.481018	726.680664	3633.625977	814.135010	3.008462
340.848114	729.058289	3627.830811	822.233887	3.214312
341.215118	716.798340	3621.217529	828.549622	3.847629
341.582153	716.947021	3644.325439	837.540222	4.119495
341.949066	715.758118	3687.792725	842.890076	4.277607
342.316010	713.603333	3700.498291	838.951965	4.196620
342.682922	717.021301	3714.393311	838.134705	4.040653
343.049835	717.467102	3730.516602	843.484436	4.182385
343.416656	720.959290	3780.522217	859.385254	4.524371
343.783478	718.135742	3842.565186	860.945618	4.570751
344.150269	723.411316	3958.180420	864.363586	4.357414
344.516998	726.234802	4094.377686	866.815491	4.173834
344.883728	726.160461	4207.392090	872.462585	4.202597
345.250427	721.999512	4282.214355	879.818542	4.432851
345.617065	719.101746	4321.074707	887.174500	4.666131
345.983704	716.724060	4315.799316	897.576843	5.024979
346.350281	720.290588	4310.895996	902.034973	5.061664
346.716827	717.244141	4260.220703	907.236145	5.362497
347.083405	723.857117	4239.341309	922.171082	5.641157
347.449860	720.810730	4177.596191	926.480530	5.949742
347.816376	720.513489	4125.955566	926.331970	6.043811
348.182770	716.872742	4086.426758	924.697327	6.167718
348.549194	713.677551	4059.306396	936.139954	6.649345
348.915558	716.872559	4086.278320	940.375244	6.633297
349.281921	717.541321	4096.754883	949.885986	6.875702
349.648193	715.014954	4150.327148	961.625793	7.178702
350.014526	718.953125	4186.735840	979.681396	7.518587
350.380737	720.736328	4247.663574	979.384277	7.333521
350.746948	723.634216	4286.003906	986.145752	7.369015
351.113159	720.736389	4323.377441	987.037354	7.391826
351.479309	723.708496	4366.250488	1005.613037	7.739225
351.845428	726.160461	4410.906250	1016.609863	7.882481
352.211517	724.600159	4455.934082	1032.807739	8.259984
352.577576	723.188416	4506.162598	1038.083374	8.324005
352.943604	721.330811	4568.205566	1048.039917	8.492845
353.309601	724.600098	4631.139648	1056.064575	8.484861
353.675537	720.959290	4723.201172	1066.912720	8.643991
354.041473	724.080078	4831.088867	1088.163452	8.864928
354.407379	726.829285	4964.165039	1107.927856	8.993825
354.773254	725.120300	5084.609375	1132.373535	9.341764
355.139038	729.429871	5167.977051	1135.568481	9.150260
355.504913	721.553711	5270.143066	1149.537476	9.409154
355.870636	726.234802	5356.854492	1169.004761	9.561787
356.236389	729.355469	5483.837402	1192.187134	9.734639
356.602081	732.847717	5624.195313	1218.713257	9.933163
356.967804	728.463867	5784.764160	1240.186768	10.120501
357.333405	721.405090	5921.406738	1272.285522	10.593851
357.699036	722.742493	6086.656250	1295.839478	10.684307
358.064606	722.816895	6254.803223	1321.325317	10.819051
358.430176	718.210144	6405.563965	1344.136108	11.005574
358.795654	719.770508	6473.029785	1364.420776	11.204958
359.161163	726.457703	6458.615234	1378.092651	11.368057
359.526581	729.949951	6424.064941	1388.123413	11.558836
359.892029	729.206848	6436.176270	1408.631226	11.905169
360.257416	726.383484	6547.185059	1434.859985	12.171459
360.622772	730.544434	6756.569824	1468.593384	12.247691
360.988098	727.646545	7016.777344	1510.351440	12.445358
361.353394	722.222412	7312.502441	1558.127930	12.683914
361.718658	726.903503	7637.725098	1605.830444	12.718124
362.083893	735.151062	7925.276855	1647.365601	12.687045
362.449097	741.615417	8106.946777	1679.390137	12.732281
362.814209	733.813660	8102.562500	1691.724243	12.999637
363.179382	721.850891	7889.611328	1677.458130	13.332020
363.544434	718.433044	7514.828613	1653.458496	13.757667
363.909546	722.593933	7100.739746	1609.991211	13.913092
364.274536	727.943787	6747.652344	1578.338501	14.126842
364.639587	730.395752	6514.639160	1548.171509	14.137991
365.004517	728.984070	6371.829590	1551.217896	14.571262
365.369507	723.188477	6286.232910	1546.313843	14.796311
365.734344	714.569336	6243.286621	1546.462524	15.046766
366.099274	713.157532	6179.312012	1545.273804	15.223066
366.464081	717.095642	6158.283691	1559.911255	15.489552
366.828918	727.646545	6141.714355	1570.016602	15.558912
367.193665	725.268860	6155.980469	1579.675781	15.732873
367.558411	723.782898	6149.813965	1588.666504	15.939525
367.923126	720.736511	6140.451660	1598.771606	16.200760
368.287781	727.275085	6139.856934	1614.375122	16.389591
368.652435	733.442139	6116.748535	1625.817749	16.576719
369.017059	732.327637	6097.652344	1638.003540	16.880169
369.381653	728.686829	6055.003418	1643.650513	17.178169
369.746185	723.262695	6060.204590	1654.721680	17.453047
370.110687	725.268860	6056.786621	1673.445923	17.784374
370.475220	726.680603	6100.550781	1688.677856	17.901386
370.839661	728.612488	6135.027344	1700.343384	17.973665
371.204041	728.092346	6224.858887	1715.129761	17.956692
371.568451	728.389587	6287.198730	1738.312134	18.167967
371.932770	722.222473	6356.375000	1758.448242	18.391867
372.297150	725.714600	6377.179688	1772.045532	18.514332
372.661377	721.553711	6432.015137	1784.231079	18.609308
373.025696	727.498047	6460.918457	1801.692383	18.735662
373.389862	722.965515	6465.748535	1799.983398	18.754284
373.754059	720.513489	6459.506348	1807.413696	18.938866
374.118225	727.349365	6478.528809	1817.295898	18.951704
374.482361	730.544373	6551.494141	1854.001587	19.300240
374.846436	729.578430	6616.806641	1872.577148	19.414888
375.210510	720.959290	6731.009277	1904.527344	19.693150
375.574524	715.683777	6851.677246	1932.910767	19.837488
375.938538	714.792175	7018.040527	1971.622681	19.939409
376.302460	712.711731	7167.686035	2001.195190	19.961094
376.666412	718.061523	7348.464355	2053.950195	20.147926
377.030304	722.816895	7515.125000	2098.829102	20.258389
377.394196	726.977844	7690.777344	2145.565430	20.370886
377.757996	723.634216	7848.298828	2173.726318	20.353127
378.121796	720.142029	7923.270020	2189.403809	20.397551
378.485565	720.067627	7936.050293	2201.143799	20.524942
378.849304	716.872620	7829.500488	2187.471924	20.675894
379.212982	723.634216	7693.452637	2176.401123	20.843683
379.576630	722.222473	7483.695313	2145.713867	21.052980
379.940277	731.064453	7332.192871	2134.197021	21.255951
380.303864	732.624817	7236.787598	2123.125977	21.378635
380.667450	733.144958	7211.228027	2134.197021	21.627571
381.030945	725.640320	7210.781738	2140.958740	21.824017
381.394501	723.336914	7233.072754	2166.518799	22.169592
381.757935	723.782776	7265.395020	2180.487549	22.268284
382.121399	726.011902	7269.257813	2199.137451	22.513680
382.484741	727.497986	7326.693848	2220.536865	22.624557
382.848145	726.903503	7374.693848	2252.561279	22.949846
383.211487	725.194580	7479.460938	2297.068604	23.272312
383.574768	724.897400	7560.748047	2338.603760	23.606518
383.938019	723.114075	7659.347168	2359.854492	23.596966
384.301270	725.491760	7761.364746	2391.358887	23.676765
384.664459	711.448547	7849.189941	2437.872314	24.187258
385.027649	715.609558	7939.839844	2497.760498	24.669075
385.390778	717.838623	7992.966797	2536.917725	25.004084
385.753876	726.532043	8022.687500	2558.911377	25.114315
386.116943	721.256531	8068.606934	2587.592529	25.401482
386.479980	714.717834	8088.073730	2627.418701	25.940710
386.842987	717.467041	8153.460449	2655.802246	26.066931
387.205994	724.748718	8189.050781	2691.467529	26.348328
387.568909	728.686768	8272.715820	2725.275391	26.465813
387.931793	727.200745	8323.242188	2767.033203	26.853889
388.294678	724.080078	8356.678711	2807.973877	27.302547
388.657471	721.925293	8369.235352	2820.754150	27.445322
389.020294	718.655945	8367.898438	2836.358154	27.685122
389.383057	718.730225	8385.359375	2844.605469	27.728945
389.745819	719.993347	8394.944336	2877.595703	28.112261
390.108521	726.160461	8418.870117	2911.477783	28.407642
390.471191	723.262695	8503.426758	2969.656982	28.873354
390.833801	717.467041	8642.594727	3025.458252	29.122448
391.196442	715.163635	8827.014648	3103.178711	29.438597
391.558960	722.148132	9032.165039	3173.617920	29.500179
391.921509	728.240967	9260.422852	3253.790771	29.600283
392.284027	727.646545	9498.265625	3334.928955	29.727463
392.646484	724.451477	9601.174805	3389.913086	30.027538
393.008911	724.674500	9577.323242	3409.454346	30.327419
393.371307	720.959290	9505.769531	3398.606445	30.480421
393.733673	715.758118	9433.696289	3396.451904	30.749172
394.096008	709.888184	9408.878906	3416.810547	31.117662
394.458344	704.315430	9416.903320	3452.401611	31.541561
394.820587	702.457947	9453.387695	3477.887451	31.715824
395.182831	701.417664	9493.213867	3508.425781	31.927584
395.545013	712.265808	9438.006836	3510.431641	32.067944
395.907196	725.045898	9342.006836	3499.286377	32.195114
396.269287	735.745544	9193.772461	3464.884521	32.266850
396.631409	743.027283	9047.990234	3438.803955	32.459827
396.993469	742.952881	8906.815430	3413.095459	32.706856
397.355530	742.432800	8804.797852	3396.748779	32.922298
397.717499	733.070618	8783.918945	3404.773438	33.185360
398.079468	717.095520	8776.562500	3423.794922	33.584103
398.441376	712.637451	8793.578125	3454.184814	33.926094
398.803284	715.906738	8792.538086	3476.401367	34.178787
399.165131	725.120300	8820.327148	3513.924072	34.450062
399.526978	714.643555	8823.819336	3536.958252	34.803967
399.888763	710.259766	8841.875000	3561.775391	35.067024
400.250519	711.077087	8857.850586	3566.159180	35.045555
400.612244	721.553772	8893.441406	3585.477783	35.046051
400.973938	727.052185	8898.569336	3595.954834	35.108566
401.335602	725.789001	8928.364258	3605.539795	35.107887
401.697205	721.627991	8978.740234	3643.136719	35.381725
402.058807	717.392761	9034.987305	3687.867188	35.713142
402.420349	715.758118	9145.624023	3760.683838	36.120689
402.781860	722.668274	9266.960938	3807.791748	36.107418
403.143341	724.154297	9432.506836	3885.289307	36.300034
403.504822	728.909668	9588.022461	3960.334961	36.475719
403.866241	727.869446	9785.667969	4046.080078	36.633743
404.227631	726.531982	9947.573242	4116.073730	36.758774
404.588959	722.371094	10151.757813	4197.509277	36.854340
404.950287	716.055359	10315.966797	4277.756348	37.101395
405.311554	717.392761	10442.653320	4330.956543	37.156471
405.672821	717.021240	10489.463867	4355.104980	37.227989
406.034027	715.981018	10454.689453	4365.210449	37.471394
406.395203	714.792175	10397.922852	4351.687012	37.559078
406.756348	712.934570	10304.003906	4330.733887	37.720501
407.117493	710.779785	10216.624023	4287.638184	37.627995
407.478516	706.916016	10171.745117	4291.799316	37.875839
407.839600	712.785950	10149.008789	4301.830566	38.034760
408.200592	708.773682	10162.978516	4328.356445	38.285427
408.561554	714.940735	10131.250977	4328.876465	38.379532
408.922485	709.070862	10156.736328	4349.681152	38.534500
409.283417	713.454773	10190.023438	4389.656250	38.792538
409.644257	709.219543	10301.106445	4450.138672	39.000870
410.005096	706.247375	10428.460938	4510.918457	39.133793
410.365906	705.801575	10556.187500	4567.685547	39.205410
410.726715	710.556946	10701.003906	4632.849121	39.260426
411.087433	715.609558	10803.541992	4697.566895	39.472481
411.448120	728.240967	10885.944336	4735.535645	39.450794
411.808807	731.138855	10886.463867	4746.829590	39.542709
412.169434	728.909729	10801.460938	4732.117676	39.743736
412.530029	723.857117	10735.629883	4727.213379	39.986488
412.890564	717.095520	10697.883789	4727.287598	40.179111
413.251099	724.600098	10696.991211	4739.176270	40.256908
413.611572	730.915833	10754.947266	4749.950195	40.093994
413.972076	728.463867	10816.098633	4793.937500	40.301556
414.332489	717.615723	10917.595703	4839.039551	40.406193
414.692871	714.494934	11058.101563	4917.726074	40.636028
415.053223	719.696106	11222.163086	4986.232422	40.624134
415.413574	720.736389	11431.176758	5095.309082	40.844006
415.773834	722.148132	11592.190430	5175.556152	40.969559
416.134094	727.646484	11757.215820	5250.081543	41.002827
416.494263	732.401855	11926.551758	5312.124512	40.911747
416.854462	731.807434	12224.655273	5446.240723	41.020584
417.214630	724.302917	12564.514648	5602.425293	41.199623
417.574738	722.073792	12923.471680	5754.225098	41.242416
417.934784	725.417480	13235.245117	5899.041504	41.356476
418.294861	719.324707	13640.343750	6060.278809	41.335392
418.654846	721.925293	14072.339844	6274.790527	41.593204
419.014832	723.188416	14574.403320	6473.699219	41.516293
419.374756	724.080017	15067.700195	6717.337402	41.783436
419.734680	723.411316	15642.504883	6955.031738	41.769432
420.094543	713.083252	16165.968750	7198.373535	41.968147
420.454376	715.906738	16669.814453	7397.653809	41.881569
420.814148	714.123535	17179.458984	7614.320313	41.907417
421.173920	718.061523	17728.480469	7865.834473	42.019974
421.533691	724.154297	18255.583984	8101.523438	42.080818
421.893341	722.965515	18628.435547	8282.672852	42.220100
422.253021	721.182190	18873.783203	8401.929688	42.312103
422.612640	717.021301	18967.478516	8469.543945	42.478512
422.972260	720.587830	18945.335938	8460.034180	42.466686
423.331757	715.683838	18860.482422	8424.293945	42.483856
423.691315	712.191589	18824.593750	8432.838867	42.626305
424.050781	715.609558	18975.652344	8526.608398	42.776455
424.410248	714.049133	19092.455078	8598.385742	42.900002
424.769653	713.677673	19301.916016	8646.534180	42.676754
425.128998	711.968689	19339.734375	8674.471680	42.745346
425.488373	718.284424	19273.679688	8661.691406	42.809155
425.847656	722.222473	19001.435547	8590.583008	43.045399
426.206940	718.284424	18728.224609	8495.030273	43.180302
426.566193	721.776672	18358.269531	8346.127930	43.230541
426.925385	719.398926	17993.072266	8218.697266	43.414612
427.284576	722.891174	17464.630859	8013.102051	43.545120
427.643677	720.662109	17079.966797	7872.744629	43.718742
428.002777	721.479431	16710.681641	7717.452637	43.754360
428.361847	722.371033	16314.054688	7550.642578	43.794319
428.720856	716.501160	15936.596680	7395.795410	43.884708
429.079865	716.575439	15649.862305	7279.883301	43.950855
429.438812	718.358704	15501.554688	7213.010254	43.932659
429.797760	719.696106	15414.174805	7171.921387	43.909180
430.156616	716.575439	15241.643555	7096.503906	43.923573
430.515503	714.866455	15135.911133	7059.873535	43.998245
430.874268	721.330872	15086.945313	7058.015625	44.110085
431.233093	722.445374	15092.666992	7108.021484	44.436169
431.591827	718.433044	15148.914063	7153.865723	44.596104
431.950562	714.420715	15162.882813	7183.141113	44.770996
432.309204	721.628113	15282.583008	7214.794434	44.592999
432.667877	722.519592	15409.270508	7277.802734	44.633991
433.026459	720.290588	15546.582031	7362.582520	44.800766
433.385010	715.015076	15663.756836	7436.439453	44.963142
433.743561	712.637390	15869.649414	7520.178223	44.913479
434.102051	718.210144	16106.229492	7611.794434	44.798386
434.460510	722.965515	16279.354492	7712.994141	44.933495
434.818939	723.559998	16312.715820	7759.878906	45.135983
435.177338	723.634216	16301.571289	7755.271973	45.138439
435.535675	719.993347	16278.387695	7735.210938	45.089600
435.894012	724.302917	16240.270508	7706.232910	44.998356
436.252289	719.993347	16269.916992	7746.132813	45.184399
436.610535	712.563049	16229.199219	7744.052734	45.315815
436.968719	717.764343	16377.730469	7820.138672	45.353703
437.326935	716.872620	16487.548828	7869.698730	45.355228
437.685028	723.188416	16674.792969	7950.316895	45.306591
438.043152	715.683777	16759.201172	8015.703125	45.501366
438.401215	721.925110	16996.078125	8127.454590	45.504852
438.759277	717.021240	17250.343750	8234.153320	45.466553
439.117249	721.702332	17679.515625	8467.241211	45.675343
439.475250	724.525879	17989.357422	8628.625977	45.781506
439.833130	733.888000	18419.568359	8856.958984	45.930214
440.191071	726.457703	18726.439453	8957.267578	45.726765
440.548889	718.953125	19064.589844	9130.913086	45.852646
440.906708	725.640381	19401.404297	9299.729492	45.910244
441.264496	734.556702	19654.035156	9443.503906	46.031647
441.622223	737.454529	19851.384766	9545.745117	46.083099
441.979950	727.126465	19895.373047	9569.448242	46.130054
442.337616	721.776611	19884.224609	9600.877930	46.335949
442.695251	715.758118	19726.927734	9534.822266	46.388859
443.052887	720.290527	19509.812500	9441.646484	46.416058
443.410461	718.358704	19345.158203	9333.610352	46.251919
443.768005	723.262695	19167.945313	9251.654297	46.237667
444.125458	723.931458	19087.699219	9230.701172	46.323662
444.482941	720.587708	19083.021484	9266.738281	46.541492
444.840393	717.021240	19235.414063	9377.079102	46.764629
445.197754	711.002747	19518.210938	9538.910156	46.938953
445.555084	716.129639	19865.353516	9703.340820	46.932507
445.912415	714.792175	20275.578125	9894.001953	46.926594
446.269714	720.290527	20600.207031	10053.752930	46.949207
446.626953	719.621887	20962.728516	10224.946289	46.955856
446.984161	729.281250	21298.505859	10389.155273	46.962753
447.341309	725.194580	21572.011719	10533.823242	47.050968
447.698456	726.680603	21735.775391	10632.050781	47.148006
448.055542	717.244141	21830.808594	10700.409180	47.283180
448.412598	714.272034	21764.976563	10691.864258	47.397900
448.769653	710.556946	21599.580078	10622.390625	47.449963
449.126617	724.005676	21261.205078	10472.671875	47.468334
449.483582	732.253357	20992.673828	10344.871094	47.445305
449.840515	736.191406	20642.037109	10191.584961	47.500587
450.197388	717.244202	20372.021484	10078.049805	47.626110
450.554230	711.077148	20125.783203	9977.444336	47.728596
450.911041	706.916199	19946.044922	9883.749023	47.698795
451.267822	720.290588	19784.437500	9806.622070	47.661880
451.624573	724.005676	19569.925781	9706.981445	47.665359
451.981262	731.213135	19399.326172	9688.479492	47.981640
452.337921	731.881836	19269.371094	9646.871094	48.091679
452.694580	733.665039	19229.097656	9621.682617	48.055199
453.051147	722.073792	19233.927734	9611.577148	48.020599
453.407715	717.987122	19135.996094	9559.267578	48.003452
453.764221	717.912903	19161.037109	9603.477539	48.178192
454.120728	721.999512	18907.146484	9508.742188	48.318237
454.477142	725.714661	18824.669922	9494.847656	48.451046
454.833557	719.101746	18566.244141	9396.545898	48.620918
455.189911	725.937683	18412.064453	9322.614258	48.606892
455.546265	722.965515	18215.980469	9234.119141	48.654579
455.902557	728.463867	18075.623047	9171.109375	48.668747
456.258820	727.052063	18082.533203	9195.035156	48.791409
456.615051	730.692932	18162.855469	9249.500000	48.868332
456.971252	721.628113	18136.552734	9242.812500	48.930359
457.327393	714.197754	18329.888672	9340.892578	48.971653
457.683502	708.402161	18574.492188	9465.422852	49.014755
458.039612	717.987122	19070.982422	9744.208008	49.181183
458.395630	727.126404	19546.371094	9982.274414	49.179173
458.751648	724.822998	20077.041016	10207.114258	48.998470
459.107605	722.519714	20850.160156	10549.500977	48.823315
459.463562	720.067688	21588.357422	10909.497070	48.827335
459.819458	728.984070	22274.099609	11319.721680	49.156094
460.175323	734.482422	22830.697266	11613.886719	49.236507
460.531158	732.327637	23387.970703	11887.395508	49.237484
460.886932	727.869446	23724.859375	12042.687500	49.201302
461.242676	716.724060	23833.337891	12103.616211	49.258480
461.598419	715.981018	23553.443359	12009.401367	49.451290
461.954102	714.569275	23038.750000	11775.570313	49.547173
462.309723	718.061523	22329.083984	11467.882813	49.742306
462.665344	717.392761	21610.798828	11108.628906	49.734524
463.020905	717.169922	21019.421875	10829.175781	49.807312
463.376373	713.677673	20551.166016	10591.555664	49.793995
463.731873	714.494934	20170.884766	10440.943359	49.991020
464.087341	708.773682	19892.474609	10308.684570	50.042019
464.442749	711.671448	19724.773438	10242.777344	50.129147
464.798126	707.956299	19645.341797	10174.642578	49.989407
465.153503	711.522888	19744.091797	10240.698242	50.067734
465.508820	713.677673	19846.701172	10281.193359	50.005245
465.864105	722.371033	19999.617188	10385.217773	50.125660
466.219330	724.377258	20265.324219	10513.539063	50.095638
466.574524	727.646484	20446.994141	10606.788086	50.098724
466.929657	723.188293	20643.451172	10746.551758	50.317421
467.284790	730.692932	20826.382813	10849.238281	50.351818
467.639893	727.572266	21018.455078	10967.527344	50.465794
467.994934	736.488586	21223.531250	11036.480469	50.275642
468.349945	727.498047	21236.607422	11054.610352	50.353783
468.704926	729.578430	21158.740234	11050.450195	50.520290
469.059875	725.268860	20894.220703	10941.448242	50.653004
469.414764	728.538269	20648.205078	10826.872070	50.695297
469.769653	722.519714	20468.837891	10711.925781	50.588703
470.124451	717.987244	20380.195313	10679.084961	50.661133
470.479248	717.838562	20228.396484	10617.190430	50.738434
470.834015	719.770508	20124.150391	10588.064453	50.856014
471.188721	720.959290	20183.591797	10614.664063	50.834362
471.543365	719.027527	20328.033203	10656.719727	50.679226
471.898010	722.668274	20493.580078	10748.557617	50.710304
472.252625	721.627991	20667.523438	10863.354492	50.846184
472.607178	719.324646	20925.281250	11029.645508	51.026146
472.961700	716.352539	21180.880859	11133.148438	50.901718
473.316193	716.055359	21479.207031	11285.989258	50.907173
473.670654	717.095520	21638.365234	11377.305664	50.953934
474.025055	709.145203	21848.416016	11518.036133	51.131802
474.379456	707.064758	22022.435547	11598.209961	51.095264
474.733795	714.272034	22192.812500	11701.637695	51.155083
475.088104	725.566101	22330.046875	11795.854492	51.240704
475.442383	735.894104	22335.546875	11831.518555	51.369457
475.796570	732.773438	22474.271484	11879.592773	51.269787
476.150787	726.011902	22688.781250	11964.817383	51.172077
476.504944	714.346375	23005.533203	12110.972656	51.126148
476.859070	719.027405	23314.187500	12273.324219	51.136158
477.213135	722.816895	23610.060547	12432.182617	51.161098
477.567200	731.658875	24052.755859	12660.812500	51.151768
477.921173	722.222412	24480.888672	12897.168945	51.244232
478.275146	721.776611	25045.142578	13189.996094	51.260258
478.629089	719.844727	25370.218750	13357.176758	51.266289
478.983002	726.234863	25797.013672	13585.286133	51.290989
479.336823	728.835388	26170.162109	13792.963867	51.350033
479.690643	722.371094	26684.115234	14083.041992	51.462917
480.044403	713.751953	27275.117188	14408.784180	51.559971
480.398163	709.962463	28003.953125	14801.101563	51.627258
480.751862	708.847961	28979.771484	15309.036133	51.643833
481.105499	708.922302	30167.720703	15945.883789	51.722958
481.459137	713.157471	31792.720703	16774.435547	51.677940
481.812744	720.290588	33802.464844	17835.775391	51.736271
482.166290	724.302917	36304.832031	19115.638672	51.689331
482.519806	718.953125	39245.285156	20694.273438	51.848488
482.873291	720.364929	42587.792969	22535.791016	52.105961
483.226715	719.621887	46258.871094	24661.000000	52.573063
483.580139	725.566101	49690.687500	26904.197266	53.463833
483.933502	723.262695	52789.042969	29146.134766	54.590309
484.286804	720.141907	55224.089844	31215.833984	55.951344
484.640106	716.501160	57025.406250	32952.214844	57.247982
484.993347	713.008850	58042.687500	34083.476563	58.208015
485.346558	716.724121	58219.003906	34385.738281	58.552486
485.699738	713.603333	57625.402344	33832.480469	58.193340
486.052887	715.089355	56468.582031	32750.333984	57.458721
486.405975	713.231873	55062.699219	31458.880859	56.570282
486.759064	721.999573	53642.699219	30212.080078	55.725040
487.112061	718.507324	52505.425781	29204.757813	55.006653
487.464996	723.114075	51791.746094	28599.634766	54.586388
487.817963	721.627991	51644.328125	28494.794922	54.539856
488.170868	727.052063	51678.656250	28543.759766	54.594368
488.523743	723.188416	51772.128906	28682.781250	54.770172
488.876587	722.296692	51577.011719	28563.970703	54.747478
489.229401	720.885010	51140.703125	28300.271484	54.699497
489.582153	724.748779	50393.214844	27735.048828	54.381187
489.934845	719.398926	49434.488281	27051.837891	54.053970
490.287537	716.798340	48362.230469	26331.546875	53.761181
490.640198	722.668274	47513.250000	25803.701172	53.602737
490.992798	730.395752	46930.343750	25440.953125	53.486111
491.345337	730.990173	46862.871094	25346.666016	53.359356
491.697876	724.674500	46933.386719	25383.220703	53.363415
492.050354	726.531982	47353.421875	25569.201172	53.279705
492.402832	730.172852	47527.734375	25752.431641	53.469147
492.755219	731.361633	47375.636719	25716.171875	53.564583
493.107605	725.045898	46606.011719	25383.890625	53.745258
493.459930	725.491699	45365.375000	24672.664063	53.645241
493.812225	720.216309	43587.980469	23659.025391	53.510624
494.164490	722.296814	41470.578125	22458.593750	53.342857
494.516724	721.702332	39262.519531	21231.927734	53.216892
494.868896	726.532043	37239.855469	20107.580078	53.079388
495.221039	720.885010	35654.832031	19272.564453	53.105022
495.573120	727.720886	34443.175781	18603.693359	53.020119
495.925201	725.863281	33770.292969	18250.603516	53.033871
496.277222	728.240967	33387.113281	17997.083984	52.876423
496.629211	725.863281	33347.062500	17949.306641	52.798313
496.981140	728.092346	33389.410156	17937.048828	52.689106
497.333069	731.436035	33489.871094	17988.392578	52.679428
497.684967	731.584656	33547.378906	18028.736328	52.709843
498.036804	724.600159	33564.175781	18044.119141	52.739780
498.388580	722.371033	33483.484375	18040.033203	52.860420
498.740326	717.392761	33299.359375	17960.453125	52.922100
499.092072	715.312256	32957.640625	17824.556641	53.064545
499.443756	715.683777	32581.595703	17609.748047	53.016102
499.795410	706.916199	32183.259766	17393.080078	53.011761
500.147003	711.820129	31812.412109	17160.509766	52.888672
500.498566	710.111145	31424.703125	16934.259766	52.822281
500.850098	720.216309	30950.203125	16749.691406	53.025082
501.201599	716.426819	30504.015625	16572.849609	53.231644
501.553009	714.569275	30113.630859	16404.927734	53.370266
501.904449	708.550781	29864.271484	16251.714844	53.310856
502.255859	716.798340	29647.900391	16107.789063	53.198769
502.607178	716.501221	29559.703125	16068.706055	53.226425
502.958405	724.600098	29477.599609	16011.195313	53.165218
503.309692	717.318420	29466.083984	15994.848633	53.141518
503.660919	715.163635	29495.802734	15977.907227	53.031288
504.012115	708.996582	29602.056641	16009.040039	52.954041
504.363251	715.535217	29729.111328	16061.573242	52.892612
504.714294	719.696106	29753.412109	16084.309570	52.919899
505.065369	717.615723	29733.421875	16102.215820	53.021442
505.416443	720.662109	29733.349609	16118.043945	53.071201
505.767395	720.439209	29785.287109	16148.507813	53.081539
506.118317	724.897400	29810.103516	16123.171875	52.941944
506.469238	719.398987	29816.048828	16139.145508	52.994919
506.820160	726.680664	29778.970703	16108.534180	52.945412
507.170929	727.052063	29775.328125	16161.140625	53.132549
507.521729	729.578430	29832.244141	16209.065430	53.189243
507.872498	727.200867	29944.587891	16292.656250	53.274632
508.223236	723.708557	30166.531250	16405.669922	53.262424
508.573883	726.086182	30351.396484	16504.640625	53.260387
508.924500	727.052063	30589.166016	16638.236328	53.282177
509.275116	734.185120	30781.833984	16698.718750	53.130726
509.625702	727.200684	31068.494141	16858.841797	53.167282
509.976196	722.742615	31362.287109	16997.490234	53.116806
510.326660	714.866516	31655.632813	17194.763672	53.262730
510.677124	716.352539	31942.369141	17336.978516	53.226852
511.027557	717.392761	32164.904297	17493.757813	53.347195
511.377869	716.724060	32397.919922	17626.166016	53.373749
511.728180	714.494934	32540.728516	17720.380859	53.433548
512.078430	716.872620	32657.234375	17740.740234	53.298920
512.428650	711.894348	32805.468750	17790.300781	53.214409
512.778931	722.073914	32906.890625	17831.539063	53.160049
513.129028	721.702332	32993.007813	17904.130859	53.243671
513.479126	727.275085	33024.511719	17919.214844	53.230373
513.829285	724.451477	33001.406250	17917.283203	53.266586
514.179382	723.411316	32917.367188	17884.441406	53.305130
514.529297	720.216309	32821.593750	17852.490234	53.369278
514.879272	709.145203	32804.875000	17840.603516	53.376129
515.229187	699.114258	32741.640625	17793.419922	53.348804
515.579163	708.625000	32744.318359	17806.720703	53.372017
515.928955	716.649719	32788.378906	17837.408203	53.382710
516.278748	726.829285	33040.933594	17976.056641	53.379871
516.628540	724.228577	33372.917969	18156.390625	53.393147
516.978333	726.011902	33831.738281	18378.480469	53.321495
517.327942	726.086182	34366.199219	18676.880859	53.361279
517.677612	725.194519	35012.925781	19002.921875	53.306900
518.027222	721.999512	35710.113281	19383.945313	53.337959
518.376831	721.479431	36495.339844	19815.941406	53.375462
518.726379	722.073914	37212.437500	20222.822266	53.440815
519.075867	723.262695	37797.718750	20557.408203	53.498138
519.425293	721.033630	38257.800781	20786.705078	53.456051
519.774658	723.782776	38457.828125	20923.203125	53.531021
520.124084	725.120300	38453.890625	20949.505859	53.604675
520.473389	729.801331	38099.238281	20826.013672	53.777134
520.822693	721.702332	37712.863281	20652.294922	53.879337
521.171997	714.717834	37260.957031	20385.398438	53.824089
521.521240	709.813904	36795.226563	20098.736328	53.730633
521.870361	714.940735	36352.828125	19799.742188	53.551998
522.219482	724.451477	35959.765625	19596.451172	53.559906
522.568604	726.903564	35767.843750	19439.820313	53.403008
522.917664	727.943787	35598.359375	19339.140625	53.372459
523.266724	723.559875	35689.972656	19355.933594	53.286484
523.615662	713.751953	35912.289063	19532.107422	53.463455
523.964600	710.408264	36363.753906	19787.259766	53.506485
524.313538	710.779785	36917.011719	20121.845703	53.612503
524.662354	724.897278	37667.546875	20517.433594	53.576389
525.011169	730.024231	38633.253906	21039.335938	53.582008
525.359985	727.423645	39797.800781	21652.554688	53.557533
525.708740	715.386536	41108.722656	22359.396484	53.583118
526.057434	719.398926	42569.886719	23179.476563	53.667423
526.406067	721.405090	44206.109375	24080.025391	53.716869
526.754700	727.349365	46012.781250	25121.453125	53.867439
527.103333	716.278259	47955.500000	26314.087891	54.187622
527.451782	714.420654	49967.910156	27735.869141	54.862000
527.800293	715.906738	51953.730469	29172.806641	55.538853
528.148743	716.426758	53840.343750	30726.179688	56.490101
528.497131	713.751953	55501.156250	32199.306641	57.468597
528.845642	710.779785	56874.718750	33603.406250	58.565384
529.193909	712.785950	57932.125000	34760.152344	59.503250
529.542175	713.083191	58646.390625	35587.957031	60.198315
529.890503	712.340149	58896.050781	35944.980469	60.554131
530.238770	709.591003	58652.261719	35738.566406	60.454540
530.586914	715.758118	57919.488281	35011.218750	59.953190
530.934998	713.528992	56776.714844	33894.523438	59.184998
531.283142	715.758118	55356.640625	32553.208984	58.266724
531.631226	715.015137	53756.011719	31090.781250	57.268467
531.979248	726.309082	52130.863281	29702.882813	56.369663
532.327148	730.024231	50695.484375	28547.400391	55.673210
532.675110	730.247131	49596.105469	27755.556641	55.305092
533.023071	724.674500	49119.300781	27341.244141	54.999023
533.370850	726.457703	49024.562500	27196.281250	54.805099
533.718689	727.349304	49279.203125	27262.929688	54.654102
534.066467	728.018066	49464.437500	27415.251953	54.758301
534.414246	721.999512	49549.292969	27498.396484	54.838993
534.761963	711.597168	49398.902344	27450.843750	54.920368
535.109619	706.544617	49027.832031	27244.130859	54.919037
535.457153	705.504333	48398.785156	26843.193359	54.803715
535.804749	712.191589	47598.546875	26333.328125	54.645187
536.152344	712.860291	46705.355469	25797.755859	54.541283
536.499817	714.717834	45748.558594	25212.919922	54.399540
536.847229	713.454773	44815.386719	24626.150391	54.221420
537.194641	711.448547	43984.980469	24079.876953	54.001667
537.542114	710.185364	43396.207031	23724.414063	53.915138
537.889404	711.448547	42876.160156	23439.833984	53.903809
538.236694	712.265930	42388.218750	23184.603516	53.921593
538.583984	716.649719	41933.855469	22926.773438	53.885559
538.931213	717.987244	41654.105469	22735.740234	53.785645
539.278381	726.309082	41486.031250	22617.677734	53.708336
539.625488	727.497986	41543.316406	22649.552734	53.709702
539.972595	725.937561	41887.710938	22861.091797	53.775997
540.319641	721.702332	42638.394531	23224.951172	53.685650
540.666687	717.912903	43651.957031	23755.099609	53.657158
541.013611	722.148193	45011.546875	24483.787109	53.650848
541.360596	721.107910	46404.722656	25344.064453	53.898884
541.707458	722.445313	47856.449219	26266.162109	54.193821
542.054260	717.541321	48988.082031	27062.164063	54.577023
542.401062	715.089355	49945.843750	27744.783203	54.904083
542.747864	715.758118	50412.832031	28095.419922	55.093105
543.094666	713.900574	50363.199219	28078.107422	55.114994
543.441284	710.408386	49743.667969	27675.162109	54.992786
543.787903	711.225647	48741.769531	27019.664063	54.774391
544.134460	713.008972	47433.375000	26233.617188	54.624157
544.481079	716.278259	45981.347656	25363.679688	54.451263
544.827637	710.185364	44413.707031	24443.664063	54.305641
545.174072	711.002686	42742.046875	23439.166016	54.074707
545.520508	716.649719	41333.191406	22587.880859	53.848083
545.866943	723.857117	40076.878906	21883.562500	53.768944
546.213318	729.578430	39211.847656	21373.845703	53.646179
546.559631	723.857117	38403.656250	20916.587891	53.590332
546.905823	716.872742	37723.710938	20485.410156	53.418602
547.252136	713.231750	37203.667969	20181.806641	53.352535
547.598389	716.426819	36660.738281	19905.031250	53.384254
547.944458	723.485596	36239.148438	19689.923828	53.403023
548.290588	722.073914	35674.964844	19377.257813	53.372364
548.636658	719.993347	35085.074219	19018.748047	53.248100
548.982727	716.946960	34284.613281	18596.634766	53.264610
549.328735	724.451477	33481.769531	18180.910156	53.290257
549.674622	726.680603	32613.396484	17719.935547	53.292587
550.020569	729.504150	31813.306641	17296.037109	53.296352
550.366455	720.959290	30980.890625	16846.804688	53.291084
550.712280	722.742493	30262.904297	16463.478516	53.285885
551.058044	715.683777	29716.630859	16158.984375	53.251022
551.403748	714.866455	29301.796875	15928.051758	53.217278
551.749512	707.361816	29050.505859	15753.217773	53.084637
552.095154	709.516602	28852.562500	15644.363281	53.067627
552.440735	708.030579	28786.062500	15578.828125	52.962395
552.786316	715.015137	28727.365234	15570.579102	53.032196
553.131897	724.377258	28738.062500	15562.778320	52.968403
553.477417	729.281250	28747.720703	15571.026367	52.971348
553.822815	731.956116	28731.820313	15577.342773	53.019497
554.168213	725.343201	28706.931641	15506.085938	52.823105
554.513672	726.234802	28579.427734	15441.219727	52.830513
554.859009	721.925232	28405.412109	15349.902344	52.840084
555.204285	720.736389	28153.005859	15258.733398	52.995968
555.549500	721.479492	27859.804688	15104.109375	52.997486
555.894714	722.073914	27530.791016	14935.367188	53.017429
556.239990	719.696106	27237.669922	14763.207031	52.958458
556.585022	718.210144	26924.630859	14612.075195	53.017029
556.930115	719.621887	26641.242188	14449.797852	52.968044
557.275146	720.513489	26302.349609	14303.942383	53.097942
557.620178	719.993347	26114.509766	14190.109375	53.043407
557.965149	720.364929	25931.724609	14091.584961	53.036488
558.310059	720.736389	25795.304688	13990.606445	52.921631
558.654968	718.730164	25604.718750	13899.585938	52.964966
558.999756	712.934570	25444.818359	13836.503906	53.063366
559.344604	718.655945	25361.154297	13806.930664	53.112614
559.689331	718.061523	25304.537109	13785.903320	53.150528
560.033997	718.878845	25274.591797	13731.959961	52.994106
560.378723	717.764343	25235.656250	13690.350586	52.910690
560.723389	721.256531	25217.375000	13680.617188	52.903728
561.067932	726.977783	25282.166016	13688.715820	52.786152
561.412476	726.309082	25308.250000	13703.874023	52.793083
561.757019	720.290527	25333.437500	13696.071289	52.718906
562.101501	721.479309	25311.369141	13718.659180	52.855785
562.445862	719.473206	25288.859375	13702.089844	52.840618
562.790222	725.937561	25265.599609	13689.532227	52.827110
563.134644	718.581604	25224.658203	13638.411133	52.720921
563.478943	718.953125	25214.328125	13624.963867	52.687542
563.823181	718.581604	25212.177734	13620.877930	52.676201
564.167358	721.851013	25260.546875	13630.983398	52.607250
564.511536	719.844788	25373.857422	13673.632813	52.542313
564.855774	716.649719	25425.945313	13684.481445	52.481594
565.199768	717.244141	25544.234375	13740.208008	52.454865
565.543823	718.061523	25647.367188	13822.981445	52.568333
565.887817	716.129639	25920.726563	13956.502930	52.531578
566.231812	712.563049	26152.404297	14069.370117	52.503498
566.575745	710.333984	26363.869141	14168.563477	52.461502
566.919617	712.117249	26558.912109	14284.030273	52.509075
567.263428	714.569336	26700.460938	14382.332031	52.596859
567.607239	714.792175	26813.103516	14452.622070	52.638771
567.950989	719.993347	26784.052734	14462.058594	52.724197
568.294678	724.080017	26765.921875	14445.786133	52.690998
568.638367	727.572266	26640.646484	14389.242188	52.721146
568.981995	719.027344	26514.554688	14306.691406	52.674496
569.325623	711.894287	26298.630859	14197.317383	52.704739
569.669128	711.076965	26139.994141	14076.204102	52.558773
570.012573	709.070801	26005.431641	14008.515625	52.574539
570.356140	713.974792	26009.890625	14020.254883	52.602486
570.699524	714.643555	25979.873047	14016.687500	52.649605
571.042908	720.216309	26053.359375	14021.739258	52.506409
571.386230	714.197754	26162.583984	14039.648438	52.362656
571.729492	711.671448	26396.931641	14147.238281	52.308472
572.072815	711.671448	26572.361328	14250.742188	52.353863
572.416016	719.547546	26711.603516	14346.815430	52.428585
572.759094	722.965515	26827.515625	14374.381836	52.295158
573.102234	720.067688	26917.943359	14404.102539	52.233379
573.445374	711.820007	26942.912109	14393.551758	52.158451
573.788391	709.442322	26909.919922	14396.597656	52.240097
574.131409	710.556946	26871.132813	14382.554688	52.261837
574.474365	715.460938	26788.804688	14369.551758	52.368008
574.817261	717.987122	26673.193359	14288.859375	52.285740
575.160156	729.801270	26481.119141	14174.507813	52.209782
575.502930	735.299744	26263.263672	14026.868164	52.066696
575.845703	730.172852	26047.115234	13931.983398	52.146152
576.188477	728.538269	25803.998047	13776.393555	52.034363
576.531250	730.395752	25528.111328	13634.995117	52.039471
576.873901	737.974609	25208.240234	13461.647461	51.996464
577.216431	730.767273	24893.791016	13317.945313	52.092728
577.559082	720.439148	24575.998047	13129.958008	52.019402
577.901611	713.974792	24189.103516	12938.406250	52.073971
578.244080	708.030579	23841.218750	12786.977539	52.214798
578.586487	717.169861	23502.992188	12636.664063	52.311012
578.928955	723.411316	23186.240234	12454.250000	52.223339
579.271301	730.098572	22817.843750	12238.624023	52.103664
579.613647	722.742493	22393.726563	12003.901367	52.056515
579.955872	720.216309	22030.234375	11824.831055	52.109837
580.298157	724.005676	21720.466797	11647.247070	52.024200
580.640320	727.349304	21478.984375	11516.401367	51.991333
580.982483	724.228577	21207.632813	11393.282227	52.086330
581.324524	719.547546	20990.890625	11309.542969	52.241211
581.666626	715.832336	20819.029297	11203.215820	52.167740
582.008728	714.940735	20737.591797	11152.168945	52.127106
582.350647	716.055359	20621.308594	11067.835938	52.005264
582.692566	721.182190	20539.054688	11017.012695	51.952244
583.034424	723.114075	20423.589844	10913.508789	51.726639
583.376343	721.107910	20302.029297	10865.509766	51.807583
583.718201	720.439209	20229.658203	10822.339844	51.780136
584.059937	728.835388	20148.521484	10793.288086	51.826035
584.401611	731.064453	20070.427734	10731.987305	51.712784
584.743347	732.699158	19971.902344	10706.651367	51.841816
585.085022	724.080078	19851.085938	10674.997070	52.025482
585.426514	725.491699	19758.876953	10608.942383	51.926922
585.768127	720.587708	19669.341797	10546.156250	51.853374
586.109619	720.141907	19609.974609	10487.680664	51.707920
586.451172	719.101746	19580.921875	10487.383789	51.788651
586.792542	715.163757	19535.300781	10466.727539	51.814518
587.133850	716.649719	19515.164063	10451.643555	51.785976
587.475220	715.906738	19488.861328	10420.584961	51.694992
587.816589	723.782898	19438.185547	10408.696289	51.751122
588.157776	730.172852	19500.005859	10425.042969	51.651340
588.498962	733.293640	19574.009766	10461.674805	51.634876
588.840210	730.247131	19696.017578	10486.268555	51.440155
589.181335	724.005798	19722.841797	10517.178711	51.546173
589.522400	722.148193	19751.150391	10522.973633	51.504673
589.863403	726.903564	19799.669922	10541.401367	51.458179
590.204407	729.281250	19784.064453	10520.745117	51.385857
590.545410	729.355469	19869.810547	10546.007813	51.287457
590.886353	727.349365	19853.908203	10568.893555	51.454861
591.227112	723.336975	19857.996094	10570.973633	51.464920
591.567932	719.398926	19725.662109	10538.206055	51.660900
591.908752	717.764343	19618.666016	10448.077148	51.480679
592.249512	720.513489	19575.421875	10390.566406	51.286659
592.590149	718.804504	19486.927734	10330.307617	51.211849
592.930786	715.089355	19427.189453	10322.579102	51.343731
593.271423	711.894348	19328.144531	10284.016602	51.418098
593.612000	716.129639	19269.964844	10250.952148	51.390034
593.952576	720.587830	19285.123047	10230.592773	51.226734
594.292969	722.073914	19323.390625	10259.719727	51.274036
594.633484	730.247253	19415.748047	10294.196289	51.183800
594.973877	725.863281	19510.482422	10335.582031	51.157379
595.314209	726.086182	19645.861328	10384.697266	51.050350
595.654480	710.705566	19848.560547	10483.965820	51.067684
595.994812	718.135925	20040.484375	10576.546875	51.020775
596.335022	717.912903	20308.494141	10700.557617	50.956345
596.675171	722.296692	20473.076172	10800.791992	51.028343
597.015320	715.535156	20658.978516	10903.107422	51.082314
597.355408	719.844727	20747.029297	10953.261719	51.097633
597.695496	716.575500	20830.990234	10990.190430	51.075886
598.035461	719.919128	20797.851563	10968.864258	51.045822
598.375366	716.352539	20758.248047	10939.069336	51.006741
598.715271	718.432922	20657.267578	10887.057617	50.999096
599.055176	722.148132	20452.341797	10771.368164	50.933205
599.395081	727.349365	20159.814453	10621.796875	50.917099
599.734802	727.126465	19815.271484	10408.771484	50.720722
600.074524	723.114075	19472.439453	10233.491211	50.723835
600.414246	717.764343	19068.603516	10036.737305	50.782269
600.753906	715.832458	18687.357422	9863.166992	50.899044
601.093506	713.900574	18361.912109	9694.647461	50.888153
601.433044	715.312317	18170.656250	9575.243164	50.757698
601.772583	723.559875	18061.283203	9491.727539	50.572777
602.112122	727.720886	18019.226563	9465.498047	50.532196
602.451538	727.497986	18022.494141	9464.458008	50.517269
602.790894	724.748779	18116.267578	9513.719727	50.535957
603.130310	719.844727	18325.429688	9592.109375	50.394600
603.469604	725.194580	18598.865234	9714.858398	50.295570
603.808838	723.336975	18903.949219	9878.250000	50.355366
604.148010	727.423645	19224.566406	10036.440430	50.326782
604.487305	722.073914	19531.287109	10173.454102	50.248672
604.826416	725.120300	19806.728516	10274.655273	50.045757
605.165527	719.993347	20005.783203	10389.972656	50.140442
605.504456	721.405090	20164.568359	10477.500977	50.177509
605.843445	716.946960	20204.544922	10517.401367	50.290726
606.182434	714.940735	20145.845703	10493.178711	50.323124
606.521423	715.089355	19978.515625	10439.829102	50.482922
606.860229	715.980957	19749.439453	10336.772461	50.546730
607.199036	721.925232	19504.167969	10193.293945	50.427254
607.537903	715.312317	19256.443359	10042.756836	50.306770
607.876648	711.374268	18940.656250	9875.649414	50.272282
608.215271	707.361877	18650.353516	9716.938477	50.212227
608.553955	709.219482	18351.804688	9578.289063	50.270802
608.892578	719.473328	18196.437500	9485.187500	50.155815
609.231140	721.776672	18100.291016	9446.922852	50.206516
609.569641	724.080078	18041.962891	9374.848633	49.952808
609.908081	725.789063	18037.060547	9349.140625	49.813507
610.246521	722.816895	17995.451172	9313.771484	49.737373
610.584961	730.767273	18020.935547	9327.590820	49.720879
610.923340	724.823059	17966.099609	9288.360352	49.668808
611.261597	727.126465	17905.023438	9281.747070	49.800167
611.599854	719.027344	17755.453125	9218.960938	49.892704
611.938110	719.993347	17623.044922	9170.589844	49.994507
612.276245	725.714661	17394.490234	9013.959961	49.723179
612.614319	723.336975	17088.957031	8870.853516	49.784344
612.952393	721.702332	16708.677734	8677.740234	49.765747
613.290466	713.454773	16369.036133	8522.298828	49.878979
613.628479	719.919128	16038.539063	8360.541992	49.878010
613.966370	722.296692	15777.661133	8198.785156	49.659962
614.304260	722.891113	15532.834961	8078.712402	49.668125
614.642151	720.662109	15339.573242	7975.059082	49.623375
614.979980	724.228516	15142.968750	7915.022949	49.871170
615.317749	723.114075	14995.477539	7840.273438	49.866718
615.655396	721.330811	14879.789063	7755.197754	49.679615
615.993164	722.519714	14831.714844	7717.972168	49.580807
616.330811	724.971680	14781.487305	7693.525879	49.575260
616.668396	730.024231	14779.406250	7686.988281	49.517937
617.005859	723.634094	14754.960938	7649.688965	49.361366
617.343445	720.290588	14722.936523	7636.908691	49.395081
617.680908	720.587830	14700.792969	7628.660645	49.413242
618.018311	723.485596	14719.815430	7649.835938	49.486904
618.355652	728.315247	14749.386719	7650.132813	49.367252
618.692993	725.343201	14743.739258	7636.833496	49.303001
619.030273	723.559875	14730.069336	7612.610840	49.184635
619.367554	732.773438	14690.168945	7592.029297	49.144238
619.704712	734.556702	14662.082031	7575.311035	49.116798
620.041870	740.798157	14606.281250	7561.044434	49.188663
620.379028	732.253357	14552.485352	7520.029297	49.114773
620.716064	733.367859	14501.809570	7500.413574	49.148960
621.053040	731.658875	14426.319336	7452.785645	49.078449
621.389954	730.618652	14382.851563	7419.498047	48.994766
621.726929	727.943787	14294.729492	7373.355957	48.982952
622.063843	728.686829	14243.460938	7336.947754	48.896568
622.400635	725.863281	14202.221680	7317.406250	48.911900
622.737427	725.417480	14174.432617	7306.111816	48.930676
623.074219	716.798340	14113.132813	7281.072266	49.000526
623.410889	715.460876	14041.950195	7260.193359	49.110703
623.747559	713.380371	14027.460938	7224.974121	48.907574
624.084167	720.290527	13994.545898	7180.614746	48.668072
624.420715	723.411316	13991.573242	7155.872559	48.480427
624.757324	721.999512	14008.812500	7158.695313	48.444244
625.093750	719.398926	14079.102539	7209.295410	48.578148
625.430176	725.045959	14141.293945	7242.359863	48.577770
625.766602	729.726990	14200.958008	7241.097168	48.335373
626.102905	726.680664	14281.949219	7281.072266	48.353092
626.439209	718.953125	14409.156250	7326.396973	48.264030
626.775452	711.597168	14528.856445	7411.027832	48.485958
627.111694	717.690002	14629.239258	7452.339844	48.410496
627.447876	720.885010	14709.784180	7465.491699	48.213989
627.783997	729.875671	14753.918945	7478.271484	48.120190
628.120056	732.476257	14819.752930	7465.119629	47.792374
628.456055	734.110840	14800.804688	7458.283691	47.802086
628.792053	729.281250	14751.468750	7414.742188	47.677731
629.128052	718.953125	14658.664063	7390.892090	47.862820
629.463928	712.414551	14564.226563	7349.950684	47.918179
629.799744	711.151367	14459.606445	7301.876953	47.937935
630.135559	715.609436	14319.768555	7243.846191	47.987064
630.471375	716.055359	14150.877930	7139.673828	47.813202
630.807068	720.662048	13967.796875	7071.166504	47.938702
631.142700	723.188293	13815.476563	6962.090332	47.653259
631.478333	728.538147	13659.292969	6894.846191	47.687145
631.813965	721.033630	13539.887695	6803.231934	47.447285
632.149475	716.426758	13392.916992	6748.767578	47.586838
632.484924	719.473145	13288.594727	6705.300293	47.623276
632.820435	734.853821	13197.945313	6674.910156	47.661175
633.155884	736.042725	13142.367188	6634.861816	47.546875
633.491150	732.847717	13098.752930	6590.948730	47.373005
633.826477	721.702332	13039.979492	6549.413574	47.309467
634.161804	721.182190	12967.458008	6504.683105	47.226612
634.497009	713.008972	12905.862305	6462.851074	47.157478
634.832153	710.333984	12842.112305	6425.699219	47.110695
635.167297	709.293762	12765.504883	6388.176270	47.103374
635.502380	715.980957	12673.445313	6345.898438	47.082870
635.837463	719.324707	12558.200195	6281.923340	46.985870
636.172424	722.593994	12468.071289	6227.236816	46.866058
636.507324	724.897278	12360.628906	6182.580566	46.904514
636.842224	725.640381	12260.246094	6126.036621	46.819084
637.177124	727.200684	12133.708008	6065.257324	46.798344
637.511963	719.176025	12011.481445	6001.134277	46.774841
637.846741	723.782898	11887.468750	5938.793457	46.714058
638.181396	724.823059	11747.112305	5887.376465	46.837395
638.516113	733.367859	11646.504883	5812.999512	46.546028
638.850769	724.451477	11541.515625	5763.810547	46.587120
639.185303	719.398926	11474.569336	5705.854004	46.363331
639.519836	716.649719	11373.739258	5689.507813	46.662437
639.854370	718.581604	11273.133789	5644.331543	46.669437
640.188843	721.256531	11142.807617	5595.515137	46.770954
640.523254	720.141907	11046.585938	5533.100098	46.608086
640.857605	724.823059	10928.592773	5480.791504	46.609913
641.191895	724.897400	10863.875000	5428.259766	46.388920
641.526184	725.343079	10792.767578	5379.888672	46.233723
641.860413	721.702332	10773.895508	5352.395996	46.066502
642.194580	715.609558	10711.628906	5336.941406	46.231724
642.528748	715.683838	10630.043945	5315.987793	46.400410
642.862793	716.203918	10571.270508	5282.329102	46.332767
643.196838	721.182312	10515.247070	5238.787598	46.125954
643.530823	725.491760	10486.566406	5198.218262	45.822075
643.864746	726.532043	10414.937500	5158.986328	45.750092
644.198669	725.789001	10371.396484	5131.939941	45.680389
644.532532	722.445374	10303.334961	5100.881836	45.699688
644.866333	722.519714	10261.577148	5079.333984	45.673428
645.200073	714.940735	10243.000977	5055.185547	45.552235
645.533813	710.185364	10241.664063	5034.009277	45.363621
645.867554	709.665283	10223.534180	5028.808105	45.398380
646.201172	716.575439	10196.338867	5021.525879	45.411999
646.534729	728.761047	10189.652344	5021.377930	45.372223
646.868225	723.114075	10214.766602	5018.034668	45.249451
647.201782	726.086182	10219.967773	5009.117676	45.113594
647.535217	720.141907	10237.131836	5015.210449	45.130531
647.868591	728.612488	10228.883789	5016.027832	45.129398
648.201965	727.869446	10232.598633	5013.724609	45.091816
648.535278	732.550476	10206.666992	4997.675293	45.018711
648.868591	729.949890	10224.500000	4974.715820	44.707397
649.201782	721.850891	10188.760742	4935.038574	44.504356
649.534912	716.872742	10162.532227	4907.842773	44.369270
649.868103	712.563171	10093.653320	4876.784668	44.389530
650.201172	717.541321	10045.429688	4866.902344	44.483387
650.534180	714.494934	9985.022461	4848.996094	44.598335
650.867188	716.055359	9937.468750	4829.751465	44.610260
651.200134	713.008850	9940.812500	4809.020508	44.387722
651.533020	716.352539	9918.521484	4791.113770	44.280445
651.865845	723.337097	9881.815430	4777.144531	44.262890
652.198608	727.052185	9822.670898	4755.671387	44.291862
652.531433	718.953125	9778.833008	4726.247559	44.231209
652.864136	714.420715	9750.597656	4692.736816	44.026543
653.196777	853.886902	9845.779297	4812.884766	44.028526
653.529358	864.066406	9821.258789	4803.076660	43.975948
653.861938	864.289246	9768.429688	4768.303223	43.844925
654.194519	721.702332	9564.096680	4583.734863	43.676319
654.526978	710.556946	9479.837891	4547.698242	43.756622
654.859375	707.436218	9414.971680	4520.800293	43.793839
655.191833	715.163757	9380.346680	4507.202637	43.761787
655.524170	720.810730	9337.102539	4473.395020	43.552193
655.856445	719.696106	9293.487305	4445.234375	43.452637
656.188660	718.804504	9264.211914	4427.476074	43.399590
656.520874	720.364929	9240.509766	4399.314941	43.179432
656.853088	717.244141	9240.211914	4405.334473	43.272373
657.185181	717.838562	9227.877930	4392.776855	43.183563
657.517212	718.953125	9247.419922	4398.201172	43.140793
657.849243	729.801270	9286.800781	4401.544434	42.909233
658.181274	728.315247	9350.997070	4415.513672	42.761623
658.513123	728.463867	9421.360352	4431.860352	42.602562
658.844971	728.686768	9511.194336	4458.312012	42.466518
659.176819	728.018066	9601.620117	4493.383301	42.433338
659.508667	725.937683	9709.135742	4529.791504	42.344093
659.840393	721.702332	9784.256836	4548.440918	42.225826
660.172058	720.513489	9832.256836	4554.014160	42.072090
660.503662	723.336975	9860.416992	4574.967285	42.153843
660.835266	723.411316	9870.374023	4602.013672	42.403172
661.166931	721.033630	9848.529297	4582.620605	42.307186
661.498413	722.519714	9799.266602	4547.697754	42.142609
661.829773	722.816895	9693.161133	4461.952637	41.683304
662.161194	725.194580	9556.964844	4406.671875	41.684475
662.492615	721.776672	9412.743164	4339.353027	41.624557
662.823975	726.532043	9236.274414	4280.356934	41.761841
663.155212	735.448425	9067.830078	4219.131836	41.808975
663.486450	732.922058	8905.775391	4141.559570	41.706821
663.817627	727.795166	8776.265625	4074.389648	41.580502
664.148743	717.987244	8649.729492	4009.894775	41.502956
664.479858	724.823059	8524.083008	3960.483643	41.486767
664.810913	729.132629	8419.984375	3902.378906	41.260014
665.141907	728.761047	8353.111328	3864.113281	41.122879
665.472778	722.519714	8273.161133	3814.924561	40.955524
665.803711	717.318420	8225.534180	3799.395264	41.049393
666.134583	718.655945	8185.558594	3779.259033	40.988922
666.465454	722.891113	8176.419434	3763.655518	40.796307
666.796143	719.547546	8136.890625	3737.055420	40.681786
667.126831	715.609558	8108.804688	3705.922607	40.446827
667.457458	713.751953	8066.526855	3687.272705	40.440796
667.788147	721.702332	8050.402832	3670.777344	40.240078
668.118774	729.801331	8019.344238	3670.034424	40.334946
668.449219	723.411316	7986.205078	3663.050049	40.475315
668.779663	718.581604	7977.288574	3667.879883	40.631180
669.110107	707.956360	7953.214844	3650.641357	40.615322
669.440552	712.563171	7948.533203	3645.068604	40.526775
669.770874	713.380432	7927.357422	3613.118408	40.196110
670.101135	718.581604	7917.846191	3599.000977	40.009911
670.431396	719.473328	7898.378906	3574.926758	39.775608
670.761597	717.987122	7851.197266	3550.184326	39.704388
671.091797	712.563049	7794.727051	3522.023438	39.669521
671.421875	713.603333	7732.461426	3503.670654	39.751019
671.751892	710.333984	7684.907715	3489.627197	39.848934
672.081909	718.655945	7653.923340	3465.255859	39.603371
672.411865	719.101746	7615.286621	3426.469971	39.258926
672.741821	722.891113	7549.230957	3407.671631	39.329723
673.071716	719.250305	7498.482422	3383.448975	39.299419
673.401550	724.005676	7457.393066	3363.758789	39.203941
673.731262	723.708557	7455.238281	3331.734375	38.743435
674.060974	722.816895	7411.845215	3320.811523	38.839642
674.390625	714.866516	7356.638184	3302.755859	38.963844
674.720276	712.637451	7284.860840	3275.635498	38.997425
675.049927	716.129639	7245.777832	3247.920654	38.773773
675.379395	718.284424	7224.378906	3235.957764	38.697151
675.708923	719.770508	7189.308594	3218.868164	38.628689
676.038330	715.683777	7143.166504	3193.753906	38.554283
676.367737	719.250305	7109.804688	3164.552979	38.264328
676.697083	719.919006	7082.089844	3139.735596	38.034451
677.026428	715.832336	7075.179688	3124.577881	37.877247
677.355652	717.467041	7043.824219	3115.958740	37.912682
677.684875	715.981018	7038.771484	3111.723633	37.890591
678.013977	725.566101	7023.910645	3089.878906	37.538635
678.343079	725.863281	7037.359375	3068.776611	37.121361
678.672180	721.405090	7055.265625	3072.640625	37.121685
679.001221	712.860291	7096.206543	3089.655518	37.234314
679.330139	708.327881	7133.357910	3110.609131	37.389416
679.659058	714.866516	7176.082520	3114.250000	37.135170
679.987976	718.730225	7230.769531	3121.828857	36.902397
680.316772	720.141907	7300.019531	3129.630615	36.619053
680.645630	715.832458	7344.972656	3135.946289	36.507206
680.974304	713.528992	7392.229004	3149.023438	36.466591
681.302979	716.278259	7417.640625	3158.757080	36.447495
681.631653	730.841553	7449.293457	3174.434814	36.371372
681.960266	731.510254	7447.732910	3165.296143	36.237423
682.288757	725.714661	7449.367188	3170.645752	36.363140
682.617249	713.157532	7444.464355	3149.097656	36.188221
682.945679	715.609558	7423.436035	3132.528320	36.031322
683.274109	721.628113	7374.322266	3096.565674	35.698883
683.602478	721.182190	7296.675781	3062.906982	35.612915
683.930725	723.559875	7181.061035	3028.504639	35.694069
684.259033	712.934570	7091.674316	2993.656494	35.755054
684.587280	715.015137	7011.725098	2974.783447	35.888081
684.915344	711.894348	6970.486816	2938.449463	35.575974
685.243469	725.714661	6903.094238	2903.304443	35.251030
685.571533	726.977844	6831.020996	2865.855713	35.040348
685.899536	729.652649	6754.711426	2843.936523	35.091507
686.227539	719.770447	6679.814453	2815.701416	35.166367
686.555420	717.541321	6644.298340	2795.119873	35.054222
686.883301	717.318542	6625.871094	2787.912354	35.044010
687.211121	716.055359	6619.628906	2779.516357	34.952744
687.538940	711.745789	6627.876465	2776.841553	34.906185
687.866638	710.705566	6623.195313	2764.284180	34.732891
688.194336	711.522888	6646.526855	2759.157227	34.500977
688.521973	715.758057	6625.127441	2733.968506	34.152721
688.849609	710.185364	6595.853027	2724.606201	34.225868
689.177063	711.968689	6555.580566	2712.718018	34.238232
689.504578	709.813904	6505.574219	2715.095459	34.599110
689.832031	718.210144	6454.454590	2691.541748	34.401104
690.159485	720.364929	6370.121094	2654.093262	34.226757
690.486816	724.228577	6276.351074	2616.198975	34.076527
690.814087	723.708496	6181.243652	2590.267090	34.201496
691.141296	722.816833	6079.076660	2565.598633	34.404263
691.468506	724.451477	6006.483887	2521.462891	34.021214
691.795715	718.953125	5937.010254	2481.859619	33.784729
692.122803	720.067688	5877.345215	2435.865967	33.269459
692.449829	722.445313	5799.327637	2408.522705	33.210880
692.776855	726.606262	5729.705566	2369.513672	32.837795
693.103821	730.172852	5671.154785	2352.498291	32.834068
693.430664	725.045898	5628.060059	2325.303711	32.638245
693.757568	724.080017	5587.267578	2318.022217	32.775665
694.084351	716.501160	5534.215332	2292.239014	32.707165
694.411133	719.993347	5493.720215	2277.601318	32.628757
694.737854	716.946960	5432.420410	2249.663330	32.503975
695.064575	718.655945	5399.578613	2245.947998	32.628010
695.391174	714.792175	5373.795410	2232.796631	32.582169
695.717773	715.535156	5367.925293	2232.053467	32.596542
696.044250	717.169922	5354.997559	2221.651123	32.439350
696.370789	720.141907	5346.526855	2221.502686	32.452141
696.697205	717.615723	5382.043457	2218.084717	32.168339
697.023621	711.968689	5443.565918	2228.635742	32.054016
697.349915	712.414551	5513.187988	2244.833740	31.920256
697.676208	713.008972	5573.149902	2256.499268	31.758137
698.002380	719.176025	5661.347656	2270.765381	31.394888
698.328674	718.284363	5790.708496	2298.331787	31.149748
698.654724	717.541321	5899.859375	2329.464600	31.104294
698.980896	718.804504	6012.427734	2359.928955	31.001915
699.306946	721.702332	6087.770020	2362.380859	30.575060
699.632935	727.943787	6173.069824	2375.755127	30.262133
699.958862	720.587830	6183.695313	2377.315674	30.325741
700.284729	725.491760	6175.299316	2376.721436	30.298862
700.610596	718.581726	6130.866699	2361.043213	30.346912
700.936340	728.761047	6060.501465	2342.764893	30.271616
701.262146	719.696228	5939.165527	2306.727783	30.405994
701.587830	724.748718	5789.964844	2264.226807	30.393135
701.913513	717.318420	5641.359375	2200.846436	30.128263
702.239075	719.176086	5491.564941	2151.137939	30.005140
702.564697	721.999512	5359.009277	2097.194336	29.656931
702.890137	718.432922	5217.833984	2060.563232	29.829090
703.215698	718.358704	5097.092285	2019.696655	29.719505
703.541016	719.919128	4988.535645	1990.272827	29.760315
703.866455	721.850891	4919.285645	1965.381226	29.625959
704.191711	713.380432	4836.289551	1954.458618	30.101999
704.517029	707.584778	4768.525879	1930.087402	30.103926
704.842163	720.959290	4698.309082	1892.490356	29.455065
705.167419	729.058289	4653.133301	1857.122192	28.747259
705.492493	734.631042	4616.056641	1834.534180	28.337606
705.817566	726.977844	4565.159668	1821.011108	28.503944
706.142578	726.383362	4536.478516	1812.540527	28.507351
706.467590	725.566101	4513.444824	1809.048340	28.603930
706.792480	721.479492	4520.429199	1812.243286	28.712246
707.117371	717.541321	4518.497070	1805.778931	28.630629
707.442200	717.021301	4524.589844	1797.308472	28.372099
707.766907	717.169861	4514.112793	1788.466431	28.214716
708.091675	716.872620	4523.771973	1789.135254	28.166300
708.416321	717.615662	4517.531250	1781.036255	27.985376
708.741028	714.866455	4545.766113	1786.609009	27.976263
709.065552	723.559875	4564.268066	1788.169312	27.719090
709.390137	717.764343	4594.434570	1792.627319	27.726450
709.714600	723.336975	4609.072266	1793.444702	27.539387
710.039063	721.925232	4633.740723	1792.776001	27.374779
710.363403	730.470032	4649.789551	1800.875000	27.310991
710.687744	727.646545	4711.312500	1806.967773	27.093670
711.012085	724.377258	4747.646973	1821.902710	27.279438
711.336304	725.045959	4799.212891	1825.840820	27.018896
711.660461	725.491882	4805.305664	1829.110229	27.050705
711.984619	727.646545	4836.363770	1829.035767	26.806156
712.308716	724.080017	4845.875000	1821.308228	26.620157
712.632751	726.234863	4835.397949	1815.141235	26.499468
712.956726	727.126465	4798.246582	1799.314575	26.336439
713.280701	724.748779	4756.042969	1798.422974	26.633486
713.604553	727.869446	4716.142090	1773.160034	26.209105
713.928467	726.160461	4671.337891	1757.036255	26.130022
714.252258	727.869446	4610.409668	1733.482422	25.900902
714.575989	727.423645	4547.177734	1724.194702	26.095163
714.899719	728.909668	4485.877930	1701.829590	25.896410
715.223267	733.442139	4448.949707	1680.950562	25.501453
715.546936	730.692932	4409.123047	1669.582397	25.524189
715.870422	724.748779	4380.739746	1672.628540	25.926754
716.193970	716.872742	4352.058594	1667.056030	26.138508
716.517395	716.575439	4327.836426	1647.068359	25.766426
716.840820	721.182190	4296.331543	1617.793091	25.078978
717.164124	720.513489	4257.471191	1615.861328	25.314066
717.487488	723.411316	4211.255371	1602.486816	25.203979
717.810730	719.398926	4181.683105	1591.712891	25.194754
718.133972	724.451477	4131.603027	1564.369507	24.651619
718.457092	720.885010	4088.209717	1546.016602	24.504070
718.780212	723.262695	4033.151367	1537.397583	24.597048
719.103210	722.148132	3975.715820	1528.109863	24.771629
719.426208	721.033508	3938.712891	1519.787720	24.823921
719.749207	717.244141	3888.484375	1502.178101	24.751640
720.072083	715.758118	3844.943115	1476.469360	24.310204
720.394958	708.550720	3795.382813	1462.277466	24.417484
720.717773	708.847961	3720.634033	1445.856567	24.470816
721.040527	705.875793	3677.315674	1439.615234	24.693060
721.363281	717.615723	3645.217041	1425.051880	24.164362
721.685913	720.290527	3634.666016	1412.494751	23.751373
722.008545	722.519714	3607.842773	1404.915894	23.650599
722.331055	715.609558	3560.809326	1402.761108	24.151258
722.653503	719.250305	3532.425781	1396.073853	24.059059
722.976013	720.290527	3512.512451	1388.940796	23.946888
723.298401	727.943665	3510.283447	1377.200806	23.334932
723.620789	724.302917	3502.333008	1376.903687	23.491495
723.943115	726.977844	3481.305420	1363.306274	23.102859
724.265381	719.770508	3463.398438	1358.030762	23.263369
724.587585	716.575439	3466.742188	1350.749146	23.059464
724.909790	714.569336	3486.135010	1362.265991	23.369341
725.231873	719.398987	3483.460205	1361.077148	23.215048
725.553894	721.925232	3492.302490	1356.173218	22.893921
725.875916	768.884583	3534.505859	1395.182129	22.645817
726.197937	766.804138	3540.747314	1398.451538	22.770741
726.519775	768.513000	3531.756836	1395.850952	22.702953
726.841675	727.200745	3505.305420	1346.588257	22.295326
727.163513	726.383484	3525.069580	1338.117676	21.857906
727.485291	724.302917	3558.208740	1352.606689	22.170948
727.806946	720.067688	3598.480469	1355.430298	22.073366
728.128662	716.575439	3617.873779	1365.163940	22.355112
728.450256	714.866516	3632.139893	1359.145386	22.084967
728.771790	711.077087	3609.848877	1359.516968	22.369471
729.093323	712.637390	3610.220703	1350.972046	22.029900
729.414795	717.318542	3597.737549	1345.696533	21.815506
729.736145	714.123474	3587.409424	1339.157837	21.753296
730.057495	717.095642	3591.867920	1338.043457	21.599895
730.378845	715.832458	3612.524170	1335.442871	21.390278
730.700134	715.981018	3631.396729	1330.018677	21.061752
731.021301	707.733398	3632.511475	1328.235474	21.215355
731.342468	708.847961	3622.034424	1327.566772	21.238558
731.663574	714.123535	3612.152344	1338.489136	21.544493
731.984680	720.067688	3626.418701	1329.424194	20.966377
732.305664	718.953125	3636.375244	1329.349976	20.922472
732.626648	719.696106	3673.080811	1315.826782	20.184660
732.947571	725.045898	3674.343750	1327.120972	20.414183
733.268433	728.389648	3680.362549	1319.541992	20.025669
733.589233	728.166687	3649.675781	1323.925903	20.392174
733.909973	723.559875	3629.167969	1317.090088	20.427055
734.230713	725.120300	3577.676025	1313.449219	20.624626
734.551331	722.519714	3541.416260	1303.566895	20.612576
734.871948	726.532043	3497.949463	1290.861206	20.362474
735.192505	720.810730	3462.506836	1280.235840	20.404345
735.513062	726.086182	3423.944092	1260.619995	19.813269
735.833435	719.324646	3373.714844	1251.480713	20.048147
736.153931	718.730225	3324.600830	1237.065918	19.891075
736.474304	719.250305	3269.988281	1228.595337	19.968536
736.794617	727.572266	3228.378906	1211.431396	19.348122
737.114807	725.788879	3205.567627	1204.372681	19.299456
737.434998	717.541321	3210.992188	1196.868164	19.223433
737.755188	716.501160	3209.729248	1201.326294	19.445679
738.075256	720.810730	3219.091064	1197.685425	19.088118
738.395325	719.919128	3215.970459	1205.338745	19.447502
738.715271	713.083191	3238.558350	1205.338867	19.491608
739.035278	713.380432	3259.139893	1211.060181	19.549362
739.355164	715.312317	3270.211182	1209.871216	19.357279
739.675049	718.433044	3278.012939	1207.716431	19.115770
739.994873	720.810730	3266.644775	1209.128052	19.181036
740.314636	719.101746	3259.957764	1200.583374	18.949583
740.634277	715.683838	3235.660889	1189.066528	18.785198
740.953979	711.448547	3209.283203	1175.023315	18.559065
741.273499	717.467041	3187.438232	1174.131714	18.488665
741.593140	723.708496	3148.429443	1176.435059	18.671286
741.912598	724.822998	3111.054932	1173.834473	18.816757
742.232117	723.931396	3048.120361	1158.230835	18.686064
742.551453	725.491760	3017.879150	1140.472534	18.102558
742.870850	726.532043	2986.523438	1132.001831	17.941210
743.190063	727.869446	2953.830322	1128.361206	17.991859
743.509338	722.965515	2912.072266	1113.946411	17.860294
743.828552	724.748718	2879.676514	1103.989868	17.598787
744.147705	724.005676	2861.100586	1091.581299	17.199780
744.466797	731.881836	2846.760010	1090.541138	16.958864
744.785828	728.389587	2811.169189	1084.076782	17.077524
745.104858	723.634216	2785.609131	1081.550415	17.357933
745.423706	721.999512	2757.671143	1079.395630	17.556669
745.742615	719.696106	2747.343018	1072.559692	17.402615
746.061401	723.039795	2734.934570	1067.061401	17.099384
746.380249	717.912903	2735.231689	1062.157349	17.064453
746.698975	718.210144	2725.869873	1062.751831	17.161360
747.017639	710.185364	2724.458008	1066.392700	17.684166
747.336304	712.711731	2705.362305	1069.439087	17.902153
747.654907	708.104980	2697.263428	1065.352417	17.959728
747.973389	716.724060	2685.523438	1059.185425	17.394426
748.291931	715.758118	2689.981689	1049.600220	16.910046
748.610352	722.222473	2694.737061	1048.708618	16.551773
748.928711	719.844788	2706.476807	1049.600220	16.598717
749.247070	715.237976	2704.322021	1052.646606	16.963017
749.565308	717.838562	2700.012207	1055.692993	17.044643
749.883545	712.563049	2682.327881	1059.779785	17.627319
750.201782	715.015076	2676.086670	1059.408203	17.561478
750.519836	715.460876	2668.879395	1048.559937	17.052111
750.837952	719.027405	2664.718506	1036.597290	16.321701
751.155884	715.386536	2648.371826	1026.714966	16.106094
751.473877	711.671387	2632.619873	1020.547852	16.079372
751.791809	713.306152	2616.570313	1014.826599	15.842280
752.109619	711.151367	2616.198975	1014.380798	15.917158
752.427490	711.448547	2610.180420	1014.306458	15.950536
752.745300	709.516663	2609.362793	1010.591309	15.847317
753.062988	717.169861	2605.052979	1005.018555	15.247168
753.380615	717.244141	2600.298096	1000.783386	15.057415
753.698303	717.244141	2591.084473	1002.417969	15.218683
754.015808	722.668274	2575.926758	1008.436523	15.419772
754.333374	725.417480	2579.567383	1009.105225	15.300152
754.650757	729.652649	2570.279785	1009.105286	15.182468
754.968262	729.058289	2568.273682	1008.287903	15.181997
755.285583	728.909668	2548.137695	1007.619202	15.320209
755.602905	722.073914	2544.199463	1004.721375	15.511965
755.920105	713.974854	2532.013916	994.170410	15.411965
756.237305	710.111145	2528.001465	997.216797	15.793343
756.554443	718.655945	2523.692139	993.947571	15.251308
756.871582	725.714661	2517.227539	1000.040344	15.312514
757.188599	721.776672	2519.902588	998.628601	15.396692
757.505615	716.724060	2524.880859	1004.795715	15.931786
757.822510	712.414490	2541.524658	995.953674	15.501483
758.139465	721.925293	2562.478027	987.334473	14.420080
758.456238	724.302917	2582.688477	979.904297	13.753948
758.773010	724.302917	2598.069092	987.557434	14.049486
759.089783	724.600159	2612.483643	990.232361	14.070370
759.406433	726.234802	2626.378174	993.575989	14.069528
759.723145	723.336975	2637.077881	987.854675	13.822022
760.039673	723.485596	2639.975830	987.483154	13.775054
760.356201	730.767273	2643.988037	982.579163	13.161674
760.672668	734.556641	2653.498779	985.179871	13.060489
760.989136	736.117004	2638.192627	983.173645	12.988791
761.305481	733.367859	2628.607422	980.647400	13.047403
761.621826	735.225403	2612.334961	987.185974	13.422794
761.938049	730.395752	2636.112061	993.798828	13.821736
762.254333	730.247253	2664.421387	1001.600647	14.029420
762.570496	723.262695	2724.235107	1001.749268	13.917562
762.886597	721.107910	2802.475830	1009.625427	13.861918
763.202637	716.872742	2913.558350	1028.721191	14.196318
763.518677	718.730225	3063.352783	1039.495117	13.680876
763.834656	718.953125	3222.137451	1057.699219	13.532607
764.150574	719.027527	3374.086670	1063.643433	12.979594
764.466370	725.194580	3460.128906	1071.445190	12.660290
764.782288	727.943787	3487.992920	1071.816772	12.458944
765.097961	726.977844	3466.816406	1074.863037	12.697288
765.413696	720.810730	3407.522705	1072.039551	13.072813
765.729309	713.900574	3308.105713	1051.383423	13.009105
766.044861	716.501160	3176.069580	1032.510620	12.848167
766.360474	723.411316	3034.077393	1007.099121	12.277318
766.675903	725.120300	2905.756592	994.021912	12.331337
766.991394	720.810730	2789.769775	972.474060	12.163766
767.306763	715.386658	2685.671631	961.997375	12.516500
767.622131	719.993347	2607.951172	947.359680	12.042977
767.937378	720.736389	2533.945557	940.003723	12.092776
768.252625	718.284424	2479.704834	939.706543	12.570657
768.567810	720.364929	2417.959229	939.929443	12.933863
768.882996	718.358704	2382.442139	937.254578	13.154140
769.197998	720.513489	2340.461182	928.858215	12.861200
769.513062	716.501160	2304.944580	919.941895	12.807553
769.828064	714.049133	2266.084229	909.836731	12.614895
770.142944	711.077087	2240.078369	906.567566	12.785501
770.457825	711.076965	2227.595459	897.502625	12.293002
770.772705	716.575439	2198.171631	892.227051	11.855566
771.087402	719.398926	2165.329834	883.236511	11.330941
771.402100	724.600159	2127.138184	889.180664	11.734477
771.716736	721.850891	2106.482178	884.128113	11.719887
772.031372	726.086182	2103.138672	883.162109	11.406677
772.345947	720.513489	2079.212891	882.121887	11.894344
772.660461	731.807434	2067.176025	890.072266	11.851770
772.974854	727.869446	2039.609741	884.871094	11.968959
773.289246	734.705261	2024.377563	877.589417	11.079105
773.603638	725.045898	2005.578979	860.648438	10.589539
773.917908	728.240967	1992.947388	861.019836	10.498790
774.232178	722.816833	1988.638062	858.642273	10.730223
774.546265	725.194519	1981.802246	864.363586	11.074982
774.860474	727.869385	1957.133789	863.843445	11.061417
775.174561	727.572266	1937.517700	860.202637	10.961682
775.488586	723.559875	1912.923462	860.871338	11.544953
775.802551	717.467041	1908.316772	852.772278	11.362075
776.116516	720.736328	1898.806030	849.205750	10.905078
776.430359	727.943787	1893.307617	844.673340	10.016577
776.744202	731.733215	1881.419312	843.484436	9.720151
777.057922	724.600098	1875.623657	845.342041	10.489963
777.371704	718.432922	1870.496704	846.307922	11.099647
777.685303	720.067627	1867.004395	849.725891	11.304744
777.998962	724.674377	1862.100586	851.063293	11.111834
778.312500	730.172852	1845.902710	850.840393	10.815122
778.626038	726.309082	1840.849976	848.388428	10.953330
778.939453	726.383362	1832.305176	850.097351	11.186503
779.252869	722.593994	1841.741577	852.697998	11.625277
779.566223	722.965515	1839.215210	851.286194	11.495696
779.879578	723.262695	1839.438110	847.422546	11.123686
780.192749	718.433044	1836.094727	845.342041	11.354868
780.505920	712.711670	1845.011108	838.208984	11.083404
780.819031	708.773621	1845.902466	840.215149	11.559071
781.132141	713.231750	1843.079102	844.524719	11.620416
781.445190	718.730164	1834.162720	850.543213	11.817213
781.758118	721.776611	1820.639648	849.354309	11.609973
782.071045	726.086182	1805.036133	841.998352	10.743053
782.383911	723.485596	1777.543945	841.403992	11.187084
782.696838	723.559875	1755.178833	827.880859	10.112357
783.009583	723.485596	1743.958984	828.103821	10.251931
783.322266	727.349365	1733.705444	826.320557	9.834610
783.634888	725.045959	1727.909790	823.720032	9.839230
783.947510	720.885010	1709.036987	812.128723	9.233773
784.260132	719.176025	1696.033813	810.048279	9.302505
784.572571	724.897278	1693.136108	819.261780	9.745995
784.885010	727.720886	1695.067993	824.240051	9.977717
785.197449	726.532043	1693.061890	823.199890	10.001537
785.509766	725.268860	1684.219727	823.051270	10.196812
785.822083	723.262695	1676.640991	820.896484	10.240824
786.134277	724.302917	1673.223022	819.261780	10.007045
786.446533	725.343079	1663.192017	809.008057	8.920944
786.758606	723.411194	1653.384155	805.738708	8.852678
787.070740	722.222412	1655.984741	805.070007	8.872450
787.382690	723.039795	1671.439819	809.676758	9.135065
787.694641	722.148132	1684.888550	814.209229	9.562401
788.006653	720.141907	1704.058594	816.661194	9.809701
788.318481	711.299988	1726.200806	820.302063	10.740170
788.630310	707.658997	1755.921875	822.233887	10.929976
788.942017	712.637390	1779.327271	826.097656	10.636668
789.253784	714.420654	1801.246460	825.205994	10.193477
789.565430	721.628113	1799.537598	824.165833	9.512647
789.877014	716.649719	1792.478882	819.856262	9.593210
790.188538	720.364807	1784.082642	824.537292	9.793244
790.500061	715.981018	1781.036255	822.382507	9.990232
790.811462	718.432922	1755.996216	818.741699	9.667727
791.122925	716.426758	1723.228882	812.203125	9.512929
791.434204	715.906738	1680.950562	804.326965	9.162302
791.745483	718.210144	1655.315918	797.119629	8.420552
792.056702	716.946960	1628.715698	799.794495	9.086464
792.367920	719.844727	1615.192383	808.042175	9.850637
792.678955	720.439209	1604.046997	816.066711	10.822392
792.990112	722.371094	1586.437378	810.642761	10.215844
793.301086	718.284424	1575.960571	799.794495	9.503595
793.612122	715.906738	1567.564453	792.810059	9.029839
793.922974	716.946960	1570.462280	791.695496	8.757727
794.233826	720.885010	1569.719238	790.580994	8.210789
794.544556	724.748779	1565.855469	790.358093	7.800356
794.855286	721.851013	1556.939087	788.054688	7.927748
795.166016	719.547607	1552.406616	792.289856	8.734041
795.476624	715.906738	1565.186646	797.416809	9.597550
795.787292	725.937561	1581.533569	795.633484	8.145891
796.097778	727.943665	1603.304077	802.246399	8.488245
796.408264	724.302917	1614.895386	800.017395	8.501585
796.718689	713.454773	1619.873535	804.475586	10.041806
797.029053	711.299988	1624.851929	801.503479	9.873931
797.339355	719.101746	1620.988159	803.435364	9.350802
797.649658	720.216309	1621.508301	795.559265	8.359439
797.959839	719.027405	1616.158569	793.553040	8.307106
798.270020	710.556946	1594.685059	791.175354	9.118408
798.580078	711.894348	1586.140259	796.005066	9.620945
798.890137	721.850891	1571.725586	797.565430	8.908906
799.200195	722.965515	1572.097046	796.227966	8.627927
799.510071	727.423645	1559.837036	794.370361	8.042484
799.820007	721.256531	1553.149780	786.271423	7.815293
800.129883	723.931396	1542.524536	793.701660	8.523191
800.439575	716.129639	1531.156250	787.757507	8.788408
800.749329	714.272034	1515.403931	782.556335	8.523479
801.058960	713.380432	1502.698242	772.971191	7.549654
801.368591	723.559875	1491.998657	779.361267	7.261657
801.678162	723.634216	1485.311401	783.745117	7.891913
801.987671	728.240967	1482.190552	782.779114	7.233660
802.297119	726.531982	1478.772827	779.732727	7.072302
802.606506	729.058289	1467.553101	784.933899	7.566148
802.915894	725.491760	1467.478882	784.933899	8.011209
803.225159	723.485596	1465.323853	781.590332	7.832534
803.534424	722.148132	1464.803711	774.308655	7.023515
803.843628	721.256531	1459.528320	774.605896	7.226250
804.152771	722.891174	1455.887329	774.903076	7.095795
804.461792	728.092285	1461.088501	775.720398	6.497730
804.770874	731.361633	1463.317749	770.370605	5.329414
805.079773	731.435852	1462.723267	774.085754	5.832167
805.388733	727.572205	1467.627319	780.252869	7.118478
805.697571	726.977783	1472.382813	786.345703	7.964518
806.006470	721.107910	1484.791382	785.677002	8.454955
806.315125	722.296814	1484.122559	780.550110	7.646538
806.623901	718.433044	1489.323730	777.800964	7.701211
806.932495	718.284424	1495.639526	772.451111	6.968075
807.241150	717.467041	1497.571289	780.624329	8.096006
807.549622	722.593994	1483.453735	783.670837	8.027346
807.858154	724.525879	1465.026733	791.026794	8.980532
808.166565	722.073792	1461.534546	781.738953	8.068739
808.474915	719.027405	1463.094727	782.110535	8.478148
808.783264	717.541321	1456.333374	782.333313	8.769990
809.091492	716.426758	1436.791870	787.163025	9.819502
809.399719	710.036804	1420.370728	781.293152	10.031387
809.707825	710.259766	1408.854004	772.153870	8.859807
810.015930	709.962585	1403.058472	765.615234	8.029574
810.323975	714.569275	1394.067749	768.438721	7.927824
810.632080	717.169922	1385.894409	770.147705	7.922214
810.939880	715.906738	1380.247437	763.534729	7.169212
811.247864	719.176086	1376.458008	762.123047	6.534024
811.555664	715.312317	1370.067871	768.141541	8.068542
811.863464	718.655945	1365.535522	775.868958	8.844461
812.171143	717.987122	1360.185669	771.187988	8.284178
812.478882	721.702393	1355.207397	767.695740	7.260139
812.786438	729.132629	1343.244629	768.884583	6.473079
813.094055	728.686768	1335.740112	771.485107	7.050178
813.401489	724.971680	1330.687500	765.392334	6.673204
813.708984	712.934570	1336.928955	759.596680	7.477970
814.016357	711.002747	1340.421143	757.887695	7.448932
814.323730	712.934631	1339.009399	761.231384	7.714215
814.630981	717.690002	1333.362305	762.345886	7.253191
814.938232	723.188477	1335.517212	763.163269	6.528322
815.245361	725.566101	1328.607056	759.150879	5.569237
815.552490	727.126465	1329.721558	762.568787	5.881615
815.859619	731.881836	1317.907349	762.643127	5.249139
816.166565	734.259521	1333.436646	770.444885	6.039176
816.473572	735.894226	1332.099243	763.534729	4.636074
816.780457	731.807556	1338.340576	758.630798	4.422388
817.087341	723.188477	1339.083618	756.698914	5.440932
817.394043	718.135925	1345.622192	764.797852	7.436327
817.700806	712.488831	1350.823608	771.336609	9.218952
818.007507	715.238037	1354.984497	771.410828	8.780477
818.314209	721.330872	1368.136108	765.318054	6.800684
818.620667	720.736389	1375.640625	761.008484	6.149311
818.927246	723.188416	1398.377075	759.448181	5.370316
819.233704	718.433044	1421.188110	758.705078	5.730593
819.540161	717.095642	1462.128906	762.197266	6.053639
819.846497	724.154297	1503.366821	760.116882	4.615247
820.152832	730.618652	1562.363281	775.348877	5.377880
820.458984	732.773438	1626.932251	779.807068	5.260098
820.765259	725.640442	1703.018433	787.980286	6.378274
821.071350	722.668274	1804.218628	789.986572	6.224241
821.377502	723.039734	1981.504883	798.828613	6.022327
821.683472	729.132568	2318.021973	822.828369	5.896936
821.989441	729.058289	2887.626709	844.896240	5.366425
822.295349	730.024231	3683.111572	889.106262	5.386973
822.601196	717.689941	4560.180176	925.068787	5.396991
822.907043	718.953125	5306.031250	959.099426	5.235278
823.212769	721.107910	5732.157715	981.018738	5.186754
823.518494	730.024231	5798.807129	988.003235	5.089565
823.824097	724.525879	5548.406738	985.105469	5.401866
824.129700	719.250305	5146.726563	965.341003	5.558261
824.435242	716.203918	4710.049316	935.768494	5.497573
824.740723	712.860352	4339.501953	914.443604	5.558400
825.046082	714.792175	3989.610352	888.437683	5.302447
825.351501	710.556885	3629.390625	873.799988	5.592751
825.656799	717.169922	3272.514893	855.224304	5.402573
825.962036	715.089355	2960.294922	843.781738	5.731875
826.267212	717.912903	2731.962158	823.942871	5.264517
826.572449	723.634216	2600.075195	815.323730	4.886353
826.877502	723.411316	2598.143311	812.054443	4.728310
827.182495	723.114075	2704.693359	826.840637	5.234540
827.487488	715.758118	2865.707275	835.459778	5.567651
827.792419	722.668274	2992.839111	838.877686	5.118972
828.097290	721.627991	3029.247803	831.893250	4.778311
828.402100	726.383362	2953.310303	820.376282	4.220746
828.706848	726.754944	2802.401611	807.596191	3.894750
829.011597	720.067688	2617.833740	805.218567	4.486901
829.316223	712.414551	2437.797852	802.395020	5.215100
829.620789	713.900574	2280.647705	803.658203	5.728916
829.925354	725.194580	2131.596436	796.302307	5.056004
830.229797	724.377258	2002.755493	788.277588	4.998547
830.534302	713.677551	1866.038696	782.853516	6.002976
830.838562	707.287598	1746.634155	775.571777	6.569914
831.142944	715.163757	1625.372070	778.023743	6.906110
831.447144	717.987244	1534.499878	766.135437	5.896810
831.751404	727.126465	1480.704590	761.900085	4.614468
832.055542	720.959290	1444.593384	751.423401	4.209878
832.359619	727.497986	1436.123047	750.160217	3.198057
832.663635	726.977783	1435.751343	751.497742	3.459491
832.967651	732.922058	1466.438477	754.544128	2.947728
833.271545	729.875671	1530.933228	757.218994	3.413403
833.575439	729.801270	1645.731079	768.141541	4.185940
833.879211	726.457703	1798.125854	775.943298	4.617623
834.183044	727.795166	1952.972656	787.014404	4.833523
834.486694	726.309082	2052.538330	791.101074	4.885429
834.790344	730.172852	2090.507080	791.695496	4.522613
835.093933	725.194580	2058.779541	792.884277	5.075769
835.397522	721.628113	2002.384155	789.912292	5.331552
835.700928	709.962585	1930.756226	783.596497	6.031642
836.004395	713.157532	1857.270874	779.584167	5.805949
836.307739	710.705566	1778.361328	773.194031	5.852866
836.611023	717.689941	1702.795410	770.370605	5.347718
836.914307	718.210144	1628.195679	766.358215	5.291081
837.217529	726.234802	1551.589478	770.890686	5.410508
837.520691	729.058289	1462.872070	773.416992	6.044954
837.823730	726.234680	1389.386597	775.274597	7.394975
838.126831	724.674500	1326.006470	762.048645	6.215227
838.429749	727.869446	1286.328735	750.234558	4.004788
838.732727	729.429871	1258.465210	743.027161	2.570204
839.035522	721.999573	1240.335327	743.547302	4.157099
839.338379	717.467102	1228.001099	741.020996	4.613580
839.641113	720.142090	1223.988647	737.231628	3.391814
839.943848	723.262695	1249.994629	744.513367	4.034438
840.246460	725.194580	1278.972778	754.321289	5.259634
840.549072	722.519714	1313.597778	756.996094	5.832796
840.851563	725.045959	1318.427490	752.983704	4.708226
841.154053	726.160461	1320.730835	756.401672	5.086229
841.456482	728.315247	1298.514282	762.791748	6.046398
841.758850	735.522644	1278.006836	765.020813	5.437609
842.061157	737.008728	1251.257813	754.618408	3.424348
842.363403	739.906494	1226.886597	757.962097	3.707668
842.665588	727.869446	1210.762939	751.051941	4.800747
842.967712	721.033630	1190.032471	758.333557	7.953096
843.269775	717.021301	1166.329834	749.788757	7.292863
843.571777	721.182312	1141.587036	749.937317	6.839839
843.873840	723.782898	1119.964844	745.999268	5.607618
844.175659	721.182312	1104.584351	745.999329	6.472844
844.477600	722.816895	1086.380005	746.890930	6.621694
844.779297	730.024231	1070.776489	746.890930	4.949842
845.081116	735.076843	1061.117188	742.061279	2.142200
845.382751	735.448303	1045.290527	735.448303	0.000000
845.684387	730.767273	1037.191650	738.717590	2.594545
845.985962	722.073914	1027.829590	742.878601	6.804350
846.287537	722.371033	1026.863525	743.844543	7.052230
846.588989	714.197754	1014.455078	738.569031	8.116796
846.890381	716.649719	999.817444	729.875671	4.670713
847.191711	713.380432	996.325195	724.971680	4.096647
847.493042	717.912903	994.467590	719.770447	0.671673
847.794250	723.931458	1001.377747	723.708496	-0.080362
848.095459	724.080017	994.467712	729.875671	2.143461
848.396606	725.640320	989.489319	735.448425	3.717318
848.697693	722.445313	982.207703	740.500977	6.950839
848.998657	726.532043	979.384216	743.250183	6.611824
849.299622	722.371094	988.746338	739.014832	6.248230
849.600464	726.160583	991.049744	728.835388	1.009783
849.901367	724.525879	993.353027	728.240967	1.381962
850.202087	729.058350	982.059021	731.584656	0.998537
850.502808	732.476257	978.715393	744.141846	4.737504
850.803467	731.213074	970.987976	743.027161	4.927157
851.104065	722.742615	967.049988	744.959045	9.093639
851.404663	716.947021	966.455566	747.262451	12.150057
851.705139	720.216309	966.604187	742.209900	8.926410
852.005615	728.315247	972.474060	745.999329	7.242860
852.306030	727.497864	975.148926	738.791992	4.560501
852.606384	728.166687	977.006531	747.559631	7.793344
852.906616	730.470032	975.966248	746.222229	6.416472
853.206909	731.584656	967.867188	745.702087	5.974810
853.506958	728.835449	962.888977	743.250061	6.158682
853.807129	720.587830	964.597900	740.575195	8.191205
854.107178	713.231873	967.644348	746.073547	12.908831
854.407166	714.717834	971.582336	737.083008	8.706993
854.707092	717.095520	975.446106	733.293640	6.269821
855.007019	725.863281	980.201477	729.504211	1.431531
855.306763	727.200745	978.492493	736.562927	3.725623
855.606567	727.349365	967.346985	740.203796	5.356066
855.906250	724.600159	956.573181	736.117004	4.964735
856.205933	721.553711	951.149109	736.191406	6.375431
856.505493	721.999512	950.257507	734.185242	5.338577
856.805054	716.872742	950.183289	736.785828	8.535013
857.104492	711.002747	955.310059	737.900391	11.009758
857.403931	708.253601	953.675476	743.473083	14.350588
857.703308	706.544617	951.223389	743.844543	15.244448
858.002563	707.659180	948.845703	744.141785	15.126304
858.301819	706.916199	954.864258	735.596985	11.567256
858.601013	711.299988	954.715637	732.996338	8.913293
858.900208	714.272034	947.434021	725.417480	4.780130
859.199219	722.742493	942.009949	724.748718	0.914967
859.498291	728.240967	942.158508	725.194580	-1.424094
859.797302	731.733215	947.954102	726.680664	-2.336755
860.096191	726.829163	947.285339	735.522644	3.943406
860.395020	728.389587	945.799316	736.339905	3.656836
860.693787	728.240967	935.694153	739.757813	5.551539
860.992554	727.795166	939.780823	736.265625	3.995770
861.291260	724.748718	946.690918	733.962219	4.151307
861.589844	722.222412	951.372070	727.795166	2.431928
861.888428	718.730164	949.588684	725.120300	2.767988
862.186890	722.222412	949.068604	730.841614	3.799580
862.485413	718.953125	957.687744	735.374023	6.878306
862.783813	719.621887	951.669250	739.609314	8.613512
863.082153	707.807800	948.994385	736.414246	11.860712
863.380371	711.299988	941.341125	738.494690	11.821670
863.678589	713.826233	955.310059	737.677429	9.876933
863.976746	721.033508	951.966492	737.677429	7.207252
864.274902	724.005676	961.031433	735.225403	4.733547
864.572937	727.869446	954.046936	732.030457	1.839710
864.870911	731.138733	961.774414	735.819824	2.029648
865.168884	726.903503	953.080994	734.482361	3.350845
865.466736	722.148132	950.406067	740.055115	7.845065
865.764587	715.832336	939.632141	736.860046	9.395768
866.062317	715.609436	942.752930	733.516418	7.883555
866.360107	717.169922	946.542419	727.795105	4.632283
866.657715	717.987244	950.628967	727.200684	3.960356
866.955322	719.398926	946.690918	734.110901	6.472720
867.252808	726.903503	955.532959	732.996338	2.664938
867.550293	726.903503	956.498840	736.414246	4.142394
867.847717	728.315247	965.043762	732.773438	1.883250
868.145081	726.606262	957.241943	732.773438	2.673990
868.442383	728.909668	960.362732	735.299744	2.760852
868.739624	724.080017	955.830139	742.804260	8.079496
869.036804	728.315247	949.440186	743.027161	6.653214
869.333984	732.996399	951.223450	738.717712	2.621725
869.631042	739.089172	951.892273	731.361633	-3.631310
869.928101	734.333801	956.350342	733.367859	-0.435077
870.224976	728.240967	953.155273	735.448303	3.204481
870.521851	728.686768	955.458679	742.729980	6.192660
870.818726	725.640381	963.260498	742.284180	7.004373
871.115479	735.522644	960.659912	737.825989	1.023085
871.412231	731.287354	960.362732	731.213074	-0.032426
871.708862	730.395752	949.811707	738.123230	3.521840
872.005493	723.262695	951.297668	735.225403	5.245997
872.302063	727.572266	944.239014	738.197449	4.903929
872.598572	726.234802	944.090332	730.841492	2.114562
872.895020	725.566101	945.725098	734.333740	3.982412
873.191406	725.937561	958.059265	731.213074	2.272736
873.487671	731.064453	969.353271	728.761047	-0.966645
873.783997	727.423584	976.114746	727.200684	-0.089629
874.080200	721.182190	979.681335	728.909668	2.989363
874.376343	716.649719	975.074646	727.349365	4.140330
874.672424	717.541321	980.870178	723.708496	2.342005
874.968445	721.330811	975.817566	719.621887	-0.671518
875.264465	721.776611	974.628723	722.371094	0.235111
875.560364	720.439148	966.083984	725.491760	2.056877
875.856201	718.878845	966.232605	732.476257	5.497152
876.152039	723.559875	977.823792	734.556702	4.324965
876.447754	725.491760	980.647278	737.305908	4.630176
876.743469	724.897400	984.808167	734.036560	3.516268
877.039063	724.823059	979.161194	731.361633	2.570819
877.334595	725.937561	977.229309	722.296692	-1.448861
877.630127	723.708496	974.257324	720.587708	-1.245581
877.925537	717.912903	976.932190	723.485596	2.151459
878.221008	722.965515	988.523438	736.042786	4.924451
878.516296	727.275085	994.021790	739.609314	4.623948
878.811646	730.395752	1004.201233	735.596924	1.899586
879.106812	732.996338	1007.470520	731.807434	-0.433157
879.401978	731.436035	1029.464233	729.281250	-0.723014
879.697083	738.940613	1037.265991	731.361633	-2.540508
879.992126	738.346130	1066.987183	733.813721	-1.379137
880.287109	740.872375	1101.166382	736.265686	-1.278592
880.582031	739.014893	1181.413208	741.689758	0.604628
880.876892	732.179016	1319.393433	748.154053	2.720478
881.171753	729.429871	1551.217773	754.618408	3.065090
881.466492	727.572266	1895.610962	755.881531	2.423658
881.761230	731.287415	2294.765381	751.869324	1.316418
882.055786	728.761169	2692.136230	755.955872	1.385100
882.350403	720.587830	2960.591797	763.832031	1.930541
882.644958	710.854187	3076.058350	766.581116	2.356115
882.939453	710.482666	3036.306641	764.500732	2.322535
883.233826	714.940735	2931.762695	763.237549	2.178651
883.528137	715.386536	2791.033203	763.534729	2.319672
883.822449	722.742493	2661.671875	769.478943	2.410425
884.116577	722.073792	2520.794189	767.472839	2.523963
884.410828	724.525818	2387.346436	769.107422	2.681083
884.704956	723.411316	2223.063232	763.534851	2.675523
884.999023	726.977844	2021.925659	760.488342	2.587788
885.292969	726.234680	1813.432251	757.887756	2.911438
885.586914	712.042969	1617.198608	754.618408	4.703660
885.880798	708.773621	1472.457031	746.222229	4.903682
886.174622	709.145203	1361.448730	747.782532	5.923213
886.468384	717.838623	1289.003540	740.575195	3.980737
886.762085	718.358704	1242.192871	744.290344	4.950353
887.055664	718.655945	1201.772095	731.138733	2.583807
887.349304	715.089355	1164.323608	731.064453	3.556073
887.642822	704.984192	1129.029907	728.984070	5.659739
887.936340	705.058533	1114.838013	732.847839	6.781527
888.229736	705.504333	1097.079590	735.522644	7.666039
888.523071	716.055359	1079.395630	734.482422	5.071572
888.816284	719.993347	1046.925293	742.804382	6.977304
889.109619	725.640381	1033.402222	743.324402	5.746008
889.402710	727.943665	1024.040161	737.751709	3.312449
889.695862	732.847717	1015.123779	730.395752	-0.868641
889.988892	732.401855	1005.613098	724.748779	-2.801157
890.281921	722.668274	1003.755493	722.445374	-0.079299
>>>>>End Processed Spectral Data<<<<<
