Jaz Data File
++++++++++++++++++++++++++++++++++++
Date: Fri Jun 04 16:57:55 2021
User: jaz
Dark Spectrum Present: Yes
Reference Spectrum Present: Yes
Processed Spectrum Present: Yes
Spectrometers: JAZA3586
Integration Time (usec): 24100 (JAZA3586)
Spectra Averaged: 10 (JAZA3586)
Boxcar Smoothing: 1 (JAZA3586)
Correct for Electrical Dark: No (JAZA3586)
Strobe/Lamp Enabled: Yes (JAZA3586)
Correct for Detector Non-linearity: No (JAZA3586)
Correct for Stray Light: No (JAZA3586)
Number of Pixels in Processed Spectrum: 2048
>>>>>Begin Processed Spectral Data<<<<<
W	D	R	S	P
191.335022	0.000000	0.000000	0.000000	0.000000
191.713211	231.750168	230.487076	228.926697	223.536453
192.091385	464.689209	467.364166	462.088623	-97.219719
192.469528	703.795410	704.909973	699.783020	-359.996704
192.847641	708.996582	712.340149	715.312317	188.892136
193.225739	713.974854	721.850891	728.909729	189.624222
193.603790	717.392822	729.429871	740.723816	193.826538
193.981842	725.045959	740.055176	742.655762	117.326591
194.359863	737.974609	736.934387	739.832214	-178.577713
194.737854	747.708252	733.293640	737.677429	69.587883
195.115829	752.315125	732.699219	731.287415	107.197243
195.493774	749.788757	734.259521	737.677429	77.990494
195.871704	748.377014	739.906494	736.117126	144.735947
196.249603	748.005554	740.203674	744.736145	41.905403
196.627457	749.714417	744.290344	743.250183	119.176758
197.005310	746.816711	745.924988	748.451355	-183.312805
197.383133	747.931213	747.782532	747.262512	449.753693
197.760910	747.039551	745.850769	747.559631	-43.749039
198.138687	748.674255	741.764099	737.454529	162.365738
198.516449	749.268616	737.603088	732.847717	140.764297
198.894180	746.965149	734.482422	730.841614	129.166763
199.271866	744.884766	737.900391	739.163513	81.915024
199.649536	743.250183	736.934387	736.637207	104.705345
200.027191	745.627747	734.482422	731.584656	125.999832
200.404816	744.884766	732.179016	728.315247	130.409622
200.782410	740.872375	747.708313	728.166687	-185.866074
201.159988	739.312073	758.333557	734.408020	-25.781651
201.537537	734.556702	767.621399	735.076843	1.573103
201.915070	731.213074	765.095032	748.376953	50.657875
202.292557	724.005676	764.723572	746.296570	54.744709
202.670029	717.987305	765.466614	743.918762	54.616333
203.047485	717.021301	764.426331	733.962219	35.736542
203.424911	717.169922	765.243713	727.572266	21.638285
203.802292	721.628113	761.157043	727.275085	14.285670
204.179688	721.256531	755.510071	734.556641	38.828423
204.557037	730.915833	760.414063	735.596924	15.869059
204.934357	729.875671	756.847473	732.699219	10.468516
205.311661	731.584656	763.609131	733.219238	5.104167
205.688934	719.770447	756.104492	737.751709	49.488743
206.066177	718.210144	767.027039	737.380188	39.269283
206.443390	713.083191	763.311829	731.138855	35.946953
206.820587	712.414490	766.506836	728.761047	30.219725
207.197769	702.606445	753.206726	736.488586	66.960381
207.574921	699.634338	752.092102	738.940613	74.929375
207.952042	708.327820	747.039551	740.055115	81.957832
208.329147	725.120300	753.801086	737.231628	42.228020
208.706223	742.061218	765.318054	743.844482	7.667699
209.083267	738.271790	769.256042	742.507019	13.668974
209.460297	734.853943	770.221985	742.209900	20.798315
209.837280	722.891174	754.692688	731.510254	27.102734
210.214264	717.764343	755.064209	734.185242	44.024014
210.591217	715.906738	754.841309	735.596985	50.572659
210.968124	721.107971	762.345886	741.541199	49.549614
211.345016	727.126465	763.386169	739.014832	32.786716
211.721893	730.395813	762.866028	737.825989	22.883051
212.098724	733.293640	761.751465	741.838379	30.025972
212.475555	730.098572	760.488342	746.296570	53.300823
212.852356	726.457764	758.927917	743.398682	52.173817
213.229126	720.439270	756.327332	737.231628	46.790932
213.605865	718.730225	755.658691	735.299744	44.869232
213.982590	713.677734	755.212891	737.454529	57.244987
214.359283	703.349609	758.482178	739.460632	65.498535
214.735931	709.219482	760.859863	737.528748	54.820015
215.112579	717.095642	763.014648	733.442139	35.598541
215.489197	729.504150	757.441895	728.909668	-2.127883
215.865799	719.398926	755.658691	732.253357	35.450951
216.242355	716.649719	748.377014	731.807556	47.775383
216.618896	712.414490	747.485413	726.160461	39.194782
216.995407	712.637390	749.343018	714.866516	6.072981
217.371902	708.030579	760.934143	720.959290	24.438261
217.748367	712.860352	761.677246	721.999512	18.721306
218.124802	720.067688	753.726807	725.714661	16.776947
218.501236	725.937561	750.160339	720.141907	-23.926464
218.877609	718.432922	755.064270	715.386658	-8.316005
219.253983	714.866455	758.779358	719.770508	11.167681
219.630295	714.940735	752.537903	719.993347	13.438811
220.006592	717.095520	750.754700	730.098633	38.631699
220.382889	718.804504	749.194336	729.578430	35.452404
220.759140	718.804443	749.120056	733.293640	47.794502
221.135391	717.838562	749.565857	727.497986	30.445154
221.511581	716.352539	755.584412	728.240967	30.302982
221.887772	714.643555	763.237549	726.531982	24.464809
222.263931	712.117371	765.318054	733.739319	40.642239
222.640060	713.603333	763.460449	731.658875	36.214573
223.016159	716.352539	762.123047	733.367859	37.175293
223.392212	728.166687	756.104492	724.674377	-12.500300
223.768265	733.590759	757.070374	725.194580	-35.759441
224.144302	737.083008	764.500732	715.386658	-79.132568
224.520294	731.807434	773.491394	726.383484	-13.012080
224.896286	724.154297	774.531555	728.389587	8.407147
225.272217	719.250305	768.810242	741.243896	44.377762
225.648148	726.160461	761.528564	738.420410	34.663857
226.024048	731.064453	761.082703	738.197571	23.762604
226.399902	727.349304	765.986633	735.448303	20.961592
226.775772	717.987244	770.444885	734.482422	31.444757
227.151581	712.340149	774.382996	736.488586	38.922195
227.527374	722.593933	763.757629	737.454529	36.101219
227.903137	726.309082	763.534729	739.906494	36.527000
228.278870	730.321350	758.853699	731.807434	5.208418
228.654572	725.714661	757.887695	734.705261	27.944521
229.030273	726.011902	751.869202	732.922058	26.724199
229.405930	724.600159	751.794922	733.219238	31.693895
229.781555	717.838623	758.482239	725.417480	18.647104
230.157181	715.683838	760.934265	718.358704	5.911250
230.532761	711.745789	758.630798	727.646545	33.914371
230.908325	714.420654	756.996094	733.219238	44.153587
231.283859	719.844727	756.104492	741.615479	60.041073
231.659332	719.993347	760.562683	740.277893	49.999699
232.034821	723.336975	754.246887	741.318176	58.172928
232.410263	723.262695	752.686584	731.435974	27.777697
232.785690	731.436035	751.572021	730.915833	-2.583447
233.161087	722.593994	756.401672	720.959290	-4.835306
233.536469	711.745789	762.494446	726.309082	28.696903
233.911804	709.591003	764.426453	721.776672	22.222246
234.287140	719.324646	765.020813	728.315247	19.674736
234.662430	719.473206	764.575012	724.080017	10.214251
235.037704	719.324707	756.698914	719.919006	1.590132
235.412933	715.683777	756.624573	721.107910	13.248725
235.788162	717.541321	749.565918	730.395752	40.139244
236.163345	715.312317	757.887756	740.426575	58.987667
236.538513	708.550781	757.739075	734.036621	51.812817
236.913635	710.556946	759.596680	728.018066	35.606068
237.288742	709.888184	755.658630	733.293640	51.136612
237.663834	714.272034	758.407898	738.420410	54.713726
238.038879	710.408264	758.036377	740.352356	62.870625
238.413910	712.265869	758.185059	733.516418	46.278145
238.788910	713.083191	757.813477	729.429871	36.544994
239.163879	715.609558	762.568848	731.213135	33.227882
239.538834	711.522766	772.302551	729.875671	30.195740
239.913757	714.049133	779.435547	731.881836	27.272795
240.288651	719.547546	785.751282	723.411316	5.836181
240.663528	728.018066	783.967957	718.135742	-17.662813
241.038361	719.919128	778.841125	720.513489	1.008724
241.413177	719.547546	769.330383	722.668274	6.268682
241.787979	716.129639	769.553284	731.064453	27.955439
242.162735	723.559875	775.720398	727.869446	8.262131
242.537476	715.535156	791.472595	732.922058	22.896351
242.912170	713.529053	799.274353	736.785828	27.123091
243.286865	709.739563	791.621155	744.438965	42.377537
243.661514	720.067627	781.664612	749.119934	47.165146
244.036148	723.708496	778.098145	741.392517	32.513580
244.410751	735.522644	779.361267	733.516418	-4.576388
244.785339	730.841553	774.605896	729.355530	-3.395511
245.159882	726.680664	777.057861	734.036621	14.601759
245.534378	718.284424	779.881348	730.172852	19.300360
245.908890	720.290527	791.249695	732.030457	16.544626
246.283356	725.491760	786.865784	726.531982	1.694890
246.657791	728.092285	798.011230	736.488586	12.008621
247.032196	725.268860	804.326965	734.928223	12.218055
247.406586	724.897278	802.246399	738.643372	17.771494
247.780960	718.953125	801.280457	732.922058	16.967552
248.155289	713.974792	809.750977	732.104675	18.929426
248.529602	708.253479	819.484680	726.829163	16.700066
248.903870	720.885010	811.608643	723.485596	2.866492
249.278122	721.776672	802.692322	724.897400	3.856766
249.652344	723.485657	791.695496	730.172852	9.803857
250.026550	714.420715	798.977234	736.785828	26.449898
250.400711	718.210144	790.581055	737.900208	27.207151
250.774857	720.885010	795.559265	735.745544	19.900478
251.148987	720.513428	790.209473	733.144958	18.123741
251.523071	725.268860	802.989502	732.253357	8.986670
251.897125	726.606262	804.549866	731.956055	6.863671
252.271164	726.457703	817.478577	734.185242	8.489854
252.645187	715.535217	809.230957	734.259460	19.984093
253.019165	706.767517	813.094727	730.098572	21.942694
253.393112	711.745789	808.636536	734.705322	23.696312
253.767044	718.953125	809.825378	728.463867	10.466058
254.140930	723.114075	807.373352	737.825989	17.460289
254.514801	716.352539	796.227966	736.339905	25.023172
254.888657	714.792175	799.348694	744.067383	34.622059
255.262466	719.993408	802.989563	739.832214	23.903284
255.636276	719.398987	809.453857	736.934387	19.471907
256.010010	724.897278	819.559082	725.863281	1.020479
256.383759	723.336975	817.181335	725.491760	2.296126
256.757446	732.401917	832.339111	725.120300	-7.286192
257.131134	731.138733	826.320557	734.259521	3.278765
257.504791	722.222473	834.939697	732.253357	8.899158
257.878418	715.832458	836.945801	731.807434	13.190104
258.252014	711.448547	849.280090	732.401855	15.202114
258.625580	718.730225	855.075684	737.083008	13.460502
258.999115	718.284424	861.317139	737.751709	13.610373
259.372650	718.507324	866.964172	733.367859	10.010003
259.746124	718.507324	891.558350	729.949951	6.612285
260.119598	715.535156	914.443542	733.888000	9.226783
260.493042	714.123474	934.208008	741.541199	12.457815
260.866425	711.076965	933.465027	741.392578	13.631852
261.239838	716.129639	921.130859	735.671204	9.532413
261.613159	719.696228	905.452942	724.525818	2.599954
261.986511	724.302917	895.942322	724.005676	-0.173178
262.359802	720.439209	886.728699	722.445374	1.206429
262.733063	719.919006	877.589417	728.835449	5.655115
263.106293	710.705505	875.806152	726.086182	9.315940
263.479523	710.705566	876.177673	730.618652	12.034104
263.852692	715.832458	882.121887	726.383484	6.344976
264.225861	721.999573	877.960938	725.343201	2.143882
264.598969	722.073792	878.332458	725.640381	2.282490
264.972076	712.785950	875.806152	727.795166	9.206967
265.345154	714.643555	880.041443	731.658936	10.287544
265.718201	715.386536	886.059998	725.640381	6.007873
266.091217	719.101746	898.394226	738.494812	10.816442
266.464203	719.027405	909.911133	741.095398	11.560961
266.837158	720.959290	918.678772	745.330566	12.326189
267.210114	721.330811	930.047119	739.014832	8.472754
267.583038	722.371094	933.167786	737.231628	7.049700
267.955902	723.114075	934.876892	740.278015	8.105267
268.328766	719.250305	925.589050	742.135559	11.091108
268.701569	713.826172	931.607605	743.027161	13.408392
269.074371	717.318420	934.208069	736.042786	8.633130
269.447144	720.290588	953.378235	732.179016	5.100411
269.819885	725.789001	954.567078	725.417480	-0.162394
270.192596	725.417480	978.566833	731.361633	2.348081
270.565277	728.538147	986.071289	729.875671	0.519360
270.937927	733.590759	1010.814148	735.596924	0.723664
271.310577	725.863281	1025.451782	733.739319	2.628952
271.683136	723.411316	1054.801392	733.442139	3.026893
272.055725	712.711731	1071.148071	732.699158	5.576283
272.428284	717.244202	1079.915649	730.470032	3.646780
272.800812	713.603333	1073.154175	727.646545	3.905766
273.173279	713.826172	1068.621704	727.126404	3.748703
273.545776	714.494934	1064.980835	731.510254	4.854780
273.918152	716.055237	1064.163452	737.974609	6.296712
274.290558	716.352539	1056.659058	741.763977	7.467220
274.662964	715.015137	1049.154419	740.500916	7.627292
275.035278	721.999512	1049.674561	735.374023	4.081639
275.407593	723.337097	1056.881958	735.374023	3.608788
275.779907	723.188477	1070.702271	734.259460	3.185768
276.152161	720.290588	1076.497803	732.996338	3.566955
276.524384	725.937561	1088.683472	730.915833	1.372385
276.896606	727.126465	1102.429321	734.259521	1.900613
277.268799	723.411316	1116.918335	737.677307	3.625346
277.640930	712.860291	1125.463257	740.203613	6.627030
278.013031	711.671387	1130.590210	735.522644	5.693527
278.385162	710.036804	1136.757324	727.349304	4.057105
278.757233	708.402161	1138.837891	719.547546	2.589326
279.129272	709.516663	1138.317749	721.925232	2.893782
279.501282	710.556946	1136.831665	727.423645	3.956767
279.873230	713.231873	1147.531250	734.853943	4.978610
280.245178	710.854187	1163.060547	737.157288	5.816615
280.617126	720.810730	1195.753784	737.751770	3.566962
280.988983	728.612488	1225.400513	735.671204	1.420871
281.360870	729.429871	1246.279541	735.968445	1.265082
281.732697	717.095520	1260.174194	737.380188	3.735125
282.104492	715.609558	1279.938599	741.689758	4.621453
282.476288	721.925293	1306.539063	736.488586	2.491096
282.848053	721.999573	1327.938232	739.980774	2.967495
283.219757	718.804504	1330.687500	736.637207	2.914397
283.591461	708.699402	1322.885620	739.014893	4.935879
283.963135	710.259766	1312.111694	735.076843	4.123452
284.334747	712.637390	1313.151978	738.717590	4.342975
284.706360	716.946960	1336.334351	735.448242	2.987029
285.077942	720.439209	1372.817017	742.804260	3.428236
285.449524	719.696228	1415.689819	734.631042	2.145826
285.821014	720.439148	1436.494507	741.689758	2.967733
286.192535	721.776611	1461.757324	738.346130	2.239182
286.563995	716.278137	1475.429077	735.968445	2.593728
286.935425	716.278137	1499.577515	729.429871	1.679017
287.306824	714.272034	1509.534180	721.033630	0.850235
287.678223	721.330811	1499.429077	726.903503	0.716194
288.049561	719.176025	1473.422974	725.566101	0.847213
288.420898	719.027405	1444.519165	733.219238	1.956167
288.792145	724.377136	1444.593628	734.482422	1.403090
289.163452	729.504089	1457.373535	748.154114	2.562276
289.534668	728.983948	1481.967773	742.804260	1.835406
289.905914	722.073792	1509.756958	740.352356	2.320548
290.277039	721.107910	1545.199341	726.531982	0.658188
290.648193	726.754883	1577.223755	727.795105	0.122312
291.019318	729.355469	1602.040894	737.082947	0.885483
291.390381	728.538269	1614.077759	734.630920	0.688016
291.761475	723.262695	1609.619751	736.785828	1.525698
292.132507	724.154297	1597.137085	729.281189	0.587284
292.503510	722.965515	1580.344604	734.853821	1.386587
292.874481	730.618652	1574.251587	739.014832	0.995241
293.245422	724.005676	1578.486938	746.296570	2.608705
293.616364	722.445374	1605.310181	747.633972	2.853053
293.987213	711.002747	1643.799194	737.974609	2.891506
294.358093	721.107910	1689.718140	728.909668	0.805459
294.728943	721.850891	1737.197632	727.943787	0.600080
295.099731	729.949951	1782.373657	730.247131	0.028238
295.470490	722.816895	1808.602539	736.711426	1.279675
295.841248	721.479431	1826.880859	737.900330	1.485515
296.211975	712.191589	1846.125366	734.556641	1.972342
296.582642	713.454773	1891.078613	731.213074	1.507977
296.953308	708.327820	1955.870483	735.299744	2.162004
297.323883	710.705566	2002.383911	742.878601	2.490793
297.694519	707.138977	2029.430176	737.231628	2.275796
298.065063	708.847961	2017.096069	723.782776	1.141589
298.435608	715.312317	2000.377930	713.900574	-0.109858
298.806122	729.504150	1950.817993	717.095520	-1.016007
299.176575	737.603088	1900.737915	728.686829	-0.766572
299.547028	736.637207	1858.831177	733.813660	-0.251610
299.917450	725.789001	1840.478516	740.500916	1.319822
300.287872	727.423645	1834.236938	735.671204	0.745163
300.658234	723.262695	1829.333008	743.398682	1.820498
301.028564	724.748779	1830.076172	739.163391	1.304103
301.398865	721.850891	1829.407349	743.621643	1.965656
301.769135	725.491760	1826.435181	733.962219	0.769382
302.139374	723.411316	1837.877930	732.179016	0.786717
302.509583	719.473206	1846.348267	733.813660	1.272586
302.879791	721.702332	1837.654907	735.225403	1.211796
303.249939	719.101746	1816.701538	742.952881	2.173027
303.620087	718.804504	1795.450806	737.157227	1.704620
303.990173	711.820068	1799.686157	739.014832	2.499826
304.360260	716.575500	1806.299194	728.612488	1.104591
304.730286	717.764343	1815.141235	731.956055	1.293239
305.100281	719.324707	1814.546509	735.894104	1.512880
305.470276	715.312256	1821.902710	740.055115	2.235955
305.840179	709.516785	1836.688965	736.488525	2.392868
306.210144	710.482666	1848.503296	732.253235	1.913021
306.579987	714.940857	1857.716797	736.414246	1.879055
306.949890	723.559875	1866.187134	742.135559	1.625699
307.319702	727.795166	1883.945679	742.804382	1.298206
307.689484	725.566101	1911.660278	743.250183	1.490951
308.059265	718.358704	1950.297729	737.603088	1.562122
308.429016	710.705505	1994.805054	737.974609	2.123597
308.798737	707.956299	2037.603516	732.624817	1.855268
309.168396	713.751953	2069.033691	733.293518	1.441882
309.538055	718.804504	2103.881592	734.408020	1.126545
309.907684	712.934570	2123.869141	734.482361	1.527200
310.277313	706.693176	2158.642822	741.169617	2.374493
310.646851	699.634460	2176.252441	748.525635	3.311024
311.016388	706.544617	2189.552490	747.039551	2.730595
311.385895	709.962585	2191.781738	743.547363	2.266456
311.755371	711.374268	2193.639404	738.791931	1.849714
312.124817	714.049133	2208.722900	741.615479	1.844305
312.494232	717.318542	2197.354492	734.036621	1.129573
312.863617	720.736389	2195.719971	730.395752	0.654879
313.232971	716.724060	2169.490967	728.761047	0.828556
313.602295	715.683777	2162.803711	730.618652	1.032041
313.971619	715.980957	2159.979980	730.544373	1.008547
314.340820	715.163635	2174.692139	735.374084	1.384724
314.710083	719.101746	2200.326416	736.562927	1.178834
315.079285	717.541321	2236.883545	738.123230	1.354659
315.448486	718.581604	2265.564209	735.745544	1.109511
315.817596	716.501160	2266.530029	736.562805	1.294276
316.186707	716.724121	2231.682373	735.745605	1.255578
316.555786	716.724060	2196.982910	739.386414	1.530972
316.924866	711.820068	2163.695313	743.027161	2.149433
317.293884	716.352539	2145.713867	741.987000	1.793421
317.662872	716.278137	2137.466553	741.987000	1.808969
318.031830	719.844727	2150.097900	746.742371	1.880621
318.400757	717.987122	2167.781982	748.971436	2.137151
318.769684	722.742493	2176.921143	749.491516	1.839459
319.138550	723.485535	2190.369873	751.720642	1.924835
319.507416	722.296692	2205.453369	751.571960	1.973849
319.876190	722.742493	2226.035156	746.965271	1.611315
320.244995	724.748718	2237.403564	737.157227	0.820313
320.613770	724.154297	2217.638916	737.603027	0.900493
320.982483	724.823059	2204.413086	734.259460	0.637771
321.351166	725.714661	2166.667236	730.915833	0.360954
321.719818	720.364929	2159.534424	725.194519	0.335582
322.088440	715.683777	2157.825195	724.154297	0.587357
322.457062	705.429993	2177.961182	733.070618	1.877082
322.825623	714.643555	2211.917725	740.575195	1.731923
323.194183	719.398926	2252.709961	748.525574	1.899592
323.562653	722.742493	2309.328369	743.695984	1.320665
323.931183	720.587830	2376.275391	739.386414	1.135394
324.299591	714.569336	2445.451172	739.014832	1.412315
324.668060	719.844788	2502.218506	742.581360	1.275634
325.036407	720.513489	2542.862305	742.655579	1.215030
325.404755	723.857117	2558.391357	732.401917	0.465775
325.773102	720.364929	2563.815186	726.531982	0.334539
326.141388	717.764343	2565.524170	726.606384	0.478528
326.509674	719.621887	2564.632568	739.460693	1.075268
326.877899	725.045898	2583.728516	744.364685	1.039381
327.246124	729.875671	2601.561279	747.188171	0.924968
327.614288	730.395813	2613.301025	741.541199	0.591925
327.982422	725.714661	2600.149414	740.352356	0.780912
328.350525	726.234863	2584.025635	741.169678	0.803902
328.718628	724.302917	2566.415771	741.764160	0.947892
329.086700	726.383484	2572.137207	744.736145	0.994318
329.454712	722.891174	2569.387939	741.912659	1.030139
329.822693	721.479492	2588.855225	738.643311	0.919141
330.190674	725.343079	2595.245361	738.643311	0.711280
330.558563	725.714600	2609.065674	735.819824	0.536556
330.926483	723.485596	2630.093506	742.135559	0.978175
331.294312	725.714661	2651.715576	740.352295	0.760001
331.662231	721.553711	2693.919678	743.027283	1.088722
332.029999	721.033630	2737.683838	741.987000	1.039019
332.397766	716.278259	2787.987061	739.534973	1.122586
332.765503	718.210144	2833.608643	746.890930	1.355810
333.133240	721.479431	2875.515381	742.507080	0.976198
333.500916	723.039856	2929.236328	739.906433	0.764509
333.868561	722.742676	2968.839844	734.705261	0.532594
334.236176	723.857117	2996.926025	739.312012	0.679913
334.603790	715.163757	3004.133545	742.209900	1.181586
334.971344	717.912903	2992.096436	745.181946	1.199069
335.338867	716.129578	2988.975586	744.959045	1.268430
335.706360	713.231750	2990.090088	740.575256	1.200931
336.073853	715.609558	2992.393555	739.832214	1.063898
336.441284	714.940735	2990.981689	738.197571	1.021811
336.808655	715.535156	2985.483398	753.801086	1.685762
337.176086	713.974854	2968.170654	756.401672	1.882127
337.543396	707.659119	2907.614014	758.259277	2.300055
337.910706	716.203918	2831.528076	741.169617	1.180230
338.277954	711.225647	2833.608398	740.352356	1.372359
338.645264	721.479492	2911.626221	732.179016	0.488530
339.012421	720.662109	3064.318359	739.386414	0.798936
339.379669	723.039795	3175.252197	739.460632	0.669634
339.746796	720.587830	3257.431396	743.918762	0.919684
340.113953	719.101746	3306.768311	746.519470	1.059554
340.481018	715.386536	3343.250977	747.336731	1.215824
340.848114	712.191589	3358.854492	743.547363	1.184729
341.215118	714.940735	3355.436279	743.324402	1.074937
341.582153	721.776611	3363.089600	739.386414	0.666706
341.949066	725.491760	3385.900391	751.200500	0.966346
342.316010	723.634216	3414.135742	745.924988	0.828499
342.682922	718.061523	3433.305908	750.531738	1.195849
343.049835	715.981018	3449.057861	741.763977	0.943367
343.416656	709.368103	3486.358154	749.863037	1.458231
343.783478	710.928406	3544.611328	747.262451	1.282220
344.150269	714.866455	3654.207764	755.510071	1.382746
344.516998	716.278137	3776.435547	753.132385	1.204325
344.883728	713.677673	3878.304688	750.828918	1.173953
345.250427	705.355774	3951.344482	747.411133	1.295610
345.617065	706.024475	3984.854736	750.828918	1.366476
345.983704	716.649719	4004.990967	750.085938	1.016811
346.350281	716.575500	3975.864502	744.810486	0.866293
346.716827	722.222473	3930.317139	737.751709	0.484064
347.083405	715.163757	3876.819092	737.231628	0.697985
347.449860	725.937683	3839.221436	742.061279	0.517897
347.816376	725.045959	3794.862549	743.250183	0.593007
348.182770	719.919128	3760.460693	748.822754	0.950608
348.549194	716.575439	3748.200439	748.154053	1.041640
348.915558	716.798340	3765.810547	746.147949	0.962594
349.281921	720.216309	3792.336182	743.621643	0.761863
349.648193	715.832458	3822.428955	739.980774	0.777324
350.014526	708.699402	3845.240234	748.154053	1.257903
350.380737	703.126648	3902.304688	746.816650	1.365663
350.746948	704.389832	3950.899170	750.680420	1.425857
351.113159	713.603333	4015.690674	750.308899	1.111587
351.479309	726.532043	4044.891602	752.240723	0.774741
351.845428	727.497864	4077.881836	749.788757	0.665324
352.211517	725.863281	4109.683594	741.689758	0.467710
352.577576	724.971680	4151.441406	741.987000	0.496585
352.943604	724.228699	4211.998535	742.284180	0.517680
353.309601	724.823059	4272.628906	740.946716	0.454468
353.675537	721.330811	4368.628418	738.717590	0.476703
354.041473	717.021240	4484.169434	734.185242	0.455623
354.407379	714.866455	4581.580078	739.460754	0.636052
354.773254	709.591003	4677.355957	738.940613	0.739701
355.139038	714.420654	4736.352539	743.770264	0.729739
355.504913	718.804504	4845.428711	744.141785	0.613995
355.870636	726.457703	4933.031738	743.175842	0.397429
356.236389	725.417480	5049.018066	746.742371	0.493221
356.602081	723.857117	5165.524902	748.228455	0.548698
356.967804	720.587830	5316.953613	755.064270	0.750080
357.333405	718.804504	5465.039063	752.537903	0.710740
357.699036	717.467041	5620.183594	752.315002	0.710789
358.064606	715.015137	5757.271973	740.946777	0.514286
358.430176	721.628113	5856.837891	744.438965	0.444205
358.795654	720.290527	5906.546875	742.358459	0.425508
359.161163	720.587830	5874.818848	742.729980	0.429592
359.526581	721.850891	5857.803223	733.962341	0.235817
359.892029	726.011902	5894.360840	734.482422	0.163892
360.257416	727.126465	6017.926270	735.745605	0.162908
360.622772	721.256531	6233.552734	734.853943	0.246674
360.988098	716.798340	6466.863281	741.615479	0.431598
361.353394	723.336975	6759.467285	745.850769	0.372984
361.718658	727.052185	7029.928223	745.404968	0.291181
362.083893	726.457703	7252.168457	747.708252	0.325643
362.449097	718.581604	7397.727051	744.067444	0.381573
362.814209	713.974792	7414.371094	748.154114	0.510109
363.179382	710.779785	7242.657715	735.671204	0.381076
363.544434	715.312256	6888.084473	741.987000	0.432136
363.909546	713.751953	6462.701660	744.810486	0.540247
364.274536	726.309082	6141.045410	745.181946	0.348546
364.639587	729.058350	5928.093750	739.683594	0.204370
365.004517	726.309082	5806.386230	737.380188	0.217932
365.369507	724.600098	5741.147949	742.358582	0.353998
365.734344	721.850891	5707.414551	749.342957	0.551433
366.099274	730.915833	5686.535645	752.240784	0.430319
366.464081	720.290588	5649.681641	751.646301	0.636097
366.828918	717.467102	5651.762207	750.085938	0.661064
367.193665	713.083191	5651.613770	749.788757	0.743249
367.558411	720.587830	5687.204590	751.274719	0.617863
367.923126	724.674500	5660.455566	757.367615	0.662370
368.287781	732.922058	5647.601563	750.977600	0.367380
368.652435	731.956116	5591.948730	749.045715	0.351638
369.017059	725.417480	5574.264160	749.417236	0.494958
369.381653	716.129639	5539.342285	755.510071	0.816477
369.746185	712.934570	5536.741699	759.076599	0.956548
370.110687	713.008972	5545.880859	751.943542	0.805620
370.475220	716.724060	5601.013184	753.726746	0.757586
370.839661	718.358704	5672.046875	752.612305	0.691477
371.204041	723.114075	5751.996582	750.457520	0.543728
371.568451	723.782776	5808.688965	753.726807	0.588881
371.932770	718.804504	5855.128906	747.559631	0.559839
372.297150	721.850891	5889.232910	742.655701	0.402618
372.661377	717.021301	5922.892578	737.974609	0.402494
373.025696	721.776550	5951.648438	739.980774	0.348082
373.389862	719.993347	5960.044434	742.061340	0.421141
373.754059	720.810608	5948.898926	739.609314	0.359571
374.118225	724.377258	5930.100098	746.519470	0.425344
374.482361	728.166687	5965.988281	748.822815	0.394365
374.846436	725.566101	6032.563965	751.274841	0.484431
375.210510	715.906677	6144.537598	750.829041	0.643300
375.574524	705.950195	6255.917969	757.219055	0.923769
375.938538	708.030579	6415.593750	762.345886	0.951637
376.302460	712.042969	6574.007813	760.339661	0.823899
376.666412	723.782776	6759.838379	763.237549	0.653652
377.030304	731.807556	6908.221191	766.358215	0.559397
377.394196	737.380188	7053.186035	769.701843	0.511758
377.757996	730.544434	7153.717285	769.776184	0.610785
378.121796	723.262695	7210.410156	767.175598	0.676922
378.485565	718.210144	7233.072754	768.810242	0.776687
378.849304	713.157471	7161.222168	770.147644	0.883834
379.212982	722.445313	7046.499512	780.624451	0.919966
379.576630	723.336914	6840.085938	789.169189	1.076262
379.940277	730.247131	6690.736816	798.308411	1.141874
380.303864	722.668274	6579.505859	795.113464	1.236934
380.667450	723.336975	6564.570801	795.484924	1.235149
381.030945	724.525818	6583.295410	796.673767	1.231452
381.394501	722.816895	6633.747559	805.515808	1.399084
381.757935	719.993408	6671.567871	816.512512	1.621741
382.121399	718.953125	6691.257813	825.874756	1.790291
382.484741	717.912903	6711.839355	830.481628	1.878047
382.848145	719.993347	6733.238281	838.654846	1.973336
383.211487	719.027405	6806.128906	852.549500	2.193525
383.574768	716.055359	6894.326172	868.970276	2.475044
383.938019	715.683777	7005.408691	882.790527	2.656821
384.301270	713.751953	7089.742676	891.632629	2.789852
384.664459	714.123535	7169.097656	917.415710	3.149388
385.027649	715.683838	7213.828125	939.409363	3.442914
385.390778	721.033630	7267.994629	963.557617	3.704375
385.753876	732.476257	7300.391113	975.891846	3.706132
386.116943	734.779602	7362.805176	1001.006165	4.016680
386.479980	730.618652	7402.854980	1024.040039	4.397647
386.842987	717.318542	7467.795410	1052.126465	4.959767
387.205994	717.764343	7523.447754	1073.005493	5.219772
387.568909	717.467102	7561.787598	1107.184814	5.694031
387.931793	730.172852	7616.029297	1143.890381	6.008222
388.294678	729.949890	7664.771484	1179.481445	6.482236
388.657471	729.652649	7712.548340	1211.208618	6.896222
389.020294	723.411316	7691.371582	1236.620117	7.365266
389.383057	716.946960	7688.102051	1275.257690	8.008869
389.745819	716.575378	7675.322266	1320.359375	8.676620
390.108521	711.745789	7687.210938	1362.191772	9.324768
390.471191	712.191589	7767.903809	1401.943726	9.775797
390.833801	709.516663	7892.658203	1448.828613	10.292320
391.196442	719.993347	8083.244141	1516.890015	10.822620
391.558960	723.708496	8242.029297	1579.527222	11.383110
391.921509	725.194580	8421.172852	1646.250977	11.968022
392.284027	724.377258	8620.675781	1702.498169	12.387081
392.646484	721.256531	8737.851563	1754.287109	12.886150
393.008911	727.275085	8759.696289	1790.398315	13.235402
393.371307	719.250305	8684.427734	1823.463013	13.863002
393.733673	725.566101	8617.852539	1861.877441	14.397745
394.096008	716.649719	8560.268555	1911.585938	15.234503
394.458344	723.559875	8574.756836	1971.771362	15.898358
394.820587	717.690002	8591.624023	2029.207397	16.656443
395.182831	723.114075	8674.545898	2081.442139	17.082811
395.545013	725.343201	8628.626953	2119.039307	17.634392
395.907196	721.405090	8538.719727	2144.376465	18.202816
396.269287	714.940735	8378.449219	2168.450439	18.966637
396.631409	705.875793	8263.577148	2193.193604	19.679501
396.993469	711.745789	8141.349121	2228.858643	20.419836
397.355530	719.398926	8053.152344	2253.601563	20.919746
397.717499	728.092285	8025.957031	2281.241943	21.282248
398.079468	733.887939	8032.198730	2311.408936	21.614880
398.441376	728.018066	8052.111816	2357.848389	22.252996
398.803284	725.343201	8032.421875	2405.698975	22.996273
399.165131	723.708496	8076.557129	2457.042480	23.573639
399.526978	725.640320	8089.560059	2495.679932	24.036648
399.888763	724.302917	8111.330566	2537.437988	24.544851
400.250519	723.708496	8095.429688	2573.994873	25.099789
400.612244	724.971680	8135.775879	2623.108643	25.613104
400.973938	729.801331	8145.138672	2652.830078	25.933126
401.335602	723.411316	8163.714355	2691.095947	26.446295
401.697205	722.593933	8170.773438	2722.600342	26.852283
402.058807	716.055359	8242.475586	2786.277588	27.506065
402.420349	714.272034	8352.963867	2841.633057	27.849810
402.781860	716.872620	8461.891602	2904.047607	28.239763
403.143341	716.129639	8591.030273	2987.563721	28.843973
403.504822	715.535156	8717.493164	3064.838623	29.359108
403.866241	709.367981	8914.618164	3152.664307	29.777233
404.227631	710.036804	9094.058594	3207.128174	29.783932
404.588959	718.358704	9291.851563	3288.266846	29.975042
404.950287	718.284424	9400.111328	3357.294189	30.396940
405.311554	715.460938	9515.875977	3426.544189	30.806311
405.672821	718.432922	9563.131836	3471.274658	31.124199
406.034027	722.222473	9556.147461	3501.515625	31.461590
406.395203	724.674500	9462.377930	3495.125732	31.706858
406.756348	722.296692	9361.770508	3506.419678	32.225609
407.117493	723.708496	9310.725586	3495.943115	32.284023
407.478516	731.287354	9301.585938	3511.769531	32.443233
407.839600	720.885010	9290.441406	3534.951904	32.837952
408.200592	718.284363	9303.666992	3571.211670	33.230053
408.561554	708.253601	9285.983398	3607.843018	33.803692
408.922485	709.665283	9316.669922	3648.040771	34.139351
409.283417	709.665283	9306.639648	3674.046875	34.481682
409.644257	718.878845	9382.130859	3724.498291	34.693893
410.005096	727.349304	9516.766602	3773.909424	34.661686
410.365906	721.702332	9664.332031	3849.252686	34.973495
410.726715	718.953125	9790.944336	3912.855469	35.206188
411.087433	725.343079	9859.377930	3947.554688	35.276978
411.448120	734.036621	9939.030273	3984.186279	35.308548
411.808807	733.293640	9942.151367	4011.604248	35.599537
412.169434	726.309082	9857.147461	4018.811279	36.059147
412.530029	724.971680	9772.740234	4019.479736	36.412380
412.890564	722.593994	9736.108398	4034.043213	36.738712
413.251099	720.364929	9761.222656	4061.237549	36.953049
413.611572	721.033630	9826.980469	4102.178223	37.131168
413.972076	707.733398	9886.942383	4137.101074	37.360165
414.332489	708.922302	9927.735352	4183.763184	37.692928
414.692871	704.687012	10056.130859	4251.750000	37.930649
415.053223	715.237976	10167.881836	4313.570313	38.066940
415.413574	713.231873	10401.934570	4400.504395	38.057442
415.773834	718.507324	10537.091797	4474.955566	38.258553
416.134094	721.999512	10716.532227	4554.533691	38.346306
416.494263	721.553711	10835.416992	4620.663574	38.552132
416.854462	717.912903	11094.436523	4739.101563	38.752754
417.214630	708.699402	11394.620117	4851.224609	38.766201
417.574738	708.773621	11744.065430	4996.189453	38.851860
417.934784	711.374207	12035.554688	5101.922363	38.771442
418.294861	717.912903	12409.372070	5266.130859	38.902054
418.654846	717.318420	12828.959961	5438.513672	38.980640
419.014832	714.197754	13301.450195	5651.539063	39.224934
419.374756	721.182190	13768.590820	5850.967285	39.316505
419.734680	722.073914	14268.278320	6055.746094	39.373924
420.094543	726.531982	14747.010742	6258.890137	39.459126
420.454376	722.668274	15195.278320	6453.710938	39.599232
420.814148	726.383362	15637.601563	6662.056641	39.806763
421.173920	716.724060	16116.928711	6874.116699	39.982536
421.533691	720.662109	16609.257813	7081.495605	40.033955
421.893341	717.541321	17000.240234	7243.475098	40.078941
422.253021	722.073792	17223.445313	7346.755859	40.146252
422.612640	721.776611	17283.927734	7412.662598	40.398655
422.972260	720.810730	17212.447266	7406.049316	40.537144
423.331757	722.148132	17126.775391	7377.294434	40.568714
423.691315	722.073914	17133.390625	7359.015625	40.441254
424.050781	722.816895	17249.005859	7433.096191	40.603912
424.410248	721.925232	17380.000000	7487.782715	40.616085
424.769653	715.460876	17502.748047	7583.410156	40.911610
425.128998	713.603271	17556.544922	7627.917480	41.051704
425.488373	714.123352	17462.179688	7632.672363	41.309563
425.847656	715.758118	17216.462891	7575.459473	41.572170
426.206940	721.850891	16952.314453	7472.921875	41.595058
426.566193	718.507324	16649.755859	7347.499512	41.610001
426.925385	715.312256	16353.434570	7206.472656	41.508564
427.284576	712.785950	15913.191406	7043.378418	41.647522
427.643677	717.244141	15553.789063	6918.326660	41.796001
428.002777	718.061523	15200.627930	6790.822754	41.931526
428.361847	717.987122	14856.085938	6670.526855	42.102829
428.720856	718.284424	14535.172852	6562.564941	42.298092
429.079865	722.742615	14282.840820	6467.754395	42.367035
429.438812	723.708496	14129.479492	6403.334473	42.367020
429.797760	727.720886	14022.706055	6364.622559	42.398708
430.156616	724.971680	13865.184570	6303.991699	42.457607
430.515503	717.541443	13771.414063	6266.245605	42.506191
430.874268	715.758118	13713.161133	6251.013672	42.587395
431.233093	715.312256	13744.963867	6277.763184	42.690712
431.591827	717.689941	13807.377930	6320.561035	42.803703
431.950562	717.392761	13872.391602	6335.199219	42.704727
432.309204	721.850891	13946.621094	6350.282715	42.559769
432.667877	722.965515	14066.026367	6395.012207	42.509338
433.026459	718.507324	14193.752930	6474.292969	42.713772
433.385010	717.169861	14320.364258	6567.840332	43.009533
433.743561	715.683777	14476.028320	6652.322754	43.143101
434.102051	718.953125	14642.317383	6729.894531	43.171616
434.460510	716.575378	14810.092773	6807.615723	43.218739
434.818939	723.931396	14865.077148	6845.138672	43.286499
435.177338	724.525879	14866.414063	6855.020996	43.349903
435.535675	725.417480	14802.140625	6842.389160	43.454517
435.894012	718.804504	14755.777344	6834.216309	43.566456
436.252289	719.324646	14782.749023	6834.438965	43.482399
436.610535	717.541321	14796.198242	6826.488281	43.391544
436.968719	717.392761	14907.578125	6885.335938	43.466263
437.326935	719.324646	15001.421875	6959.416016	43.691700
437.685028	719.027405	15138.510742	7024.430176	43.728355
438.043152	719.398926	15249.148438	7081.197754	43.784641
438.401215	712.191589	15450.804688	7165.234375	43.783245
438.759277	715.163757	15670.739258	7276.763184	43.873936
439.117249	719.250305	16068.928711	7421.652832	43.664772
439.475250	721.405090	16383.229492	7570.035156	43.728176
439.833130	722.965393	16786.396484	7738.628418	43.674751
440.191071	716.203857	17035.164063	7865.908691	43.812260
440.548889	717.764343	17339.134766	7980.706543	43.696411
440.906708	715.758118	17644.890625	8124.854004	43.765358
441.264496	726.606262	17870.103516	8216.618164	43.690102
441.622223	732.550537	18043.525391	8302.214844	43.727543
441.979950	736.637207	18073.689453	8323.242188	43.759483
442.337616	731.584534	18071.015625	8340.628906	43.882893
442.695251	726.160461	17908.589844	8283.118164	43.980728
443.052887	726.234802	17718.449219	8199.973633	43.983311
443.410461	724.377258	17514.859375	8123.590332	44.067898
443.768005	719.621826	17381.115234	8070.240723	44.117405
444.125458	711.820068	17314.837891	8030.042969	44.077667
444.482941	709.888184	17371.679688	8051.813965	44.064445
444.840393	719.398926	17504.607422	8121.732910	44.100338
445.197754	721.256531	17770.460938	8276.505859	44.314381
445.555084	720.662109	18035.126953	8412.703125	44.425518
445.912415	712.563049	18414.369141	8560.120117	44.331955
446.269714	719.027405	18710.169922	8691.487305	44.313251
446.626953	725.714661	19033.162109	8830.506836	44.270466
446.984161	720.290527	19343.154297	8971.905273	44.309059
447.341309	717.169861	19577.205078	9068.127930	44.278591
447.698456	716.426819	19755.830078	9149.117188	44.290730
448.055542	724.302979	19804.869141	9202.465820	44.433498
448.412598	720.067688	19771.732422	9169.549805	44.350365
448.769653	716.055359	19616.585938	9129.649414	44.515118
449.126617	716.426819	19345.826172	9009.798828	44.517658
449.483582	721.107910	19072.394531	8933.194336	44.749374
449.840515	723.708496	18748.732422	8780.278320	44.696583
450.197388	727.200684	18481.169922	8679.671875	44.792641
450.554230	728.761047	18263.980469	8589.468750	44.828114
450.911041	721.850891	18099.326172	8499.636719	44.757858
451.267822	713.974854	17962.755859	8446.362305	44.828602
451.624573	708.104919	17785.990234	8364.332031	44.831238
451.981262	717.467041	17658.636719	8326.808594	44.916271
452.337921	720.067627	17508.248047	8244.778320	44.821484
452.694580	725.343201	17427.705078	8210.227539	44.813332
453.051147	720.959290	17428.001953	8204.358398	44.791882
453.407715	719.770508	17347.902344	8182.586426	44.880661
453.764221	717.244141	17350.279297	8206.735352	45.027809
454.120728	719.176086	17095.199219	8148.853516	45.369240
454.477142	725.714661	17043.781250	8134.067871	45.399700
454.833557	732.476257	16860.998047	8051.665527	45.380413
455.189911	733.888000	16746.794922	7978.477051	45.242184
455.546265	731.138855	16554.349609	7900.087891	45.306538
455.902557	725.640381	16431.453125	7837.599609	45.282337
456.258820	721.702332	16419.191406	7824.076660	45.245289
456.615051	724.674500	16481.755859	7851.791504	45.231201
456.971252	722.148132	16470.683594	7860.261719	45.325573
457.327393	720.587708	16649.751953	7953.140137	45.404469
457.683502	715.906738	16893.615234	8053.968750	45.359093
458.039612	715.163635	17359.271484	8243.367188	45.230442
458.395630	724.674500	17832.056641	8444.132813	45.123550
458.751648	725.343201	18313.466797	8659.090820	45.108551
459.107605	726.160461	18933.373047	8949.540039	45.165504
459.463562	715.980957	19578.914063	9240.732422	45.193138
459.819458	718.507324	20188.197266	9525.683594	45.235317
460.175323	714.569153	20708.685547	9791.241211	45.396713
460.531158	723.262634	21203.023438	10024.997070	45.419155
460.886932	721.553711	21506.548828	10168.773438	45.452110
461.242676	727.126465	21627.367188	10207.039063	45.357910
461.598419	726.234863	21398.365234	10109.627930	45.391510
461.954102	727.646545	20939.250000	9937.171875	45.565536
462.309723	729.949951	20299.353516	9691.377930	45.793053
462.665344	724.154297	19616.810547	9409.547852	45.972324
463.020905	724.228577	19101.521484	9164.868164	45.929722
463.376373	714.717957	18661.126953	8944.784180	45.859127
463.731873	722.073914	18329.292969	8799.077148	45.873249
464.087341	718.061523	18063.437500	8695.127930	45.989586
464.442749	727.126465	17929.693359	8651.734375	46.066429
464.798126	721.850891	17851.750000	8602.916992	46.007664
465.153503	730.247070	17911.638672	8632.860352	45.995190
465.508820	729.578369	17990.919922	8639.624023	45.825211
465.864105	729.058289	18159.585938	8705.530273	45.761509
466.219330	728.909668	18449.218750	8803.535156	45.567070
466.574524	726.606262	18664.845703	8908.672852	45.612427
466.929657	721.999512	18820.583984	9006.233398	45.772831
467.284790	715.163635	18923.416016	9095.395508	46.024361
467.639893	719.770325	19049.062500	9171.110352	46.108379
467.994934	723.931335	19205.099609	9269.635742	46.240067
468.349945	726.234802	19257.482422	9300.916992	46.271481
468.704926	719.621826	19236.751953	9297.276367	46.322803
469.059875	721.107910	19028.185547	9190.280273	46.261734
469.414764	725.491699	18776.521484	9085.067383	46.310799
469.769653	728.984070	18574.119141	9009.352539	46.401264
470.124451	727.869446	18489.263672	8970.196289	46.405857
470.479248	725.566101	18367.853516	8906.146484	46.369160
470.834015	716.575439	18265.615234	8864.612305	46.430103
471.188721	715.832336	18331.521484	8886.010742	46.380123
471.543365	712.637390	18439.556641	8933.416016	46.374546
471.898010	714.420715	18596.929688	8978.145508	46.211212
472.252625	712.340149	18742.638672	9051.631836	46.251545
472.607178	712.934570	19037.916016	9167.469727	46.136665
472.961700	712.414490	19267.365234	9287.617188	46.215176
473.316193	716.426758	19568.140625	9422.997070	46.184502
473.670654	714.643555	19707.535156	9515.058594	46.335312
474.025055	725.120300	19939.880859	9614.030273	46.260845
474.379456	722.296692	20045.462891	9660.839844	46.258171
474.733795	726.234863	20154.912109	9701.483398	46.195877
475.088104	722.965515	20241.845703	9749.706055	46.246197
475.442383	722.296814	20262.501953	9781.581055	46.362278
475.796570	717.838562	20389.857422	9836.416992	46.353035
476.150787	720.216248	20590.250000	9936.056641	46.380600
476.504944	719.101746	20877.505859	10051.448242	46.295067
476.859070	724.674500	21174.416016	10199.311523	46.331326
477.213135	720.959290	21424.445313	10312.845703	46.329815
477.567200	725.343201	21871.525391	10491.395508	46.183529
477.921173	722.519714	22263.474609	10665.784180	46.159813
478.275146	723.857117	22774.970703	10882.674805	46.069408
478.629089	723.559875	23043.501953	11021.695313	46.138721
478.983002	724.674500	23492.439453	11206.114258	46.036312
479.336823	727.423645	23849.390625	11379.907227	46.070835
479.690643	726.680664	24328.642578	11608.239258	46.104469
480.044403	726.754883	24786.273438	11841.179688	46.195538
480.398163	728.166687	25468.447266	12169.078125	46.244064
480.751862	731.584656	26357.775391	12610.956055	46.356365
481.105499	729.504089	27484.130859	13144.003906	46.401321
481.459137	719.621887	28937.271484	13820.528320	46.428055
481.812744	704.835632	30762.291016	14619.729492	46.294315
482.166290	695.027588	33048.066406	15634.035156	46.174976
482.519806	695.696350	35777.128906	16874.445313	46.117695
482.873291	711.894348	38943.839844	18356.859375	46.152412
483.226715	713.677673	42492.238281	20102.748047	46.409138
483.580139	710.705566	45999.105469	21878.435547	46.739853
483.933502	703.498108	49325.191406	23716.685547	47.331112
484.286804	704.761292	51985.156250	25407.962891	48.172798
484.640106	715.312317	53994.375000	26875.367188	49.100067
484.993347	716.947021	55089.519531	27838.406250	49.880772
485.346558	718.953125	55306.410156	28153.224609	50.257465
485.699738	714.717957	54642.890625	27792.486328	50.210800
486.052887	717.838623	53351.957031	26943.353516	49.826077
486.405975	722.668274	51792.488281	25875.404297	49.251663
486.759064	726.383362	50172.765625	24784.265625	48.654484
487.112061	728.092285	48879.750000	23895.087891	48.112564
487.464996	722.816833	48139.917969	23334.695313	47.687180
487.817963	720.959290	48048.968750	23175.912109	47.445381
488.170868	712.563049	48146.230469	23227.031250	47.465164
488.523743	716.129578	48238.886719	23286.398438	47.493603
488.876587	711.968567	47979.722656	23234.236328	47.648270
489.229401	720.884949	47494.894531	22973.064453	47.573814
489.582153	722.371094	46603.187500	22564.623047	47.606503
489.934845	723.039795	45557.152344	22044.205078	47.555676
490.287537	717.467102	44477.312500	21515.318359	47.527252
490.640198	719.250305	43648.394531	21062.517578	47.388012
490.992798	726.457703	43073.957031	20720.056641	47.213177
491.345337	726.680664	42903.503906	20642.857422	47.220661
491.697876	726.383362	43012.359375	20663.734375	47.148849
492.050354	721.850891	43422.214844	20858.482422	47.157986
492.402832	722.148132	43659.015625	20962.134766	47.138947
492.755219	717.615723	43507.960938	20980.337891	47.353493
493.107605	715.015137	42725.996094	20706.236328	47.585705
493.459930	724.080078	41458.835938	20153.349609	47.697029
493.812225	724.154297	39694.144531	19337.431641	47.763103
494.164490	720.810730	37727.351563	18366.070313	47.681465
494.516724	711.002686	35707.433594	17380.966797	47.633331
494.868896	716.278320	33879.511719	16455.451172	47.459705
495.221039	724.674500	32440.716797	15753.069336	47.384205
495.573120	719.993408	31324.986328	15183.018555	47.257080
495.925201	718.061523	30721.427734	14886.921875	47.224236
496.277222	714.643555	30370.125000	14691.059570	47.129284
496.629211	717.244141	30299.458984	14658.291992	47.126450
496.981140	714.940735	30308.154297	14643.803711	47.067764
497.333069	716.352539	30398.429688	14690.838867	47.080551
497.684967	724.748779	30480.982422	14744.929688	47.116783
498.036804	723.114075	30526.529297	14762.984375	47.108257
498.388580	727.349304	30456.833984	14740.694336	47.136185
498.740326	724.971680	30315.880859	14677.609375	47.151768
499.092072	728.240967	29990.289063	14570.540039	47.304611
499.443756	721.850891	29621.150391	14398.530273	47.325298
499.795410	720.216309	29238.197266	14230.754883	47.375511
500.147003	718.284424	28881.837891	14061.418945	47.377316
500.498566	715.015137	28535.736328	13895.945313	47.378101
500.850098	709.962463	28125.140625	13742.139648	47.536358
501.201599	707.733398	27787.064453	13565.745117	47.482750
501.553009	716.278320	27452.107422	13411.120117	47.482510
501.904449	718.655945	27254.087891	13289.784180	47.374878
502.255859	718.358704	27041.953125	13216.670898	47.479507
502.607178	713.677551	26957.916016	13176.546875	47.488022
502.958405	711.448547	26838.958984	13101.649414	47.422050
503.309692	716.129639	26785.537109	13033.959961	47.250134
503.660919	719.176086	26786.724609	13051.792969	47.310230
504.012115	728.092346	26825.734375	13092.957031	47.379238
504.363251	724.971680	26928.271484	13164.585938	47.473461
504.714294	723.634216	26979.689453	13193.414063	47.492970
505.065369	717.095642	27057.857422	13240.002930	47.541931
505.416443	719.547546	27091.068359	13264.448242	47.569878
505.767395	718.730164	27116.851563	13255.679688	47.491825
506.118317	719.993347	27069.369141	13220.682617	47.442074
506.469238	716.352539	27089.134766	13203.444336	47.348408
506.820160	714.197754	27066.994141	13213.846680	47.431961
507.170929	720.810730	27116.333984	13246.539063	47.453987
507.521729	723.634216	27141.298828	13293.500000	47.581295
507.872498	724.822998	27225.259766	13340.311523	47.604832
508.223236	714.049133	27367.177734	13413.499023	47.647125
508.573883	719.696106	27543.275391	13491.812500	47.615257
508.924500	724.005676	27766.109375	13594.202148	47.593178
509.275116	732.624817	27994.218750	13691.835938	47.536514
509.625702	727.646545	28241.796875	13814.213867	47.563046
509.976196	726.531982	28505.791016	13932.502930	47.538960
510.326660	726.086182	28775.810547	14029.838867	47.429176
510.677124	727.200684	28998.718750	14149.913086	47.477863
511.027557	726.531982	29241.837891	14264.635742	47.476620
511.377869	718.953125	29425.365234	14405.515625	47.677719
511.728180	715.832336	29602.130859	14453.440430	47.557522
512.078430	713.603333	29719.156250	14519.940430	47.598946
512.428650	714.494934	29836.478516	14554.120117	47.522945
512.778931	717.318420	29939.240234	14613.338867	47.553410
513.129028	721.925293	29973.865234	14613.487305	47.489372
513.479126	724.525879	30036.281250	14643.059570	47.484474
513.829285	727.720886	29989.023438	14620.546875	47.478497
514.179382	723.188416	29958.263672	14608.508789	47.495415
514.529297	725.343079	29836.109375	14533.241211	47.432274
514.879272	712.860352	29840.343750	14551.816406	47.511677
515.229187	713.454773	29757.943359	14504.411133	47.482178
515.579163	712.191589	29796.505859	14553.079102	47.588840
515.928955	717.021240	29839.156250	14553.229492	47.510967
516.278748	716.203918	30043.265625	14653.612305	47.524052
516.628540	714.272034	30336.687500	14748.496094	47.377041
516.978333	712.711731	30742.306641	14962.784180	47.453426
517.327942	712.340149	31271.490234	15246.472656	47.560658
517.677612	711.968689	31867.771484	15540.414063	47.594490
518.027222	710.779846	32504.320313	15840.002930	47.585838
518.376831	713.826172	33246.675781	16156.532227	47.468040
518.726379	714.866516	33939.921875	16496.392578	47.498871
519.075867	721.479431	34470.964844	16738.767578	47.459358
519.425293	720.587830	34812.089844	16944.513672	47.589352
519.774658	725.045898	34991.082031	17059.533203	47.669617
520.124084	725.268860	35069.394531	17108.275391	47.702503
520.473389	724.674377	34824.347656	16987.607422	47.692345
520.822693	720.141907	34426.386719	16805.193359	47.721279
521.171997	726.383362	33926.847656	16565.941406	47.708843
521.521240	722.148132	33491.132813	16371.565430	47.756798
521.870361	722.073914	33091.238281	16193.238281	47.795994
522.219482	710.928406	32745.429688	16049.015625	47.879898
522.568604	717.318542	32470.437500	15913.785156	47.858185
522.917664	714.049133	32310.240234	15820.534180	47.811096
523.266724	721.033691	32394.423828	15859.840820	47.796608
523.615662	721.107910	32661.693359	15980.359375	47.773865
523.964600	727.200745	33072.214844	16223.106445	47.908173
524.313538	733.962219	33625.917969	16456.490234	47.800526
524.662354	732.253418	34301.925781	16797.763672	47.857216
525.011169	732.996338	35192.816406	17172.919922	47.707516
525.359985	724.005676	36236.988281	17650.908203	47.663982
525.708740	725.045898	37490.699219	18196.587891	47.521374
526.057434	726.011902	38903.269531	18849.486328	47.471912
526.406067	727.572266	40454.488281	19623.423828	47.564358
526.754700	723.857117	42167.238281	20493.361328	47.702438
527.103333	725.714661	44103.046875	21451.865234	47.781063
527.451782	719.770508	46256.562500	22546.195313	47.931408
527.800293	719.473328	48438.167969	23712.599609	48.184734
528.148743	714.346375	50503.406250	24949.666016	48.675995
528.497131	713.008972	52298.488281	26164.218750	49.337933
528.845642	717.021240	53800.519531	27274.896484	50.030376
529.193909	709.591003	54985.281250	28260.521484	50.761086
529.542175	715.980957	55786.035156	28984.525391	51.331970
529.890503	718.804504	56085.253906	29359.382813	51.729122
530.238770	725.937561	55833.812500	29255.357422	51.770134
530.586914	725.566101	55044.050781	28731.599609	51.558937
530.934998	728.092346	53805.796875	27827.333984	51.055794
531.283142	728.909668	52237.332031	26745.486328	50.509365
531.631226	730.841553	50423.753906	25486.427734	49.817135
531.979248	721.107910	48612.628906	24337.708984	49.312702
532.327148	719.547546	47023.441406	23358.919922	48.893021
532.675110	714.792175	45940.332031	22692.646484	48.596111
533.023071	717.392822	45422.292969	22321.353516	48.325714
533.370850	716.426819	45284.832031	22180.103516	48.158947
533.718689	717.467102	45485.597656	22263.322266	48.127666
534.066467	719.696106	45714.300781	22401.453125	48.187462
534.414246	717.467102	45870.488281	22504.361328	48.251247
534.761963	717.244141	45707.765625	22493.365234	48.401573
535.109619	718.358704	45300.292969	22347.804688	48.516167
535.457153	716.352539	44562.832031	22041.677734	48.636341
535.804749	713.306152	43701.964844	21608.939453	48.607315
536.152344	714.494934	42860.261719	21151.976563	48.492374
536.499817	719.993408	41971.675781	20638.992188	48.286510
536.847229	722.519592	41067.707031	20166.576172	48.194241
537.194641	717.318420	40214.343750	19720.982422	48.114166
537.542114	714.494934	39630.699219	19446.732422	48.134804
537.889404	721.479431	39154.562500	19214.089844	48.116390
538.236694	723.188416	38688.312500	18988.876953	48.111759
538.583984	729.281250	38272.511719	18804.755859	48.145763
538.931213	725.491760	38038.609375	18662.390625	48.071293
539.278381	729.504150	37927.457031	18601.685547	48.046143
539.625488	723.188416	37974.859375	18548.558594	47.851196
539.972595	724.451599	38247.250000	18660.458984	47.800297
540.319641	721.256531	38922.734375	18943.107422	47.699337
540.666687	718.358704	39924.562500	19411.958984	47.680210
541.013611	714.494934	41226.640625	20033.720703	47.687492
541.360596	716.649719	42587.273438	20699.996094	47.726410
541.707458	722.891174	44017.968750	21446.142578	47.865147
542.054260	722.371033	45207.261719	22067.015625	47.981785
542.401062	719.919128	46204.406250	22588.771484	48.079800
542.747864	721.628113	46628.824219	22911.318359	48.335972
543.094666	726.754883	46562.691406	22969.572266	48.527023
543.441284	724.005676	45912.027344	22729.724609	48.698120
543.787903	719.993408	44954.707031	22244.525391	48.659817
544.134460	713.529053	43706.199219	21614.365234	48.614880
544.481079	711.671448	42255.582031	20928.326172	48.663342
544.827637	709.888184	40646.039063	20062.701172	48.459381
545.174072	713.306091	39026.609375	19239.277344	48.353882
545.520508	714.792175	37640.199219	18512.968750	48.200352
545.866943	716.352539	36511.464844	17971.005859	48.203934
546.213318	714.272034	35676.750000	17525.041016	48.082317
546.559631	715.981018	34937.957031	17150.183594	48.022366
546.905823	717.764343	34331.796875	16831.349609	47.937080
547.252136	716.055359	33821.183594	16602.941406	47.989197
547.598389	718.432922	33373.214844	16385.160156	47.976826
547.944458	715.906677	32975.843750	16208.618164	48.024620
548.290588	725.565979	32491.314453	15982.589844	48.029793
548.636658	725.714661	31895.259766	15719.855469	48.105099
548.982727	729.652649	31157.283203	15437.801758	48.338135
549.328735	720.439148	30419.384766	15110.051758	48.451595
549.674622	724.005676	29666.849609	14763.429688	48.507408
550.020569	714.420654	28964.166016	14386.640625	48.397675
550.366455	717.615723	28204.125000	13976.491211	48.237755
550.712280	712.414551	27559.177734	13626.895508	48.104424
551.058044	719.919128	27041.062500	13363.864258	48.037220
551.403748	719.473328	26659.966797	13206.194336	48.136017
551.749512	717.244141	26367.732422	13060.633789	48.121460
552.095154	722.519714	26185.244141	12955.421875	48.042393
552.440735	731.138855	26124.615234	12906.903320	47.948395
552.786316	729.875671	26134.572266	12904.375977	47.922241
553.131897	726.234680	26174.250000	12906.754883	47.864323
553.477417	714.792175	26172.466797	12923.917969	47.958530
553.822815	714.346375	26154.037109	12925.776367	48.001484
554.168213	715.832336	26072.228516	12920.424805	48.132206
554.513672	719.770508	25970.955078	12845.973633	48.022316
554.859009	725.714661	25778.437500	12769.516602	48.073822
555.204285	724.748779	25621.734375	12651.598633	47.904793
555.549500	717.615662	25383.740234	12577.371094	48.081146
555.894714	712.860291	25163.062500	12459.304688	48.042316
556.239990	710.854065	24770.966797	12319.985352	48.250526
556.585022	724.080017	24475.539063	12167.813477	48.181179
556.930115	721.033630	24144.296875	12043.727539	48.339523
557.275146	727.126465	23927.109375	11954.340820	48.393204
557.620178	714.866516	23706.804688	11809.227539	48.253269
557.965149	715.312256	23555.968750	11704.684570	48.113205
558.310059	714.272034	23387.822266	11608.090820	48.046371
558.654968	723.114075	23228.664063	11576.438477	48.225098
558.999756	730.247131	23125.162109	11502.358398	48.100704
559.344604	724.674500	23091.578125	11451.386719	47.957966
559.689331	719.027405	23065.869141	11423.152344	47.899944
560.033997	711.597168	22970.537109	11403.535156	48.034351
560.378723	711.522888	22944.976563	11380.204102	47.984818
560.723389	717.987122	22947.802734	11368.910156	47.912781
561.067932	725.566101	23043.130859	11385.183594	47.763355
561.412476	725.789001	23012.296875	11404.651367	47.916267
561.757019	723.782898	22966.228516	11404.502930	48.019539
562.101501	722.296692	22967.789063	11418.098633	48.080761
562.445862	720.885010	22956.570313	11406.804688	48.057526
562.790222	717.987122	22950.103516	11405.096680	48.070587
563.134644	719.844727	22901.212891	11384.811523	48.080746
563.478943	720.141907	22927.369141	11378.347656	47.994312
563.823181	711.448547	22964.296875	11378.050781	47.933651
564.167358	709.813904	22989.931641	11386.891602	47.922001
564.511536	721.776611	23039.490234	11406.879883	47.877235
564.855774	731.213074	23037.929688	11385.182617	47.761265
565.199768	729.578369	23140.171875	11413.195313	47.672173
565.543823	719.473206	23285.431641	11473.975586	47.658077
565.887817	718.210144	23590.890625	11597.020508	47.562466
566.231812	718.284424	23835.791016	11692.722656	47.472416
566.575745	718.284485	24025.562500	11789.390625	47.500641
566.919617	720.364929	24171.195313	11882.565430	47.598316
567.263428	715.312256	24288.962891	11966.750000	47.728874
567.607239	716.798340	24437.494141	12011.926758	47.617191
567.950989	717.764343	24480.146484	12032.137695	47.614639
568.294678	719.993408	24484.679688	12030.131836	47.592209
568.638367	722.073792	24344.025391	11967.195313	47.604538
568.981995	718.507324	24137.384766	11878.924805	47.655651
569.325623	715.089355	23886.169922	11755.507813	47.647404
569.669128	707.064758	23709.179688	11674.963867	47.682133
570.012573	717.169861	23608.646484	11611.286133	47.590275
570.356140	720.884949	23621.947266	11613.960938	47.565811
570.699524	728.538147	23613.552734	11621.687500	47.599487
571.042908	721.256531	23741.947266	11652.152344	47.482914
571.386230	717.021301	23833.267578	11677.268555	47.413612
571.729492	715.535156	23987.072266	11749.118164	47.412354
572.072815	717.987122	24096.000000	11830.034180	47.532040
572.416016	725.194580	24221.421875	11916.967773	47.632217
572.759094	725.863281	24365.494141	11984.657227	47.626774
573.102234	721.702393	24454.212891	11992.383789	47.490475
573.445374	722.891174	24482.968750	11981.460938	47.384396
573.788391	719.919128	24460.234375	11947.579102	47.293644
574.131409	718.804504	24429.398438	11938.738281	47.320339
574.474365	713.231750	24412.828125	11894.676758	47.179897
574.817261	715.832520	24280.123047	11845.934570	47.232914
575.160156	719.324707	24082.181641	11761.898438	47.265511
575.502930	716.724060	23862.914063	11677.266602	47.353554
575.845703	715.609436	23659.400391	11555.113281	47.243736
576.188477	714.197754	23430.695313	11430.583008	47.174458
576.531250	724.080078	23128.580078	11323.289063	47.308392
576.873901	723.262695	22859.009766	11214.584961	47.395386
577.216431	720.587830	22594.046875	11089.754883	47.405247
577.559082	714.346375	22339.039063	10952.518555	47.344818
577.901611	717.392822	22031.275391	10815.281250	47.377048
578.244080	718.210144	21675.365234	10665.932617	47.466953
578.586487	722.742615	21352.744141	10517.699219	47.479187
578.928955	743.175781	21031.087891	10384.028320	47.520180
579.271301	741.541199	20736.328125	10260.686523	47.608135
579.613647	730.618652	20382.500000	10075.895508	47.554111
579.955872	711.077087	20063.666016	9912.949219	47.548531
580.298157	708.030701	19785.550781	9745.545898	47.372593
580.640320	716.798340	19539.460938	9641.818359	47.416351
580.982483	712.934570	19302.734375	9532.519531	47.443138
581.324524	716.055359	19058.130859	9439.492188	47.559700
581.666626	719.101746	18901.943359	9363.480469	47.541409
582.008728	709.962463	18816.642578	9311.096680	47.502544
582.350647	705.281433	18773.919922	9273.276367	47.419151
582.692566	699.634460	18666.998047	9233.004883	47.493725
583.034424	708.996582	18552.943359	9177.872070	47.460770
583.376343	711.225586	18431.755859	9140.125977	47.565731
583.718201	711.968689	18360.277344	9120.063477	47.642494
584.059937	715.312256	18276.908203	9066.714844	47.554916
584.401611	715.609558	18189.156250	9011.359375	47.476051
584.743347	720.141907	18112.179688	8935.719727	47.237583
585.085022	718.135742	18037.208984	8908.004883	47.288147
585.426514	722.148132	17968.701172	8881.924805	47.312508
585.768127	720.067688	17918.771484	8861.416992	47.336994
586.109619	719.324646	17840.380859	8819.733398	47.312550
586.451172	719.027405	17785.841797	8783.473633	47.252205
586.792542	717.541321	17730.412109	8731.386719	47.104603
587.133850	714.123535	17681.445313	8729.826172	47.242001
587.475220	716.649719	17677.062500	8722.618164	47.203854
587.816589	724.154297	17658.265625	8720.464844	47.220139
588.157776	724.971680	17713.322266	8716.377930	47.040504
588.498962	724.823059	17751.142578	8736.959961	47.057358
588.840210	723.411316	17846.175781	8776.860352	47.033585
589.181335	727.200745	17911.042969	8797.887695	46.966721
589.522400	726.903564	17964.392578	8823.299805	46.969700
589.863403	722.891174	17970.855469	8831.696289	47.013111
590.204407	723.336975	17989.208984	8830.432617	46.954456
590.545410	723.634216	18028.513672	8821.665039	46.796230
590.886353	718.284424	18038.173828	8804.575195	46.687893
591.227112	715.981018	17982.001953	8793.578125	46.783199
591.567932	716.129700	17917.804688	8784.959961	46.907234
591.908752	726.234802	17840.380859	8780.575195	47.062473
592.249512	726.234802	17833.767578	8775.448242	47.050697
592.590149	719.324646	17742.001953	8725.590820	47.032940
592.930786	716.129639	17678.251953	8697.208008	47.052353
593.271423	714.123352	17577.125000	8638.583008	46.993172
593.612000	718.878723	17515.826172	8624.168945	47.063850
593.952576	711.671448	17512.630859	8581.073242	46.839005
594.292969	714.494934	17557.732422	8599.203125	46.812305
594.633484	711.745789	17620.740234	8596.676758	46.631580
594.973877	723.931396	17717.929688	8656.043945	46.675964
595.314209	722.148132	17844.912109	8725.516602	46.741104
595.654480	728.686768	18069.677734	8802.048828	46.556522
595.994812	722.742493	18242.060547	8881.032227	46.567390
596.335022	720.513489	18444.462891	8950.208008	46.432621
596.675171	714.792175	18583.259766	9029.043945	46.530304
597.015320	721.628113	18790.341797	9107.284180	46.409817
597.355408	729.875671	18904.839844	9143.247070	46.290989
597.695496	734.185242	19025.134766	9175.270508	46.148972
598.035461	724.674377	18966.509766	9164.125977	46.264263
598.375366	719.844727	18942.214844	9144.138672	46.230503
598.715271	720.736389	18792.642578	9117.910156	46.465347
599.055176	725.268860	18621.673828	9050.442383	46.518696
599.395081	728.018066	18327.732422	8948.647461	46.708874
599.734802	722.222412	17998.050781	8780.649414	46.645676
600.074524	714.792175	17685.681641	8613.617188	46.543381
600.414246	712.117188	17337.052734	8440.269531	46.485306
600.753906	717.838562	17031.224609	8296.122070	46.454388
601.093506	722.370911	16723.091797	8165.794922	46.519302
601.433044	720.587708	16555.833984	8086.587891	46.516487
601.772583	719.101746	16416.146484	8023.430176	46.533146
602.112122	715.906738	16406.335938	7997.944824	46.410698
602.451538	721.553711	16408.937500	7966.886230	46.185730
602.790894	724.080017	16506.275391	7998.984863	46.095646
603.130310	728.463867	16674.125000	8068.606934	46.032227
603.469604	715.089355	16910.853516	8175.825684	46.065975
603.808838	710.705566	17200.189453	8290.029297	45.964588
604.148010	705.950195	17500.074219	8404.827148	45.842678
604.487305	716.501160	17769.125000	8546.298828	45.915504
604.826416	716.352539	17997.679688	8649.727539	45.907207
605.165527	716.352539	18172.068359	8719.573242	45.848713
605.504456	714.197754	18294.519531	8772.104492	45.834808
605.843445	717.021301	18344.970703	8800.637695	45.856815
606.182434	723.114075	18304.847656	8825.750977	46.085537
606.521423	720.662109	18188.861328	8771.288086	46.087326
606.860229	725.417480	18008.972656	8705.306641	46.170418
607.199036	721.405090	17779.005859	8582.633789	46.086365
607.537903	720.364929	17542.873047	8469.916016	46.066563
607.876648	716.798340	17279.171875	8328.146484	45.955662
608.215271	714.346375	16991.472656	8208.295898	46.039761
608.553955	718.210144	16772.427734	8079.900391	45.855179
608.892578	713.974854	16583.031250	7977.064941	45.768883
609.231140	713.231873	16503.673828	7906.700684	45.555840
609.569641	711.745789	16416.591797	7879.506348	45.640442
609.908081	710.333984	16442.820313	7881.958496	45.584812
610.246521	717.392761	16428.554688	7873.414063	45.547371
610.584961	716.872620	16453.966797	7852.088379	45.340111
610.923340	719.621887	16370.820313	7840.052246	45.494473
611.261597	711.745789	16274.672852	7802.007813	45.558670
611.599854	715.015137	16125.472656	7762.925293	45.734596
611.938110	715.758118	15982.737305	7703.557129	45.770672
612.276245	723.188416	15775.135742	7629.478027	45.883030
612.614319	716.575439	15468.265625	7503.832031	46.010029
612.952393	713.008972	15147.129883	7352.179688	45.996365
613.290466	710.556946	14845.088867	7208.478516	45.971958
613.628479	716.352539	14573.214844	7091.972168	46.010559
613.966370	721.776611	14324.300781	6985.792969	46.050396
614.304260	716.203918	14128.735352	6875.825684	45.924377
614.642151	710.333984	13960.367188	6769.423828	45.728867
614.979980	709.293762	13801.432617	6672.830078	45.550510
615.317749	713.677673	13634.252930	6600.607910	45.562447
615.655396	713.603333	13540.629883	6571.183594	45.665924
615.993164	706.841797	13489.659180	6556.323730	45.760506
616.330811	714.569336	13438.242188	6547.332520	45.841820
616.668396	722.296692	13433.040039	6512.187500	45.551159
617.005859	735.894226	13388.905273	6480.683594	45.402550
617.343445	728.018066	13402.054688	6463.371094	45.252769
617.680908	730.024231	13384.372070	6473.921875	45.390705
618.018311	723.559998	13429.324219	6514.342285	45.576023
618.355652	726.011902	13456.223633	6512.113281	45.451729
618.692993	726.234863	13430.217773	6494.503906	45.405205
619.030273	726.234863	13398.563477	6443.457520	45.115803
619.367554	724.897400	13355.541992	6449.030762	45.319408
619.704712	721.256531	13351.752930	6429.637207	45.195225
620.041870	716.501160	13327.530273	6444.349609	45.419357
620.379028	720.439148	13296.250000	6424.957031	45.361038
620.716064	716.501160	13251.000000	6405.489746	45.386646
621.053040	715.906677	13186.652344	6363.953613	45.290367
621.389954	714.271973	13120.745117	6316.697266	45.157276
621.726929	713.751953	13059.817383	6290.988281	45.174202
622.063843	709.219421	13017.316406	6256.363281	45.069065
622.400635	699.708679	13004.834961	6248.412598	45.092625
622.737427	701.492004	12953.120117	6234.295410	45.159740
623.074219	714.792175	12885.131836	6226.419434	45.287376
623.410889	724.600159	12809.565430	6201.974121	45.323872
623.747559	731.064453	12778.656250	6171.510254	45.157951
624.084167	726.680603	12763.200195	6142.085938	44.991455
624.420715	719.250427	12761.789063	6135.844238	44.978836
624.757324	714.940735	12776.203125	6152.710938	45.084583
625.093750	715.460876	12847.682617	6174.630371	44.997276
625.430176	724.897400	12907.348633	6184.513184	44.815411
625.766602	719.250305	12953.491211	6191.349121	44.727734
626.102905	712.117371	13035.296875	6211.633301	44.627411
626.439209	705.430115	13125.799805	6229.020020	44.472023
626.775452	711.671448	13263.555664	6269.143066	44.275997
627.111694	720.513489	13339.493164	6303.842285	44.245483
627.447876	721.182190	13394.328125	6358.975098	44.486137
627.783997	725.714661	13411.789063	6385.649902	44.615341
628.120056	723.708496	13447.307617	6409.353027	44.685818
628.456055	724.971680	13449.089844	6367.074219	44.341797
628.792053	718.953125	13431.851563	6341.588379	44.227798
629.128052	717.690002	13339.418945	6297.154785	44.205235
629.463928	720.885010	13256.868164	6284.449219	44.380756
629.799744	723.188416	13144.002930	6252.648438	44.517693
630.135559	729.206848	13013.229492	6200.413574	44.539211
630.471375	724.823059	12866.036133	6141.788574	44.616344
630.807068	723.485596	12701.307617	6057.306152	44.530804
631.142700	714.420654	12556.342773	5999.350098	44.628986
631.478333	719.473328	12417.026367	5933.518066	44.573811
631.813965	720.067688	12320.801758	5887.895996	44.547421
632.149475	718.953125	12221.609375	5813.964844	44.294220
632.484924	712.340149	12128.877930	5772.503906	44.323101
632.820435	711.448486	12030.799805	5738.473145	44.410889
633.155884	717.095520	11936.286133	5725.247559	44.639156
633.491150	719.770508	11861.909180	5691.514160	44.621090
633.826477	719.324646	11824.906250	5649.681152	44.395298
634.161804	725.120300	11769.106445	5615.353516	44.279602
634.497009	720.736328	11732.325195	5591.947754	44.237137
634.832153	721.479431	11640.859375	5552.642578	44.243931
635.167297	710.185364	11608.612305	5513.781738	44.076050
635.502380	719.547607	11553.999023	5463.924316	43.789730
635.837463	717.021301	11491.659180	5426.179199	43.705948
636.172424	717.318542	11395.808594	5378.625488	43.651367
636.507324	712.934631	11283.983398	5341.771484	43.787868
636.842224	717.615723	11161.829102	5301.053223	43.884949
637.177124	718.953125	11046.511719	5261.895996	43.988544
637.511963	719.324646	10933.348633	5213.673340	44.001743
637.846741	717.021301	10837.274414	5160.175293	43.903584
638.181396	720.810730	10715.641602	5101.327637	43.827824
638.516113	719.919128	10598.168945	5046.269531	43.796730
638.850769	716.501160	10493.625000	5008.746582	43.900902
639.185303	716.798340	10385.366211	4958.814941	43.874298
639.519836	716.798340	10309.502930	4916.536621	43.780540
639.854370	724.823059	10254.963867	4871.063477	43.506599
640.188843	722.816895	10206.593750	4839.039063	43.402771
640.523254	724.005676	10135.633789	4813.775879	43.454441
640.857605	714.569275	10009.246094	4775.361328	43.689438
641.191895	715.163757	9918.893555	4740.216309	43.732841
641.526184	715.906738	9848.677734	4702.842285	43.655266
641.860413	722.519714	9838.200195	4672.526855	43.332005
642.194580	718.061523	9795.848633	4646.446289	43.274696
642.528748	709.962463	9714.784180	4609.294922	43.302719
642.862793	709.442383	9636.915039	4587.672363	43.441521
643.196838	716.129578	9569.522461	4560.775391	43.425678
643.530823	722.222473	9535.639648	4539.302246	43.309875
643.864746	721.107910	9463.491211	4512.924316	43.372803
644.198669	719.770447	9430.352539	4500.144043	43.399780
644.532532	717.615723	9375.666016	4486.917969	43.535229
644.866333	715.758118	9354.563477	4475.698730	43.523849
645.200073	712.265930	9342.155273	4448.949707	43.299324
645.533813	714.420715	9347.876953	4427.848145	43.012062
645.867554	717.541321	9342.823242	4402.733887	42.725471
646.201172	722.668152	9316.149414	4392.628418	42.706326
646.534729	719.473145	9311.319336	4404.145020	42.885685
646.868225	713.380371	9335.765625	4409.717773	42.869083
647.201782	706.470276	9335.617188	4416.554199	42.994797
647.535217	717.690002	9360.508789	4405.630859	42.670582
647.868591	722.519714	9335.170898	4398.498047	42.681145
648.201965	728.315247	9329.821289	4391.811035	42.591331
648.535278	718.210144	9294.526367	4378.585449	42.680038
648.868591	716.649719	9292.075195	4383.860840	42.764187
649.201782	714.717773	9275.579102	4362.980957	42.615608
649.534912	720.513489	9246.230469	4351.241699	42.585606
649.868103	724.525879	9197.561523	4329.619629	42.547844
650.201172	723.188416	9168.881836	4316.394043	42.544827
650.534180	717.912903	9138.417969	4291.428223	42.438255
650.867188	718.358704	9122.071289	4277.830566	42.355946
651.200134	727.200745	9105.649414	4272.257813	42.311619
651.533020	729.132568	9070.355469	4267.502441	42.420277
651.865845	717.467041	9024.660156	4237.038574	42.367756
652.198608	711.522766	8977.998047	4206.500000	42.278927
652.531433	710.779785	8957.639648	4184.506348	42.121811
652.864136	713.529053	8928.735352	4172.469238	42.104118
653.196777	834.493896	9023.916992	4273.669922	41.995342
653.529358	837.837463	8986.914063	4251.081543	41.885040
653.861938	842.518555	8939.434570	4233.100098	41.874973
654.194519	717.392761	8739.784180	4091.256104	42.055580
654.526978	712.117249	8681.083984	4079.442383	42.255482
654.859375	708.476379	8625.133789	4046.823242	42.168644
655.191833	710.705566	8585.752930	4022.006104	42.048008
655.524170	709.442383	8528.985352	3987.009766	41.915077
655.856445	709.962463	8474.077148	3968.508545	41.969318
656.188660	714.420654	8459.215820	3964.124756	41.959846
656.520874	716.129639	8410.250977	3939.455811	41.893364
656.853088	719.993347	8432.987305	3923.926514	41.539421
657.185181	714.420654	8421.172852	3921.177002	41.609699
657.517212	716.203918	8487.674805	3935.146484	41.419994
657.849243	711.671570	8502.311523	3943.319580	41.481159
658.181274	710.482605	8567.772461	3954.688232	41.289116
658.513123	708.253601	8626.026367	3965.981689	41.144501
658.844971	711.002747	8735.473633	3988.198486	40.840023
659.176819	719.993347	8824.488281	4018.142578	40.695309
659.508667	716.203918	8891.137695	4058.191650	40.880917
659.840393	716.798340	8950.059570	4100.321289	41.095779
660.172058	713.454773	8971.680664	4106.117188	41.082218
660.503662	720.142029	9018.268555	4106.637207	40.810356
660.835266	723.262695	9026.145508	4106.637207	40.749393
661.166931	718.655945	9003.632813	4099.652832	40.808769
661.498413	721.925232	8933.564453	4079.591064	40.889103
661.829773	720.067688	8812.451172	4035.901123	40.974747
662.161194	727.497986	8705.009766	3975.492920	40.714386
662.492615	723.708557	8575.722656	3923.852295	40.755707
662.823975	732.624817	8426.523438	3867.307861	40.742455
663.155212	724.600098	8280.444336	3812.398438	40.866356
663.486450	725.788879	8118.018066	3756.745361	41.001930
663.817627	712.488770	8006.267090	3699.829346	40.957382
664.148743	717.095520	7878.763184	3650.269531	40.956581
664.479858	713.380371	7792.274902	3601.452393	40.798347
664.810913	715.832336	7698.876465	3561.329346	40.748665
665.141907	715.163757	7629.255371	3519.496826	40.559673
665.472778	717.912903	7537.342285	3490.667236	40.659626
665.803711	727.943787	7496.253418	3475.806885	40.598957
666.134583	725.789063	7470.990234	3460.203369	40.538662
666.465454	726.680664	7473.070313	3439.621338	40.213223
666.796143	720.364929	7431.832520	3408.711670	40.056019
667.126831	718.581604	7406.124512	3407.522705	40.208206
667.457458	723.931396	7360.947754	3403.882080	40.378845
667.788147	719.696106	7328.700684	3397.714844	40.520760
668.118774	717.764343	7298.087402	3378.321533	40.432014
668.449219	708.773682	7302.025391	3357.591064	40.174671
668.779663	711.448547	7297.492676	3340.947266	39.925316
669.110107	709.516663	7287.908203	3321.108643	39.699554
669.440552	704.984192	7263.313965	3312.786377	39.763206
669.770874	707.733398	7258.113281	3309.368896	39.717323
670.101135	711.597168	7235.079590	3310.112061	39.833248
670.431396	724.228577	7216.578125	3294.285400	39.585930
670.761597	720.885010	7157.729980	3276.452881	39.702183
671.091797	725.937500	7116.863281	3264.118408	39.715385
671.421875	719.993347	7071.761719	3242.125000	39.707550
671.751892	721.850891	7053.037109	3222.806396	39.502167
672.081909	717.318420	7017.743652	3194.348389	39.315285
672.411865	711.448547	6968.926270	3182.757080	39.493687
672.741821	711.968689	6928.060059	3155.636475	39.311966
673.071716	711.374268	6889.423340	3143.376709	39.365219
673.401550	716.798340	6852.345703	3130.968018	39.347260
673.731262	709.962463	6807.169434	3118.485352	39.502068
674.060974	711.745789	6763.404785	3099.686768	39.459278
674.390625	714.272034	6733.980957	3078.287354	39.271255
674.720276	722.816895	6675.653809	3051.464111	39.118279
675.049927	722.593933	6628.174316	3030.362061	39.077751
675.379395	717.689941	6595.927246	2996.703125	38.770351
675.708923	714.940735	6578.168457	2989.421143	38.792294
676.038330	715.312256	6549.413574	2963.118164	38.528740
676.367737	715.535156	6501.488281	2956.876709	38.737637
676.697083	713.157532	6474.070313	2943.725342	38.719002
677.026428	714.346375	6473.921875	2935.403564	38.562859
677.355652	719.176086	6472.510254	2919.799805	38.249538
677.684875	715.683838	6492.349121	2911.106445	38.005020
678.013977	716.946960	6462.851074	2910.734619	38.180023
678.343079	713.454773	6471.915527	2907.836914	38.107094
678.672180	714.271973	6458.169922	2909.026123	38.210186
679.001221	713.008850	6489.748535	2911.031982	38.049545
679.330139	708.847961	6516.497559	2933.174072	38.299938
679.659058	711.448547	6554.392090	2936.666260	38.083851
679.987976	717.764343	6609.599121	2953.310303	37.943119
680.316772	726.086121	6660.570313	2944.245361	37.377453
680.645630	733.665039	6702.774902	2958.734375	37.276402
680.974304	721.553711	6744.903809	2961.483643	37.187443
681.302979	722.148132	6786.884766	2981.545166	37.254658
681.631653	714.940735	6816.753906	2995.514404	37.375347
681.960266	726.903503	6817.126465	3014.906982	37.568466
682.288757	729.504089	6814.376953	3017.879639	37.607613
682.617249	732.179016	6811.479004	3004.058838	37.370750
682.945679	727.423645	6788.593750	2972.628906	37.042442
683.274109	721.851013	6745.646973	2951.527100	37.014469
683.602478	717.690002	6675.951172	2938.672607	37.275684
683.930725	718.730225	6604.694824	2918.462158	37.372494
684.259033	716.352539	6522.515625	2881.162109	37.284683
684.587280	719.176086	6449.029785	2835.837891	36.940941
684.915344	713.306152	6369.897949	2802.401367	36.932049
685.243469	720.810730	6290.914063	2777.955811	36.931900
685.571533	722.371094	6215.496582	2755.665039	37.015247
685.899536	726.532043	6146.097656	2735.751953	37.073452
686.227539	726.011902	6110.655762	2714.352783	36.926132
686.555420	726.011902	6097.801270	2690.055908	36.562191
686.883301	722.296814	6106.568848	2675.343750	36.273186
687.211121	714.643555	6103.521973	2670.439697	36.293194
687.538940	713.454773	6098.544434	2680.990967	36.536736
687.866638	711.299988	6085.986816	2675.566650	36.546623
688.194336	716.872742	6074.916504	2669.399414	36.441032
688.521973	722.073914	6063.696777	2652.532959	36.139935
688.849609	731.584656	6061.615723	2641.090088	35.825405
689.177063	725.194580	6040.959473	2633.065430	35.890808
689.504578	725.343201	5990.656250	2616.718750	35.921425
689.832031	721.925293	5913.084473	2600.892578	36.195526
690.159485	722.816895	5825.333496	2575.406494	36.307369
690.486816	722.891174	5738.250488	2540.855957	36.247948
690.814087	725.491882	5678.734375	2503.407471	35.893970
691.141296	730.321472	5609.855469	2462.763672	35.504253
691.468506	731.807434	5546.251953	2424.943604	35.167843
691.795715	726.977844	5465.262207	2397.080078	35.246986
692.122803	725.045959	5383.157715	2368.548096	35.282585
692.449829	716.946960	5324.606934	2351.829834	35.481846
692.776855	720.290588	5258.552246	2322.851563	35.312222
693.103821	717.467041	5209.066895	2310.888916	35.475597
693.430664	724.600098	5149.104492	2304.424561	35.706245
693.757568	724.525696	5097.018066	2283.768311	35.660275
694.084351	727.497864	5042.851563	2252.115234	35.330070
694.411133	721.107910	5009.192383	2215.632568	34.852966
694.737854	717.021301	4977.390625	2205.527588	34.938435
695.064575	716.055359	4962.381348	2192.153320	34.761765
695.391174	717.467102	4932.140137	2179.150146	34.680820
695.717773	712.786072	4925.230469	2170.679688	34.609207
696.044250	711.151367	4913.862305	2175.360596	34.839638
696.370789	711.745789	4944.549316	2173.651855	34.537533
696.697205	716.946960	4965.353516	2177.812744	34.386204
697.023621	723.857117	5022.863770	2188.438232	34.067894
697.349915	721.182190	5062.764160	2209.911865	34.290028
697.676208	719.250305	5146.652344	2233.168213	34.194275
698.002380	714.049133	5237.004395	2254.344482	34.055069
698.328674	713.231750	5344.817871	2283.768311	33.909264
698.654724	718.730225	5427.145020	2311.483398	33.827801
698.980896	723.114014	5529.533691	2340.089844	33.642002
699.306946	730.024231	5626.201660	2358.145508	33.252907
699.632935	729.949951	5707.414063	2380.362061	33.157692
699.958862	733.070618	5731.265625	2379.024658	32.930973
700.284729	728.315247	5709.644043	2386.826172	33.294552
700.610596	721.627930	5635.787109	2368.622070	33.515278
700.936340	718.061462	5555.688965	2341.650146	33.561672
701.262146	716.946838	5422.835938	2292.313232	33.476490
701.587830	718.507324	5306.477539	2245.131104	33.274490
701.913513	711.597168	5159.060547	2202.555420	33.523788
702.239075	713.083191	5042.776855	2163.695068	33.503796
702.564697	715.683838	4927.607422	2119.113525	33.320396
702.890137	719.770447	4798.840820	2073.491455	33.186996
703.215698	720.662109	4701.058594	2036.266113	33.052086
703.541016	721.107910	4582.397461	2008.179810	33.332695
703.866455	727.052063	4505.939941	1981.505005	33.196350
704.191711	725.194519	4428.812988	1956.019165	33.233032
704.517029	722.965515	4393.073730	1929.418579	32.872414
704.842163	716.501160	4342.399902	1902.000977	32.695335
705.167419	708.030579	4308.592285	1879.412964	32.533321
705.492493	700.303040	4269.508789	1854.521606	32.338245
705.817566	706.173035	4240.084473	1849.840454	32.362652
706.142578	716.501160	4201.224121	1839.363892	32.222443
706.467590	725.194580	4176.035645	1839.586914	32.293354
706.792480	715.089355	4152.333496	1829.333008	32.416775
707.117371	708.847961	4141.336426	1823.611694	32.476837
707.442200	717.095520	4140.370605	1824.280396	32.342854
707.766907	726.680603	4153.744629	1822.720093	31.981882
708.091675	730.395752	4149.955566	1823.537476	31.967323
708.416321	725.120300	4153.894043	1813.506470	31.742725
708.741028	724.228577	4153.299316	1825.543579	32.117008
709.065552	724.674500	4172.766602	1829.481445	32.041107
709.390137	723.262695	4182.797363	1829.927368	31.988831
709.714600	721.702393	4220.022949	1827.921265	31.621428
710.039063	721.479431	4259.552246	1826.955200	31.245142
710.363403	721.850891	4311.415039	1840.849731	31.173666
710.687744	719.993347	4344.405762	1847.165649	31.099451
711.012085	717.615662	4386.609375	1857.567993	31.069893
711.336304	723.336975	4416.999512	1856.007813	30.665251
711.660461	726.977844	4440.776367	1857.493774	30.440958
711.984619	730.692932	4464.553223	1863.214966	30.331129
712.308716	719.101746	4472.354980	1873.840454	30.766344
712.632751	713.974792	4479.190918	1866.632935	30.613335
712.956726	710.408386	4450.361816	1857.642456	30.675093
713.280701	721.925293	4407.637207	1840.998535	30.362473
713.604553	724.897278	4354.064941	1826.806641	30.362593
713.928467	734.853821	4300.418457	1809.048340	30.126913
714.252258	731.510254	4250.115234	1789.952515	30.081305
714.575989	728.166687	4205.385254	1784.751343	30.385916
714.899719	726.457703	4153.894043	1774.869141	30.588793
715.223267	718.358704	4111.243652	1755.847656	30.578373
715.546936	722.445313	4072.754883	1727.241089	29.991133
715.870422	715.906677	4046.526123	1708.962524	29.815950
716.193970	719.473206	4015.987549	1704.058594	29.867468
716.517395	715.089355	3987.306885	1695.588013	29.964348
716.840820	716.278259	3956.100342	1685.111328	29.903898
717.164124	715.683838	3933.066162	1662.077515	29.415020
717.487488	717.095520	3908.768799	1651.600952	29.279482
717.810730	714.940735	3889.821533	1635.105835	28.982666
718.133972	713.900574	3849.103760	1625.743652	29.084019
718.457092	714.494934	3797.835205	1603.750000	28.840639
718.780212	717.690002	3731.780029	1583.019531	28.709478
719.103210	719.844727	3678.505127	1568.381836	28.679773
719.426208	717.615662	3621.440430	1554.784546	28.829870
719.749207	710.928406	3579.979492	1543.267578	29.010958
720.072083	705.652893	3544.091064	1526.623657	28.923326
720.394958	704.538391	3510.729248	1510.500000	28.720840
720.717773	709.739563	3459.683350	1495.119263	28.559845
721.040527	715.906738	3421.639893	1486.946167	28.496506
721.363281	719.696106	3382.705811	1481.967773	28.624441
721.685913	714.346375	3352.835938	1472.977051	28.752460
722.008545	710.631165	3319.177002	1459.379883	28.703682
722.331055	707.807678	3288.341064	1449.646118	28.747484
722.653503	714.420654	3284.403076	1443.924805	28.385571
722.976013	725.194519	3272.737549	1439.689575	28.046438
723.298401	730.024231	3263.375732	1439.541016	28.007040
723.620789	731.361633	3236.477783	1433.076538	28.011272
723.943115	722.148132	3213.369873	1422.971313	28.131706
724.265381	723.634094	3210.026123	1410.191284	27.612587
724.587585	722.891113	3219.833984	1408.482422	27.457228
724.909790	722.668274	3236.775146	1409.522583	27.320011
725.231873	719.993347	3243.759766	1410.191406	27.347939
725.553894	719.324646	3228.081787	1409.002563	27.490822
725.875916	740.946716	3248.291992	1448.754395	28.229366
726.197937	742.209900	3249.778076	1444.593384	28.010544
726.519775	741.466797	3263.301025	1447.788574	28.008255
726.841675	721.999512	3247.251953	1407.219360	27.134706
727.163513	710.333984	3264.341797	1418.736206	27.736885
727.485291	713.826233	3300.155273	1419.776367	27.295448
727.806946	712.340149	3336.043701	1424.977539	27.161505
728.128662	720.736389	3359.225830	1427.355103	26.781183
728.450256	719.696106	3366.061768	1421.411133	26.516178
728.771790	720.439148	3356.996826	1421.633911	26.595085
729.093323	720.959290	3355.213623	1422.228516	26.621166
729.414795	724.525818	3347.634766	1417.398804	26.414190
729.736145	720.885010	3361.157959	1407.516235	26.006069
730.057495	716.203918	3354.767822	1395.999390	25.763844
730.378845	711.002747	3367.696533	1401.646484	25.996361
730.700134	710.779846	3367.028076	1401.572266	26.006319
731.021301	709.516785	3378.173096	1408.333984	26.186108
731.342468	706.024414	3359.449219	1404.247070	26.314016
731.663574	715.089355	3351.944336	1402.092285	26.053877
731.984680	724.525818	3346.074219	1391.838501	25.454906
732.305664	725.863281	3356.848389	1391.541382	25.301477
732.626648	712.785950	3380.179443	1392.135742	25.468676
732.947571	709.739563	3390.656250	1389.163574	25.342974
733.268433	707.213318	3383.820313	1385.151367	25.328262
733.589233	719.844727	3359.968994	1382.625000	25.104132
733.909973	719.324646	3335.003174	1380.767578	25.287624
734.230713	725.343079	3323.783936	1370.810913	24.840582
734.551331	719.770508	3283.808594	1361.077271	25.011593
734.871948	719.101746	3245.096924	1354.092773	25.138252
735.192505	714.049133	3199.103516	1349.263062	25.561369
735.513062	709.739563	3152.441406	1337.597656	25.703426
735.833435	711.225647	3111.575195	1321.251099	25.414024
736.153931	710.854187	3066.621826	1295.096436	24.800505
736.474304	707.064636	3047.005859	1284.099609	24.660234
736.794617	705.727234	3020.256836	1280.384399	24.828249
737.114807	711.671387	3007.774170	1273.920044	24.487085
737.434998	723.411316	2992.096436	1265.152222	23.879070
737.755188	724.897278	2975.972656	1259.282349	23.739101
738.075256	718.507324	2978.424561	1267.455688	24.290640
738.395325	719.621887	2991.575928	1269.759155	24.214277
738.715271	715.089355	3013.123779	1258.688110	23.654943
739.035278	721.479431	3024.195068	1255.567261	23.193825
739.355164	719.696106	3024.715088	1249.177368	22.970798
739.675049	728.909668	3024.269531	1253.635376	22.860281
739.994873	721.702332	3018.696533	1254.378418	23.190138
740.314636	714.569275	2997.000244	1252.892456	23.585520
740.634277	704.389709	2993.062500	1251.332153	23.897799
740.953979	707.287598	2976.343994	1247.914307	23.826059
741.273499	712.265869	2955.910889	1244.050537	23.701818
741.593140	711.894348	2918.239502	1230.304565	23.496332
741.912598	709.962463	2874.103516	1215.443970	23.357141
742.232117	711.522888	2832.865479	1199.914673	23.022768
742.551453	719.919128	2800.841064	1203.852783	23.255733
742.870850	729.058350	2769.336670	1193.673218	22.772131
743.190063	723.634216	2739.912842	1190.924072	23.175858
743.509338	720.959290	2709.374512	1175.766235	22.872835
743.828552	718.804504	2686.117432	1168.633179	22.865129
744.147705	719.176025	2666.576172	1163.432007	22.812773
744.466797	720.587708	2638.266602	1148.199829	22.298420
744.785828	721.553711	2620.656982	1136.534302	21.851397
745.104858	732.401855	2606.910889	1132.967896	21.369118
745.423706	732.847717	2599.480957	1136.311523	21.614519
745.742615	731.064453	2582.985596	1136.237183	21.878510
746.061401	724.525818	2576.892822	1124.423096	21.588448
746.380249	715.758118	2561.289063	1116.324097	21.704647
746.698975	717.021240	2550.738037	1112.014526	21.540583
747.017639	717.392822	2531.939453	1110.231323	21.649403
747.336304	724.525818	2514.626953	1109.488159	21.505062
747.654907	717.541321	2506.750977	1106.516113	21.740034
747.973389	710.854065	2507.270996	1103.098267	21.834808
748.291931	710.185364	2525.697998	1098.788574	21.404598
748.610352	720.885010	2534.317139	1096.188110	20.695734
748.928711	730.024231	2545.314209	1094.330444	20.068760
749.247070	729.578430	2540.930420	1088.906372	19.837555
749.565308	715.758118	2533.797119	1090.243774	20.598328
749.883545	710.482666	2520.868408	1092.844360	21.120455
750.201782	708.847961	2501.698242	1102.206543	21.940403
750.519836	716.649719	2493.450684	1095.890747	21.344034
750.837952	717.838562	2474.428955	1088.163452	21.082029
751.155884	710.928406	2468.484863	1068.770386	20.360199
751.473877	703.423828	2453.252686	1062.306030	20.509560
751.791809	705.429993	2444.410889	1055.024292	20.103399
752.109619	714.866455	2443.742432	1062.974731	20.134949
752.427490	724.228577	2435.940674	1072.559814	20.349873
752.745300	729.206848	2444.708252	1078.949829	20.387215
753.062988	725.045959	2425.983643	1067.730103	20.146778
753.380615	720.364929	2425.909424	1062.900391	20.083643
753.698303	716.278259	2410.157471	1055.098633	20.002630
754.015808	722.073914	2407.631104	1049.228638	19.409292
754.333374	718.953125	2399.086182	1039.643677	19.087212
754.650757	715.163635	2397.897461	1038.677734	19.225506
754.968262	715.832336	2408.522461	1044.399048	19.410919
755.285583	724.377258	2414.541260	1049.154419	19.215717
755.602905	727.423645	2410.751709	1047.371216	19.006845
755.920105	722.371033	2388.906738	1048.114258	19.546129
756.237305	718.135742	2379.990479	1044.176147	19.619068
756.554443	712.934570	2373.006104	1039.718018	19.684902
756.871582	717.689941	2366.170166	1031.470337	19.034527
757.188599	710.705566	2367.879150	1034.516724	19.539967
757.505615	707.510559	2374.863525	1035.185547	19.652407
757.822510	709.145203	2390.244141	1042.987305	19.858564
758.139465	720.885010	2391.061768	1042.169922	19.236582
758.456238	728.761047	2398.046143	1056.659058	19.643019
758.773010	720.290588	2424.646484	1054.281372	19.596304
759.089783	718.581604	2436.832031	1048.485718	19.200001
759.406433	718.210144	2455.333252	1035.779907	18.281363
759.723145	719.993347	2462.912109	1032.659180	17.939209
760.039673	717.169861	2471.308594	1030.950195	17.888000
760.356201	720.141907	2465.735596	1031.321777	17.826591
760.672668	719.027405	2453.995850	1033.550903	18.128485
760.989136	711.374268	2453.550293	1039.495117	18.833967
761.305481	706.024475	2457.488525	1044.250366	19.311037
761.621826	710.334045	2468.336670	1032.733521	18.338964
761.938049	721.033630	2479.853271	1031.544556	17.654507
762.254333	718.432922	2500.732422	1030.207153	17.492807
762.570496	722.891113	2536.175049	1053.909668	18.255198
762.886597	717.169922	2614.341309	1064.386353	18.301796
763.202637	724.377258	2742.216064	1083.110718	17.778103
763.518677	717.169861	2898.400391	1106.144531	17.832809
763.834656	724.748779	3045.668701	1132.670776	17.575876
764.150574	720.959290	3164.181641	1160.757202	18.000732
764.466370	719.993408	3228.899170	1169.450562	17.914469
764.782288	715.981018	3261.740967	1168.558838	17.777710
765.097961	715.758118	3220.502686	1153.549683	17.478491
765.413696	719.250305	3165.072510	1135.271240	17.009451
765.729309	719.547546	3077.767334	1112.683228	16.670868
766.044861	725.120300	2975.675049	1088.237671	16.134573
766.360474	720.810730	2841.781982	1068.101563	16.374142
766.675903	711.671448	2682.699707	1047.594116	17.043016
766.991394	708.699402	2573.623291	1035.111206	17.502687
767.306763	710.482605	2480.001953	1027.383667	17.908878
767.622131	718.730225	2431.259033	1014.529297	17.272648
767.937378	717.318542	2362.677979	993.501709	16.785583
768.252625	721.033630	2322.703125	977.675293	16.023386
768.567810	726.606262	2265.861572	968.907532	15.741460
768.882996	721.999512	2230.864990	966.826965	16.225929
769.197998	718.581604	2184.499756	960.734192	16.518833
769.513062	708.104919	2158.568359	960.585632	17.406900
769.828064	710.036804	2121.788330	950.777588	17.052631
770.142944	708.253479	2093.330322	936.511536	16.479811
770.457825	716.649719	2069.330566	927.595215	15.594624
770.772705	716.129639	2039.015137	925.291809	15.811056
771.087402	715.460938	2017.541870	925.217529	16.109337
771.402100	709.591003	1988.860962	920.536438	16.489515
771.716736	712.860291	1974.669312	918.827454	16.323164
772.031372	719.547546	1962.409180	923.731445	16.428532
772.345947	720.439209	1947.474243	920.462097	16.301319
772.660461	718.804626	1946.062622	919.124695	16.322571
772.974854	718.656006	1934.396973	909.093750	15.664335
773.289246	717.169922	1922.731445	908.127869	15.839751
773.603638	714.717957	1908.242188	900.697571	15.582392
773.917908	713.008972	1884.242554	885.539856	14.730698
774.232178	716.872620	1872.651367	887.323059	14.747669
774.546265	721.776672	1858.088013	892.375671	15.013404
774.860474	721.702332	1851.995239	901.366211	15.895337
775.174561	726.383484	1830.818970	894.679016	15.238149
775.488586	722.891174	1821.531250	887.025879	14.939806
775.802551	719.027527	1817.221680	882.419128	14.878208
776.116516	713.231750	1811.277466	872.388245	14.494524
776.430359	712.711670	1799.389038	873.131287	14.762396
776.744202	715.683838	1785.643066	879.521301	15.312496
777.057922	716.872620	1768.553345	889.700745	16.433517
777.371704	711.671448	1754.138672	891.186829	17.220242
777.685303	715.609558	1742.473267	888.883484	16.874090
777.998962	716.426758	1750.943726	879.372742	15.750924
778.312500	726.829285	1748.788940	869.267578	13.937761
778.626038	720.885010	1747.897095	872.091064	14.722909
778.939453	717.615723	1745.890991	873.948547	15.203403
779.252869	717.244141	1750.572144	871.570862	14.934921
779.566223	718.433044	1745.965332	865.032288	14.267118
779.879578	715.089355	1740.764160	874.542969	15.546215
780.192749	716.426819	1722.634277	871.719482	15.433464
780.505920	715.535156	1724.343262	873.428467	15.651471
780.819031	717.912903	1715.501099	862.283020	14.471915
781.132141	721.256531	1722.634277	876.623474	15.515318
781.445190	726.457703	1711.117310	867.632813	14.337453
781.758118	723.336975	1708.739624	866.444031	14.522698
782.071045	711.820068	1683.922485	857.379089	14.973630
782.383911	700.748962	1670.102173	858.047791	16.227194
782.696838	703.275208	1651.452148	848.685608	15.335788
783.009583	713.528992	1649.297485	836.054199	13.093538
783.322266	719.250305	1628.641235	833.527893	12.566387
783.634888	725.566101	1625.074829	837.317383	12.423591
783.947510	723.559875	1621.285522	846.753723	13.722884
784.260132	733.665039	1621.359741	838.580383	11.818854
784.572571	726.011902	1611.403320	836.277039	12.453830
784.885010	726.011902	1593.496216	830.332825	12.025684
785.197449	717.690002	1584.282715	839.472107	14.052980
785.509766	724.451599	1581.161987	842.369934	13.764084
785.822083	730.172852	1580.344727	851.063416	14.219544
786.134277	733.219238	1586.214478	848.982910	13.571432
786.446533	726.011902	1581.310547	851.880676	14.716353
786.758606	721.405090	1577.372437	847.125305	14.687501
787.070740	717.392761	1579.898804	843.484558	14.619236
787.382690	724.005676	1587.403320	838.060364	13.209984
787.694641	721.033508	1602.784058	827.063660	12.024961
788.006653	725.863281	1618.536133	828.846924	11.536550
788.318481	725.194519	1643.798950	830.778748	11.493982
788.630310	727.572266	1665.495483	841.106873	12.104894
788.942017	724.451477	1688.677856	843.707458	12.368048
789.253784	725.714661	1694.473511	844.821960	12.294835
789.565430	720.216309	1697.519897	843.781677	12.643499
789.877014	721.776611	1685.928711	835.534119	11.798710
790.188538	717.021240	1678.126953	831.150208	11.874757
790.500061	719.770447	1660.517212	832.413391	11.973780
790.811462	709.962463	1640.529907	838.654785	13.829446
791.122925	715.386536	1615.341187	842.592834	14.134746
791.434204	710.556885	1592.530273	839.769348	14.650381
791.745483	722.668274	1582.053589	837.391602	13.349463
792.056702	727.126465	1564.295288	827.137878	11.946385
792.367920	733.665039	1549.508911	823.942871	11.065577
792.678955	725.120300	1527.218140	822.456787	12.135239
792.990112	721.033508	1518.078735	822.456787	12.724909
793.301086	713.974854	1512.952026	826.023376	14.023995
793.612122	720.290527	1512.357422	816.364014	12.129466
793.922974	708.699402	1498.091431	818.667297	13.930708
794.233826	711.894348	1486.871704	808.562195	12.473635
794.544556	712.340149	1474.537476	811.608582	13.023981
794.855286	721.999512	1473.720215	810.642761	11.792046
795.166016	728.538269	1487.763306	812.648865	11.078481
795.476624	732.253235	1491.329956	808.042175	9.984359
795.787292	733.442139	1509.831421	806.630371	9.426744
796.097778	727.497864	1518.375977	808.562195	10.249914
796.408264	723.336914	1544.679321	808.859375	10.412522
796.718689	717.318542	1553.372681	809.973938	11.082463
797.029053	720.513489	1560.728516	807.001892	10.293604
797.339355	720.959290	1547.428345	815.026550	11.381824
797.649658	718.581726	1541.335571	819.113220	12.218903
797.959839	717.615723	1527.515503	820.673523	12.724760
798.270020	719.176086	1512.134766	815.323730	12.125177
798.580078	733.293518	1491.775757	808.116455	9.864824
798.890137	729.132629	1475.800659	805.367188	10.209967
799.200195	729.058289	1470.673828	804.698547	10.199389
799.510071	721.182190	1458.636719	811.757263	12.282124
799.820007	726.234802	1450.760620	809.379578	11.475751
800.129883	721.405090	1441.324219	803.435364	11.394373
800.439575	718.507324	1439.243774	787.757507	9.608253
800.749329	707.882019	1431.664673	789.689270	11.302737
801.058960	708.996582	1429.807251	796.376648	12.122471
801.368591	713.826233	1427.949707	807.447693	13.109982
801.678162	723.485596	1425.869141	803.658203	11.414363
801.987671	718.061523	1418.513184	799.868835	11.679223
802.297119	704.909912	1414.352173	792.512878	12.348146
802.606506	706.618835	1405.361694	789.912292	11.920473
802.915894	707.436096	1403.727051	798.308411	13.050911
803.225159	716.723938	1384.036743	799.868835	12.459659
803.534424	716.055359	1383.145142	808.933777	13.922926
803.843628	717.912842	1373.560181	801.206238	12.703994
804.152771	723.114014	1384.408325	801.429199	11.842712
804.461792	721.182190	1389.906616	790.729553	10.400003
804.770874	723.634216	1396.816772	790.952454	9.999997
805.079773	717.169922	1398.897339	788.500488	10.463209
805.388733	718.061462	1399.566040	799.943054	12.014827
805.697571	720.439209	1409.596802	802.766602	11.946091
806.006470	727.349304	1420.370728	810.716980	12.029595
806.315125	720.513489	1426.686523	807.150452	12.268517
806.623901	715.535217	1425.274902	801.206238	12.070766
806.932495	712.488770	1413.980835	793.478821	11.545398
807.241150	717.987122	1408.482422	789.689270	10.384162
807.549622	726.160461	1406.550415	792.438477	9.741180
807.858154	730.247131	1410.339844	785.379700	8.106626
808.166565	729.429871	1409.894165	783.002136	7.872899
808.474915	720.439270	1392.135742	777.949524	8.561941
808.783264	718.210144	1379.875854	786.048523	10.252666
809.091492	713.306152	1368.358887	790.432373	11.774048
809.399719	714.792236	1360.780029	797.268127	12.767407
809.707825	714.569336	1360.928589	793.255859	12.173806
810.015930	718.878845	1350.303345	788.946289	11.096725
810.323975	721.107910	1346.588257	776.091980	8.790695
810.632080	719.993347	1329.647095	774.977356	9.018891
810.939880	715.460938	1319.319092	772.748291	9.486889
811.247864	712.860352	1312.186035	776.463379	10.612432
811.555664	707.584778	1310.625610	776.686340	11.458853
811.863464	714.643555	1304.087036	783.745117	11.723187
812.171143	718.878906	1301.486450	784.636719	11.286811
812.478882	723.039795	1296.285278	781.813171	10.252741
812.786438	724.377258	1288.929321	775.571777	9.068166
813.094055	724.525696	1282.390625	778.172424	9.616437
813.401489	717.987122	1280.087280	785.677002	12.042316
813.708984	722.371094	1282.613647	781.887512	10.623330
814.016357	724.525879	1280.384644	781.218750	10.199150
814.323730	727.943665	1282.539185	782.407654	9.820489
814.630981	719.324646	1278.452637	781.664612	11.149498
814.938232	709.367981	1282.539185	778.172363	12.004159
815.245361	715.237976	1278.675537	764.352051	8.716862
815.552490	710.111084	1279.344238	764.352112	9.528790
815.859619	719.324646	1278.526978	768.141602	8.729748
816.166565	717.169861	1284.099609	767.398499	8.859764
816.473572	715.683838	1291.752930	763.386230	8.280672
816.780457	714.569275	1289.820923	757.664856	7.491605
817.087341	710.111084	1285.362671	766.209656	9.752007
817.394043	724.080017	1292.347168	768.364441	7.792888
817.700806	723.708496	1305.127319	776.463379	9.073474
818.007507	722.519714	1323.628662	772.153809	8.257088
818.314209	715.386536	1320.285034	771.782410	9.323196
818.620667	715.832336	1324.148804	766.283997	8.293653
818.927246	726.086182	1331.133301	769.107483	7.110405
819.233704	728.092346	1357.362183	776.240540	7.651438
819.540161	732.179016	1381.064819	782.036133	7.683496
819.846497	722.965515	1415.764038	783.893738	8.794508
820.152832	718.953125	1467.255859	789.689270	9.452878
820.458984	708.104919	1529.521484	793.478760	10.393489
820.765259	703.869629	1608.282227	801.875000	10.836356
821.071350	709.962463	1701.383667	804.624207	9.548085
821.377502	715.015137	1874.880371	814.877930	8.609861
821.683472	722.371094	2179.150146	836.722900	7.849633
821.989441	717.615723	2698.526123	873.354187	7.861964
822.295349	712.117249	3419.188477	926.926453	7.935114
822.601196	704.761230	4226.858887	987.854675	8.037638
822.907043	708.996582	4913.564941	1041.426880	7.906407
823.212769	719.547546	5311.307129	1066.318237	7.552022
823.518494	729.949951	5376.767578	1061.711548	7.139544
823.824097	724.377197	5150.292969	1041.426880	7.163482
824.129700	717.838562	4780.488281	1017.798645	7.383361
824.435242	718.284363	4381.185547	995.210632	7.560299
824.740723	722.445313	4044.000000	968.164490	7.397716
825.046082	723.559875	3720.708740	939.780823	7.214221
825.351501	719.621826	3379.659424	911.099915	7.198323
825.656799	705.578613	3046.337158	893.936035	8.046854
825.962036	706.395996	2747.343506	872.908386	8.158583
826.267212	708.327820	2538.329590	865.998230	8.615861
826.572449	717.912903	2416.696045	848.388428	7.680528
826.877502	715.312317	2428.658936	851.063293	7.923147
827.182495	709.888184	2534.466064	849.725891	7.664113
827.487488	714.792175	2682.254150	863.100403	7.538048
827.792419	712.711670	2785.683350	870.010559	7.588087
828.097290	711.671448	2812.135010	873.502869	7.704557
828.402100	705.727234	2742.959229	868.673157	7.998398
828.706848	713.306152	2613.152344	857.602051	7.595136
829.011597	720.662109	2439.135498	843.261536	7.134206
829.316223	718.284363	2281.019287	830.407227	7.174785
829.620789	716.946960	2128.327148	812.946045	6.801788
829.925354	713.083191	2016.798706	801.131897	6.753675
830.229797	716.055359	1893.307617	793.998840	6.620797
830.534302	711.671448	1780.664673	794.370422	7.736156
830.838562	711.002747	1644.096313	787.757507	8.225838
831.142944	716.724121	1537.471802	778.841125	7.568344
831.447144	711.671448	1452.692383	773.417053	8.332505
831.751404	714.940857	1403.949829	771.708069	8.238966
832.055542	713.380371	1375.937866	766.061035	7.951108
832.359619	719.844788	1371.182495	758.482239	5.932015
832.663635	719.176025	1372.817017	756.401672	5.695121
832.967651	722.593933	1410.785767	763.386169	5.927452
833.271545	720.884949	1474.314575	770.890686	6.637081
833.575439	713.008972	1583.985352	779.658447	7.652271
833.879211	705.875916	1701.903687	786.865784	8.131287
834.183044	711.002747	1831.190430	795.187683	7.515253
834.486694	712.711731	1921.839844	806.110168	7.724445
834.790344	719.770508	1964.043823	806.481750	6.968826
835.093933	717.021240	1939.449585	812.871826	7.840998
835.397522	721.107910	1887.066284	807.224792	7.385931
835.700928	714.123474	1820.045288	801.057678	7.860791
836.004395	707.138977	1749.903320	792.810059	8.215766
836.307739	712.934570	1681.619141	790.432312	8.000307
836.611023	721.628113	1608.579590	791.323975	7.857912
836.914307	729.801270	1540.592651	786.494324	6.992311
837.217529	726.160461	1473.942993	771.113586	6.011524
837.520691	715.312256	1398.600220	767.101257	7.579381
837.823730	715.683838	1332.396484	765.540833	8.084315
838.126831	713.529053	1268.050293	768.067200	9.835177
838.429749	717.392761	1226.143677	763.311829	9.025845
838.732727	713.603333	1189.066528	757.962097	9.329590
839.035522	716.724060	1175.246094	758.407898	9.090913
839.338379	716.278259	1171.456665	753.132385	8.096633
839.641113	715.832458	1184.682495	747.485352	6.751176
839.943848	712.042969	1198.057129	743.250061	6.421025
840.246460	716.129639	1236.546021	752.760925	7.038842
840.549072	714.792175	1254.824463	763.906250	9.094655
840.851563	715.015137	1269.759277	765.095154	9.027588
841.154053	710.185364	1258.242310	759.076599	8.920832
841.456482	713.231750	1246.725464	747.188171	6.364915
841.758850	717.392761	1235.654175	744.661865	5.261651
842.061157	719.844727	1206.453247	737.305908	3.588343
842.363403	717.615723	1183.939453	734.556702	3.632879
842.665588	717.541321	1151.469360	734.185242	3.835641
842.967712	724.748718	1139.655151	737.900330	3.169778
843.269775	731.064453	1122.788452	739.237793	2.086505
843.571777	724.823059	1099.308838	744.513245	5.257926
843.873840	717.689941	1080.435913	741.466797	6.554685
844.175659	710.259766	1064.683716	745.776367	10.020937
844.477600	714.643555	1056.287476	742.581360	8.177463
844.779297	718.061523	1045.662231	741.318176	7.099085
845.081116	721.925232	1041.501343	733.813660	3.720062
845.382751	722.965515	1032.064819	737.603088	4.735557
845.684387	714.197754	1010.071289	736.117004	7.408318
845.985962	718.655945	987.706055	741.987000	8.671639
846.287537	714.049133	984.213867	737.231628	8.580873
846.588989	714.272034	990.083679	741.615479	9.913811
846.890381	712.117371	997.588379	734.110840	7.704274
847.191711	717.838562	992.090027	732.179016	5.228943
847.493042	725.268860	982.356262	733.516418	3.208076
847.794250	728.463867	979.012695	738.940613	4.181519
848.095459	729.578430	975.520325	738.791992	3.746235
848.396606	730.841553	980.795959	737.677429	2.734849
848.697693	723.485596	979.161316	736.488586	5.085735
848.998657	720.810730	973.960144	737.974609	6.780138
849.299622	717.467102	961.774414	739.163513	8.880787
849.600464	718.730164	953.303894	742.061279	9.946176
849.901367	715.980957	958.282227	742.952881	11.131565
850.202087	716.055359	966.083984	740.278015	9.687953
850.502808	716.649719	954.269836	744.364685	11.663560
850.803467	716.724121	942.158508	743.324402	11.799566
851.104065	720.810730	936.883057	743.472961	10.488262
851.404663	725.120300	947.136780	740.055115	6.726894
851.705139	721.479492	944.536133	737.231628	7.061944
852.005615	717.318542	949.440125	740.649597	10.051222
852.306030	710.185364	952.189392	743.175781	13.632177
852.606384	716.798340	954.121277	742.432800	10.801510
852.906616	710.928406	946.096619	745.330627	14.628772
853.206909	709.219482	939.632324	742.581360	14.479175
853.506958	715.163757	945.279297	752.537903	16.241470
853.807129	721.107910	946.245117	750.383240	13.003328
854.107178	723.708496	940.672424	743.175781	8.972590
854.407166	717.615723	936.585754	739.980774	10.213750
854.707092	713.157532	933.465149	738.866272	11.669474
855.007019	706.024414	934.356689	742.135559	15.815173
855.306763	705.281433	932.573425	733.293518	12.324273
855.606567	709.219421	927.669434	727.795105	8.503403
855.906250	714.643555	928.040955	729.206848	6.824494
856.205933	719.250305	930.270020	736.488525	8.169009
856.505493	718.581604	931.904724	740.278015	10.170680
856.805054	719.993347	940.895325	736.117004	7.299010
857.104492	716.203918	937.774658	737.157288	9.456740
857.403931	723.857117	940.226746	735.225403	5.254104
857.703308	724.154297	933.465149	734.928223	5.147333
858.002563	719.993347	934.802551	733.590759	6.329995
858.301819	711.894348	932.127686	741.689758	13.529019
858.601013	715.163757	938.220520	742.209900	12.125229
858.900208	712.860291	942.009949	733.145020	8.852175
859.199219	713.083252	942.975830	729.949951	7.336774
859.498291	706.247375	939.334961	734.482422	12.113492
859.797302	708.476379	933.093567	735.745544	12.140285
860.096191	707.436218	935.174072	724.228577	7.373547
860.395020	708.625061	929.229797	718.135742	4.311186
860.693787	709.442383	926.703552	715.980957	3.009546
860.992554	706.470215	917.415710	719.250305	6.058480
861.291260	706.841797	918.010071	724.451599	8.339228
861.589844	706.470215	926.554993	732.773438	11.951405
861.888428	713.231873	931.756165	735.299744	10.098590
862.186890	715.386536	931.681824	732.847656	8.072816
862.485413	716.129578	925.440369	732.030457	7.596779
862.783813	714.643555	923.508545	731.807434	8.217691
863.082153	719.250305	922.171082	726.754883	3.698280
863.380371	722.519592	920.833679	720.216309	-1.161432
863.678589	718.210144	916.375488	717.689941	-0.262509
863.976746	711.968689	924.251465	726.160461	6.685315
864.274902	709.219482	924.548645	732.104736	10.628033
864.572937	716.203918	937.477356	740.426697	10.946989
864.870911	722.816833	933.316406	736.414307	6.459620
865.168884	726.383484	932.127625	728.538147	1.047254
865.466736	719.919128	925.068848	724.005676	1.991983
865.764587	715.386536	919.719055	724.228577	4.327281
866.062317	714.643555	916.078308	722.891113	4.094407
866.360107	721.479431	916.078308	726.754883	2.710936
866.657715	727.572266	915.781067	723.634216	-2.092383
866.955322	721.999512	924.697327	732.624817	5.241944
867.252808	723.411316	927.372253	731.658875	4.043695
867.550293	721.107910	933.316467	737.900391	7.913197
867.847717	727.795166	931.161804	735.894226	3.982492
868.145081	718.433044	929.824280	730.767273	5.834787
868.442383	710.482605	922.914063	731.138855	9.723724
868.739624	709.739563	919.719055	731.138733	10.191076
869.036804	715.683838	919.050293	728.835388	6.466922
869.333984	716.055359	931.458923	724.302917	3.828887
869.631042	712.786072	933.836609	724.748779	5.411752
869.928101	708.402100	936.660156	724.005676	6.835937
870.224976	710.333984	925.514648	727.795166	8.114661
870.521851	707.956299	928.189514	727.200745	8.738213
870.818726	713.751953	925.440430	734.110840	9.617381
871.115479	719.324707	927.372314	733.144958	6.642831
871.412231	728.686829	924.548767	737.380188	4.438514
871.708862	729.727051	939.186340	729.206848	-0.248355
872.005493	729.206848	940.003723	728.761047	-0.211484
872.302063	727.126465	949.663086	721.479431	-2.537575
872.598572	723.782776	948.548584	723.559875	-0.099170
872.895020	722.742615	955.161438	718.210144	-1.950131
873.191406	720.216309	954.492737	724.451477	1.807765
873.487671	726.829163	948.548523	723.559875	-1.474516
873.783997	731.956055	957.390564	724.897400	-3.131133
874.080200	732.847839	953.749695	722.445374	-4.709089
874.376343	728.835449	949.588684	723.857178	-2.255130
874.672424	719.324646	947.211121	728.166687	3.880020
874.968445	719.176025	952.560852	726.606384	3.183737
875.264465	719.398926	950.777649	728.983948	4.142569
875.560364	718.284363	948.251282	731.733215	5.848168
875.856201	716.203918	942.307129	730.172852	6.178123
876.152039	715.237976	947.656921	732.253357	7.320996
876.447754	719.101807	940.226624	729.801331	4.838681
876.743469	716.649719	942.009949	733.219238	7.352459
877.039063	714.643555	944.090332	732.327637	7.707270
877.334595	712.042969	947.805481	734.408020	9.486262
877.630127	720.364929	954.567078	732.401855	5.139545
877.925537	715.758118	956.276062	735.894104	8.371927
878.221008	709.739563	962.740417	731.658875	8.663731
878.516296	703.572449	967.792969	733.442139	11.304833
878.811646	703.126648	969.873352	728.092346	9.359327
879.106812	709.962463	982.281982	734.333801	8.949537
879.401978	708.104980	992.758606	737.008606	10.153964
879.697083	706.618835	1011.482971	737.008728	9.968340
879.992126	714.123474	1031.321777	733.887939	6.230949
880.287109	718.804504	1068.324585	728.612488	2.806129
880.582031	723.485535	1127.172363	727.423645	0.975536
880.876892	723.857117	1245.982300	726.309082	0.469613
881.171753	725.789063	1456.704712	738.866272	1.789154
881.466492	728.835449	1768.330444	757.664856	2.773405
881.761230	724.823059	2140.661377	776.240540	3.631593
882.055786	723.262695	2499.469482	787.906067	3.639406
882.350403	725.937561	2761.980469	795.039124	3.393915
882.644958	723.708496	2859.688721	799.943054	3.569067
882.939453	723.857117	2834.054443	798.011230	3.514084
883.233826	719.621826	2734.339844	791.769775	3.581044
883.528137	715.089355	2619.616455	788.054688	3.831152
883.822449	709.813904	2497.908936	784.710999	4.188653
884.116577	713.157532	2376.869873	785.379700	4.341025
884.410828	716.203918	2248.697754	775.571777	3.873938
884.704956	719.547546	2088.426758	765.615173	3.365354
884.999023	715.980957	1902.001343	754.023987	3.207620
885.292969	721.256531	1717.730347	747.113831	2.594880
885.586914	719.324646	1547.428345	746.147949	3.239124
885.880798	721.033630	1418.067383	742.655701	3.102012
886.174622	717.169922	1320.953735	740.129395	3.802598
886.468384	716.649719	1256.979126	729.058289	2.296482
886.762085	714.420654	1215.741089	722.222412	1.556242
887.055664	720.290527	1175.691895	725.045959	1.044229
887.349304	721.107910	1143.072998	733.367859	2.905442
887.642822	723.708496	1109.933960	731.881836	2.116210
887.936340	718.804504	1087.866089	719.844727	0.281856
888.229736	719.250305	1064.015015	714.940735	-1.250003
888.523071	719.176025	1043.656006	719.621826	0.137389
888.816284	725.789001	1029.464111	726.457703	0.220203
889.109619	722.371033	1011.928711	732.922058	3.643842
889.402710	719.621826	994.690430	728.389587	3.187482
889.695862	709.516785	976.857849	732.104736	8.449114
889.988892	713.083252	972.251160	731.436035	7.081426
890.281921	716.649780	969.204712	741.392578	9.796996
>>>>>End Processed Spectral Data<<<<<
