Jaz Data File
++++++++++++++++++++++++++++++++++++
Date: Fri Jun 04 16:56:09 2021
User: jaz
Dark Spectrum Present: Yes
Reference Spectrum Present: Yes
Processed Spectrum Present: Yes
Spectrometers: JAZA3586
Integration Time (usec): 26900 (JAZA3586)
Spectra Averaged: 10 (JAZA3586)
Boxcar Smoothing: 1 (JAZA3586)
Correct for Electrical Dark: No (JAZA3586)
Strobe/Lamp Enabled: Yes (JAZA3586)
Correct for Detector Non-linearity: No (JAZA3586)
Correct for Stray Light: No (JAZA3586)
Number of Pixels in Processed Spectrum: 2048
>>>>>Begin Processed Spectral Data<<<<<
W	D	R	S	P
191.335022	0.000000	0.000000	0.000000	0.000000
191.713211	231.824478	223.576904	234.870895	-36.937134
192.091385	465.580902	454.658356	474.645752	-82.992096
192.469528	703.795410	697.033875	716.203918	-183.516129
192.847641	715.832458	712.340149	719.473206	-104.250412
193.225739	725.120300	725.268860	726.680603	1050.287598
193.603790	738.123230	728.761047	734.185120	42.064018
193.981842	739.089172	738.197571	742.581360	-391.675781
194.359863	739.460632	743.324463	736.785828	-69.226761
194.737854	732.624817	745.702148	735.299744	20.454683
195.115829	740.278015	744.216003	737.528809	-69.812462
195.493774	746.890930	744.884766	742.432800	222.221542
195.871704	745.627747	747.856873	741.689758	-176.660645
196.249603	741.912598	747.485352	743.547363	29.334969
196.627457	744.661865	747.782532	741.169617	-111.907135
197.005310	745.107727	743.175781	732.253357	665.358704
197.383133	743.324463	743.398743	730.841553	-16805.259766
197.760910	734.036621	739.386414	737.454529	63.888603
198.138687	732.327637	735.894104	749.640137	485.424347
198.516449	729.281250	735.299805	747.485413	302.467346
198.894180	729.206848	732.624817	740.798157	339.128571
199.271866	735.299744	734.556641	739.980774	-629.930176
199.649536	736.934387	730.247070	733.293518	54.444393
200.027191	736.042725	729.504089	733.367859	40.908623
200.404816	733.962219	731.361633	728.463867	211.427429
200.782410	733.367859	754.321289	733.590759	1.063789
201.159988	737.454529	773.788574	739.683594	6.134921
201.537537	735.151123	779.138367	741.912659	15.371583
201.915070	731.658875	774.457275	741.392517	22.743006
202.292557	737.454529	775.943359	736.414246	-2.702818
202.670029	740.426575	783.522217	731.213074	-21.379194
203.047485	742.284180	778.692566	738.420410	-10.612307
203.424911	730.098572	769.701904	744.141785	35.459675
203.802292	728.018066	760.042480	742.507141	45.243839
204.179688	728.166687	759.968201	735.076843	21.729017
204.557037	732.699158	756.104492	734.259521	6.666701
204.934357	727.423645	767.547180	739.237793	29.444435
205.311661	730.470032	764.277832	744.959167	42.857376
205.688934	726.383362	771.039368	746.519470	45.091602
206.066177	728.166687	760.711243	743.547363	47.260368
206.443390	717.541321	768.587402	736.191345	36.535664
206.820587	723.039734	772.451111	728.835388	11.729392
207.197769	728.092346	776.166260	733.887939	12.055589
207.574921	731.213074	773.491394	736.414246	12.302219
207.952042	731.510254	767.175598	739.163391	21.458189
208.329147	725.714661	766.581116	727.646484	4.727162
208.706223	728.463867	778.766785	735.151062	13.293851
209.083267	718.730225	781.590332	737.008606	29.077871
209.460297	714.717834	779.509827	748.228333	51.720123
209.837280	715.460876	770.965088	739.014832	42.436340
210.214264	715.163757	768.736023	732.401855	32.177280
210.591217	727.052063	772.748291	730.098572	6.666872
210.968124	728.018066	770.816406	728.315247	0.694373
211.345016	736.637146	770.593567	728.835449	-22.975616
211.721893	729.206848	763.386169	730.767273	4.565406
212.098724	721.256531	751.869324	735.596985	46.844646
212.475555	717.467102	755.064270	742.507080	66.600700
212.852356	712.265930	756.847473	737.231628	56.000076
213.229126	721.330750	768.290100	733.962219	26.898731
213.605865	715.609436	765.318054	726.977844	22.870094
213.982590	722.296692	764.946472	728.463867	14.460040
214.359283	716.129639	755.138489	723.857117	19.809551
214.735931	724.005676	754.321228	725.789001	5.882543
215.112579	722.296814	755.807312	728.389587	18.181686
215.489197	725.343079	759.225281	732.773438	21.929976
215.865799	720.439148	750.531738	732.253235	39.259121
216.242355	717.021301	753.875488	726.829285	26.612942
216.618896	712.934631	757.144714	727.126465	32.100899
216.995407	711.968689	766.283997	720.439148	15.594975
217.371902	714.049133	764.872253	725.640320	22.806917
217.748367	719.621826	759.893860	719.473206	-0.369042
218.124802	722.891113	757.441895	728.018005	14.838716
218.501236	721.256531	755.064270	728.463867	21.318600
218.877609	711.299988	755.212891	733.293457	50.084297
219.253983	714.123352	758.333496	735.596924	48.571594
219.630295	715.312256	760.562683	730.618652	33.825970
220.006592	720.216309	758.556458	732.550537	32.170528
220.382889	716.946960	753.875427	727.126465	27.565468
220.759140	720.662109	754.841309	730.693054	29.348099
221.135391	726.383484	756.996094	730.098572	12.135809
221.511581	726.754944	762.866028	736.562805	27.160252
221.887772	727.646545	759.893982	738.271790	32.949112
222.263931	728.835388	769.256042	742.284180	33.272079
222.640060	725.788879	762.568848	741.615417	43.030319
223.016159	716.055359	765.838196	747.931152	64.029686
223.392212	713.083191	765.392395	750.977539	72.442986
223.768265	717.912903	772.005310	753.429504	65.659126
224.144302	728.389465	775.348877	745.702148	36.867332
224.520294	722.965393	780.252869	741.169678	31.777077
224.896286	727.126465	777.429382	735.448303	16.543451
225.272217	727.349365	776.091980	733.888000	13.414618
225.648148	729.281189	769.479004	732.401917	7.763426
226.024048	727.349365	766.952698	733.219238	14.821665
226.399902	729.206848	768.884521	733.070618	9.737893
226.775772	731.138733	765.020813	729.504089	-4.824508
227.151581	728.240967	774.977356	731.584534	7.154098
227.527374	725.120300	771.485107	729.132629	8.653825
227.903137	725.194580	770.519226	734.036621	19.508240
228.278870	721.776611	765.095154	738.420410	38.421883
228.654572	721.256531	765.689514	744.587585	52.508415
229.030273	723.931396	767.398499	742.358582	42.393406
229.405930	727.646484	770.742188	731.584656	9.138200
229.781555	721.107910	769.999207	730.321472	18.844994
230.157181	719.770508	775.794739	732.699158	23.076889
230.532761	710.334045	776.463379	734.036621	35.842754
230.908325	713.528992	774.605774	732.922058	31.751945
231.283859	714.792175	772.822571	729.132568	24.711864
231.659332	722.519714	766.878357	729.726990	16.247736
232.034821	723.039795	774.011414	734.482422	22.449017
232.410263	719.770508	771.410828	739.312073	37.841682
232.785690	722.148132	770.593506	743.101563	43.251663
233.161087	726.457703	770.742188	747.336731	47.147503
233.536469	723.114075	775.646179	745.256287	42.149868
233.911804	720.810730	776.983582	748.154053	48.677113
234.287140	712.414490	773.045471	734.259460	36.029388
234.662430	713.974854	764.872253	729.355469	30.218863
235.037704	719.027405	758.779358	716.203918	-7.102761
235.412933	723.931396	758.556458	717.095520	-19.742569
235.788162	727.423645	761.974426	715.535156	-34.408741
236.163345	725.343079	769.627625	722.222473	-7.046714
236.538513	725.714661	767.398499	725.937683	0.535033
236.913635	722.668213	768.438782	728.389648	12.500250
237.288742	711.076965	767.101318	736.637207	45.623447
237.663834	713.231873	767.992981	742.729980	53.866894
238.038879	718.507324	768.810242	741.615479	45.938000
238.413910	725.640381	770.742126	734.705383	20.099007
238.788910	725.343201	773.194092	735.745544	21.739080
239.163879	730.544250	770.593445	739.163574	21.521841
239.538834	730.841492	773.714172	741.541199	24.956936
239.913757	729.206848	771.336609	733.219238	9.523886
240.288651	717.244141	767.101318	736.117004	37.853855
240.663528	715.312317	772.153870	735.225403	35.032619
241.038361	716.203918	778.098145	731.658875	24.969948
241.413177	722.742615	790.283752	723.708496	1.430064
241.787979	725.268860	781.367432	727.943848	4.768371
242.162735	722.668274	787.831787	731.881836	14.139143
242.537476	718.284363	787.088684	737.825989	28.401743
242.912170	713.974854	802.692383	731.658875	19.932951
243.286865	716.129578	799.868835	737.305847	25.288342
243.661514	723.039734	803.583984	734.333801	14.022189
244.036148	728.612488	795.336365	734.482422	8.797352
244.410751	730.321472	796.079346	734.110840	5.762607
244.785339	719.919128	795.782166	743.695984	31.341818
245.159882	718.804504	802.097839	748.971375	36.217628
245.534378	720.662109	799.571594	749.937317	37.099731
245.908890	727.126465	796.227966	743.844543	24.193510
246.283356	733.813660	792.067078	736.785828	5.102135
246.657791	730.841553	797.862610	736.117004	7.871335
247.032196	723.039734	808.785095	733.813721	12.565096
247.406586	715.386536	814.803650	734.853943	19.581545
247.780960	715.163757	827.732361	736.637207	19.075878
248.155289	719.398926	834.568176	739.014893	17.032295
248.529602	719.919128	839.472168	742.432800	18.831535
248.903870	722.073914	829.367004	733.367859	10.526256
249.278122	722.222412	819.410400	729.727051	7.721776
249.652344	723.336975	813.837646	727.795166	4.926141
250.026550	718.358704	811.905762	727.572266	9.849120
250.400711	725.491760	809.602356	738.420471	15.371085
250.774857	722.593994	807.224670	733.219299	12.554910
251.148987	732.476257	807.967773	733.293518	1.082586
251.523071	727.943665	813.837646	730.172852	2.595277
251.897125	728.612488	814.729309	731.287415	3.106161
252.271164	714.494934	817.701416	736.265625	21.094305
252.645187	711.597168	816.735535	733.219238	20.565348
253.019165	708.402161	820.896484	737.677429	26.023773
253.393112	713.826233	816.958435	738.717712	24.135508
253.767044	714.346375	815.175110	736.042725	21.518023
254.140930	725.788879	804.401306	742.952942	21.833778
254.514801	718.878845	802.246399	741.689758	27.361860
254.888657	724.897400	800.166016	740.946777	21.322802
255.262466	723.411316	812.128723	737.751770	16.164194
255.636276	735.002502	815.546692	743.695984	10.793431
256.010010	733.070618	822.159668	752.017822	21.267714
256.383759	724.377258	826.172058	747.411072	22.627691
256.757446	720.885010	830.630127	741.020996	18.347956
257.131134	715.758118	831.521790	732.624817	14.569942
257.504791	719.398987	829.887024	730.247131	9.818388
257.878418	715.832458	836.871582	732.773438	13.996284
258.252014	714.569336	855.595886	733.665100	13.540545
258.625580	715.832458	871.050781	730.395813	9.382497
258.999115	721.330811	893.861633	723.039795	0.990539
259.372650	726.086243	902.778015	728.092346	1.135369
259.746124	720.067688	921.502380	739.460754	9.627471
260.119598	710.408264	937.254578	745.850769	15.624016
260.493042	706.990417	950.851990	741.541199	14.168194
260.866425	711.076965	960.511292	739.386414	11.349460
261.239838	715.683777	950.926270	729.206848	5.748567
261.613159	717.392761	937.403137	732.030457	6.653184
261.986511	721.107910	912.288879	728.835388	4.041970
262.359802	725.566101	896.536621	740.129395	8.518014
262.733063	730.024231	886.431458	734.556641	2.897826
263.106293	729.355530	886.208557	737.008728	4.879216
263.479523	736.562805	884.351013	739.683594	2.111663
263.852692	732.922058	881.304504	745.107666	8.212297
264.225861	729.875671	881.378845	745.850769	10.544398
264.598969	722.296692	882.864807	747.262451	15.548391
264.972076	723.857117	890.666687	749.194336	15.189308
265.345154	729.652649	891.261169	753.058105	14.482811
265.718201	730.544373	903.966980	748.005554	10.068573
266.091217	731.138733	914.517883	745.999329	8.103754
266.464203	722.965515	928.189514	746.445129	11.440969
266.837158	721.627991	936.065674	748.302734	12.439392
267.210114	721.405090	947.582520	752.686584	13.830511
267.583038	724.228577	962.666016	746.742371	9.442223
267.955902	724.080017	965.563782	748.377014	10.061544
268.328766	725.640381	974.405945	741.615417	6.421723
268.701569	725.863281	967.421387	741.615417	6.521055
269.074371	726.309143	971.508057	735.151062	3.606019
269.447144	719.250427	972.845459	734.333801	5.947819
269.819885	716.872620	988.374756	736.785828	7.334457
270.192596	714.866516	994.096008	739.534973	8.834474
270.565277	723.411316	1006.727539	742.209900	6.635195
270.937927	724.971680	1021.662354	735.596924	3.581253
271.310577	726.606384	1053.241089	733.813721	2.206543
271.683136	717.318542	1078.652588	731.658875	3.968719
272.055725	720.810730	1106.218872	738.494690	4.588372
272.428284	715.609558	1112.757568	742.507019	6.772654
272.800812	724.302917	1114.540894	744.959045	5.293213
273.173279	719.844788	1101.314941	741.987000	5.804441
273.545776	726.457703	1109.116699	736.562805	2.640759
273.918152	720.885071	1102.057983	732.401917	3.021423
274.290558	720.885071	1099.828979	725.566101	1.235283
274.662964	715.683838	1084.076782	731.733215	4.356592
275.035278	720.067688	1082.293457	737.751709	4.882044
275.407593	720.513489	1095.073486	745.479187	6.665340
275.779907	721.851013	1107.779175	744.141663	5.775855
276.152161	716.798340	1123.234253	741.392517	6.051182
276.524384	714.494934	1127.692383	743.175781	6.941196
276.896606	721.107910	1147.828491	741.615417	4.805840
277.268799	714.643555	1161.128540	742.729980	6.290565
277.640930	720.141907	1172.496948	736.414246	3.597249
278.013031	714.346375	1163.432007	734.110840	4.401046
278.385162	719.250305	1164.843750	733.665039	3.234952
278.757233	711.077148	1162.688843	735.225403	5.347128
279.129272	711.671448	1175.171875	736.340027	5.322234
279.501282	714.717957	1186.540161	732.476257	3.763770
279.873230	717.838562	1203.778320	725.194580	1.513772
280.245178	719.027405	1222.576904	721.925232	0.575480
280.617126	719.324646	1243.827515	725.863281	1.246635
280.988983	716.872620	1269.610474	746.147949	5.296422
281.360870	706.470276	1287.369019	752.686523	7.955990
281.732697	702.755188	1313.597778	749.937317	7.724106
282.104492	705.801575	1338.414917	739.386414	5.308905
282.476288	714.272034	1366.204102	740.203796	3.977679
282.848053	720.587708	1385.151367	739.014893	2.772825
283.219757	722.668213	1396.891113	741.392578	2.777177
283.591461	726.829163	1403.801392	741.689758	2.195156
283.963135	723.039795	1399.640259	746.445129	3.459255
284.334747	714.940735	1397.114258	745.999329	4.552887
284.706360	710.259766	1418.884766	744.216064	4.791857
285.077942	707.287598	1453.658325	743.101563	4.798415
285.449524	716.129639	1487.540405	737.603210	2.783675
285.821014	716.352539	1496.828125	733.516418	2.199157
286.192535	722.965515	1511.985962	738.643372	1.987003
286.563995	717.764343	1537.397827	740.872375	2.819313
286.935425	714.866455	1566.152832	748.302734	3.927736
287.306824	715.683777	1568.233398	741.169617	2.989367
287.678223	723.931458	1554.561523	740.872375	2.039526
288.049561	734.036621	1536.208618	732.550537	-0.185258
288.420898	732.179016	1520.530884	736.934387	0.603204
288.792145	736.191345	1516.221191	741.689758	0.704898
289.163452	732.401917	1522.239868	750.531738	2.295385
289.534668	730.321472	1549.731812	744.810486	1.768224
289.905914	723.114075	1576.852173	741.763977	2.184499
290.277039	723.857117	1612.963379	736.860107	1.462479
290.648193	728.092346	1651.526733	744.290344	1.754104
291.019318	730.915833	1693.804810	743.621582	1.319545
291.390381	735.002502	1715.575562	745.850769	1.106319
291.761475	732.253418	1715.798462	749.491516	1.752650
292.132507	726.532043	1702.795410	754.767029	2.892148
292.503510	714.866455	1689.049438	748.154053	3.416976
292.874481	718.061523	1673.297363	747.188171	3.049158
293.245422	722.073914	1679.390137	743.175781	2.204273
293.616364	729.206848	1696.331055	745.702087	1.705597
293.987213	726.606384	1740.095337	742.655701	1.583571
294.358093	732.104736	1787.277710	743.250061	1.056256
294.728943	730.321472	1849.469116	745.107666	1.321201
295.099731	727.126404	1901.629761	744.067383	1.442395
295.470490	715.535156	1936.254517	740.723816	2.063427
295.841248	717.541443	1960.402954	735.671204	1.458711
296.211975	719.176086	1987.300659	731.733154	0.990208
296.582642	726.160583	2035.077271	737.305847	0.851488
296.953308	721.033630	2082.185059	747.188171	1.921501
297.323883	721.405090	2127.063965	749.417236	1.992812
297.694519	728.538147	2156.041992	744.290344	1.103478
298.065063	728.686768	2159.757324	734.705322	0.420563
298.435608	727.423645	2126.915527	735.299805	0.562787
298.806122	718.581604	2070.148193	731.584656	0.962073
299.176575	720.959290	2008.774048	736.265686	1.188556
299.547028	722.148132	1959.139771	743.175781	1.699902
299.917450	719.993408	1933.356812	748.525635	2.351499
300.287872	718.358704	1927.486938	750.754700	2.679286
300.658234	720.587830	1937.443359	738.866272	1.502105
301.028564	724.897278	1937.963501	737.528809	1.041290
301.398865	726.903503	1928.973022	738.866272	0.995181
301.769135	726.309082	1923.474487	736.860046	0.881329
302.139374	724.971680	1919.684937	735.819824	0.908012
302.509583	726.383362	1928.601196	733.367737	0.580958
302.879791	721.330872	1935.362915	739.980774	1.536195
303.249939	719.621887	1935.140137	744.884766	2.078363
303.620087	721.107910	1923.103027	744.290344	1.928663
303.990173	724.748779	1904.898926	752.983826	2.392496
304.360260	730.172852	1898.880249	750.903320	1.773795
304.730286	730.098450	1904.973145	753.578186	1.998488
305.100281	730.395691	1913.369141	746.890930	1.394388
305.470276	730.990173	1928.972778	748.302734	1.445143
305.840179	732.253235	1952.229492	746.890930	1.199834
306.210144	730.024231	1976.675171	742.952942	1.037076
306.579987	717.392822	1995.325195	741.466858	1.883827
306.949890	706.990417	2007.213501	740.649597	2.588723
307.319702	711.745789	2022.445679	745.404846	2.568022
307.689484	723.039795	2038.420898	749.268616	1.994009
308.059265	732.327637	2069.256592	757.887756	1.911853
308.429016	731.733215	2112.723633	759.671082	2.023031
308.798737	725.714661	2176.103760	753.875427	1.941601
309.168396	725.343079	2225.069336	741.095276	1.050338
309.538055	722.445313	2266.381592	735.374023	0.837386
309.907684	728.538086	2287.409180	743.101563	0.934232
310.277313	731.658875	2309.997314	753.801086	1.402881
310.646851	731.213074	2330.578857	755.658630	1.528453
311.016388	728.463867	2347.594482	754.841309	1.629111
311.385895	728.686768	2351.606689	750.680420	1.355190
311.755371	736.340027	2347.446045	748.971436	0.784021
312.124817	738.717590	2346.554443	745.330566	0.411296
312.494232	730.544373	2348.263184	741.020996	0.647617
312.863617	721.627991	2345.588135	738.940613	1.066074
313.232971	714.049133	2341.947510	736.860107	1.401253
313.602295	716.946960	2323.817627	740.500977	1.465832
313.971619	716.501160	2323.817627	742.952942	1.645711
314.340820	712.414551	2321.216797	746.147949	2.096802
314.710083	709.516663	2363.718018	742.061279	1.967391
315.079285	708.402161	2404.213135	745.107666	2.164481
315.448486	721.776672	2449.389160	744.661865	1.324672
315.817596	720.587830	2450.132080	745.479187	1.439186
316.186707	724.080078	2408.299805	739.312012	0.904391
316.555786	720.216309	2353.167236	738.494690	1.119347
316.924866	722.222473	2305.687744	739.683594	1.102716
317.293884	727.423645	2294.170654	747.708252	1.294696
317.662872	730.172852	2293.502197	745.181946	0.960072
318.031830	722.445313	2310.517578	741.541199	1.202457
318.400757	720.587830	2319.730713	746.222229	1.603009
318.769684	721.999512	2331.544922	745.033386	1.431080
319.138550	728.241028	2346.405518	754.469910	1.620903
319.507416	724.228699	2373.006104	749.120056	1.509686
319.876190	720.141907	2386.529053	754.544128	2.064479
320.244995	722.073792	2386.157715	753.949707	1.915523
320.613770	722.371094	2358.962891	747.931213	1.561790
320.982483	721.702332	2338.529541	752.537903	1.907166
321.351166	722.222473	2316.684570	746.890930	1.547133
321.719818	720.067688	2313.638428	750.903320	1.935002
322.088440	717.764343	2317.873291	748.451233	1.917800
322.457062	718.878845	2339.124023	753.949707	2.164541
322.825623	720.662109	2375.904053	752.240723	1.907794
323.194183	720.959290	2426.058350	747.931152	1.581836
323.562653	726.829285	2481.042236	741.392517	0.830186
323.931183	731.287415	2549.697754	747.931152	0.915291
324.299591	732.922058	2615.084229	746.222229	0.706643
324.668060	726.606262	2674.452393	750.383240	1.220680
325.036407	721.033630	2709.597412	755.138611	1.715056
325.404755	719.547546	2731.887939	762.866028	2.152642
325.773102	719.398926	2742.364502	769.033142	2.453537
326.141388	726.457703	2746.897217	766.581116	1.985876
326.509674	732.030457	2755.739258	766.135315	1.685265
326.877899	729.652649	2772.606201	761.974426	1.582110
327.246124	724.823059	2785.980469	763.460449	1.874548
327.614288	723.485657	2780.853516	762.791748	1.910504
327.982422	726.606384	2765.844482	761.974426	1.734375
328.350525	728.315247	2746.897217	758.259277	1.483419
328.718628	723.634094	2734.340088	758.705078	1.744212
329.086700	719.027405	2743.553711	764.277771	2.235109
329.454712	713.529053	2759.677490	758.556458	2.200593
329.822693	715.238037	2788.209717	758.927979	2.107599
330.190674	714.569336	2805.373779	752.240723	1.801765
330.558563	715.386658	2815.775635	763.609070	2.295880
330.926483	711.077087	2832.568359	769.107422	2.735356
331.294312	714.792175	2861.100586	772.376770	2.682960
331.662231	721.925293	2908.877197	772.525391	2.313727
332.029999	718.581604	2939.044189	774.308655	2.509705
332.397766	715.758057	2981.916748	782.556335	2.947644
332.765503	710.185364	3034.894531	783.745117	3.164256
333.133240	720.364929	3098.572021	786.642883	2.786887
333.500916	720.067688	3149.841064	793.998840	3.042718
333.868561	724.674500	3184.763428	803.881104	3.219664
334.236176	717.169861	3218.050781	807.447571	3.609837
334.603790	722.296692	3227.858643	808.562195	3.442960
334.971344	719.473206	3223.177734	802.246399	3.306029
335.338867	725.640381	3221.765625	803.361023	3.113652
335.706360	723.188416	3228.750244	806.704651	3.333234
336.073853	722.742615	3247.326172	815.769531	3.684842
336.441284	717.764343	3252.230225	822.010986	4.113160
336.808655	718.507324	3247.326172	820.747864	4.043015
337.176086	720.587830	3198.434814	821.342285	4.066210
337.543396	727.869446	3122.200439	821.936707	3.928749
337.910706	729.875549	3040.541748	820.822205	3.935949
338.277954	726.086121	3053.395752	825.651855	4.278147
338.645264	727.126404	3141.073242	829.738464	4.250801
339.012421	729.132568	3283.065674	839.917969	4.337835
339.379669	738.717712	3404.476318	846.307922	4.036007
339.746796	730.172852	3512.809814	857.750671	4.584781
340.113953	736.191406	3596.028564	870.010559	4.679258
340.481018	726.680664	3633.625977	881.230225	5.316562
340.848114	729.058289	3627.830811	886.877258	5.444338
341.215118	716.798340	3621.217529	896.610901	6.190999
341.582153	716.947021	3644.325439	894.976257	6.081524
341.949066	715.758118	3687.792725	899.657288	6.187652
342.316010	713.603333	3700.498291	897.576843	6.159357
342.682922	717.021301	3714.393311	917.489990	6.688148
343.049835	717.467102	3730.516602	921.725281	6.779118
343.416656	720.959290	3780.522217	929.749939	6.824198
343.783478	718.135742	3842.565186	930.641602	6.801429
344.150269	723.411316	3958.180420	946.393799	6.893305
344.516998	726.234802	4094.377686	961.179993	6.975512
344.883728	726.160461	4207.392090	975.223206	7.154443
345.250427	721.999512	4282.214355	982.876404	7.327560
345.617065	719.101746	4321.074707	999.148682	7.774821
345.983704	716.724060	4315.799316	994.096130	7.706759
346.350281	720.290588	4310.895996	1001.526367	7.832545
346.716827	717.244141	4260.220703	1002.492249	8.051086
347.083405	723.857117	4239.341309	1017.947266	8.365566
347.449860	720.810730	4177.596191	1031.173218	8.978355
347.816376	720.513489	4125.955566	1028.201050	9.035172
348.182770	716.872742	4086.426758	1028.349609	9.243860
348.549194	713.677551	4059.306396	1023.668457	9.265550
348.915558	716.872559	4086.278320	1036.374268	9.482435
349.281921	717.541321	4096.754883	1044.027466	9.661601
349.648193	715.014954	4150.327148	1055.916016	9.923437
350.014526	718.953125	4186.735840	1067.730103	10.057636
350.380737	720.736328	4247.663574	1087.940430	10.411446
350.746948	723.634216	4286.003906	1104.361328	10.687468
351.113159	720.736389	4323.377441	1115.952515	10.970178
351.479309	723.708496	4366.250488	1126.577881	11.060117
351.845428	726.160461	4410.906250	1131.704712	11.006030
352.211517	724.600159	4455.934082	1145.822266	11.288780
352.577576	723.188416	4506.162598	1158.379395	11.503938
352.943604	721.330811	4568.205566	1181.487549	11.961833
353.309601	724.600098	4631.139648	1201.474976	12.207092
353.675537	720.959290	4723.201172	1220.124878	12.472149
354.041473	724.080078	4831.088867	1241.524170	12.599050
354.407379	726.829285	4964.165039	1261.065796	12.607840
354.773254	725.120300	5084.609375	1278.303955	12.689185
355.139038	729.429871	5167.977051	1303.269653	12.928549
355.504913	721.553711	5270.143066	1318.353149	13.120539
355.870636	726.234802	5356.854492	1350.897705	13.489834
356.236389	729.355469	5483.837402	1368.284668	13.438461
356.602081	732.847717	5624.195313	1401.052124	13.660947
356.967804	728.463867	5784.764160	1426.835083	13.811901
357.333405	721.405090	5921.406738	1455.738892	14.121799
357.699036	722.742493	6086.656250	1492.295898	14.346865
358.064606	722.816895	6254.803223	1534.574219	14.673885
358.430176	718.210144	6405.563965	1565.707031	14.901426
358.795654	719.770508	6473.029785	1589.186646	15.111715
359.161163	726.457703	6458.615234	1597.062622	15.188084
359.526581	729.949951	6424.064941	1619.576538	15.623614
359.892029	729.206848	6436.176270	1638.003540	15.924332
360.257416	726.383484	6547.185059	1680.430298	16.390299
360.622772	730.544434	6756.569824	1724.343262	16.491779
360.988098	727.646545	7016.777344	1774.200317	16.640673
361.353394	722.222412	7312.502441	1819.673706	16.652575
361.718658	726.903503	7637.725098	1876.440918	16.633873
362.083893	735.151062	7925.276855	1936.031738	16.701801
362.449097	741.615417	8106.946777	1980.316040	16.817989
362.814209	733.813660	8102.562500	1981.653442	16.934216
363.179382	721.850891	7889.611328	1947.622681	17.101183
363.544434	718.433044	7514.828613	1895.982422	17.326086
363.909546	722.593933	7100.739746	1845.010742	17.597853
364.274536	727.943787	6747.652344	1800.131958	17.811298
364.639587	730.395752	6514.639160	1769.890747	17.971149
365.004517	728.984070	6371.829590	1757.036499	18.218689
365.369507	723.188477	6286.232910	1763.277832	18.696405
365.734344	714.569336	6243.286621	1756.219116	18.840714
366.099274	713.157532	6179.312012	1759.488403	19.141993
366.464081	717.095642	6158.283691	1760.082886	19.168375
366.828918	727.646545	6141.714355	1784.008301	19.511425
367.193665	725.268860	6155.980469	1792.627319	19.654118
367.558411	723.782898	6149.813965	1810.014282	20.018894
367.923126	720.736511	6140.451660	1820.639648	20.294481
368.287781	727.275085	6139.856934	1836.243164	20.488707
368.652435	733.442139	6116.748535	1839.140991	20.539400
369.017059	732.327637	6097.652344	1841.370117	20.670557
369.381653	728.686829	6055.003418	1841.964478	20.901455
369.746185	723.262695	6060.204590	1849.097534	21.095131
370.110687	725.268860	6056.786621	1857.122070	21.229477
370.475220	726.680603	6100.550781	1883.722656	21.530890
370.839661	728.612488	6135.027344	1909.208374	21.836946
371.204041	728.092346	6224.858887	1935.734497	21.970045
371.568451	728.389587	6287.198730	1954.161621	22.050982
371.932770	722.222473	6356.375000	1974.743286	22.230864
372.297150	725.714600	6377.179688	1991.609985	22.399420
372.661377	721.553711	6432.015137	2009.962891	22.562260
373.025696	727.498047	6460.918457	2026.458130	22.655937
373.389862	722.965515	6465.748535	2037.009155	22.881653
373.754059	720.513489	6459.506348	2048.451660	23.138872
374.118225	727.349365	6478.528809	2058.556641	23.146683
374.482361	730.544373	6551.494141	2086.494629	23.294312
374.846436	729.578430	6616.806641	2111.163330	23.467495
375.210510	720.959290	6731.009277	2152.995850	23.827368
375.574524	715.683777	6851.677246	2185.168701	23.948605
375.938538	714.792175	7018.040527	2234.060059	24.102934
376.302460	712.711731	7167.686035	2286.517822	24.381292
376.666412	718.061523	7348.464355	2340.535889	24.470222
377.030304	722.816895	7515.125000	2395.073975	24.619865
377.394196	726.977844	7690.777344	2435.494385	24.534260
377.757996	723.634216	7848.298828	2475.617920	24.590403
378.121796	720.142029	7923.270020	2489.289795	24.560825
378.485565	720.067627	7936.050293	2489.141357	24.516048
378.849304	716.872620	7829.500488	2471.605713	24.670673
379.212982	723.634216	7693.452637	2451.766846	24.794514
379.576630	722.222473	7483.695313	2421.971680	25.138744
379.940277	731.064453	7332.192871	2408.522705	25.411690
380.303864	732.624817	7236.787598	2403.618896	25.691149
380.667450	733.144958	7211.228027	2405.773438	25.819805
381.030945	725.640320	7210.781738	2413.500732	26.026577
381.394501	723.336914	7233.072754	2419.593994	26.057234
381.757935	723.782776	7265.395020	2450.355225	26.393684
382.121399	726.011902	7269.257813	2475.395264	26.735710
382.484741	727.497986	7326.693848	2519.382324	27.153070
382.848145	726.903503	7374.693848	2554.156006	27.486612
383.211487	725.194580	7479.460938	2604.905029	27.829971
383.574768	724.897400	7560.748047	2648.743408	28.143476
383.938019	723.114075	7659.347168	2689.164063	28.344637
384.301270	725.491760	7761.364746	2724.160889	28.406839
384.664459	711.448547	7849.189941	2770.971680	28.853991
385.027649	715.609558	7939.839844	2809.088623	28.978575
385.390778	717.838623	7992.966797	2862.809326	29.483614
385.753876	726.532043	8022.687500	2896.840088	29.745914
386.116943	721.256531	8068.606934	2940.009766	30.198004
386.479980	714.717834	8088.073730	2958.511475	30.431105
386.842987	717.467041	8153.460449	2989.570068	30.555475
387.205994	724.748718	8189.050781	3027.092773	30.844732
387.568909	728.686768	8272.715820	3074.423584	31.093952
387.931793	727.200745	8323.242188	3112.615234	31.403391
388.294678	724.080078	8356.678711	3145.382813	31.723177
388.657471	721.925293	8369.235352	3162.249268	31.910881
389.020294	718.655945	8367.898438	3172.651611	32.081551
389.383057	718.730225	8385.359375	3203.190186	32.406158
389.745819	719.993347	8394.944336	3234.026123	32.756336
390.108521	726.160461	8418.870117	3267.462158	33.035198
390.471191	723.262695	8503.426758	3325.789795	33.450798
390.833801	717.467041	8642.594727	3409.454346	33.967747
391.196442	715.163635	8827.014648	3516.598877	34.535091
391.558960	722.148132	9032.165039	3582.431396	34.419704
391.921509	728.240967	9260.422852	3654.950928	34.302013
392.284027	727.646545	9498.265625	3743.668701	34.387791
392.646484	724.451477	9601.174805	3833.723389	35.027248
393.008911	724.674500	9577.323242	3852.744873	35.334854
393.371307	720.959290	9505.769531	3855.568115	35.682144
393.733673	715.758118	9433.696289	3838.998291	35.825443
394.096008	709.888184	9408.878906	3863.221436	36.249416
394.458344	704.315430	9416.903320	3875.852783	36.401783
394.820587	702.457947	9453.387695	3897.697998	36.513149
395.182831	701.417664	9493.213867	3930.465088	36.727962
395.545013	712.265808	9438.006836	3933.585938	36.917439
395.907196	725.045898	9342.006836	3932.174561	37.218792
396.269287	735.745544	9193.772461	3887.741211	37.266319
396.631409	743.027283	9047.990234	3859.803467	37.529079
396.993469	742.952881	8906.815430	3829.710693	37.810017
397.355530	742.432800	8804.797852	3819.382568	38.164356
397.717499	733.070618	8783.918945	3820.794189	38.352776
398.079468	717.095520	8776.562500	3831.940186	38.648273
398.441376	712.637451	8793.578125	3847.097656	38.788311
398.803284	715.906738	8792.538086	3869.240234	39.042683
399.165131	725.120300	8820.327148	3893.165283	39.134823
399.526978	714.643555	8823.819336	3928.310547	39.630009
399.888763	710.259766	8841.875000	3935.220703	39.659538
400.250519	711.077087	8857.850586	3939.753174	39.631348
400.612244	721.553772	8893.441406	3962.192627	39.655941
400.973938	727.052185	8898.569336	3994.811523	39.989628
401.335602	725.789001	8928.364258	4041.028076	40.417049
401.697205	721.627991	8978.740234	4068.074219	40.528046
402.058807	717.392761	9034.987305	4119.937012	40.907791
402.420349	715.758118	9145.624023	4167.639648	40.948238
402.781860	722.668274	9266.960938	4231.391602	41.065109
403.143341	724.154297	9432.506836	4305.248535	41.122524
403.504822	728.909668	9588.022461	4401.693359	41.457691
403.866241	727.869446	9785.667969	4500.144531	41.646709
404.227631	726.531982	9947.573242	4584.700684	41.840923
404.588959	722.371094	10151.757813	4677.355957	41.943184
404.950287	716.055359	10315.966797	4750.544434	42.026318
405.311554	717.392761	10442.653320	4818.754395	42.172256
405.672821	717.021240	10489.463867	4836.958496	42.158730
406.034027	715.981018	10454.689453	4849.441406	42.443623
406.395203	714.792175	10397.922852	4809.689453	42.288979
406.756348	712.934570	10304.003906	4784.352051	42.450089
407.117493	710.779785	10216.624023	4767.634277	42.677479
407.478516	706.916016	10171.745117	4774.692871	42.977818
407.839600	712.785950	10149.008789	4792.896973	43.238819
408.200592	708.773682	10162.978516	4790.073730	43.169151
408.561554	714.940735	10131.250977	4801.219238	43.395748
408.922485	709.070862	10156.736328	4819.349121	43.505760
409.283417	713.454773	10190.023438	4850.704590	43.657681
409.644257	709.219543	10301.106445	4911.112793	43.806744
410.005096	706.247375	10428.460938	4995.446289	44.117512
410.365906	705.801575	10556.187500	5067.668457	44.281178
410.726715	710.556946	10701.003906	5115.147949	44.088024
411.087433	715.609558	10803.541992	5141.376465	43.871895
411.448120	728.240967	10885.944336	5196.806641	43.991890
411.808807	731.138855	10886.463867	5229.202637	44.292664
412.169434	728.909729	10801.460938	5205.351563	44.441990
412.530029	723.857117	10735.629883	5176.670410	44.475777
412.890564	717.095520	10697.883789	5162.255859	44.537167
413.251099	724.600098	10696.991211	5179.865723	44.676003
413.611572	730.915833	10754.947266	5212.038574	44.703796
413.972076	728.463867	10816.098633	5268.583496	45.006779
414.332489	717.615723	10917.595703	5311.604492	45.039192
414.692871	714.494934	11058.101563	5394.154297	45.242046
415.053223	719.696106	11222.163086	5462.067871	45.154835
415.413574	720.736389	11431.176758	5589.273438	45.455994
415.773834	722.148132	11592.190430	5662.164551	45.446159
416.134094	727.646484	11757.215820	5751.476563	45.548740
416.494263	732.401855	11926.551758	5818.943359	45.439281
416.854462	731.807434	12224.655273	5951.425293	45.416225
417.214630	724.302917	12564.514648	6086.582031	45.288712
417.574738	722.073792	12923.471680	6245.886719	45.271969
417.934784	725.417480	13235.245117	6389.439453	45.276577
418.294861	719.324707	13640.343750	6572.001465	45.295780
418.654846	721.925293	14072.339844	6790.525879	45.456272
419.014832	723.188416	14574.403320	7025.545410	45.500393
419.374756	724.080017	15067.700195	7288.725098	45.767002
419.734680	723.411316	15642.504883	7554.729004	45.789093
420.094543	713.083252	16165.968750	7855.134766	46.218239
420.454376	715.906738	16669.814453	8103.751465	46.307430
420.814148	714.123535	17179.458984	8351.774414	46.386246
421.173920	718.061523	17728.480469	8579.735352	46.216816
421.533691	724.154297	18255.583984	8822.853516	46.195316
421.893341	722.965515	18628.435547	9010.541992	46.285164
422.253021	721.182190	18873.783203	9148.967773	46.427422
422.612640	717.021301	18967.478516	9182.403320	46.384491
422.972260	720.587830	18945.335938	9193.252930	46.489887
423.331757	715.683838	18860.482422	9174.305664	46.617336
423.691315	712.191589	18824.593750	9200.014648	46.861942
424.050781	715.609558	18975.652344	9256.039063	46.771137
424.410248	714.049133	19092.455078	9331.530273	46.889168
424.769653	713.677673	19301.916016	9429.683594	46.889896
425.128998	711.968689	19339.734375	9471.293945	47.022953
425.488373	718.284424	19273.679688	9441.795898	47.013344
425.847656	722.222473	19001.435547	9347.505859	47.186295
426.206940	718.284424	18728.224609	9235.307617	47.290684
426.566193	721.776672	18358.269531	9073.031250	47.352131
426.925385	719.398926	17993.072266	8914.245117	47.441242
427.284576	722.891174	17464.630859	8678.928711	47.522167
427.643677	720.662109	17079.966797	8482.696289	47.447212
428.002777	721.479431	16710.681641	8286.611328	47.314003
428.361847	722.371033	16314.054688	8123.739746	47.469978
428.720856	716.501160	15936.596680	7991.480469	47.798515
429.079865	716.575439	15649.862305	7879.283203	47.964710
429.438812	718.358704	15501.554688	7797.550781	47.886749
429.797760	719.696106	15414.174805	7758.764160	47.902809
430.156616	716.575439	15241.643555	7682.900879	47.960705
430.515503	714.866455	15135.911133	7647.458984	48.072750
430.874268	721.330872	15086.945313	7619.224121	48.016693
431.233093	722.445374	15092.666992	7640.846191	48.144009
431.591827	718.433044	15148.914063	7674.802246	48.206078
431.950562	714.420715	15162.882813	7681.638184	48.221169
432.309204	721.628113	15282.583008	7723.842285	48.088978
432.667877	722.519592	15409.270508	7773.996582	48.012505
433.026459	720.290588	15546.582031	7854.986816	48.121922
433.385010	715.015076	15663.756836	7910.490723	48.134323
433.743561	712.637390	15869.649414	8013.623047	48.169033
434.102051	718.210144	16106.229492	8115.417969	48.071217
434.460510	722.965515	16279.354492	8222.116211	48.206245
434.818939	723.559998	16312.715820	8254.586914	48.309395
435.177338	723.634216	16301.571289	8271.081055	48.449589
435.535675	719.993347	16278.387695	8272.641602	48.543880
435.894012	724.302917	16240.270508	8258.672852	48.558815
436.252289	719.993347	16269.916992	8280.295898	48.619549
436.610535	712.563049	16229.199219	8271.006836	48.711872
436.968719	717.764343	16377.730469	8351.477539	48.746681
437.326935	716.872620	16487.548828	8405.569336	48.753120
437.685028	723.188416	16674.792969	8486.114258	48.665485
438.043152	715.683777	16759.201172	8545.333008	48.802574
438.401215	721.925110	16996.078125	8657.083008	48.759266
438.759277	717.021240	17250.343750	8788.674805	48.820515
439.117249	721.702332	17679.515625	8999.916992	48.816525
439.475250	724.525879	17989.357422	9158.479492	48.850479
439.833130	733.888000	18419.568359	9372.768555	48.846756
440.191071	726.457703	18726.439453	9504.061523	48.764511
440.548889	718.953125	19064.589844	9686.623047	48.881760
440.906708	725.640381	19401.404297	9846.299805	48.836876
441.264496	734.556702	19654.035156	9992.899414	48.935509
441.622223	737.454529	19851.384766	10090.978516	48.935642
441.979950	727.126465	19895.373047	10126.420898	49.035759
442.337616	721.776611	19884.224609	10129.764648	49.095963
442.695251	715.758118	19726.927734	10026.632813	48.975811
443.052887	720.290527	19509.812500	9917.036133	48.946144
443.410461	718.358704	19345.158203	9826.239258	48.896652
443.768005	723.262695	19167.945313	9760.777344	48.997936
444.125458	723.931458	19087.699219	9725.706055	49.019215
444.482941	720.587708	19083.021484	9733.136719	49.081451
444.840393	717.021240	19235.414063	9823.041992	49.172844
445.197754	711.002747	19518.210938	9992.304688	49.349705
445.555084	716.129639	19865.353516	10174.124023	49.391003
445.912415	714.792175	20275.578125	10391.607422	49.470486
446.269714	720.290527	20600.207031	10534.120117	49.365551
446.626953	719.621887	20962.728516	10705.983398	49.332157
446.984161	729.281250	21298.505859	10866.031250	49.281147
447.341309	725.194580	21572.011719	11030.313477	49.432579
447.698456	726.680603	21735.775391	11120.442383	49.472675
448.055542	717.244141	21830.808594	11199.872070	49.648785
448.412598	714.272034	21764.976563	11188.354492	49.756443
448.769653	710.556946	21599.580078	11136.640625	49.911781
449.126617	724.005676	21261.205078	10958.387695	49.833385
449.483582	732.253357	20992.673828	10818.847656	49.784725
449.840515	736.191406	20642.037109	10633.536133	49.720795
450.197388	717.244202	20372.021484	10532.708008	49.939327
450.554230	711.077148	20125.783203	10407.507813	49.943741
450.911041	706.916199	19946.044922	10324.511719	49.989765
451.267822	720.290588	19784.437500	10240.104492	49.935692
451.624573	724.005676	19569.925781	10156.141602	50.048687
451.981262	731.213135	19399.326172	10079.684570	50.077217
452.337921	731.881836	19269.371094	9991.487305	49.950703
452.694580	733.665039	19229.097656	9986.954102	50.030128
453.051147	722.073792	19233.927734	9998.620117	50.111385
453.407715	717.987122	19135.996094	9976.551758	50.269081
453.764221	717.912903	19161.037109	9956.043945	50.089836
454.120728	721.999512	18907.146484	9862.348633	50.262722
454.477142	725.714661	18824.669922	9840.800781	50.362499
454.833557	719.101746	18566.244141	9757.061523	50.640934
455.189911	725.937683	18412.064453	9655.786133	50.490696
455.546265	722.965515	18215.980469	9554.289063	50.484852
455.902557	728.463867	18075.623047	9464.754883	50.361504
456.258820	727.052063	18082.533203	9474.339844	50.400726
456.615051	730.692932	18162.855469	9524.866211	50.447975
456.971252	721.628113	18136.552734	9543.590820	50.657486
457.327393	714.197754	18329.888672	9665.595703	50.814915
457.683502	708.402161	18574.492188	9794.213867	50.855064
458.039612	717.987122	19070.982422	10044.315430	50.816380
458.395630	727.126404	19546.371094	10283.421875	50.779381
458.751648	724.822998	20077.041016	10549.946289	50.770008
459.107605	722.519714	20850.160156	10940.332031	50.765079
459.463562	720.067688	21588.357422	11313.777344	50.764629
459.819458	728.984070	22274.099609	11672.585938	50.793888
460.175323	734.482422	22830.697266	11969.127930	50.844208
460.531158	732.327637	23387.970703	12254.153320	50.856319
460.886932	727.869446	23724.859375	12417.174805	50.829720
461.242676	716.724060	23833.337891	12469.557617	50.841503
461.598419	715.981018	23553.443359	12361.743164	50.994114
461.954102	714.569275	23038.750000	12116.842773	51.075886
462.309723	718.061523	22329.083984	11775.049805	51.163651
462.665344	717.392761	21610.798828	11388.526367	51.074169
463.020905	717.169922	21019.421875	11109.296875	51.187065
463.376373	713.677673	20551.166016	10883.936523	51.267876
463.731873	714.494934	20170.884766	10725.077148	51.451382
464.087341	708.773682	19892.474609	10556.559570	51.334129
464.442749	711.671448	19724.773438	10445.476563	51.195248
464.798126	707.956299	19645.341797	10382.542969	51.087238
465.153503	711.522888	19744.091797	10460.485352	51.222530
465.508820	713.677673	19846.701172	10513.241211	51.218060
465.864105	722.371033	19999.617188	10606.119141	51.271576
466.219330	724.377258	20265.324219	10727.678711	51.191490
466.574524	727.646484	20446.994141	10849.386719	51.328979
466.929657	723.188293	20643.451172	10965.819336	51.418148
467.284790	730.692932	20826.382813	11058.176758	51.391537
467.639893	727.572266	21018.455078	11144.813477	51.339516
467.994934	736.488586	21223.531250	11239.104492	51.264675
468.349945	727.498047	21236.607422	11290.297852	51.502968
468.704926	729.578430	21158.740234	11288.291992	51.684517
469.059875	725.268860	20894.220703	11159.079102	51.732044
469.414764	728.538269	20648.205078	11020.727539	51.668484
469.769653	722.519714	20468.837891	10917.892578	51.631767
470.124451	717.987244	20380.195313	10885.497070	51.710922
470.479248	717.838562	20228.396484	10798.414063	51.667282
470.834015	719.770508	20124.150391	10757.696289	51.730209
471.188721	720.959290	20183.591797	10777.089844	51.668915
471.543365	719.027527	20328.033203	10872.493164	51.779606
471.898010	722.668274	20493.580078	10939.812500	51.677658
472.252625	721.627991	20667.523438	11053.496094	51.799473
472.607178	719.324646	20925.281250	11181.074219	51.775574
472.961700	716.352539	21180.880859	11297.877930	51.706669
473.316193	716.055359	21479.207031	11442.321289	51.660103
473.670654	717.095520	21638.365234	11545.973633	51.760139
474.025055	709.145203	21848.416016	11685.959961	51.926170
474.379456	707.064758	22022.435547	11786.714844	51.979626
474.733795	714.272034	22192.812500	11863.692383	51.909576
475.088104	725.566101	22330.046875	11942.898438	51.921322
475.442383	735.894104	22335.546875	11949.958008	51.917797
475.796570	732.773438	22474.271484	12030.948242	51.965946
476.150787	726.011902	22688.781250	12140.991211	51.974228
476.504944	714.346375	23005.533203	12305.644531	51.999462
476.859070	719.027405	23314.187500	12457.371094	51.950699
477.213135	722.816895	23610.060547	12601.370117	51.900318
477.567200	731.658875	24052.755859	12838.395508	51.913235
477.921173	722.222412	24480.888672	13069.921875	51.971348
478.275146	721.776611	25045.142578	13349.152344	51.914593
478.629089	719.844727	25370.218750	13535.206055	51.988506
478.983002	726.234863	25797.013672	13787.390625	52.097130
479.336823	728.835388	26170.162109	14018.174805	52.235249
479.690643	722.371094	26684.115234	14255.497070	52.127182
480.044403	713.751953	27275.117188	14522.616211	51.988533
480.398163	709.962463	28003.953125	14895.020508	51.971359
480.751862	708.847961	28979.771484	15417.739258	52.028336
481.105499	708.922302	30167.720703	16067.739258	52.136604
481.459137	713.157471	31792.720703	16916.203125	52.134087
481.812744	720.290588	33802.464844	17978.361328	52.167278
482.166290	724.302917	36304.832031	19276.503906	52.141445
482.519806	718.953125	39245.285156	20843.250000	52.235176
482.873291	720.364929	42587.792969	22702.009766	52.502972
483.226715	719.621887	46258.871094	24849.953125	52.987988
483.580139	725.566101	49690.687500	27065.064453	53.792366
483.933502	723.262695	52789.042969	29322.156250	54.928387
484.286804	720.141907	55224.089844	31403.525391	56.295704
484.640106	716.501160	57025.406250	33173.640625	57.641216
484.993347	713.008850	58042.687500	34340.042969	58.655544
485.346558	716.724121	58219.003906	34696.472656	59.092873
485.699738	713.603333	57625.402344	34189.949219	58.821453
486.052887	715.089355	56468.582031	33048.660156	57.993801
486.405975	713.231873	55062.699219	31678.369141	56.974129
486.759064	721.999573	53642.699219	30392.041016	56.065098
487.112061	718.507324	52505.425781	29393.708984	55.371513
487.464996	723.114075	51791.746094	28776.107422	54.931946
487.817963	721.627991	51644.328125	28632.703125	54.810673
488.170868	727.052063	51678.656250	28646.078125	54.795181
488.523743	723.188416	51772.128906	28739.328125	54.880943
488.876587	722.296692	51577.011719	28627.947266	54.873280
489.229401	720.885010	51140.703125	28345.892578	54.789982
489.582153	724.748779	50393.214844	27823.322266	54.558914
489.934845	719.398926	49434.488281	27180.531250	54.318146
490.287537	716.798340	48362.230469	26501.849609	54.118618
490.640198	722.668274	47513.250000	25941.234375	53.896671
490.992798	730.395752	46930.343750	25510.500000	53.636646
491.345337	730.990173	46862.871094	25367.023438	53.403484
491.697876	724.674500	46933.386719	25412.125000	53.425968
492.050354	726.531982	47353.421875	25648.853516	53.450535
492.402832	730.172852	47527.734375	25841.669922	53.659836
492.755219	731.361633	47375.636719	25798.724609	53.741566
493.107605	725.045898	46606.011719	25412.125000	53.806797
493.459930	725.491699	45365.375000	24682.099609	53.666378
493.812225	720.216309	43587.980469	23663.560547	53.521202
494.164490	722.296814	41470.578125	22475.755859	53.384972
494.516724	721.702332	39262.519531	21258.083984	53.284760
494.868896	726.532043	37239.855469	20131.654297	53.145321
495.221039	720.885010	35654.832031	19258.669922	53.065250
495.573120	727.720886	34443.175781	18560.001953	52.890530
495.925201	725.863281	33770.292969	18167.982422	52.783840
496.277222	728.240967	33387.113281	17944.923828	52.716709
496.629211	725.863281	33347.062500	17902.275391	52.654140
496.981140	728.092346	33389.410156	17896.406250	52.564671
497.333069	731.436035	33489.871094	17945.371094	52.548100
497.684967	731.584656	33547.378906	18005.630859	52.639431
498.036804	724.600159	33564.175781	18053.109375	52.767159
498.388580	722.371033	33483.484375	17994.408203	52.721153
498.740326	717.392761	33299.359375	17904.353516	52.749920
499.092072	715.312256	32957.640625	17734.572266	52.785454
499.443756	715.683777	32581.595703	17548.294922	52.823254
499.795410	706.916199	32183.259766	17356.744141	52.896320
500.147003	711.820129	31812.412109	17143.568359	52.834198
500.498566	710.111145	31424.703125	16914.865234	52.759140
500.850098	720.216309	30950.203125	16675.833984	52.780762
501.201599	716.426819	30504.015625	16458.201172	52.846756
501.553009	714.569275	30113.630859	16285.000977	52.962341
501.904449	708.550781	29864.271484	16129.856445	52.892899
502.255859	716.798340	29647.900391	16021.301758	52.899830
502.607178	716.501221	29559.703125	15965.351563	52.868095
502.958405	724.600098	29477.599609	15912.746094	52.822823
503.309692	717.318420	29466.083984	15857.463867	52.663635
503.660919	715.163635	29495.802734	15850.925781	52.590084
504.012115	708.996582	29602.056641	15867.196289	52.463112
504.363251	715.535217	29729.111328	15956.507813	52.530487
504.714294	719.696106	29753.412109	15991.356445	52.599743
505.065369	717.615723	29733.421875	16027.914063	52.765373
505.416443	720.662109	29733.349609	16055.332031	52.855049
505.767395	720.439209	29785.287109	16072.273438	52.819248
506.118317	724.897400	29810.103516	16072.049805	52.766178
506.469238	719.398987	29816.048828	16056.297852	52.710186
506.820160	726.680664	29778.970703	16049.239258	52.741314
507.170929	727.052063	29775.328125	16042.850586	52.725330
507.521729	729.578430	29832.244141	16044.335938	52.623211
507.872498	727.200867	29944.587891	16089.511719	52.579346
508.223236	723.708557	30166.531250	16206.463867	52.585838
508.573883	726.086182	30351.396484	16315.019531	52.620323
508.924500	727.052063	30589.166016	16461.841797	52.691483
509.275116	734.185120	30781.833984	16585.183594	52.752872
509.625702	727.200684	31068.494141	16767.746094	52.867046
509.976196	722.742615	31362.287109	16912.191406	52.838413
510.326660	714.866516	31655.632813	17059.533203	52.825672
510.677124	716.352539	31942.369141	17172.250000	52.699322
511.027557	717.392761	32164.904297	17247.966797	52.565601
511.377869	716.724060	32397.919922	17357.634766	52.526142
511.728180	714.494934	32540.728516	17467.083984	52.637676
512.078430	716.872620	32657.234375	17556.693359	52.722698
512.428650	711.894348	32805.468750	17607.960938	52.646259
512.778931	722.073914	32906.890625	17639.316406	52.562805
513.129028	721.702332	32993.007813	17724.169922	52.686024
513.479126	727.275085	33024.511719	17780.791016	52.801781
513.829285	724.451477	33001.406250	17790.375000	52.873402
514.179382	723.411316	32917.367188	17739.107422	52.853695
514.529297	720.216309	32821.593750	17679.439453	52.830204
514.879272	709.145203	32804.875000	17675.798828	52.862652
515.229187	699.114258	32741.640625	17609.150391	52.773724
515.579163	708.625000	32744.318359	17614.574219	52.772228
515.928955	716.649719	32788.378906	17598.001953	52.636238
516.278748	726.829285	33040.933594	17747.501953	52.672581
516.628540	724.228577	33372.917969	17888.306641	52.572029
516.978333	726.011902	33831.738281	18193.466797	52.762638
517.327942	726.086182	34366.199219	18484.361328	52.788986
517.677612	725.194519	35012.925781	18875.046875	52.933956
518.027222	721.999512	35710.113281	19196.775391	52.803005
518.376831	721.479431	36495.339844	19610.271484	52.800545
518.726379	722.073914	37212.437500	19985.128906	52.789429
519.075867	723.262695	37797.718750	20329.076172	52.882263
519.425293	721.033630	38257.800781	20561.271484	52.855480
519.774658	723.782776	38457.828125	20694.347656	52.924522
520.124084	725.120300	38453.890625	20713.814453	52.979977
520.473389	729.801331	38099.238281	20566.101563	53.081615
520.822693	721.702332	37712.863281	20353.595703	53.071850
521.171997	714.717834	37260.957031	20076.966797	52.980141
521.521240	709.813904	36795.226563	19860.597656	53.070705
521.870361	714.940735	36352.828125	19585.603516	52.951126
522.219482	724.451477	35959.765625	19373.171875	52.926224
522.568604	726.903564	35767.843750	19195.068359	52.704533
522.917664	727.943787	35598.359375	19102.337891	52.693363
523.266724	723.559875	35689.972656	19101.447266	52.558681
523.615662	713.751953	35912.289063	19219.513672	52.575367
523.964600	710.408264	36363.753906	19490.123047	52.673080
524.313538	710.779785	36917.011719	19838.529297	52.829994
524.662354	724.897278	37667.546875	20250.462891	52.853725
525.011169	730.024231	38633.253906	20754.607422	52.830811
525.359985	727.423645	39797.800781	21330.529297	52.733315
525.708740	715.386536	41108.722656	22059.216797	52.839977
526.057434	719.398926	42569.886719	22858.343750	52.900089
526.406067	721.405090	44206.109375	23789.798828	53.049446
526.754700	727.349365	46012.781250	24814.728516	53.190125
527.103333	716.278259	47955.500000	26012.490234	53.549171
527.451782	714.420654	49967.910156	27390.134766	54.160053
527.800293	715.906738	51953.730469	28822.619141	54.855400
528.148743	716.426758	53840.343750	30343.669922	55.770061
528.497131	713.751953	55501.156250	31812.634766	56.762833
528.845642	710.779785	56874.718750	33111.074219	57.688789
529.193909	712.785950	57932.125000	34239.062500	58.592564
529.542175	713.083191	58646.390625	35066.050781	59.297440
529.890503	712.340149	58896.050781	35436.300781	59.679867
530.238770	709.591003	58652.261719	35227.367188	59.572292
530.586914	715.758118	57919.488281	34463.906250	58.996410
530.934998	713.528992	56776.714844	33409.996094	58.320744
531.283142	715.758118	55356.640625	32113.859375	57.462654
531.631226	715.015137	53756.011719	30699.359375	56.530506
531.979248	726.309082	52130.863281	29304.173828	55.594032
532.327148	730.024231	50695.484375	28115.406250	54.808628
532.675110	730.247131	49596.105469	27295.625000	54.363880
533.023071	724.674500	49119.300781	26895.951172	54.078892
533.370850	726.457703	49024.562500	26755.593750	53.892666
533.718689	727.349304	49279.203125	26848.992188	53.801533
534.066467	728.018066	49464.437500	26991.281250	53.888374
534.414246	721.999512	49549.292969	27111.353516	54.046318
534.761963	711.597168	49398.902344	27082.005859	54.162800
535.109619	706.544617	49027.832031	26873.140625	54.151279
535.457153	705.504333	48398.785156	26493.007813	54.069469
535.804749	712.191589	47598.546875	25979.796875	53.891171
536.152344	712.860291	46705.355469	25411.679688	53.701847
536.499817	714.717834	45748.558594	24826.843750	53.542236
536.847229	713.454773	44815.386719	24263.775391	53.399746
537.194641	711.448547	43984.980469	23722.259766	53.175255
537.542114	710.185364	43396.207031	23305.125000	52.932877
537.889404	711.448547	42876.160156	22987.775391	52.831684
538.236694	712.265930	42388.218750	22764.718750	52.914093
538.583984	716.649719	41933.855469	22548.943359	52.968880
538.931213	717.987244	41654.105469	22389.117188	52.938900
539.278381	726.309082	41486.031250	22291.187500	52.907326
539.625488	727.497986	41543.316406	22293.492188	52.837341
539.972595	725.937561	41887.710938	22455.767578	52.791286
540.319641	721.702332	42638.394531	22820.818359	52.721516
540.666687	717.912903	43651.957031	23376.974609	52.776447
541.013611	722.148193	45011.546875	24118.142578	52.825268
541.360596	721.107910	46404.722656	24944.390625	53.024010
541.707458	722.445313	47856.449219	25824.283203	53.256325
542.054260	717.541321	48988.082031	26603.718750	53.627281
542.401062	715.089355	49945.843750	27252.603516	53.904343
542.747864	715.758118	50412.832031	27607.173828	54.110661
543.094666	713.900574	50363.199219	27633.552734	54.219604
543.441284	710.408386	49743.667969	27275.859375	54.178432
543.787903	711.225647	48741.769531	26669.031250	54.044373
544.134460	713.008972	47433.375000	25866.634766	53.838673
544.481079	716.278259	45981.347656	24952.634766	53.543179
544.827637	710.185364	44413.707031	23963.890625	53.207851
545.174072	711.002686	42742.046875	22951.591797	52.914677
545.520508	716.649719	41333.191406	22123.115234	52.703808
545.866943	723.857117	40076.878906	21441.611328	52.645901
546.213318	729.578430	39211.847656	20922.529297	52.473389
546.559631	723.857117	38403.656250	20482.806641	52.439102
546.905823	716.872742	37723.710938	20077.634766	52.316711
547.252136	713.231750	37203.667969	19790.306641	52.279652
547.598389	716.426819	36660.738281	19508.179688	52.280182
547.944458	723.485596	36239.148438	19279.474609	52.247337
548.290588	722.073914	35674.964844	18960.791016	52.180855
548.636658	719.993347	35085.074219	18636.906250	52.136971
548.982727	716.946960	34284.613281	18265.169922	52.277157
549.328735	724.451477	33481.769531	17913.419922	52.473675
549.674622	726.680603	32613.396484	17444.345703	52.428307
550.020569	729.504150	31813.306641	17016.140625	52.395897
550.366455	720.959290	30980.890625	16525.521484	52.229340
550.712280	722.742493	30262.904297	16148.284180	52.218880
551.058044	715.683777	29716.630859	15858.800781	52.215939
551.403748	714.866455	29301.796875	15632.252930	52.182541
551.749512	707.361816	29050.505859	15488.997070	52.152416
552.095154	709.516602	28852.562500	15353.246094	52.033207
552.440735	708.030579	28786.062500	15330.659180	52.078541
552.786316	715.015137	28727.365234	15311.265625	52.106483
553.131897	724.377258	28738.062500	15297.890625	52.022835
553.477417	729.281250	28747.720703	15295.959961	51.989616
553.822815	731.956116	28731.820313	15289.643555	51.991997
554.168213	725.343201	28706.931641	15259.328125	51.941246
554.513672	726.234802	28579.427734	15193.643555	51.941654
554.859009	721.925232	28405.412109	15081.000000	51.868740
555.204285	720.736389	28153.005859	14961.149414	51.911175
555.549500	721.479492	27859.804688	14822.649414	51.960358
555.894714	722.073914	27530.791016	14679.170898	52.061787
556.239990	719.696106	27237.669922	14520.906250	52.044735
556.585022	718.210144	26924.630859	14356.473633	52.041691
556.930115	719.621887	26641.242188	14187.659180	51.956772
557.275146	720.513489	26302.349609	14035.635742	52.049126
557.620178	719.993347	26114.509766	13939.709961	52.057369
557.965149	720.364929	25931.724609	13839.476563	52.036510
558.310059	720.736389	25795.304688	13753.730469	51.976944
558.654968	718.730164	25604.718750	13641.608398	51.928329
558.999756	712.934570	25444.818359	13590.488281	52.068634
559.344604	718.655945	25361.154297	13550.141602	52.070553
559.689331	718.061523	25304.537109	13494.191406	51.964054
560.033997	718.878845	25274.591797	13414.018555	51.699333
560.378723	717.764343	25235.656250	13404.135742	51.743317
560.723389	721.256531	25217.375000	13397.523438	51.748062
561.067932	726.977783	25282.166016	13443.218750	51.786373
561.412476	726.309082	25308.250000	13426.055664	51.662910
561.757019	720.290527	25333.437500	13438.093750	51.670773
562.101501	721.479309	25311.369141	13449.238281	51.760128
562.445862	719.473206	25288.859375	13422.265625	51.701706
562.790222	725.937561	25265.599609	13407.851563	51.679253
563.134644	718.581604	25224.658203	13379.022461	51.662453
563.478943	718.953125	25214.328125	13392.471680	51.738415
563.823181	718.581604	25212.177734	13384.075195	51.709408
564.167358	721.851013	25260.546875	13407.034180	51.694614
564.511536	719.844788	25373.857422	13416.991211	51.501339
564.855774	716.649719	25425.945313	13435.270508	51.473022
565.199768	717.244141	25544.234375	13475.617188	51.389126
565.543823	718.061523	25647.367188	13540.631836	51.435730
565.887817	716.129639	25920.726563	13704.023438	51.529858
566.231812	712.563049	26152.404297	13813.618164	51.498177
566.575745	710.333984	26363.869141	13936.440430	51.556664
566.919617	712.117249	26558.912109	14015.348633	51.469559
567.263428	714.569336	26700.460938	14083.485352	51.446827
567.607239	714.792175	26813.103516	14161.058594	51.521599
567.950989	719.993347	26784.052734	14156.897461	51.553383
568.294678	724.080017	26765.921875	14163.286133	51.606205
568.638367	727.572266	26640.646484	14105.776367	51.627235
568.981995	719.027344	26514.554688	14002.867188	51.496677
569.325623	711.894287	26298.630859	13916.601563	51.607624
569.669128	711.076965	26139.994141	13807.303711	51.501312
570.012573	709.070801	26005.431641	13744.221680	51.529743
570.356140	713.974792	26009.890625	13710.414063	51.377621
570.699524	714.643555	25979.873047	13678.239258	51.310024
571.042908	720.216309	26053.359375	13728.914063	51.350506
571.386230	714.197754	26162.583984	13745.112305	51.205265
571.729492	711.671448	26396.931641	13823.649414	51.048645
572.072815	711.671448	26572.361328	13901.964844	51.005188
572.416016	719.547546	26711.603516	13970.620117	50.981239
572.759094	722.965515	26827.515625	14061.864258	51.097980
573.102234	720.067688	26917.943359	14089.727539	51.033375
573.445374	711.820007	26942.912109	14108.081055	51.070160
573.788391	709.442322	26909.919922	14112.019531	51.153942
574.131409	710.556946	26871.132813	14097.379883	51.171745
574.474365	715.460938	26788.804688	14069.516602	51.217274
574.817261	717.987122	26673.193359	13973.071289	51.069073
575.160156	729.801270	26481.119141	13843.785156	50.925488
575.502930	735.299744	26263.263672	13726.906250	50.891666
575.845703	730.172852	26047.115234	13611.588867	50.880615
576.188477	728.538269	25803.998047	13491.516602	50.898285
576.531250	730.395752	25528.111328	13349.152344	50.886772
576.873901	737.974609	25208.240234	13210.652344	50.970749
577.216431	730.767273	24893.791016	13043.991211	50.958954
577.559082	720.439148	24575.998047	12870.346680	50.931137
577.901611	713.974792	24189.103516	12666.088867	50.913944
578.244080	708.030579	23841.218750	12512.355469	51.027664
578.586487	717.169861	23502.992188	12350.078125	51.053272
578.928955	723.411316	23186.240234	12200.952148	51.095707
579.271301	730.098572	22817.843750	12031.914063	51.167809
579.613647	722.742493	22393.726563	11825.351563	51.232601
579.955872	720.216309	22030.234375	11613.515625	51.118206
580.298157	724.005676	21720.466797	11426.941406	50.974949
580.640320	727.349304	21478.984375	11274.250000	50.824432
580.982483	724.228577	21207.632813	11141.098633	50.855171
581.324524	719.547546	20990.890625	11053.569336	50.978474
581.666626	715.832336	20819.029297	10984.691406	51.080727
582.008728	714.940735	20737.591797	10945.459961	51.094730
582.350647	716.055359	20621.308594	10863.428711	50.978367
582.692566	721.182190	20539.054688	10795.219727	50.833088
583.034424	723.114075	20423.589844	10725.820313	50.773930
583.376343	721.107910	20302.029297	10661.995117	50.768227
583.718201	720.439209	20229.658203	10620.311523	50.744583
584.059937	728.835388	20148.521484	10598.019531	50.820518
584.401611	731.064453	20070.427734	10568.448242	50.867153
584.743347	732.699158	19971.902344	10512.719727	50.833813
585.085022	724.080078	19851.085938	10445.328125	50.824726
585.426514	725.491699	19758.876953	10395.916992	50.807705
585.768127	720.587708	19669.341797	10351.483398	50.826008
586.109619	720.141907	19609.974609	10297.316406	50.700157
586.451172	719.101746	19580.921875	10261.502930	50.591095
586.792542	715.163757	19535.300781	10240.103516	50.610363
587.133850	716.649719	19515.164063	10243.299805	50.677677
587.475220	715.906738	19488.861328	10230.221680	50.680962
587.816589	723.782898	19438.185547	10223.088867	50.759331
588.157776	730.172852	19500.005859	10212.759766	50.520363
588.498962	733.293640	19574.009766	10249.242188	50.507359
588.840210	730.247131	19696.017578	10269.454102	50.296967
589.181335	724.005798	19722.841797	10296.277344	50.383465
589.522400	722.148193	19751.150391	10288.326172	50.271568
589.863403	726.903564	19799.669922	10335.285156	50.377495
590.204407	729.281250	19784.064453	10326.220703	50.364990
590.545410	729.355469	19869.810547	10357.056641	50.300274
590.886353	727.349365	19853.908203	10321.242188	50.160057
591.227112	723.336975	19857.996094	10325.403320	50.181541
591.567932	719.398926	19725.662109	10275.173828	50.276981
591.908752	717.764343	19618.666016	10216.252930	50.254154
592.249512	720.513489	19575.421875	10186.457031	50.204132
592.590149	718.804504	19486.927734	10156.958008	50.288212
592.930786	715.089355	19427.189453	10132.958008	50.330372
593.271423	711.894348	19328.144531	10086.891602	50.359215
593.612000	716.129639	19269.964844	10032.427734	50.212246
593.952576	720.587830	19285.123047	10018.904297	50.086449
594.292969	722.073914	19323.390625	10031.907227	50.049324
594.633484	730.247253	19415.748047	10062.148438	49.941940
594.973877	725.863281	19510.482422	10103.684570	49.922871
595.314209	726.086182	19645.861328	10155.770508	49.840363
595.654480	710.705566	19848.560547	10261.875000	49.907211
595.994812	718.135925	20040.484375	10362.555664	49.913292
596.335022	717.912903	20308.494141	10479.582031	49.828377
596.675171	722.296692	20473.076172	10563.915039	49.829010
597.015320	715.535156	20658.978516	10649.585938	49.811111
597.355408	719.844727	20747.029297	10692.682617	49.796509
597.695496	716.575500	20830.990234	10740.235352	49.833221
598.035461	719.919128	20797.851563	10765.126953	50.031090
598.375366	716.352539	20758.248047	10742.315430	50.025024
598.715271	718.432922	20657.267578	10675.591797	49.938522
599.055176	722.148132	20452.341797	10546.899414	49.795513
599.395081	727.349365	20159.814453	10403.719727	49.794868
599.734802	727.126465	19815.271484	10231.782227	49.793507
600.074524	723.114075	19472.439453	10062.744141	49.813148
600.414246	717.764343	19068.603516	9857.296875	49.804436
600.753906	715.832458	18687.357422	9670.721680	49.828213
601.093506	713.900574	18361.912109	9503.020508	49.802326
601.433044	715.312317	18170.656250	9400.260742	49.755241
601.772583	723.559875	18061.283203	9315.257813	49.554939
602.112122	727.720886	18019.226563	9297.202148	49.558907
602.451538	727.497986	18022.494141	9320.385742	49.684242
602.790894	724.748779	18116.267578	9383.541992	49.787445
603.130310	719.844727	18325.429688	9445.510742	49.561916
603.469604	725.194580	18598.865234	9563.503906	49.448769
603.808838	723.336975	18903.949219	9705.941406	49.407604
604.148010	727.423645	19224.566406	9860.416992	49.375156
604.487305	722.073914	19531.287109	9973.952148	49.188011
604.826416	725.120300	19806.728516	10086.445313	49.059418
605.165527	719.993347	20005.783203	10176.946289	49.035862
605.504456	721.405090	20164.568359	10264.177734	49.080349
605.843445	716.946960	20204.544922	10305.788086	49.204838
606.182434	714.940735	20145.845703	10312.697266	49.394287
606.521423	715.089355	19978.515625	10243.521484	49.463848
606.860229	715.980957	19749.439453	10109.331055	49.351772
607.199036	721.925232	19504.167969	9974.100586	49.260231
607.537903	715.312317	19256.443359	9823.489258	49.124172
607.876648	711.374268	18940.656250	9682.610352	49.213329
608.215271	707.361877	18650.353516	9556.147461	49.316105
608.553955	709.219482	18351.804688	9421.064453	49.379635
608.892578	719.473328	18196.437500	9323.728516	49.231976
609.231140	721.776672	18100.291016	9236.274414	48.994396
609.569641	724.080078	18041.962891	9206.032227	48.977997
609.908081	725.789063	18037.060547	9202.094727	48.964085
610.246521	722.816895	17995.451172	9201.277344	49.086090
610.584961	730.767273	18020.935547	9203.432617	49.002792
610.923340	724.823059	17966.099609	9179.878906	49.039612
611.261597	727.126465	17905.023438	9112.411133	48.814388
611.599854	719.027344	17755.453125	9040.412109	48.844662
611.938110	719.993347	17623.044922	8957.788086	48.735550
612.276245	725.714661	17394.490234	8850.569336	48.742958
612.614319	723.336975	17088.957031	8714.148438	48.826817
612.952393	721.702332	16708.677734	8534.113281	48.867348
613.290466	713.454773	16369.036133	8380.083984	48.970585
613.628479	719.919128	16038.539063	8212.530273	48.911789
613.966370	722.296692	15777.661133	8070.538574	48.808128
614.304260	722.891113	15532.834961	7942.291504	48.746983
614.642151	720.662109	15339.573242	7839.382813	48.695286
614.979980	724.228516	15142.968750	7752.671875	48.745197
615.317749	723.114075	14995.477539	7665.736816	48.643818
615.655396	721.330811	14879.789063	7618.183594	48.711891
615.993164	722.519714	14831.714844	7592.994629	48.695019
616.330811	724.971680	14781.487305	7575.459473	48.735321
616.668396	730.024231	14779.406250	7542.691895	48.490871
617.005859	723.634094	14754.960938	7508.958496	48.358391
617.343445	720.290588	14722.936523	7480.946777	48.281277
617.680908	720.587830	14700.792969	7489.564941	48.418297
618.018311	723.485596	14719.815430	7494.171875	48.374729
618.355652	728.315247	14749.386719	7517.577637	48.421852
618.692993	725.343201	14743.739258	7493.132324	48.277912
619.030273	723.559875	14730.069336	7484.884766	48.272732
619.367554	732.773438	14690.168945	7458.953125	48.190792
619.704712	734.556702	14662.082031	7438.296875	48.133034
620.041870	740.798157	14606.281250	7412.736816	48.119045
620.379028	732.253357	14552.485352	7393.492188	48.199181
620.716064	733.367859	14501.809570	7357.678223	48.112278
621.053040	731.658875	14426.319336	7303.289063	47.986809
621.389954	730.618652	14382.851563	7254.471191	47.785976
621.726929	727.943787	14294.729492	7236.787598	47.976315
622.063843	728.686829	14243.460938	7228.688965	48.095528
622.400635	725.863281	14202.221680	7217.246094	48.168671
622.737427	725.417480	14174.432617	7201.642578	48.153896
623.074219	716.798340	14113.132813	7170.138184	48.172432
623.410889	715.460876	14041.950195	7132.912598	48.155605
623.747559	713.380371	14027.460938	7119.166504	48.112869
624.084167	720.290527	13994.545898	7098.510254	48.049545
624.420715	723.411316	13991.573242	7103.339844	48.084496
624.757324	721.999512	14008.812500	7068.492188	47.765350
625.093750	719.398926	14079.102539	7098.213379	47.746677
625.430176	725.045959	14141.293945	7111.067871	47.599163
625.766602	729.726990	14200.958008	7148.218750	47.645916
626.102905	726.680664	14281.949219	7171.921875	47.547867
626.439209	718.953125	14409.156250	7207.066406	47.392380
626.775452	711.597168	14528.856445	7261.010254	47.400230
627.111694	717.690002	14629.239258	7284.490234	47.203949
627.447876	720.885010	14709.784180	7316.960938	47.152218
627.783997	729.875671	14753.918945	7333.307129	47.086506
628.120056	732.476257	14819.752930	7372.835938	47.137287
628.456055	734.110840	14800.804688	7343.115234	46.983353
628.792053	729.281250	14751.468750	7315.251465	46.968208
629.128052	718.953125	14658.664063	7248.824707	46.843666
629.463928	712.414551	14564.226563	7222.001465	46.994476
629.799744	711.151367	14459.606445	7152.157715	46.848946
630.135559	715.609436	14319.768555	7093.234863	46.879967
630.471375	716.055359	14150.877930	7002.140137	46.789490
630.807068	720.662048	13967.796875	6919.664063	46.795040
631.142700	723.188293	13815.476563	6836.371094	46.693005
631.478333	728.538147	13659.292969	6770.018066	46.721790
631.813965	721.033630	13539.887695	6711.615723	46.732586
632.149475	716.426758	13392.916992	6658.415527	46.874084
632.484924	719.473145	13288.594727	6615.988770	46.912712
632.820435	734.853821	13197.945313	6565.240234	46.781219
633.155884	736.042725	13142.367188	6517.389160	46.599998
633.491150	732.847717	13098.752930	6479.568848	46.472305
633.826477	721.702332	13039.979492	6428.968750	46.331696
634.161804	721.182190	12967.458008	6407.271973	46.431179
634.497009	713.008972	12905.862305	6364.771484	46.353077
634.832153	710.333984	12842.112305	6334.678223	46.360428
635.167297	709.293762	12765.504883	6290.246094	46.291096
635.502380	715.980957	12673.445313	6249.304688	46.275059
635.837463	719.324707	12558.200195	6208.958496	46.369556
636.172424	722.593994	12468.071289	6155.905762	46.258755
636.507324	724.897278	12360.628906	6100.253418	46.196976
636.842224	725.640381	12260.246094	6032.712402	46.010002
637.177124	727.200684	12133.708008	5959.300781	45.869431
637.511963	719.176025	12011.481445	5880.614746	45.707569
637.846741	723.782898	11887.468750	5841.976563	45.846813
638.181396	724.823059	11747.112305	5788.330566	45.938801
638.516113	733.367859	11646.504883	5737.135254	45.850864
638.850769	724.451477	11541.515625	5673.829590	45.755280
639.185303	719.398926	11474.569336	5635.192871	45.706333
639.519836	716.649719	11373.739258	5593.359863	45.760242
639.854370	718.581604	11273.133789	5546.104004	45.738773
640.188843	721.256531	11142.807617	5484.357910	45.704346
640.523254	720.141907	11046.585938	5438.810547	45.694996
640.857605	724.823059	10928.592773	5390.662598	45.726624
641.191895	724.897400	10863.875000	5352.322266	45.639954
641.526184	725.343079	10792.767578	5318.068848	45.619667
641.860413	721.702332	10773.895508	5288.941895	45.435257
642.194580	715.609558	10711.628906	5258.254883	45.444546
642.528748	715.683838	10630.043945	5222.515625	45.457619
642.862793	716.203918	10571.270508	5189.599121	45.391830
643.196838	721.182312	10515.247070	5156.460449	45.285370
643.530823	725.491760	10486.566406	5117.749023	44.997684
643.864746	726.532043	10414.937500	5074.950684	44.882706
644.198669	725.789001	10371.396484	5047.012207	44.799908
644.532532	722.445374	10303.334961	5019.148438	44.846600
644.866333	722.519714	10261.577148	4998.863770	44.829838
645.200073	714.940735	10243.000977	4978.728027	44.749790
645.533813	710.185364	10241.664063	4961.861328	44.606678
645.867554	709.665283	10223.534180	4962.455566	44.700951
646.201172	716.575439	10196.338867	4948.115234	44.637611
646.534729	728.761047	10189.652344	4971.000488	44.839741
646.868225	723.114075	10214.766602	4966.021973	44.701466
647.201782	726.086182	10219.967773	4962.901855	44.626797
647.535217	720.141907	10237.131836	4958.518066	44.534836
647.868591	728.612488	10228.883789	4956.734375	44.505276
648.201965	727.869446	10232.598633	4964.981934	44.578987
648.535278	732.550476	10206.666992	4942.691406	44.438351
648.868591	729.949890	10224.500000	4934.740723	44.286366
649.201782	721.850891	10188.760742	4887.483887	44.002033
649.534912	716.872742	10162.532227	4868.537598	43.953152
649.868103	712.563171	10093.653320	4830.791504	43.899254
650.201172	717.541321	10045.429688	4828.488281	44.071568
650.534180	714.494934	9985.022461	4801.367676	44.084576
650.867188	716.055359	9937.468750	4778.036621	44.049442
651.200134	713.008850	9940.812500	4761.986816	43.878025
651.533020	716.352539	9918.521484	4727.139160	43.585232
651.865845	723.337097	9881.815430	4711.906738	43.550571
652.198608	727.052185	9822.670898	4683.002930	43.492924
652.531433	718.953125	9778.833008	4665.690430	43.562801
652.864136	714.420715	9750.597656	4636.712402	43.406540
653.196777	853.886902	9845.779297	4763.101563	43.474880
653.529358	864.066406	9821.258789	4757.899902	43.471584
653.861938	864.289246	9768.429688	4730.556641	43.421005
654.194519	721.702332	9564.096680	4536.032715	43.136848
654.526978	710.556946	9479.837891	4490.559082	43.105042
654.859375	707.436218	9414.971680	4464.702148	43.149593
655.191833	715.163757	9380.346680	4458.312012	43.197567
655.524170	720.810730	9337.102539	4443.749023	43.208126
655.856445	719.696106	9293.487305	4406.002930	42.995064
656.188660	718.804504	9264.211914	4390.845215	42.970928
656.520874	720.364929	9240.509766	4338.609863	42.466942
656.853088	717.244141	9240.211914	4350.498535	42.628983
657.185181	717.838562	9227.877930	4333.334473	42.485069
657.517212	718.953125	9247.419922	4345.223145	42.519600
657.849243	729.801270	9286.800781	4334.152344	42.121666
658.181274	728.315247	9350.997070	4358.449219	42.099827
658.513123	728.463867	9421.360352	4396.120605	42.191422
658.844971	728.686768	9511.194336	4439.290527	42.249935
659.176819	728.018066	9601.620117	4462.918457	42.090015
659.508667	725.937683	9709.135742	4497.617676	41.985935
659.840393	721.702332	9784.256836	4532.242676	42.047089
660.172058	720.513489	9832.256836	4551.710449	42.046806
660.503662	723.336975	9860.416992	4554.607910	41.931023
660.835266	723.411316	9870.374023	4538.930176	41.713505
661.166931	721.033630	9848.529297	4512.330078	41.537090
661.498413	722.519714	9799.266602	4491.079102	41.518833
661.829773	722.816895	9693.161133	4444.417480	41.487827
662.161194	725.194580	9556.964844	4401.544434	41.626419
662.492615	721.776672	9412.743164	4330.362793	41.521114
662.823975	726.532043	9236.274414	4266.388184	41.597691
663.155212	735.448425	9067.830078	4188.443848	41.440678
663.486450	732.922058	8905.775391	4104.928223	41.258614
663.817627	727.795166	8776.265625	4024.161377	40.956429
664.148743	717.987244	8649.729492	3956.322998	40.827545
664.479858	724.823059	8524.083008	3898.886719	40.696987
664.810913	729.132629	8419.984375	3854.304932	40.634933
665.141907	728.761047	8353.111328	3818.491211	40.524506
665.472778	722.519714	8273.161133	3795.011475	40.691795
665.803711	717.318420	8225.534180	3772.497314	40.691143
666.134583	718.655945	8185.558594	3744.708252	40.526203
666.465454	722.891113	8176.419434	3729.179688	40.333763
666.796143	719.547546	8136.890625	3713.427002	40.363232
667.126831	715.609558	8108.804688	3709.489014	40.495068
667.457458	713.751953	8066.526855	3680.807861	40.352875
667.788147	721.702332	8050.402832	3659.111572	40.080898
668.118774	729.801331	8019.344238	3638.530029	39.902760
668.449219	723.411316	7986.205078	3636.003906	40.102921
668.779663	718.581604	7977.288574	3620.919922	39.984234
669.110107	707.956360	7953.214844	3602.344482	39.948723
669.440552	712.563171	7948.533203	3591.347656	39.784359
669.770874	713.380432	7927.357422	3591.868164	39.901539
670.101135	718.581604	7917.846191	3583.545898	39.795235
670.431396	719.473328	7898.378906	3560.066406	39.568607
670.761597	717.987122	7851.197266	3524.401123	39.342934
671.091797	712.563049	7794.727051	3502.407471	39.392544
671.421875	713.603333	7732.461426	3482.196533	39.445068
671.751892	710.333984	7684.907715	3466.890625	39.522942
672.081909	718.655945	7653.923340	3445.045654	39.311962
672.411865	719.101746	7615.286621	3414.432861	39.084377
672.741821	722.891113	7549.230957	3381.813721	38.950928
673.071716	719.250305	7498.482422	3350.606689	38.814964
673.401550	724.005676	7457.393066	3337.083984	38.807785
673.731262	723.708557	7455.238281	3325.567139	38.651817
674.060974	722.816895	7411.845215	3306.396484	38.624138
674.390625	714.866516	7356.638184	3278.681641	38.601376
674.720276	712.637451	7284.860840	3263.524170	38.813145
675.049927	716.129639	7245.777832	3247.103271	38.761253
675.379395	718.284424	7224.378906	3237.889648	38.726845
675.708923	719.770508	7189.308594	3204.528076	38.407032
676.038330	715.683777	7143.166504	3166.856445	38.135811
676.367737	719.250305	7109.804688	3133.123047	37.772511
676.697083	719.919006	7082.089844	3109.420166	37.557953
677.026428	715.832336	7075.179688	3099.909424	37.489338
677.355652	717.467041	7043.824219	3090.918701	37.516876
677.684875	715.981018	7038.771484	3089.656006	37.541573
678.013977	725.566101	7023.910645	3090.027344	37.540993
678.343079	725.863281	7037.359375	3085.197510	37.381538
678.672180	721.405090	7055.265625	3077.321289	37.195583
679.001221	712.860291	7096.206543	3080.739502	37.094639
679.330139	708.327881	7133.357910	3101.172607	37.242542
679.659058	714.866516	7176.082520	3115.736084	37.158173
679.987976	718.730225	7230.769531	3124.057861	36.936626
680.316772	720.141907	7300.019531	3122.126221	36.505001
680.645630	715.832458	7344.972656	3135.352295	36.498245
680.974304	713.528992	7392.229004	3133.642822	36.236298
681.302979	716.278259	7417.640625	3139.810547	36.164768
681.631653	730.841553	7449.293457	3147.017578	35.963284
681.960266	731.510254	7447.732910	3152.590088	36.048237
682.288757	725.714661	7449.367188	3156.602539	36.154278
682.617249	713.157532	7444.464355	3138.992920	36.038105
682.945679	715.609558	7423.436035	3122.943359	35.888432
683.274109	721.628113	7374.322266	3089.358643	35.590549
683.602478	721.182190	7296.675781	3050.498291	35.424202
683.930725	723.559875	7181.061035	3022.857422	35.606617
684.259033	712.934570	7091.674316	3003.018799	35.901829
684.587280	715.015137	7011.725098	2973.817627	35.872742
684.915344	711.894348	6970.486816	2942.610596	35.642460
685.243469	725.714661	6903.094238	2908.208252	35.330414
685.571533	726.977844	6831.020996	2880.493408	35.280151
685.899536	729.652649	6754.711426	2839.775635	35.022449
686.227539	719.770447	6679.814453	2789.324219	34.723801
686.555420	717.541321	6644.298340	2773.646484	34.691910
686.883301	717.318542	6625.871094	2769.782471	34.737167
687.211121	716.055359	6619.628906	2778.475830	34.935116
687.538940	711.745789	6627.876465	2778.104248	34.927532
687.866638	710.705566	6623.195313	2778.550049	34.974174
688.194336	711.522888	6646.526855	2777.064209	34.802692
688.521973	715.758057	6625.127441	2761.014893	34.610409
688.849609	710.185364	6595.853027	2732.111084	34.353382
689.177063	711.968689	6555.580566	2700.978271	34.037331
689.504578	709.813904	6505.574219	2666.278564	33.756824
689.832031	718.210144	6454.454590	2647.406006	33.631687
690.159485	720.364929	6370.121094	2630.539307	33.809853
690.486816	724.228577	6276.351074	2615.975830	34.072506
690.814087	723.708496	6181.243652	2588.483887	34.168819
691.141296	722.816833	6079.076660	2552.372803	34.157341
691.468506	724.451477	6006.483887	2506.602539	33.739876
691.795715	718.953125	5937.010254	2468.113525	33.521297
692.122803	720.067688	5877.345215	2441.438965	33.377522
692.449829	722.445313	5799.327637	2415.358643	33.345531
692.776855	726.606262	5729.705566	2392.547852	33.298195
693.103821	730.172852	5671.154785	2363.643799	33.059643
693.430664	725.045898	5628.060059	2345.365479	33.047417
693.757568	724.080017	5587.267578	2335.780518	33.140823
694.084351	716.501160	5534.215332	2319.508057	33.273182
694.411133	719.993347	5493.720215	2298.628906	33.069244
694.737854	716.946960	5432.420410	2263.781006	32.803364
695.064575	718.655945	5399.578613	2246.617188	32.642307
695.391174	714.792175	5373.795410	2236.809326	32.668297
695.717773	715.535156	5367.925293	2231.459229	32.583771
696.044250	717.169922	5354.997559	2221.131104	32.428139
696.370789	720.141907	5346.526855	2226.852539	32.567776
696.697205	717.615723	5382.043457	2239.112549	32.619152
697.023621	711.968689	5443.565918	2259.248779	32.701008
697.349915	712.414551	5513.187988	2264.524170	32.330406
697.676208	713.008972	5573.149902	2273.440674	32.106716
698.002380	719.176025	5661.347656	2289.192627	31.767746
698.328674	718.284363	5790.708496	2316.684570	31.511562
698.654724	717.541321	5899.859375	2343.062256	31.366678
698.980896	718.804504	6012.427734	2362.232178	31.045424
699.306946	721.702332	6087.770020	2382.814209	30.955849
699.632935	727.943787	6173.069824	2399.383545	30.696070
699.958862	720.587830	6183.695313	2402.578613	30.788168
700.284729	725.491760	6175.299316	2392.993408	30.597443
700.610596	718.581726	6130.866699	2375.086182	30.606377
700.936340	728.761047	6060.501465	2353.018555	30.463928
701.262146	719.696228	5939.165527	2302.938477	30.333395
701.587830	724.748718	5789.964844	2258.431396	30.278719
701.913513	717.318420	5641.359375	2207.979736	30.273130
702.239075	719.176086	5491.564941	2171.274170	30.427073
702.564697	721.999512	5359.009277	2125.280518	30.262629
702.890137	718.432922	5217.833984	2078.841553	30.235331
703.215698	718.358704	5097.092285	2049.194580	30.393171
703.541016	719.919128	4988.535645	2006.470703	30.139776
703.866455	721.850891	4919.285645	1969.022095	29.712700
704.191711	713.380432	4836.289551	1928.081177	29.462223
704.517029	707.584778	4768.525879	1908.093872	29.562336
704.842163	720.959290	4698.309082	1887.066284	29.318691
705.167419	729.058289	4653.133301	1880.601929	29.345610
705.492493	734.631042	4616.056641	1862.917969	29.068878
705.817566	726.977844	4565.159668	1854.670288	29.380899
706.142578	726.383362	4536.478516	1832.453735	29.029991
706.467590	725.566101	4513.444824	1826.880981	29.074715
706.792480	721.479492	4520.429199	1817.444702	28.849163
707.117371	717.541321	4518.497070	1814.249512	28.853485
707.442200	717.021301	4524.589844	1806.893555	28.623838
707.766907	717.169861	4514.112793	1811.054565	28.809618
708.091675	716.872620	4523.771973	1799.909058	28.449305
708.416321	717.615662	4517.531250	1792.999023	28.300190
708.741028	714.866455	4545.766113	1786.608887	27.976259
709.065552	723.559875	4564.268066	1787.649048	27.705544
709.390137	717.764343	4594.434570	1788.540649	27.621033
709.714600	723.336975	4609.072266	1795.005005	27.579540
710.039063	721.925232	4633.740723	1807.562378	27.752771
710.363403	730.470032	4649.789551	1818.484741	27.760294
710.687744	727.646545	4711.312500	1818.336304	27.379045
711.012085	724.377258	4747.646973	1818.187622	27.187098
711.336304	725.045959	4799.212891	1822.422852	26.935001
711.660461	725.491882	4805.305664	1831.265015	27.103521
711.984619	727.646545	4836.363770	1840.701538	27.090084
712.308716	724.080017	4845.875000	1840.255493	27.079842
712.632751	726.234863	4835.397949	1829.778809	26.855686
712.956726	727.126465	4798.246582	1826.360840	27.000784
713.280701	724.748779	4756.042969	1816.924438	27.092432
713.604553	727.869446	4716.142090	1801.692383	26.924513
713.928467	726.160461	4671.337891	1769.816528	26.453968
714.252258	727.869446	4610.409668	1739.723999	26.061663
714.575989	727.423645	4547.177734	1721.222656	26.017355
714.899719	728.909668	4485.877930	1709.705566	26.106047
715.223267	733.442139	4448.949707	1703.241211	26.101389
715.546936	730.692932	4409.123047	1689.941040	26.077648
715.870422	724.748779	4380.739746	1677.309570	26.054790
716.193970	716.872742	4352.058594	1653.384155	25.762409
716.517395	716.575439	4327.836426	1639.860962	25.566845
716.840820	721.182190	4296.331543	1620.839478	25.164186
717.164124	720.513489	4257.471191	1620.319336	25.440107
717.487488	723.411316	4211.255371	1605.458862	25.289192
717.810730	719.398926	4181.683105	1597.211304	25.353561
718.133972	724.451477	4131.603027	1586.437378	25.299311
718.457092	720.885010	4088.209717	1579.824585	25.508070
718.780212	723.262695	4033.151367	1561.694702	25.331123
719.103210	722.148132	3975.715820	1548.617310	25.401936
719.426208	721.033508	3938.712891	1536.803223	25.352734
719.749207	717.244141	3888.484375	1527.366699	25.545921
720.072083	715.758118	3844.943115	1506.413452	25.267132
720.394958	708.550720	3795.382813	1481.298950	25.033699
720.717773	708.847961	3720.634033	1460.940063	24.971630
721.040527	705.875793	3677.315674	1446.896851	24.938114
721.363281	717.615723	3645.217041	1437.906250	24.603436
721.685913	720.290527	3634.666016	1422.228394	24.085361
722.008545	722.519714	3607.842773	1409.299683	23.802534
722.331055	715.609558	3560.809326	1402.538208	24.143425
722.653503	719.250305	3532.425781	1402.092407	24.273001
722.976013	720.290527	3512.512451	1396.965454	24.234282
723.298401	727.943665	3510.283447	1386.340210	23.663412
723.620789	724.302917	3502.333008	1384.556763	23.766979
723.943115	726.977844	3481.305420	1377.646606	23.623507
724.265381	719.770508	3463.398438	1366.352905	23.566694
724.587585	716.575439	3466.742188	1349.485962	23.013533
724.909790	714.569336	3486.135010	1345.027710	22.747374
725.231873	719.398987	3483.460205	1347.554077	22.725801
725.553894	721.925232	3492.302490	1355.727417	22.877831
725.875916	768.884583	3534.505859	1403.949829	22.962841
726.197937	766.804138	3540.747314	1402.835449	22.928780
726.519775	768.513000	3531.756836	1404.024292	22.998741
726.841675	727.200745	3505.305420	1355.578979	22.618954
727.163513	726.383484	3525.069580	1364.272339	22.792440
727.485291	724.302917	3558.208740	1369.324829	22.760881
727.806946	720.067688	3598.480469	1370.588013	22.599966
728.128662	716.575439	3617.873779	1372.445679	22.606094
728.450256	714.866516	3632.139893	1352.681030	21.863379
728.771790	711.077087	3609.848877	1352.235229	22.118269
729.093323	712.637390	3610.220703	1346.142456	21.863222
729.414795	717.318542	3597.737549	1362.414673	22.395914
729.736145	714.123474	3587.409424	1359.591187	22.464445
730.057495	717.095642	3591.867920	1347.256958	21.920391
730.378845	715.832458	3612.524170	1340.792603	21.574963
730.700134	715.981018	3631.396729	1340.792603	21.431303
731.021301	707.733398	3632.511475	1343.541870	21.738691
731.342468	708.847961	3622.034424	1332.173462	21.396690
731.663574	714.123535	3612.152344	1323.108643	21.013769
731.984680	720.067688	3626.418701	1321.994019	20.710724
732.305664	718.953125	3636.375244	1322.811401	20.698351
732.626648	719.696106	3673.080811	1325.708984	20.519266
732.947571	725.045898	3674.343750	1326.972290	20.409142
733.268433	728.389648	3680.362549	1331.653320	20.435949
733.589233	728.166687	3649.675781	1328.606934	20.552401
733.909973	723.559875	3629.167969	1319.765015	20.519117
734.230713	725.120300	3577.676025	1307.802124	20.426659
734.551331	722.519714	3541.416260	1295.542114	20.327898
734.871948	726.532043	3497.949463	1285.734253	20.177481
735.192505	720.810730	3462.506836	1269.239014	20.003248
735.513062	726.086182	3423.944092	1259.505493	19.771957
735.833435	719.324646	3373.714844	1244.050415	19.768223
736.153931	718.730225	3324.600830	1239.295044	19.976618
736.474304	719.250305	3269.988281	1230.898926	20.058846
736.794617	727.572266	3228.378906	1224.508911	19.871054
737.114807	725.788879	3205.567627	1222.651367	20.036564
737.434998	717.541321	3210.992188	1203.629761	19.494606
737.755188	716.501160	3209.729248	1199.840332	19.386080
738.075256	720.810730	3219.091064	1186.540283	18.642006
738.395325	719.919128	3215.970459	1198.354370	19.167685
738.715271	713.083191	3238.558350	1205.636108	19.503376
739.035278	713.380432	3259.139893	1214.329468	19.677784
739.355164	715.312317	3270.211182	1211.951660	19.438707
739.675049	718.433044	3278.012939	1209.573975	19.188341
739.994873	720.810730	3266.644775	1201.400757	18.877508
740.314636	719.101746	3259.957764	1198.874390	18.882324
740.634277	715.683838	3235.660889	1189.586548	18.805834
740.953979	711.448547	3209.283203	1185.945679	18.996338
741.273499	717.467041	3187.438232	1179.481323	18.705250
741.593140	723.708496	3148.429443	1172.571289	18.511936
741.912598	724.822998	3111.054932	1174.874634	18.860348
742.232117	723.931396	3048.120361	1168.633179	19.133633
742.551453	725.491760	3017.879150	1158.007935	18.867498
742.870850	726.532043	2986.523438	1143.221680	18.437664
743.190063	727.869446	2953.830322	1127.320923	17.945126
743.509338	722.965515	2912.072266	1117.364380	18.016430
743.828552	724.748718	2879.676514	1108.670898	17.816011
744.147705	724.005676	2861.100586	1102.206543	17.696960
744.466797	731.881836	2846.760010	1102.132202	17.506935
744.785828	728.389587	2811.169189	1099.457397	17.815990
745.104858	723.634216	2785.609131	1097.376831	18.125469
745.423706	721.999512	2757.671143	1083.333618	17.750118
745.742615	719.696106	2747.343018	1069.736328	17.263371
746.061401	723.039795	2734.934570	1066.392700	17.066147
746.380249	717.912903	2735.231689	1066.169800	17.263353
746.698975	718.210144	2725.869873	1065.129639	17.279797
747.017639	710.185364	2724.458008	1067.655884	17.746878
747.336304	712.711731	2705.362305	1071.296631	17.995373
747.654907	708.104980	2697.263428	1069.736206	18.180111
747.973389	716.724060	2685.523438	1069.067505	17.896362
748.291931	715.758118	2689.981689	1071.370972	18.012794
748.610352	722.222473	2694.737061	1072.931274	17.779781
748.928711	719.844788	2706.476807	1071.370972	17.694578
749.247070	715.237976	2704.322021	1058.739380	17.269327
749.565308	717.838562	2700.012207	1055.692993	17.044643
749.883545	712.563049	2682.327881	1044.176147	16.835161
750.201782	715.015076	2676.086670	1048.262817	16.993145
750.519836	715.460876	2668.879395	1051.012085	17.177641
750.837952	719.027405	2664.718506	1043.135986	16.657761
751.155884	715.386536	2648.371826	1026.640625	16.102247
751.473877	711.671387	2632.619873	1013.934875	15.735117
751.791809	713.306152	2616.570313	1019.804871	16.103846
752.109619	711.151367	2616.198975	1026.714966	16.564604
752.427490	711.448547	2610.180420	1025.749146	16.553185
752.745300	709.516663	2609.362793	1025.377563	16.625605
753.062988	717.169861	2605.052979	1034.071045	16.786060
753.380615	717.244141	2600.298096	1026.715088	16.434525
753.698303	717.244141	2591.084473	1019.284729	16.118801
754.015808	722.668274	2575.926758	1004.572815	15.211290
754.333374	725.417480	2579.567383	1008.436523	15.264087
754.650757	729.652649	2570.279785	1010.591309	15.263203
754.968262	729.058289	2568.273682	1010.665588	15.311274
755.285583	728.909668	2548.137695	1007.693542	15.324295
755.602905	722.073914	2544.199463	1014.306458	16.038004
755.920105	713.974854	2532.013916	1014.157898	16.511364
756.237305	710.111145	2528.001465	1011.408630	16.574018
756.554443	718.655945	2523.692139	997.365417	15.440659
756.871582	725.714661	2517.227539	993.947449	14.972417
757.188599	721.776672	2519.902588	997.365417	15.326443
757.505615	716.724060	2524.880859	997.365417	15.520853
757.822510	712.414490	2541.524658	994.764832	15.436487
758.139465	721.925293	2562.478027	994.839172	14.827822
758.456238	724.302917	2582.688477	1001.229187	14.901443
758.773010	724.302917	2598.069092	1004.052734	14.929815
759.089783	724.600159	2612.483643	1005.167236	14.861461
759.406433	726.234802	2626.378174	999.668884	14.390182
759.723145	723.336975	2637.077881	1002.640930	14.594658
760.039673	723.485596	2639.975830	995.656555	14.201531
760.356201	730.767273	2643.988037	998.034180	13.969476
760.672668	734.556641	2653.498779	994.839172	13.563855
760.989136	736.117004	2638.192627	993.650330	13.539594
761.305481	733.367859	2628.607422	987.260254	13.396322
761.621826	735.225403	2612.334961	983.025085	13.201130
761.938049	730.395752	2636.112061	983.842346	13.299282
762.254333	730.247253	2664.421387	987.408875	13.295681
762.570496	723.262695	2724.235107	995.062012	13.583362
762.886597	721.107910	2802.475830	1006.801941	13.726263
763.202637	716.872742	2913.558350	1024.708862	14.013663
763.518677	718.730225	3063.352783	1041.649780	13.772774
763.834656	718.953125	3222.137451	1060.448364	13.642433
764.150574	719.027527	3374.086670	1074.194336	13.376984
764.466370	725.194580	3460.128906	1085.785767	13.184638
764.782288	727.943787	3487.992920	1079.172729	12.725460
765.097961	726.977844	3466.816406	1074.565918	12.686443
765.413696	720.810730	3407.522705	1066.392578	12.862631
765.729309	713.900574	3308.105713	1054.429932	13.126539
766.044861	716.501160	3176.069580	1035.111206	12.953901
766.360474	723.411316	3034.077393	1009.253906	12.370571
766.675903	725.120300	2905.756592	997.885498	12.508514
766.991394	720.810730	2789.769775	984.065186	12.724006
767.306763	715.386658	2685.671631	975.966248	13.225477
767.622131	719.993347	2607.951172	966.158264	13.038688
767.937378	720.736389	2533.945557	957.613464	13.063968
768.252625	718.284424	2479.704834	946.839539	12.975615
768.567810	720.364929	2417.959229	937.923279	12.815686
768.882996	718.358704	2382.442139	931.607605	12.814795
769.197998	720.513489	2340.461182	930.492981	12.962115
769.513062	716.501160	2304.944580	927.520813	13.284682
769.828064	714.049133	2266.084229	921.799561	13.385678
770.142944	711.077087	2240.078369	913.923401	13.266589
770.457825	711.076965	2227.595459	914.666443	13.424793
770.772705	716.575439	2198.171631	916.375427	13.485455
771.087402	719.398926	2165.329834	920.387756	13.900307
771.402100	724.600159	2127.138184	909.019531	13.148974
771.716736	721.850891	2106.482178	903.000977	13.082911
772.031372	726.086182	2103.138672	893.936035	12.189067
772.345947	720.513489	2079.212891	886.357178	12.206061
772.660461	731.807434	2067.176025	877.663635	10.922542
772.974854	727.869446	2039.609741	878.480957	11.481810
773.289246	734.705261	2024.377563	882.196106	11.436303
773.603638	725.045898	2005.578979	883.682312	12.388310
773.917908	728.240967	1992.947388	872.982666	11.444688
774.232178	722.816833	1988.638062	869.118896	11.557877
774.546265	725.194519	1981.802246	866.815613	11.270112
774.860474	727.869385	1957.133789	868.895996	11.472439
775.174561	727.572266	1937.517700	873.800049	12.085485
775.488586	723.559875	1912.923462	871.050781	12.400826
775.802551	717.467041	1908.316772	863.843445	12.291761
776.116516	720.736328	1898.806030	846.531006	10.678034
776.430359	727.943787	1893.307617	838.729187	9.506508
776.744202	731.733215	1881.419312	846.382263	9.972205
777.057922	724.600098	1875.623657	854.852844	11.316254
777.371704	718.432922	1870.496704	861.763000	12.441159
777.685303	720.067627	1867.004395	855.893066	11.842452
777.998962	724.674377	1862.100586	852.326477	11.222890
778.312500	730.172852	1845.902710	844.821960	10.275705
778.626038	726.309082	1840.849976	842.518555	10.426667
778.939453	726.383362	1832.305176	855.595886	11.683694
779.252869	722.593994	1841.741577	854.332703	11.771343
779.566223	722.965515	1839.215210	847.051025	11.116285
779.879578	723.262695	1839.438110	832.710632	9.805621
780.192749	718.433044	1836.094727	839.323547	10.816378
780.505920	712.711670	1845.011108	849.428711	12.074284
780.819031	708.773621	1845.902466	848.834229	12.317039
781.132141	713.231750	1843.079102	845.044861	11.666452
781.445190	718.730164	1834.162720	836.722961	10.578209
781.758118	721.776611	1820.639648	839.620789	10.724192
782.071045	726.086182	1805.036133	838.580566	10.426284
782.383911	723.485596	1777.543945	835.236877	10.602001
782.696838	723.559875	1755.178833	832.041809	10.515698
783.009583	723.485596	1743.958984	829.218323	10.361145
783.322266	727.349365	1733.705444	837.837463	10.979026
783.634888	725.045959	1727.909790	834.196594	10.883894
783.947510	720.885010	1709.036987	831.596008	11.203843
784.260132	719.176025	1696.033813	827.286438	11.067160
784.572571	724.897278	1693.136108	823.497070	10.183416
784.885010	727.720886	1695.067993	827.880859	10.354088
785.197449	726.532043	1693.061890	827.880920	10.485850
785.509766	725.268860	1684.219727	832.116211	11.142109
785.822083	723.262695	1676.640991	820.822205	10.233032
786.134277	724.302917	1673.223022	818.147278	9.889596
786.446533	725.343079	1663.192017	815.992493	9.665673
786.758606	723.411194	1653.384155	827.360840	11.177707
787.070740	722.222412	1655.984741	827.435059	11.267605
787.382690	723.039795	1671.439819	826.692078	10.929173
787.694641	722.148132	1684.888550	815.695313	9.716761
788.006653	720.141907	1704.058594	810.494141	9.182915
788.318481	711.299988	1726.200806	809.156677	9.641995
788.630310	707.658997	1755.921875	816.809814	10.412542
788.942017	712.637390	1779.327271	820.896484	10.149069
789.253784	714.420654	1801.246460	829.812805	10.617354
789.565430	721.628113	1799.537598	832.859192	10.319149
789.877014	716.649719	1792.478882	835.757019	11.071210
790.188538	720.364807	1784.082642	830.704407	10.373014
790.500061	715.981018	1781.036255	818.444519	9.620487
790.811462	718.432922	1755.996216	805.070007	8.350054
791.122925	716.426758	1723.228882	790.283752	7.335801
791.434204	715.906738	1680.950562	787.237305	7.391433
791.745483	718.210144	1655.315918	791.992676	7.873447
792.056702	716.946960	1628.715698	801.652039	9.290194
792.367920	719.844727	1615.192383	808.264954	9.875519
792.678955	720.439209	1604.046997	804.401184	9.502177
792.990112	722.371094	1586.437378	798.605652	8.822767
793.301086	718.284424	1575.960571	800.091614	9.538238
793.612122	715.906738	1567.564453	802.320801	10.146572
793.922974	716.946960	1570.462280	801.577820	9.915565
794.233826	720.885010	1569.719238	792.215637	8.403363
794.544556	724.748779	1565.855469	789.540710	7.703176
794.855286	721.851013	1556.939087	790.655273	8.239162
795.166016	719.547607	1552.406616	796.822327	9.278248
795.476624	715.906738	1565.186646	799.720154	9.868762
795.787292	725.937561	1581.533569	795.039124	8.076425
796.097778	727.943665	1603.304077	793.107239	7.444200
796.408264	724.302917	1614.895386	797.639709	8.234608
796.718689	713.454773	1619.873535	800.983337	9.656527
797.029053	711.299988	1624.851929	805.812988	10.345662
797.339355	719.101746	1620.988159	803.286804	9.334331
797.649658	720.216309	1621.508301	805.218567	9.431156
797.959839	719.027405	1616.158569	797.565430	8.754353
798.270020	710.556946	1594.685059	796.302246	9.698289
798.580078	711.894348	1586.140259	800.834778	10.173388
798.890137	721.850891	1571.725586	795.113464	8.620397
799.200195	722.965515	1572.097046	796.822327	8.697924
799.510071	727.423645	1559.837036	793.553040	7.944297
799.820007	721.256531	1553.149780	800.017334	9.467657
800.129883	723.931396	1542.524536	798.531250	9.113178
800.439575	716.129639	1531.156250	797.862610	10.028258
800.749329	714.272034	1515.403931	791.546875	9.645708
801.058960	713.380432	1502.698242	789.615051	9.658292
801.368591	723.559875	1491.998657	783.596497	7.812805
801.678162	723.634216	1485.311401	794.593262	9.316157
801.987671	728.240967	1482.190552	789.540710	8.130483
802.297119	726.531982	1478.772827	789.094910	8.316875
802.606506	729.058289	1467.553101	781.218811	7.063086
802.915894	725.491760	1467.478882	784.562439	7.961146
803.225159	723.485596	1465.323853	790.060852	8.974362
803.534424	722.148132	1464.803711	785.008301	8.464242
803.843628	721.256531	1459.528320	785.082520	8.645324
804.152771	722.891174	1455.887329	775.348877	7.156614
804.461792	728.092285	1461.088501	778.692566	6.903212
804.770874	731.361633	1463.317749	774.754578	5.928353
805.079773	731.435852	1462.723267	776.314758	6.136972
805.388733	727.572205	1467.627319	772.674011	6.094385
805.697571	726.977783	1472.382813	777.875183	6.828154
806.006470	721.107910	1484.791382	777.726563	7.413890
806.315125	722.296814	1484.122559	784.711121	8.192727
806.623901	718.433044	1489.323730	773.639954	7.161445
806.932495	718.284424	1495.639526	774.977356	7.293055
807.241150	717.467041	1497.571289	774.531555	7.314986
807.549622	722.593994	1483.453735	780.327148	7.587884
807.858154	724.525879	1465.026733	779.584167	7.435277
808.166565	722.073792	1461.534546	777.800964	7.536191
808.474915	719.027405	1463.094727	775.274597	7.559422
808.783264	717.541321	1456.333374	778.469543	8.247005
809.091492	716.426758	1436.791870	773.639954	7.942250
809.399719	710.036804	1420.370728	776.537781	9.361932
809.707825	710.259766	1408.854004	773.788574	9.093806
810.015930	709.962585	1403.058472	777.800842	9.787716
810.323975	714.569275	1394.067749	768.067200	7.873148
810.632080	717.169922	1385.894409	768.958923	7.744445
810.939880	715.906738	1380.247437	766.358215	7.594217
811.247864	719.176086	1376.458008	777.280762	8.840145
811.555664	715.312317	1370.067871	778.989746	9.725374
811.863464	718.655945	1365.535522	774.605774	8.649188
812.171143	717.987122	1360.185669	767.249817	7.670945
812.478882	721.702393	1355.207397	764.426331	6.744057
812.786438	729.132629	1343.244629	768.735901	6.448868
813.094055	728.686768	1335.740112	768.290100	6.523864
813.401489	724.971680	1330.687500	773.342712	7.985764
813.708984	712.934570	1336.928955	772.228210	9.502272
814.016357	711.002747	1340.421143	777.949463	10.636282
814.323730	712.934631	1339.009399	777.355042	10.289572
814.630981	717.690002	1333.362305	779.806946	10.089287
814.938232	723.188477	1335.517212	779.955627	9.270699
815.245361	725.566101	1328.607056	768.884583	7.183340
815.552490	727.126465	1329.721558	764.277832	6.165229
815.859619	731.881836	1317.907349	760.859863	4.944840
816.166565	734.259521	1333.436646	764.203430	4.997505
816.473572	735.894226	1332.099243	770.445007	5.795117
816.780457	731.807556	1338.340576	773.268494	6.835726
817.087341	723.188477	1339.083618	773.565613	8.179499
817.394043	718.135925	1345.622192	769.553284	8.194180
817.700806	712.488831	1350.823608	764.723633	8.182980
818.007507	715.238037	1354.984497	766.135437	7.955871
818.314209	721.330872	1368.136108	766.358215	6.961500
818.620667	720.736389	1375.640625	761.751465	6.262759
818.927246	723.188416	1398.377075	758.853699	5.282269
819.233704	718.433044	1421.188110	757.219055	5.519136
819.540161	717.095642	1462.128906	772.376770	7.419954
819.846497	724.154297	1503.366821	770.890808	5.997916
820.152832	730.618652	1562.363281	774.531555	5.279613
820.458984	732.773438	1626.932251	773.045593	4.503915
820.765259	725.640442	1703.018433	780.995911	5.663671
821.071350	722.668274	1804.218628	790.135071	6.237971
821.377502	723.039734	1981.504883	796.599426	5.845191
821.683472	729.132568	2318.021973	822.976990	5.906291
821.989441	729.058289	2887.626709	846.530945	5.442156
822.295349	730.024231	3683.111572	891.855530	5.480072
822.601196	717.689941	4560.180176	933.242188	5.609702
822.907043	718.953125	5306.031250	984.288086	5.784400
823.212769	721.107910	5732.157715	996.028015	5.486278
823.518494	730.024231	5798.807129	997.662659	5.280132
823.824097	724.525879	5548.406738	977.303711	5.240134
824.129700	719.250305	5146.726563	964.449402	5.538124
824.435242	716.203918	4710.049316	943.273010	5.685475
824.740723	712.860352	4339.501953	910.951355	5.462106
825.046082	714.792175	3989.610352	893.193054	5.447658
825.351501	710.556885	3629.390625	878.926819	5.768397
825.656799	717.169922	3272.514893	870.530701	6.001568
825.962036	715.089355	2960.294922	852.029297	6.099216
826.267212	717.912903	2731.962158	830.704407	5.600235
826.572449	723.634216	2600.075195	826.171936	5.464479
826.877502	723.411316	2598.143311	825.949036	5.469460
827.182495	723.114075	2704.693359	832.487610	5.519513
827.487488	715.758118	2865.707275	835.385498	5.564196
827.792419	722.668274	2992.839111	837.614563	5.063332
828.097290	721.627991	3029.247803	834.939636	4.910326
828.402100	726.383362	2953.310303	835.459778	4.898069
828.706848	726.754944	2802.401611	835.162598	5.222837
829.011597	720.067688	2617.833740	833.899414	5.998196
829.316223	712.414551	2437.797852	828.029541	6.700830
829.620789	713.900574	2280.647705	821.936707	6.895569
829.925354	725.194580	2131.596436	817.478516	6.561705
830.229797	724.377258	2002.755493	808.933777	6.614359
830.534302	713.677551	1866.038696	798.828613	7.389269
830.838562	707.287598	1746.634155	783.968018	7.377753
831.142944	715.163757	1625.372070	777.726563	6.873460
831.447144	717.987244	1534.499878	776.314880	7.143507
831.751404	727.126465	1480.704590	776.017639	6.487871
832.055542	720.959290	1444.593384	771.782410	7.023317
832.359619	727.497986	1436.123047	754.915710	3.869144
832.663635	726.977783	1435.751343	755.212891	3.983657
832.967651	732.922058	1466.438477	755.584412	3.089550
833.271545	729.875671	1530.933228	767.547119	4.702714
833.575439	729.801270	1645.731079	767.101318	4.072370
833.879211	726.457703	1798.125854	775.794678	4.603755
834.183044	727.795166	1952.972656	776.537659	3.978403
834.486694	726.309082	2052.538330	785.231140	4.442826
834.790344	730.172852	2090.507080	780.401428	3.692370
835.093933	725.194580	2058.779541	782.630554	4.306885
835.397522	721.628113	2002.384155	776.463379	4.281476
835.700928	709.962585	1930.756226	774.903076	5.319530
836.004395	713.157532	1857.270874	775.794739	5.474738
836.307739	710.705566	1778.361328	773.268372	5.859829
836.611023	717.689941	1702.795410	771.410828	5.453313
836.914307	718.210144	1628.195679	763.237549	4.948145
837.217529	726.234802	1551.589478	760.265442	4.123153
837.520691	729.058289	1462.872070	758.705078	4.040097
837.823730	726.234680	1389.386597	754.767090	4.302545
838.126831	724.674500	1326.006470	752.983704	4.707750
838.429749	727.869446	1286.328735	747.708313	3.552428
838.732727	729.429871	1258.465210	752.315002	4.325823
839.035522	721.999573	1240.335327	749.565918	5.318241
839.338379	717.467102	1228.001099	747.262512	5.836126
839.641113	720.142090	1223.988647	741.689758	4.276633
839.943848	723.262695	1249.994629	738.271790	2.849475
840.246460	725.194580	1278.972778	739.163391	2.522456
840.549072	722.519714	1313.597778	740.055176	2.966691
840.851563	725.045959	1318.427490	747.782654	3.831716
841.154053	726.160461	1320.730835	750.531799	4.098983
841.456482	728.315247	1298.514282	750.606140	3.909318
841.758850	735.522644	1278.006836	752.760925	3.177656
842.061157	737.008728	1251.257813	751.943542	2.904199
842.363403	739.906494	1226.886597	755.064270	3.112607
842.665588	727.869446	1210.762939	757.739197	6.185577
842.967712	721.033630	1190.032471	761.380066	8.602673
843.269775	717.021301	1166.329834	759.448181	9.442705
843.571777	721.182312	1141.587036	747.856934	6.344986
843.873840	723.782898	1119.964844	748.599915	6.264045
844.175659	721.182312	1104.584351	748.748535	7.189900
844.477600	722.816895	1086.380005	746.445129	6.499074
844.779297	730.024231	1070.776489	737.305847	2.136924
845.081116	735.076843	1061.117188	741.020996	1.823134
845.382751	735.448303	1045.290527	742.061279	2.134304
845.684387	730.767273	1037.191650	751.497742	6.765281
845.985962	722.073914	1027.829590	748.897156	8.772770
846.287537	722.371033	1026.863525	756.624573	11.249388
846.588989	714.197754	1014.455078	745.033447	10.269755
846.890381	716.649719	999.817444	743.473083	9.472607
847.191711	713.380432	996.325195	736.785828	8.272073
847.493042	717.912903	994.467590	739.237793	7.710913
847.794250	723.931458	1001.377747	730.692932	2.437039
848.095459	724.080017	994.467712	730.098572	2.225898
848.396606	725.640320	989.489319	728.686768	1.154618
848.697693	722.445313	982.207703	725.863281	1.315806
848.998657	726.532043	979.384216	723.931396	-1.028525
849.299622	722.371094	988.746338	723.931396	0.585754
849.600464	726.160583	991.049744	731.064514	1.851314
849.901367	724.525879	993.353027	731.881836	2.736315
850.202087	729.058350	982.059021	733.442200	1.732742
850.502808	732.476257	978.715393	728.092346	-1.780347
850.803467	731.213074	970.987976	726.309082	-2.045248
851.104065	722.742615	967.049988	728.463867	2.341825
851.404663	716.947021	966.455566	733.888000	6.789739
851.705139	720.216309	966.604187	737.677429	7.086843
852.005615	728.315247	972.474060	736.339905	3.286655
852.306030	727.497864	975.148926	734.259460	2.730292
852.606384	728.166687	977.006531	731.584534	1.373513
852.906616	730.470032	975.966248	734.779602	1.755453
853.206909	731.584656	967.867188	738.940613	3.113204
853.506958	728.835449	962.888977	745.850769	7.269841
853.807129	720.587830	964.597900	742.507080	8.982928
854.107178	713.231873	967.644348	743.547302	11.915858
854.407166	714.717834	971.582336	739.237793	9.545873
854.707092	717.095520	975.446106	742.507141	9.836100
855.007019	725.863281	980.201477	740.352356	5.696775
855.306763	727.200745	978.492493	733.590820	2.542891
855.606567	727.349365	967.346985	726.160461	-0.495382
855.906250	724.600159	956.573181	722.445374	-0.928895
856.205933	721.553711	951.149109	732.253235	4.660165
856.505493	721.999512	950.257507	738.866211	7.389314
856.805054	716.872742	950.183289	743.101563	11.242021
857.104492	711.002747	955.310059	737.083008	10.675186
857.403931	708.253601	953.675476	728.240967	8.144085
857.703308	706.544617	951.223389	721.033630	5.921647
858.002563	707.659180	948.845703	721.479431	5.730109
858.301819	706.916199	954.864258	727.720886	8.390744
858.601013	711.299988	954.715637	732.699036	8.791155
858.900208	714.272034	947.434021	738.494690	10.388767
859.199219	722.742493	942.009949	742.284180	8.912261
859.498291	728.240967	942.158508	744.438965	7.572076
859.797302	731.733215	947.954102	738.420410	3.092761
860.096191	726.829163	947.285339	732.253357	2.460441
860.395020	728.389587	945.799316	727.572266	-0.375936
860.693787	728.240967	935.694153	727.720886	-0.250698
860.992554	727.795166	939.780823	728.983948	0.560784
861.291260	724.748718	946.690918	738.420410	6.160024
861.589844	722.222412	951.372070	734.779602	5.479908
861.888428	718.730164	949.588684	730.470032	5.085309
862.186890	722.222412	949.068604	726.754883	1.998037
862.485413	718.953125	957.687744	731.064453	5.073134
862.783813	719.621887	951.669250	737.974609	7.909041
863.082153	707.807800	948.994385	729.206848	8.872404
863.380371	711.299988	941.341125	734.333801	10.012911
863.678589	713.826233	955.310059	733.070618	7.969223
863.976746	721.033508	951.966492	737.825989	7.271582
864.274902	724.005676	961.031433	732.030334	3.385564
864.572937	727.869446	954.046936	731.138733	1.445452
864.870911	731.138733	961.774414	733.219238	0.902074
865.168884	726.903503	953.080994	736.785828	4.369278
865.466736	722.148132	950.406067	736.117004	6.119775
865.764587	715.832336	939.632141	735.002502	8.565765
866.062317	715.609436	942.752930	736.042725	8.995762
866.360107	717.169922	946.542419	736.117004	8.260399
866.657715	717.987244	950.628967	736.860046	8.112390
866.955322	719.398926	946.690918	727.423645	3.530577
867.252808	726.903503	955.532959	732.104736	2.274962
867.550293	726.903503	956.498840	729.801331	1.262146
867.847717	728.315247	965.043762	741.021057	5.367249
868.145081	726.606262	957.241943	736.265686	4.188174
868.442383	728.909668	960.362732	735.671326	2.921395
868.739624	724.080017	955.830139	724.748718	0.288544
869.036804	728.315247	949.440186	725.120300	-1.444860
869.333984	732.996399	951.223450	724.451477	-3.915611
869.631042	739.089172	951.892273	730.544373	-4.015355
869.928101	734.333801	956.350342	724.674377	-4.350768
870.224976	728.240967	953.155273	721.850891	-2.841116
870.521851	728.686768	955.458679	723.114075	-2.457400
870.818726	725.640381	963.260498	727.200745	0.656663
871.115479	735.522644	960.659912	735.299622	-0.099061
871.412231	731.287354	960.362732	729.281189	-0.875766
871.708862	730.395752	949.811707	731.807434	0.643382
872.005493	723.262695	951.297668	730.915833	3.356124
872.302063	727.572266	944.239014	733.887939	2.914925
872.598572	726.234802	944.090332	733.813660	3.478846
872.895020	725.566101	945.725098	732.550476	3.172423
873.191406	725.937561	958.059265	733.739441	3.361116
873.487671	731.064453	969.353271	731.138733	0.031172
873.783997	727.423584	976.114746	734.928223	3.017654
874.080200	721.182190	979.681335	726.309143	1.983354
874.376343	716.649719	975.074646	727.126465	4.054077
874.672424	717.541321	980.870178	725.714661	3.103853
874.968445	721.330811	975.817566	730.544373	3.620449
875.264465	721.776611	974.628723	728.909729	2.821063
875.560364	720.439148	966.083984	727.795166	2.994575
875.856201	718.878845	966.232605	728.092346	3.724828
876.152039	723.559875	977.823792	724.525818	0.379898
876.447754	725.491760	980.647278	719.547546	-2.329643
876.743469	724.897400	984.808167	728.538147	1.400768
877.039063	724.823059	979.161194	735.374023	4.148400
877.334595	725.937561	977.229309	735.522644	3.814325
877.630127	723.708496	974.257324	733.590759	3.944247
877.925537	717.912903	976.932190	731.510315	5.249575
878.221008	722.965515	988.523438	734.928223	4.504745
878.516296	727.275085	994.021790	732.624817	2.005547
878.811646	730.395752	1004.201233	735.745605	1.953888
879.106812	732.996338	1007.470520	741.318298	3.031965
879.401978	731.436035	1029.464233	739.832214	2.817243
879.697083	738.940613	1037.265991	742.729980	1.270213
879.992126	738.346130	1066.987183	744.290344	1.808725
880.287109	740.872375	1101.166382	752.760803	3.299646
880.582031	739.014893	1181.413208	750.828918	2.670450
880.876892	732.179016	1319.393433	747.262451	2.568642
881.171753	729.429871	1551.217773	750.754639	2.594923
881.466492	727.572266	1895.610962	758.928040	2.684481
881.761230	731.287415	2294.765381	766.432617	2.247886
882.055786	728.761169	2692.136230	770.816406	2.141987
882.350403	720.587830	2960.591797	772.822571	2.331904
882.644958	710.854187	3076.058350	776.686340	2.783360
882.939453	710.482666	3036.306641	775.051758	2.776181
883.233826	714.940735	2931.762695	775.571777	2.735043
883.528137	715.386536	2791.033203	773.268372	2.788617
883.822449	722.742493	2661.671875	770.890686	2.483236
884.116577	722.073792	2520.794189	762.568848	2.251326
884.410828	724.525818	2387.346436	760.488342	2.162742
884.704956	723.411316	2223.063232	756.178772	2.185004
884.999023	726.977844	2021.925659	762.568848	2.748451
885.292969	726.234680	1813.432251	758.927979	3.007117
885.586914	712.042969	1617.198608	752.612305	4.482029
885.880798	708.773621	1472.457031	748.154114	5.156651
886.174622	709.145203	1361.448730	755.584412	7.119264
886.468384	717.838623	1289.003540	756.401672	6.751649
886.762085	718.358704	1242.192871	752.092102	6.439710
887.055664	718.655945	1201.772095	737.380188	3.875723
887.349304	715.089355	1164.323608	737.677429	5.028128
887.642822	704.984192	1129.029907	731.138733	6.167859
887.936340	705.058533	1114.838013	735.002502	7.307338
888.229736	705.504333	1097.079590	729.355469	6.091073
888.523071	716.055359	1079.395630	727.720886	3.210634
888.816284	719.993347	1046.925293	718.804504	-0.363636
889.109619	725.640381	1033.402222	722.891174	-0.893290
889.402710	727.943665	1024.040161	726.457703	-0.501851
889.695862	732.847717	1015.123779	729.652771	-1.131852
889.988892	732.401855	1005.613098	728.686768	-1.359786
890.281921	722.668274	1003.755493	732.476196	3.489281
>>>>>End Processed Spectral Data<<<<<
