Jaz Data File
++++++++++++++++++++++++++++++++++++
Date: Fri Jun 04 17:07:37 2021
User: jaz
Dark Spectrum Present: Yes
Reference Spectrum Present: Yes
Processed Spectrum Present: Yes
Spectrometers: JAZA3586
Integration Time (usec): 120000 (JAZA3586)
Spectra Averaged: 10 (JAZA3586)
Boxcar Smoothing: 1 (JAZA3586)
Correct for Electrical Dark: No (JAZA3586)
Strobe/Lamp Enabled: Yes (JAZA3586)
Correct for Detector Non-linearity: No (JAZA3586)
Correct for Stray Light: No (JAZA3586)
Number of Pixels in Processed Spectrum: 2048
>>>>>Begin Processed Spectral Data<<<<<
W	D	R	S	P
191.335022	0.000000	0.000000	0.000000	0.000000
191.713211	229.818314	229.892624	227.366318	-3299.671387
192.091385	460.082428	468.552979	458.819305	-14.911930
192.469528	686.408508	696.142273	686.111328	-3.053086
192.847641	692.724304	707.659180	692.575684	-0.995125
193.225739	702.606506	714.197754	704.241211	14.102921
193.603790	719.547546	727.423584	715.237976	-54.717491
193.981842	727.869446	730.915833	722.965515	-160.975311
194.359863	736.340027	734.408020	720.959290	796.101624
194.737854	738.791992	737.900208	735.968445	316.617615
195.115829	739.163513	739.312012	741.169678	1350.965942
195.493774	740.203796	734.631042	741.243896	-18.664024
195.871704	741.615479	730.247131	726.680664	131.371902
196.249603	741.912659	727.200745	728.240967	92.929390
196.627457	738.346191	728.166687	739.312073	-9.488491
197.005310	736.934387	731.658875	748.005554	-209.859543
197.383133	741.169678	738.346130	749.937317	-310.518585
197.760910	750.383118	746.445129	744.884766	139.623367
198.138687	758.556458	749.268738	742.209900	176.001846
198.516449	765.095154	740.203674	740.426575	99.104515
198.894180	755.064270	727.052185	737.454407	62.865234
199.271866	748.451355	730.544373	743.993164	24.896383
199.649536	735.819824	735.076843	742.507080	-900.057495
200.027191	733.144958	743.324524	744.513184	111.676918
200.404816	728.909668	743.547363	739.683594	73.603973
200.782410	730.544373	754.989929	741.541199	44.984970
201.159988	727.200684	768.513000	747.411072	48.920975
201.537537	725.566101	774.308594	734.185242	17.683012
201.915070	721.702332	775.051758	730.470032	16.434479
202.292557	726.606262	771.930969	720.810730	-12.786695
202.670029	730.470032	773.194153	727.423645	-7.130367
203.047485	734.259460	771.633789	722.965515	-30.218456
203.424911	728.389587	768.215820	730.247131	4.664122
203.802292	722.296692	763.163269	732.847717	25.818226
204.179688	716.872742	763.014648	739.683594	49.436302
204.557037	725.640381	759.819641	737.454529	34.565254
204.934357	727.052063	759.522461	739.014832	36.842075
205.311661	731.658875	760.934143	733.739319	7.106491
205.688934	723.188416	759.225159	726.680603	9.690630
206.066177	728.389648	764.054871	734.556702	17.291504
206.443390	721.851013	758.184998	730.470154	23.721981
206.820587	725.045959	758.259277	729.429871	13.199257
207.197769	728.761169	754.915710	721.182190	-28.977680
207.574921	732.773438	757.962097	725.714661	-28.023630
207.952042	733.219299	761.454285	726.531982	-23.684505
208.329147	719.101746	760.488342	722.445313	8.078864
208.706223	758.482178	803.212402	760.488342	4.485031
209.083267	762.717468	802.915222	760.265442	-6.099909
209.460297	767.547119	795.782166	759.968262	-26.842022
209.837280	729.132629	745.702148	722.222412	-41.704391
210.214264	718.061523	745.553528	721.850891	13.783526
210.591217	714.792236	749.045715	731.213074	47.939182
210.968124	715.981018	758.630798	728.315247	28.919794
211.345016	722.519714	766.432556	729.727051	16.412821
211.721893	724.971680	778.469666	726.977844	3.749981
212.098724	721.627991	778.469543	723.411316	3.137362
212.475555	712.860168	778.692566	727.572266	22.347807
212.852356	708.922180	769.850403	722.742615	22.683142
213.229126	712.117188	770.965027	728.166687	27.272879
213.605865	719.621826	762.048645	720.810730	2.802246
213.982590	725.120300	768.364441	724.748718	-0.859266
214.359283	720.513489	757.590515	721.702332	3.206414
214.735931	718.284424	757.218994	724.080078	14.885626
215.112579	707.733459	751.274841	723.039795	35.153538
215.489197	701.343445	748.302734	723.039795	46.202465
215.865799	704.241211	744.216003	719.621887	38.475937
216.242355	718.284424	742.804260	713.974854	-17.575853
216.618896	730.767273	749.417297	718.210144	-67.330360
216.995407	727.423645	758.184998	713.826172	-44.203106
217.371902	721.702332	761.602844	714.420654	-18.249582
217.748367	724.005676	764.352051	711.151367	-31.859886
218.124802	723.039734	757.887695	715.163635	-22.601318
218.501236	722.593933	754.841309	710.482605	-37.557564
218.877609	714.197754	751.274841	714.123474	-0.200339
219.253983	724.154297	754.767029	712.414551	-38.349228
219.630295	728.835449	757.590576	723.559875	-18.346550
220.006592	728.761047	758.927979	720.439209	-27.585962
220.382889	718.284363	751.126221	721.479431	9.728647
220.759140	717.169922	746.370850	716.872620	-1.018126
221.135391	713.306152	746.965271	720.810730	22.295824
221.511581	715.906738	745.181946	729.206848	45.431309
221.887772	711.225586	747.931152	736.562805	69.028275
222.263931	717.764343	757.739197	735.819824	45.167099
222.640060	717.541321	772.599670	739.460693	39.811169
223.016159	724.748718	769.553223	734.259460	21.227201
223.392212	717.764343	758.556458	737.825989	49.180206
223.768265	719.324646	756.253113	732.327637	35.211292
224.144302	708.699402	757.293396	730.544373	44.954056
224.520294	707.807800	757.293396	724.228577	33.182941
224.896286	717.021301	761.528564	725.566101	19.198664
225.272217	722.965515	765.912415	724.971680	4.671268
225.648148	734.853943	771.336609	731.064514	-10.386930
226.024048	723.634094	767.695801	729.132629	12.479170
226.399902	719.176025	770.370605	726.754883	14.804023
226.775772	702.235046	760.414063	717.169739	25.670238
227.151581	703.646790	756.401672	715.237976	21.971779
227.527374	703.721130	751.274841	716.278137	26.405945
227.903137	715.089355	760.636902	720.141907	11.092916
228.278870	718.433044	765.020813	718.953125	1.116346
228.654572	714.717957	763.609070	715.386658	1.367736
229.030273	711.002747	763.609070	712.117249	2.118570
229.405930	707.436279	760.636963	712.488770	9.497040
229.781555	708.402161	757.070374	721.182190	26.259501
230.157181	714.866516	755.807312	723.782776	21.778423
230.532761	711.597168	753.280945	730.098572	44.385143
230.908325	716.203918	762.568848	731.064453	32.051239
231.283859	715.089417	760.339783	734.408020	42.692699
231.659332	719.547546	759.671082	725.491760	14.814781
232.034821	715.535217	758.407898	719.844727	10.051877
232.410263	709.516663	755.732971	718.432922	19.292454
232.785690	702.978027	755.287109	723.411316	39.062603
233.161087	706.098816	748.377014	724.154297	42.706364
233.536469	708.773682	755.212891	718.358704	20.639935
233.911804	713.900574	747.411072	715.609558	5.099848
234.287140	713.751953	754.098328	712.637451	-2.762335
234.662430	707.584778	751.943542	719.621887	27.135809
235.037704	703.795410	758.928040	728.538147	44.878571
235.412933	706.321594	760.339783	723.337097	31.499580
235.788162	715.906738	763.683411	721.107910	10.886426
236.163345	724.748779	773.416992	715.237976	-19.542126
236.538513	728.018066	774.977356	726.383362	-3.481110
236.913635	730.693054	774.531555	721.627930	-20.678455
237.288742	733.739441	767.844238	720.067627	-40.087658
237.663834	732.104736	759.373779	725.863281	-22.888428
238.038879	729.949951	753.058105	740.500793	45.658524
238.413910	719.176025	747.039551	748.674133	105.866386
238.788910	711.522888	746.593750	735.522644	68.432182
239.163879	712.191589	752.017822	725.491760	33.395504
239.538834	713.603333	758.259277	719.175964	12.479037
239.913757	722.445374	761.157043	727.572266	13.243790
240.288651	721.330872	759.150940	730.544250	24.361084
240.663528	720.290527	765.243713	728.389587	18.016655
241.038361	713.900574	773.491394	725.491760	19.451296
241.413177	710.111084	772.005310	721.405090	18.247271
241.787979	708.402161	763.980652	721.405090	23.395615
242.162735	710.556946	760.339661	721.405090	21.790987
242.537476	710.854187	761.602844	718.730225	15.519696
242.912170	719.993408	775.125977	725.640320	10.242424
243.286865	717.838623	773.342712	726.160461	14.993198
243.661514	715.980957	770.965027	732.550476	30.135126
244.036148	715.609558	767.472717	730.915833	29.512808
244.410751	718.878723	774.457275	730.767273	21.390535
244.785339	723.931396	775.125977	728.909668	9.724216
245.159882	714.346375	765.838135	729.132568	28.715651
245.534378	718.581604	760.488342	727.126465	20.390184
245.908890	720.290527	768.661621	726.160461	12.135211
246.283356	720.290527	769.627625	723.857117	7.229022
246.657791	720.587830	765.243713	722.073914	3.327857
247.032196	718.061523	765.540955	728.538147	22.065605
247.406586	721.776672	764.797913	724.228577	5.699288
247.780960	714.494934	769.627625	726.531982	21.832869
248.155289	714.494934	767.175598	723.931458	17.912689
248.529602	715.312317	774.011414	727.720886	21.139284
248.903870	719.770508	769.330383	727.795166	16.191845
249.278122	715.832336	759.671082	724.748779	20.339184
249.652344	715.535156	757.961975	725.417480	23.292635
250.026550	711.820068	763.906250	722.371094	20.256861
250.400711	717.764343	776.091980	723.411316	9.681470
250.774857	720.290588	769.999084	720.142029	-0.298862
251.148987	727.795227	771.113586	720.142029	-17.667332
251.523071	722.222473	764.426331	713.528992	-20.598783
251.897125	719.770447	771.039307	716.798340	-5.797100
252.271164	710.705566	766.952637	713.231750	4.491228
252.645187	706.916077	769.330383	713.529114	10.595387
253.019165	703.126709	767.101318	709.070984	9.291615
253.393112	711.374268	776.091980	724.600159	20.436277
253.767044	715.980957	775.051758	730.247253	24.151182
254.140930	722.148132	772.376770	737.528809	30.621328
254.514801	718.878845	764.129211	730.990173	26.765150
254.888657	723.559875	768.958801	726.903564	7.365128
255.262466	722.296814	776.909241	723.857117	2.857047
255.636276	726.606384	776.537781	733.219238	13.243879
256.010010	723.782898	778.469543	739.163391	28.124769
256.383759	728.686768	769.627502	741.763977	31.941805
256.757446	720.216248	770.965027	733.665039	26.500719
257.131134	718.432922	764.872070	738.717712	43.680367
257.504791	709.591003	772.674011	737.231628	43.816277
257.878418	713.603271	777.503662	735.745544	34.651234
258.252014	725.714661	783.819397	728.983948	5.626542
258.625580	725.491760	782.853516	728.463867	5.181339
258.999115	723.485596	779.658508	726.234802	4.894186
259.372650	713.677673	777.206482	723.262695	15.087678
259.746124	715.238037	782.927734	718.210144	4.390782
260.119598	717.095520	791.695496	712.934570	-5.577682
260.493042	725.640320	802.766602	709.070862	-21.483543
260.866425	730.098450	797.342468	715.237976	-22.099323
261.239838	732.476257	796.525146	720.290527	-19.025669
261.613159	721.256531	789.986572	724.302917	4.432395
261.986511	722.742493	800.240295	718.730225	-5.177267
262.359802	714.792175	795.930847	719.844727	6.227057
262.733063	716.575439	788.351868	717.169861	0.828157
263.106293	708.625061	780.995911	719.398926	14.887023
263.479523	711.671387	783.968018	723.782898	16.752525
263.852692	704.984192	789.020569	732.773438	33.068115
264.225861	710.333984	791.918396	734.259521	29.326113
264.598969	716.129639	793.181458	736.191406	26.036722
264.972076	722.296875	792.215637	730.247131	11.370706
265.345154	729.132629	795.262024	736.414307	11.011256
265.718201	726.829285	792.958679	729.949890	4.718938
266.091217	731.584534	803.286682	744.290344	17.720264
266.464203	731.435974	801.875000	737.380188	8.438807
266.837158	730.395691	803.286804	742.507080	16.615728
267.210114	724.079895	792.958679	725.120300	1.510487
267.583038	712.934570	788.054626	723.039795	13.452100
267.955902	711.151367	792.066956	717.244141	7.529789
268.328766	718.135742	808.859375	714.866516	-3.603500
268.701569	716.129578	813.243225	708.996582	-7.344998
269.074371	711.522888	814.729309	710.779785	-0.720016
269.447144	708.402161	802.543701	716.426819	8.524035
269.819885	715.460938	807.596375	723.782898	9.032312
270.192596	723.337097	802.915222	719.696106	-4.575367
270.565277	723.262695	816.809814	726.457703	3.415399
270.937927	719.398926	818.147278	724.154297	4.815646
271.310577	717.615723	820.004883	730.024231	12.118967
271.683136	719.398926	820.970886	724.154297	4.681776
272.055725	724.154297	819.261902	728.389587	4.453156
272.428284	729.206848	829.812805	722.222412	-6.942368
272.800812	725.714661	824.463074	716.946960	-8.878826
273.173279	721.330811	831.670410	717.467102	-3.501652
273.545776	712.860291	826.989258	723.188293	9.049415
273.918152	711.448547	827.509460	729.058289	15.172844
274.290558	712.562988	822.308167	721.033630	7.718464
274.662964	713.231750	828.846863	717.169861	3.406224
275.035278	716.055359	826.394836	719.027527	2.693658
275.407593	712.488770	829.738464	727.275085	12.610963
275.779907	714.569275	833.082092	734.556702	16.865202
276.152161	708.847961	840.958191	733.665039	18.785130
276.524384	716.872620	842.147034	735.596924	14.946630
276.896606	717.244141	838.283386	731.361633	11.663567
277.268799	722.593994	847.273926	731.881836	7.449348
277.640930	717.615723	853.366699	725.045898	5.473387
278.013031	727.720886	857.750671	726.754944	-0.742862
278.385162	729.949951	852.177917	724.748779	-4.255304
278.757233	731.881836	851.211914	726.086182	-4.856826
279.129272	721.405090	852.475098	722.519714	0.850404
279.501282	723.857117	851.583496	726.309082	1.919702
279.873230	727.052063	845.713562	726.234802	-0.688733
280.245178	732.550537	854.184082	728.092346	-3.665264
280.617126	722.371094	863.546204	724.897400	1.789484
280.988983	714.866455	879.967102	721.256531	3.870412
281.360870	713.826233	889.254883	725.491760	6.649728
281.732697	711.077087	898.096924	719.250305	4.370241
282.104492	722.965515	902.852295	724.897400	1.073945
282.476288	723.782715	899.731628	721.033691	-1.562399
282.848053	736.488586	900.325989	727.126465	-5.714276
283.219757	731.213074	909.985413	725.640442	-3.117167
283.591461	733.070618	924.251465	722.519714	-5.518808
283.963135	728.835388	929.601257	722.742493	-3.034826
284.334747	730.767273	930.418640	726.606262	-2.084138
284.706360	724.600098	924.623047	731.807556	3.603316
285.077942	727.943665	929.007019	733.219238	2.623837
285.449524	722.519714	935.842773	725.640442	1.462911
285.821014	722.371094	932.573425	721.256531	-0.530233
286.192535	716.649719	941.638367	720.662109	1.783374
286.563995	718.210144	938.814880	721.850891	1.650349
286.935425	723.188293	948.251282	723.634216	0.198132
287.306824	726.383484	938.443359	724.377197	-0.946094
287.678223	722.222473	938.963440	729.429749	3.325294
288.049561	720.885010	944.610535	733.813660	5.778800
288.420898	717.615662	948.399902	738.271790	8.950407
288.792145	722.891113	953.675476	732.030334	3.960069
289.163452	722.965515	951.372070	725.417480	1.073509
289.534668	725.491760	963.632019	717.318542	-3.432102
289.905914	719.324707	972.845520	721.553711	0.879219
290.277039	727.943787	987.928955	731.287354	1.286061
290.648193	739.089172	995.210632	734.854004	-1.653578
291.019318	737.677429	1002.195068	733.590820	-1.544929
291.390381	725.194580	1004.424133	726.531982	0.478962
291.761475	713.157532	1006.430359	721.776611	2.938929
292.132507	716.278259	1011.631531	721.776611	1.861619
292.503510	713.900574	1015.198059	719.101746	1.726258
292.874481	718.284363	1024.337280	731.510254	4.321439
293.245422	723.188416	1017.872986	731.956116	2.975283
293.616364	727.720886	1024.634644	735.448425	2.602621
293.987213	723.708496	1019.953430	729.132629	1.830962
294.358093	723.114075	1037.043091	733.665039	3.360940
294.728943	720.810730	1046.182251	731.213074	3.197067
295.099731	717.095520	1072.188354	727.052063	2.803927
295.470490	709.219482	1087.717529	721.925293	3.356903
295.841248	709.442383	1092.250122	725.937683	4.309030
296.211975	710.482605	1101.314941	724.080078	3.479106
296.582642	720.959290	1111.420044	725.194580	1.084690
296.953308	722.148132	1133.710938	725.120300	0.722166
297.323883	723.188416	1133.413696	723.634216	0.108672
297.694519	718.358704	1148.274170	723.485596	1.192535
298.065063	714.494934	1153.698242	725.268860	2.453061
298.435608	717.764343	1157.710693	729.949890	2.769780
298.806122	718.061523	1144.782104	734.110840	3.761083
299.176575	726.309082	1126.503540	732.476257	1.541045
299.547028	723.262695	1113.277710	731.956055	2.228981
299.917450	715.089355	1100.274780	721.330872	1.620393
300.287872	709.219543	1100.274780	713.826233	1.178015
300.658234	713.454773	1107.704956	714.940735	0.376908
301.028564	720.439209	1107.184814	719.250305	-0.307412
301.398865	724.228577	1106.887573	725.417480	0.310695
301.769135	722.222473	1100.720459	728.835388	1.747147
302.139374	726.606384	1109.042358	737.008728	2.720022
302.509583	724.154358	1119.370483	736.637207	3.158487
302.879791	721.702332	1125.166138	735.076843	3.314922
303.249939	713.974854	1123.680054	728.315247	3.500174
303.620087	711.448547	1116.769897	729.652649	4.491276
303.990173	717.912903	1117.364258	728.166687	2.566967
304.360260	724.005676	1121.079468	733.293518	2.339072
304.730286	726.011902	1127.618164	728.686768	0.666042
305.100281	714.717834	1132.522095	725.268860	2.525351
305.470276	710.705566	1134.379517	718.358704	1.806374
305.840179	710.705566	1140.398071	728.241028	4.080933
306.210144	713.677551	1148.125610	734.556824	4.805931
306.579987	717.838562	1160.014038	740.129395	5.041173
306.949890	713.157532	1164.472168	739.386414	5.811662
307.319702	718.358704	1171.308105	733.367859	3.313649
307.689484	717.169861	1182.899292	731.287292	3.031252
308.059265	725.045959	1204.447144	724.377258	-0.139487
308.429016	722.593933	1220.348022	721.851013	-0.149254
308.798737	721.776672	1239.592285	724.228699	0.473533
309.168396	720.364929	1248.434204	730.024231	1.829173
309.538055	718.358704	1267.158569	738.346130	3.642025
309.907684	719.844727	1272.359741	733.590759	2.487902
310.277313	714.494934	1280.904419	729.801270	2.702344
310.646851	719.621887	1293.164551	734.705261	2.629861
311.016388	713.974854	1309.808350	748.748535	5.836141
311.385895	717.838562	1319.839233	752.537903	5.764004
311.755371	714.717834	1317.015747	747.708252	5.477425
312.124817	720.067627	1321.473877	740.203796	3.348181
312.494232	720.885010	1326.823730	735.671204	2.440213
312.863617	719.250305	1321.251099	731.956055	2.110587
313.232971	724.600098	1317.461670	728.983948	0.739439
313.602295	726.234802	1308.099487	723.039795	-0.549098
313.971619	724.154297	1312.483276	728.092346	0.669362
314.340820	721.627991	1308.025024	729.058350	1.267121
314.710083	721.850891	1326.154907	737.900391	2.655865
315.079285	722.222412	1347.479858	732.699158	1.675589
315.448486	725.566101	1369.696289	727.349304	0.276839
315.817596	716.649719	1372.817017	725.343201	1.324888
316.186707	720.439148	1360.408569	729.875671	1.474527
316.555786	706.841797	1348.445801	733.442139	4.145913
316.924866	712.042969	1333.139526	735.002441	3.696603
317.293884	709.962463	1328.978516	733.442078	3.793054
317.662872	716.575439	1323.182983	736.042725	3.209206
318.031830	714.569336	1328.532593	726.754883	1.984735
318.400757	719.101746	1335.071411	726.160461	1.145952
318.769684	719.027344	1350.303345	717.912903	-0.176538
319.138550	720.513428	1358.996704	724.971680	0.698257
319.507416	716.426819	1368.878906	721.776611	0.819952
319.876190	710.259705	1362.191650	734.185242	3.669944
320.244995	711.597168	1369.399048	731.510254	3.027216
320.613770	716.946960	1364.643677	733.442139	2.546744
320.982483	727.349304	1370.959473	724.748718	-0.404062
321.351166	723.782776	1366.798462	723.857117	0.011561
321.719818	719.473328	1366.872681	723.485535	0.619742
322.088440	714.123474	1370.513672	730.915833	2.558289
322.457062	716.426819	1381.287598	736.711426	3.050956
322.825623	717.244141	1389.237915	732.624817	2.288812
323.194183	714.643555	1404.692993	729.281250	2.121253
323.562653	708.922302	1416.358398	728.909668	2.825325
323.931183	708.773682	1445.559448	733.442139	3.348118
324.299591	714.569336	1478.178223	731.436035	2.208814
324.668060	718.581726	1511.020142	727.275085	1.097039
325.036407	712.414490	1551.589355	733.070618	2.461481
325.404755	708.625000	1563.255005	732.253235	2.764733
325.773102	708.104919	1568.679077	729.132629	2.443451
326.141388	715.980957	1568.158813	728.538269	1.473555
326.509674	716.352539	1562.957642	730.693054	1.693885
326.877899	719.621887	1569.942261	734.779602	1.782589
327.246124	717.021301	1567.638672	730.098572	1.537386
327.614288	720.810730	1576.629395	731.361633	1.232843
327.982422	717.541321	1584.802734	727.720886	1.173760
328.350525	715.460938	1585.991577	733.962341	2.125302
328.718628	708.104980	1591.712891	729.132629	2.379749
329.086700	709.739563	1582.202148	737.677429	3.202185
329.454712	703.944031	1583.167969	727.349304	2.662038
329.822693	707.584778	1595.948120	729.949890	2.517564
330.190674	705.207092	1618.907715	723.708496	2.024887
330.558563	713.603333	1642.535767	718.804504	0.559909
330.926483	713.826172	1648.480103	724.748718	1.168619
331.294312	719.770508	1646.994141	722.148132	0.256424
331.662231	726.309082	1653.532715	732.773438	0.697173
332.029999	722.816895	1672.405762	727.052185	0.446013
332.397766	724.302917	1703.910156	737.603210	1.357717
332.765503	718.433044	1737.197632	745.702148	2.676683
333.133240	714.494934	1766.547241	744.884766	2.888624
333.500916	710.185364	1796.268188	734.928223	2.278174
333.868561	710.185364	1808.231079	721.256531	1.008261
334.236176	714.346375	1803.252808	720.439148	0.559531
334.603790	705.429993	1800.057739	723.931396	1.690201
334.971344	696.439453	1795.971191	721.553711	2.284087
335.338867	695.919250	1801.469604	722.222412	2.379192
335.706360	707.436218	1796.714233	726.457703	1.746247
336.073853	719.250305	1806.076294	730.098572	0.998160
336.441284	724.005676	1819.748047	736.711426	1.159556
336.808655	716.501160	1825.989380	734.259460	1.600585
337.176086	711.745789	1811.351685	738.271790	2.412319
337.543396	708.922302	1769.890991	737.677429	2.710271
337.910706	716.055359	1744.702148	732.104675	1.560236
338.277954	711.225647	1752.206665	727.646545	1.577445
338.645264	708.922180	1823.240234	727.646484	1.680337
339.012421	710.482605	1903.635742	725.863281	1.289078
339.379669	714.940735	1971.548462	732.624817	1.407287
339.746796	721.702332	2014.792480	728.463867	0.522897
340.113953	719.176025	2035.820190	739.237732	1.523700
340.481018	716.055359	2041.987305	725.120300	0.683666
340.848114	711.225586	2034.111328	719.993347	0.662775
341.215118	712.414551	2032.773926	710.854187	-0.118177
341.582153	713.380432	2045.851196	724.302917	0.819717
341.949066	712.488770	2055.510498	727.795166	1.139698
342.316010	708.030579	2070.742676	737.305847	2.148309
342.682922	711.448547	2076.686768	724.525818	0.957875
343.049835	714.123474	2112.649170	731.138733	1.216657
343.416656	722.668213	2147.348633	732.624817	0.698866
343.783478	722.222473	2193.267822	746.742371	1.666835
344.150269	727.943787	2226.481201	742.432800	0.966877
344.516998	722.668274	2272.251465	737.083008	0.930233
344.883728	729.504150	2316.015625	739.237793	0.613525
345.250427	721.107910	2354.801758	741.763977	1.264378
345.617065	722.816833	2369.364990	735.745544	0.785201
345.983704	714.792175	2363.941162	728.909668	0.856047
346.350281	710.111084	2358.814209	727.126465	1.032046
346.716827	710.408203	2339.569824	728.686768	1.121961
347.083405	707.064636	2339.421143	723.114075	0.983207
347.449860	728.538269	2336.003174	736.265625	0.480717
347.816376	724.080078	2347.148682	748.228333	1.487815
348.182770	730.990173	2339.198242	760.265442	1.820366
348.549194	718.804504	2327.012451	745.553528	1.663281
348.915558	726.531982	2333.476807	736.637207	0.628847
349.281921	727.869446	2333.774170	726.680664	-0.074026
349.648193	725.417480	2360.523193	726.754944	0.081797
350.014526	718.878845	2379.395752	726.606262	0.465362
350.380737	715.237976	2425.612305	728.686829	0.786310
350.746948	720.885010	2459.568604	733.665039	0.735041
351.113159	721.628113	2489.215576	734.333801	0.718815
351.479309	718.284424	2502.664307	736.042725	0.995209
351.845428	706.916016	2507.494141	728.092468	1.176092
352.211517	713.603333	2528.224365	726.606384	0.716571
352.577576	712.117249	2552.744141	728.538269	0.892143
352.943604	713.900574	2591.901611	730.098572	0.862513
353.309601	706.767517	2626.006836	729.801331	1.200153
353.675537	710.482666	2678.464600	726.457703	0.811747
354.041473	710.854187	2735.231689	730.395752	0.965312
354.407379	713.008972	2789.472900	734.779602	1.048447
354.773254	713.677673	2842.004883	734.853943	0.994972
355.139038	718.210144	2883.911377	730.024231	0.545509
355.504913	722.965515	2945.731445	732.624939	0.434568
355.870636	717.690002	3000.864014	731.658936	0.611821
356.236389	719.101746	3061.420654	733.144958	0.599543
356.602081	717.244141	3132.305420	723.039734	0.239977
356.967804	725.491760	3216.416016	721.182190	-0.173011
357.333405	724.525879	3306.619873	723.857117	-0.025900
357.699036	717.689941	3371.411865	731.807556	0.531993
358.064606	714.717834	3452.253174	734.853943	0.735556
358.430176	706.990417	3503.967529	734.036621	0.966980
358.795654	710.779785	3555.608154	738.346191	0.969001
359.161163	710.259705	3564.004639	741.020996	1.077927
359.526581	713.900574	3563.260986	742.507080	1.003962
359.892029	717.541321	3581.317139	737.157288	0.684969
360.257416	720.290527	3622.480469	738.866211	0.640057
360.622772	721.033630	3739.878906	732.624817	0.383961
360.988098	717.987122	3859.283203	725.788879	0.248361
361.353394	714.643616	4005.733643	721.702332	0.214480
361.718658	724.971680	4135.243652	721.256531	-0.108940
362.083893	721.925293	4246.177246	724.377258	0.069574
362.449097	727.646545	4339.130371	727.126465	-0.014401
362.814209	719.993408	4355.328125	730.692932	0.294320
363.179382	716.129578	4294.103027	735.968445	0.554472
363.544434	711.597168	4138.810059	740.203674	0.834687
363.909546	708.104980	3942.725342	737.157288	0.898167
364.274536	707.882080	3782.825928	729.504089	0.703168
364.639587	702.978027	3654.579346	727.869446	0.843319
365.004517	706.395996	3606.505127	725.194580	0.648203
365.369507	705.207214	3575.446533	724.228699	0.662714
365.734344	708.922302	3576.561523	724.080078	0.528580
366.099274	711.820068	3574.481201	732.030457	0.706000
366.464081	716.055359	3571.806396	738.717590	0.793565
366.828918	718.358704	3575.892822	734.482422	0.564253
367.193665	710.111084	3588.375732	732.030457	0.761548
367.558411	715.238037	3597.514893	737.603088	0.775951
367.923126	713.529053	3601.898682	741.392578	0.964680
368.287781	725.045959	3595.582764	749.640137	0.856780
368.652435	719.398926	3590.456055	747.633972	0.983437
369.017059	722.965515	3582.357178	749.491516	0.927680
369.381653	719.621887	3577.601563	747.336731	0.969736
369.746185	719.250305	3561.849609	746.890930	0.972371
370.110687	711.374268	3562.666992	749.119934	1.323809
370.475220	703.795410	3567.645264	748.154114	1.548919
370.839661	710.482666	3613.044189	746.222229	1.231311
371.204041	711.002747	3675.458740	743.770203	1.105345
371.568451	714.272034	3733.340088	747.411072	1.097658
371.932770	711.374207	3775.618408	748.005432	1.195441
372.297150	713.231750	3786.837891	741.764099	0.928302
372.661377	717.764343	3806.156982	729.058289	0.365690
373.025696	713.380432	3831.642578	725.343079	0.383632
373.389862	717.690002	3850.515625	721.999512	0.137560
373.754059	716.575439	3860.175049	729.355530	0.406543
374.118225	718.507324	3882.317139	733.293518	0.467354
374.482361	713.677551	3906.242432	738.494812	0.777346
374.846436	712.785950	3954.464844	739.460632	0.822866
375.210510	706.916016	4002.093018	737.825989	0.938037
375.574524	709.145203	4094.080078	738.643311	0.871453
375.938538	706.098816	4173.509766	738.271912	0.927871
376.302460	713.008972	4258.140625	732.253357	0.542840
376.666412	720.067688	4345.892090	730.098633	0.276653
377.030304	719.770508	4441.667969	728.018066	0.221596
377.394196	719.547546	4543.834473	734.110840	0.380811
377.757996	719.844727	4610.706543	740.352295	0.527070
378.121796	724.451477	4661.084473	736.265686	0.300109
378.485565	721.256531	4664.279297	734.853943	0.344847
378.849304	713.900574	4633.740723	734.408142	0.523174
379.212982	712.414551	4571.177734	736.042725	0.612325
379.576630	718.953186	4488.924805	741.912659	0.609009
379.940277	717.095642	4406.819824	730.990173	0.376574
380.303864	719.101746	4361.272949	735.002502	0.436574
380.667450	715.758118	4348.863770	730.470032	0.404940
381.030945	719.101746	4373.606934	732.847717	0.376138
381.394501	720.810730	4406.373535	732.253235	0.310468
381.757935	729.504089	4431.488770	732.476257	0.080286
382.121399	732.922058	4442.039551	729.504150	-0.092149
382.484741	729.875671	4457.940918	730.618652	0.019929
382.848145	725.120300	4497.246582	731.510315	0.169401
383.211487	716.055359	4538.707520	742.135559	0.682254
383.574768	719.101746	4594.583496	745.776428	0.688293
383.938019	721.256531	4655.362793	740.872375	0.498610
384.301270	728.240967	4732.785645	743.175781	0.372947
384.664459	718.210144	4788.142090	744.810486	0.653582
385.027649	714.792175	4835.249512	752.686523	0.919664
385.390778	708.996582	4867.794434	752.240723	1.039823
385.753876	719.696106	4902.121582	749.119934	0.703511
386.116943	716.426819	4921.218262	752.835144	0.865877
386.479980	720.959290	4944.846191	754.766907	0.800391
386.842987	712.042969	4980.511719	755.732910	1.023551
387.205994	717.021240	5023.532715	755.807312	0.900638
387.568909	716.426819	5070.269043	750.011719	0.771385
387.931793	719.027405	5103.259277	749.342957	0.691468
388.294678	712.637390	5149.327148	749.417236	0.828993
388.657471	715.163757	5178.824707	751.274902	0.809003
389.020294	722.816895	5195.023438	772.525391	1.111498
389.383057	730.024231	5209.363770	781.367371	1.146221
389.745819	723.114075	5229.573730	790.878113	1.503709
390.108521	717.095520	5250.453125	786.271423	1.525931
390.471191	705.281433	5288.273438	793.627258	1.927689
390.833801	715.312317	5364.359863	801.800598	1.860344
391.196442	710.928406	5474.253418	809.750977	2.074655
391.558960	717.392761	5571.589844	820.153381	2.116944
391.921509	712.117371	5690.102051	839.917969	2.567316
392.284027	716.798340	5802.670410	857.973450	2.775829
392.646484	718.953125	5888.787598	865.923889	2.842852
393.008911	721.479431	5902.904785	881.007324	3.078842
393.371307	717.392761	5904.316895	900.325989	3.526815
393.733673	713.008972	5889.308594	919.644775	3.991960
394.096008	708.550781	5866.051270	934.133850	4.373884
394.458344	718.655945	5853.642578	950.034607	4.505925
394.820587	719.398987	5875.115723	969.576172	4.852423
395.182831	724.451477	5910.707031	989.192078	5.104658
395.545013	712.414490	5902.459473	1009.179504	5.717966
395.907196	714.271973	5874.818848	1034.814087	6.211398
396.269287	710.482605	5834.175781	1062.083130	6.862247
396.631409	717.244202	5773.693359	1081.996216	7.213600
396.993469	717.689941	5700.950684	1108.522339	7.842905
397.355530	717.541321	5643.737793	1134.305298	8.460157
397.717499	717.318420	5634.449707	1162.986328	9.063576
398.079468	719.398987	5616.914551	1184.236816	9.491299
398.441376	718.284424	5627.539551	1209.871216	10.013471
398.803284	713.826233	5629.025879	1237.288940	10.649877
399.165131	704.389832	5662.907715	1272.805542	11.463419
399.526978	706.618896	5658.449219	1307.876343	12.142126
399.888763	713.157532	5685.718750	1340.792603	12.621968
400.250519	713.380371	5698.424316	1373.857300	13.249169
400.612244	711.522888	5735.427246	1405.658813	13.816663
400.973938	707.882019	5731.488770	1423.342896	14.241976
401.335602	714.272034	5740.182129	1444.073242	14.520777
401.697205	718.284485	5767.376953	1481.298950	15.111914
402.058807	715.906738	5818.645996	1531.973511	15.992720
402.420349	719.547607	5888.341797	1580.121704	16.649418
402.781860	716.203918	5955.140137	1612.889160	17.115789
403.143341	720.216309	6031.151855	1645.805298	17.427984
403.504822	720.810730	6139.634277	1683.773804	17.770702
403.866241	718.730225	6273.081543	1714.981079	17.936403
404.227631	714.792175	6397.687012	1753.469849	18.277264
404.588959	708.699402	6538.045410	1799.611938	18.714149
404.950287	711.225647	6646.527344	1855.933472	19.286428
405.311554	708.699402	6729.894531	1905.047485	19.868948
405.672821	703.944031	6768.086426	1940.341309	20.388657
406.034027	701.714844	6772.395996	1954.384399	20.634745
406.395203	702.458008	6747.429688	1963.523804	20.861401
406.756348	709.739563	6707.975098	1963.375000	20.900072
407.117493	710.333984	6669.857910	1974.966309	21.220358
407.478516	717.912903	6670.006348	1992.799194	21.419125
407.839600	718.953125	6679.591797	2015.535767	21.752411
408.200592	719.547546	6698.241699	2042.061890	22.120455
408.561554	715.535217	6709.164063	2069.776611	22.594683
408.922485	719.844727	6702.923340	2094.147705	22.969830
409.283417	718.284363	6705.746582	2109.082764	23.228510
409.644257	722.148132	6752.929199	2138.506592	23.485487
410.005096	718.284424	6833.695801	2176.401123	23.843315
410.365906	717.541443	6911.119141	2220.759521	24.270594
410.726715	711.968689	6998.424316	2252.932861	24.512447
411.087433	708.476379	7070.869629	2274.183350	24.608776
411.448120	711.745789	7143.983887	2293.353271	24.588757
411.808807	712.117249	7160.330078	2310.368408	24.785955
412.169434	713.974792	7133.507324	2319.804932	25.014750
412.530029	719.027405	7114.411621	2329.464355	25.181240
412.890564	719.324707	7116.491699	2339.123779	25.320568
413.251099	720.364929	7153.717285	2361.786377	25.514246
413.611572	717.987244	7191.537109	2385.043213	25.751804
413.972076	726.680664	7230.769531	2408.968506	25.865080
414.332489	724.748779	7259.673340	2433.860107	26.153496
414.692871	724.377258	7348.910645	2473.983398	26.411011
415.053223	710.928406	7440.005859	2489.884521	26.436848
415.413574	710.854187	7607.484375	2534.019775	26.435598
415.773834	707.807800	7715.445801	2565.895996	26.515184
416.134094	716.872620	7844.138184	2619.765381	26.698778
416.494263	717.467102	7919.257813	2661.077637	26.987881
416.854462	720.959290	8098.326660	2713.089600	27.003269
417.214630	721.702332	8296.046875	2780.110352	27.176054
417.574738	718.730225	8534.485352	2833.459961	27.057268
417.934784	722.965515	8746.098633	2902.635742	27.167318
418.294861	720.364807	8980.079102	2980.208008	27.359825
418.654846	727.869446	9246.528320	3074.349609	27.545183
419.014832	726.606262	9552.878906	3152.144287	27.480888
419.374756	726.457703	9887.463867	3232.391357	27.354349
419.734680	726.457703	10241.739258	3335.152344	27.415844
420.094543	720.067688	10582.714844	3444.154297	27.620237
420.454376	717.392761	10901.769531	3548.029297	27.793909
420.814148	712.191589	11229.370117	3635.780518	27.798223
421.173920	714.866516	11599.174805	3735.197266	27.749405
421.533691	719.250305	11943.196289	3829.933594	27.714703
421.893341	710.111084	12236.989258	3902.675781	27.696699
422.253021	704.241211	12446.225586	3947.480469	27.620878
422.612640	701.269104	12561.840820	3977.350342	27.621614
422.972260	707.956360	12570.905273	3999.418701	27.745735
423.331757	706.321716	12523.945313	4014.799072	27.996130
423.691315	714.792175	12524.094727	4032.111572	28.090731
424.050781	724.228577	12599.883789	4046.526367	27.975702
424.410248	727.275085	12638.372070	4071.640625	28.077730
424.769653	715.981018	12699.746094	4087.987061	28.138121
425.128998	711.002747	12749.901367	4111.689941	28.247496
425.488373	717.912903	12747.226563	4099.355957	28.110025
425.847656	728.315247	12663.635742	4073.126709	28.024481
426.206940	734.036621	12549.284180	4042.513672	28.001757
426.566193	735.299744	12366.276367	3999.417969	28.064007
426.925385	726.309082	12150.796875	3951.567383	28.231096
427.284576	719.919006	11821.710938	3862.181396	28.304102
427.643677	709.516602	11623.694336	3814.032959	28.444803
428.002777	716.129639	11403.832031	3751.618408	28.401697
428.361847	713.306152	11186.050781	3696.708984	28.487307
428.720856	714.643555	10937.805664	3631.025391	28.527199
429.079865	711.671387	10778.426758	3599.818359	28.689947
429.438812	713.454773	10680.421875	3593.502686	28.895931
429.797760	722.965515	10604.632813	3580.648438	28.919037
430.156616	720.216309	10479.804688	3543.942627	28.932844
430.515503	716.872620	10393.018555	3504.264893	28.806847
430.874268	715.089355	10357.056641	3497.577393	28.858095
431.233093	717.095520	10401.266602	3509.540283	28.835146
431.591827	718.210144	10461.823242	3521.205811	28.767517
431.950562	714.866516	10494.145508	3543.942383	28.929289
432.309204	707.956360	10523.420898	3562.518311	29.082291
432.667877	706.470215	10595.493164	3617.799561	29.440008
433.026459	700.971863	10707.616211	3637.415283	29.344934
433.385010	712.785950	10826.649414	3673.972656	29.278494
433.743561	712.860352	10941.817383	3698.938232	29.192398
434.102051	717.318420	11065.754883	3740.547607	29.214357
434.460510	716.724060	11202.472656	3789.438721	29.303720
434.818939	719.027344	11298.916992	3806.008545	29.177820
435.177338	716.278259	11341.567383	3820.720459	29.217484
435.535675	716.798340	11352.340820	3804.225342	29.029331
435.894012	711.522888	11318.757813	3799.098389	29.108202
436.252289	716.055359	11338.745117	3814.627197	29.169373
436.610535	706.395996	11322.472656	3829.710938	29.420616
436.968719	719.621826	11427.461914	3861.660889	29.343351
437.326935	719.176025	11507.485352	3883.877686	29.334547
437.685028	725.045898	11600.140625	3916.942139	29.350513
438.043152	718.507324	11664.932617	3948.372314	29.506115
438.401215	715.460938	11825.054688	3978.390625	29.370378
438.759277	715.832458	12000.558594	4030.996826	29.377445
439.117249	717.838623	12296.803711	4105.448242	29.256584
439.475250	722.371094	12504.850586	4179.156738	29.338354
439.833130	714.866455	12797.453125	4269.435059	29.418938
440.191071	714.197754	12995.395508	4349.532715	29.600819
440.548889	708.922302	13228.930664	4415.959473	29.608902
440.906708	715.312317	13456.296875	4469.605957	29.466276
441.264496	714.717957	13653.645508	4497.617676	29.236578
441.622223	723.336975	13831.452148	4547.623535	29.174953
441.979950	724.748718	13937.926758	4569.394531	29.097055
442.337616	718.210022	14000.862305	4626.384766	29.423151
442.695251	718.953125	13931.983398	4618.062988	29.509581
443.052887	713.826233	13806.932617	4598.224121	29.667505
443.410461	719.250305	13684.554688	4551.636230	29.558781
443.768005	707.659119	13583.502930	4525.481445	29.651045
444.125458	709.219482	13503.553711	4502.968262	29.651789
444.482941	713.008972	13487.429688	4500.590332	29.649731
444.840393	726.234863	13532.828125	4546.509277	29.830526
445.197754	731.584656	13727.206055	4610.558105	29.848310
445.555084	724.525879	13923.809570	4687.684082	30.025557
445.912415	716.649719	14221.391602	4771.943848	30.028667
446.269714	706.470215	14429.067383	4836.513184	30.096655
446.626953	707.436218	14668.026367	4893.726074	29.986485
446.984161	707.584778	14931.502930	4948.933105	29.818424
447.341309	715.758118	15143.042969	5019.074707	29.827623
447.698456	726.606262	15368.924805	5082.677246	29.749870
448.055542	719.101746	15474.583008	5125.179199	29.860617
448.412598	719.696106	15530.903320	5143.233887	29.866152
448.769653	711.002686	15442.781250	5123.543945	29.952536
449.126617	715.163635	15251.897461	5059.198242	29.883156
449.483582	720.810730	15078.696289	5008.375488	29.862091
449.840515	720.439148	14827.331055	4964.313965	30.083700
450.197388	724.971619	14690.613281	4928.648438	30.100134
450.554230	720.810608	14526.403320	4900.487793	30.275246
450.911041	720.141907	14434.789063	4857.243652	30.165569
451.267822	720.810730	14322.592773	4842.902832	30.305531
451.624573	718.507324	14221.465820	4795.572266	30.193863
451.981262	722.073792	14139.807617	4778.928223	30.235022
452.337921	725.789001	14008.663086	4735.386719	30.186220
452.694580	724.897278	13916.899414	4733.677734	30.387962
453.051147	723.188416	13910.881836	4735.015137	30.420988
453.407715	722.296692	13885.023438	4736.278320	30.495062
453.764221	732.847717	13982.804688	4771.720215	30.482157
454.120728	734.110901	13850.472656	4747.200684	30.596060
454.477142	732.847717	13859.834961	4748.983887	30.594501
454.833557	719.473328	13706.176758	4708.860840	30.719017
455.189911	717.095520	13602.598633	4697.937988	30.893963
455.546265	709.962463	13405.250977	4660.267090	31.116306
455.902557	710.111145	13280.273438	4620.143066	31.105661
456.258820	711.374207	13285.401367	4618.954590	31.076601
456.615051	712.637390	13368.321289	4649.121094	31.104473
456.971252	720.439209	13369.659180	4663.609863	31.173233
457.327393	717.764343	13481.039063	4699.126465	31.193892
457.683502	724.600098	13650.674805	4769.714355	31.294222
458.039612	723.559875	13995.437500	4893.131348	31.416588
458.395630	729.132629	14336.413086	5026.207520	31.579233
458.751648	724.897278	14651.679688	5103.333496	31.438963
459.107605	716.798340	15113.694336	5228.756836	31.339800
459.463562	716.278137	15583.657227	5354.551270	31.197651
459.819458	717.318420	16059.121094	5505.162598	31.207834
460.175323	714.643555	16490.892578	5622.784668	31.110950
460.531158	712.191589	16941.169922	5738.325684	30.970121
460.886932	707.584778	17254.875000	5851.785156	31.087870
461.242676	713.008972	17491.603516	5933.740723	31.115433
461.598419	713.900574	17470.724609	5945.629395	31.221483
461.954102	714.346375	17313.130859	5891.611328	31.190626
462.309723	712.563049	16884.847656	5760.020996	31.210545
462.665344	709.293762	16388.357422	5620.927246	31.326063
463.020905	718.507324	15981.178711	5502.710938	31.345781
463.376373	728.538269	15618.135742	5436.952637	31.622175
463.731873	735.596985	15345.592773	5369.114746	31.714708
464.087341	728.686768	15084.418945	5298.081055	31.829756
464.442749	728.315247	14968.358398	5243.839844	31.710047
464.798126	727.349304	14849.995117	5197.772949	31.654295
465.153503	730.915833	14889.002930	5210.552246	31.640123
465.508820	721.107849	14883.207031	5215.530762	31.735569
465.864105	722.371094	14995.032227	5263.307129	31.815622
466.219330	715.089355	15188.070313	5327.281738	31.867605
466.574524	711.002747	15354.805664	5382.562988	31.901278
466.929657	706.395996	15500.514648	5417.411621	31.843840
467.284790	720.290527	15632.698242	5468.085938	31.837885
467.639893	730.915833	15831.309570	5524.259277	31.743168
467.994934	725.417480	16075.245117	5612.010254	31.834837
468.349945	713.751953	16213.077148	5640.914063	31.789526
468.704926	716.575439	16264.346680	5650.201660	31.732046
469.059875	722.742493	16134.167969	5617.730957	31.762074
469.414764	729.206848	15961.116211	5588.456543	31.901775
469.769653	722.965515	15811.023438	5565.570313	32.095615
470.124451	723.559875	15728.995117	5547.515137	32.148052
470.479248	708.699402	15605.726563	5506.723145	32.207928
470.834015	700.377441	15492.786133	5487.106934	32.359367
471.188721	699.931641	15530.680664	5500.630371	32.369900
471.543365	711.894348	15587.596680	5530.277344	32.390961
471.898010	722.371033	15709.825195	5567.279785	32.326427
472.252625	728.835266	15817.713867	5594.103027	32.244064
472.607178	732.253235	16022.043945	5664.988281	32.261623
472.961700	728.835388	16192.272461	5727.179688	32.323631
473.316193	731.287415	16396.900391	5789.965332	32.291603
473.670654	729.281250	16576.789063	5843.240234	32.269798
474.025055	736.191345	16826.369141	5899.189941	32.087891
474.379456	725.343201	17046.677734	5981.889160	32.206593
474.733795	723.708496	17212.597656	6038.210938	32.230812
475.088104	721.182190	17339.580078	6103.894531	32.390079
475.442383	724.080078	17354.589844	6116.748535	32.426357
475.796570	727.869446	17448.730469	6144.389160	32.393784
476.150787	731.584656	17552.085938	6195.509277	32.483719
476.504944	735.894226	17716.220703	6251.458496	32.482086
476.859070	736.934387	17886.224609	6324.201172	32.580162
477.213135	735.374023	18069.306641	6381.265625	32.571323
477.567200	722.445313	18411.396484	6490.119629	32.606083
477.921173	711.894348	18778.080078	6590.947754	32.541752
478.275146	703.275208	19240.169922	6734.798340	32.537937
478.629089	710.854187	19547.263672	6836.816406	32.521919
478.983002	718.655945	19922.267578	6945.595215	32.425877
479.336823	718.730164	20216.656250	7028.591309	32.361706
479.690643	720.810730	20566.845703	7156.169434	32.426422
480.044403	720.364929	20941.851563	7332.786621	32.699978
480.398163	729.206848	21520.818359	7528.648438	32.702812
480.751862	724.005676	22252.921875	7763.371094	32.697258
481.105499	719.398926	23140.541016	8039.257813	32.647125
481.459137	719.027405	24271.130859	8439.526367	32.780506
481.812744	722.891113	25659.625000	8936.239258	32.936741
482.166290	728.612488	27348.080078	9554.883789	33.157207
482.519806	724.897278	29367.255859	10229.255859	33.182877
482.873291	724.377258	31705.341797	11040.567383	33.298481
483.226715	724.822998	34387.449219	11893.933594	33.179558
483.580139	723.262695	37057.144531	12786.161133	33.200134
483.933502	719.993347	39977.246094	13676.084961	33.003052
484.286804	727.275085	42839.312500	14581.983398	32.899635
484.640106	725.343079	45620.015625	15438.543945	32.772713
484.993347	723.485535	47723.156250	16120.644531	32.760143
485.346558	707.584778	48929.683594	16580.726563	32.916737
485.699738	706.916016	49084.972656	16743.820313	33.149132
486.052887	706.767395	48293.871094	16593.431641	33.384388
486.405975	710.631165	46882.863281	16192.198242	33.530041
486.759064	714.049133	45068.386719	15613.973633	33.592937
487.112061	730.098572	43296.121094	14974.450195	33.464134
487.464996	727.275085	41899.453125	14434.416992	33.292240
487.817963	721.479492	41166.160156	14104.215820	33.088989
488.170868	702.086426	40982.484375	13996.328125	33.004246
488.523743	705.429993	41161.851563	14005.690430	32.875523
488.876587	708.773682	41324.277344	14039.200195	32.821030
489.229401	715.312317	41310.082031	14069.739258	32.896915
489.582153	711.002747	40843.683594	13983.475586	33.071484
489.934845	712.265930	40112.917969	13818.375000	33.263687
490.287537	713.008850	39195.722656	13564.481445	33.395443
490.640198	718.507324	38341.910156	13305.463867	33.455128
490.992798	714.272034	37521.687500	13024.747070	33.445637
491.345337	704.241211	37024.453125	12852.141602	33.446667
491.697876	701.937805	36823.312500	12733.629883	33.309067
492.050354	711.225586	37062.566406	12747.375977	33.110611
492.402832	721.479431	37355.691406	12767.437500	32.881718
492.755219	727.720886	37559.578125	12798.049805	32.771439
493.107605	723.782776	37448.421875	12784.006836	32.839596
493.459930	727.126465	36953.269531	12670.471680	32.968857
493.812225	721.256531	35934.730469	12395.403320	33.152500
494.164490	715.163757	34496.527344	11939.631836	33.226807
494.516724	705.207214	32786.671875	11382.954102	33.283230
494.868896	707.510559	31028.296875	10825.386719	33.369438
495.221039	712.488770	29513.931641	10343.681641	33.439968
495.573120	720.662109	28248.187500	9933.604492	33.468109
495.925201	734.853943	27552.193359	9662.547852	33.290752
496.277222	737.900330	27067.587891	9517.659180	33.345474
496.629211	736.934387	26927.306641	9446.476563	33.254745
496.981140	713.008972	26779.517578	9407.244141	33.354046
497.333069	717.689941	26864.890625	9400.631836	33.207920
497.684967	724.377197	26923.591797	9422.327148	33.199280
498.036804	730.247070	27043.367188	9466.463867	33.200989
498.388580	717.987122	27032.218750	9485.188477	33.317337
498.740326	711.151367	26997.818359	9482.885742	33.369518
499.092072	714.643555	26801.658203	9440.458008	33.448879
499.443756	717.764343	26573.031250	9346.911133	33.374809
499.795410	713.900574	26276.638672	9254.180664	33.409100
500.147003	711.522888	26052.466797	9154.987305	33.319458
500.498566	716.575439	25720.333984	9075.112305	33.429123
500.850098	720.142029	25409.896484	8988.399414	33.488621
501.201599	722.668274	25101.093750	8898.493164	33.537132
501.553009	714.197754	24851.958984	8811.708008	33.547062
501.904449	714.494934	24669.617188	8760.141602	33.586330
502.255859	719.324646	24497.828125	8720.612305	33.649246
502.607178	725.937561	24435.041016	8712.736328	33.686634
502.958405	726.011902	24329.312500	8683.535156	33.713604
503.309692	719.621887	24229.820313	8670.979492	33.820885
503.660919	713.751953	24186.873047	8672.910156	33.907539
504.012115	713.826233	24188.431641	8691.708984	33.985161
504.363251	712.191589	24262.587891	8694.235352	33.893459
504.714294	718.507324	24321.806641	8713.778320	33.873531
505.065369	718.135742	24390.833984	8706.050781	33.743153
505.416443	727.200745	24454.289063	8734.508789	33.747540
505.767395	729.727051	24530.748047	8738.965820	33.650818
506.118317	722.296692	24532.974609	8762.891602	33.768860
506.469238	713.306152	24578.671875	8783.176758	33.814152
506.820160	708.327820	24557.271484	8799.002930	33.924671
507.170929	720.736389	24604.898438	8821.144531	33.915398
507.521729	727.126465	24616.568359	8839.200195	33.956734
507.872498	728.463867	24709.669922	8842.916016	33.836712
508.223236	722.816895	24875.806641	8881.479492	33.779099
508.573883	718.655945	25031.546875	8918.630859	33.726860
508.924500	720.216309	25186.095703	8992.190430	33.810249
509.275116	721.627991	25287.593750	9068.573242	33.977680
509.625702	723.857117	25526.476563	9151.643555	33.979420
509.976196	714.792175	25758.820313	9240.360352	34.042320
510.326660	715.609558	26026.087891	9320.237305	33.996307
510.677124	714.643555	26258.656250	9423.442383	34.093307
511.027557	732.402039	26482.083984	9508.296875	34.081566
511.377869	728.909668	26710.937500	9579.850586	34.065632
511.728180	729.058289	26833.462891	9622.127930	34.067314
512.078430	722.073792	26955.318359	9673.321289	34.121769
512.428650	723.931396	27047.677734	9722.956055	34.185955
512.778931	728.240967	27163.068359	9755.129883	34.147713
513.129028	721.256531	27206.833984	9734.250977	34.029819
513.479126	713.306152	27283.958984	9754.907227	34.028526
513.829285	705.281494	27295.476563	9773.259766	34.102715
514.179382	708.550781	27308.626953	9802.981445	34.189491
514.529297	717.244141	27276.751953	9780.245117	34.123379
514.879272	720.959290	27306.398438	9787.229492	34.102390
515.229187	722.593933	27204.380859	9797.111328	34.267014
515.579163	723.411316	27211.216797	9822.819336	34.353199
515.928955	724.228699	27226.671875	9835.227539	34.377960
516.278748	725.863281	27430.335938	9902.249023	34.362728
516.628540	728.835449	27629.095703	9986.360352	34.414261
516.978333	732.179016	27993.921875	10113.789063	34.413097
517.327942	728.984070	28433.646484	10236.759766	34.318321
517.677612	724.154297	28965.281250	10411.148438	34.301018
518.027222	721.925293	29419.568359	10568.745117	34.312298
518.376831	721.479492	30026.173828	10766.686523	34.278488
518.726379	719.547546	30598.751953	10968.121094	34.300018
519.075867	712.711670	31072.060547	11142.510742	34.354488
519.425293	709.665283	31522.853516	11314.520508	34.416615
519.774658	713.900452	31871.259766	11411.188477	34.333103
520.124084	720.439148	32157.623047	11491.659180	34.262672
520.473389	724.823059	32137.857422	11444.402344	34.124622
520.822693	723.262695	31971.642578	11388.081055	34.129189
521.171997	722.148132	31658.755859	11294.309570	34.173630
521.521240	719.101746	31316.962891	11216.291992	34.306942
521.870361	718.730225	30860.447266	11113.606445	34.486675
522.219482	714.197754	30531.656250	11006.833008	34.518818
522.568604	716.278137	30211.931641	10905.632813	34.545273
522.917664	714.643555	30045.943359	10826.575195	34.474884
523.266724	716.129578	30007.380859	10798.710938	34.421818
523.615662	714.717834	30135.255859	10871.379883	34.522354
523.964600	709.516602	30464.041016	10988.852539	34.547138
524.313538	712.340149	30863.494141	11185.160156	34.734394
524.662354	712.042969	31427.748047	11391.051758	34.767258
525.011169	726.531982	32110.068359	11663.668945	34.849918
525.359985	727.869446	32947.609375	11930.043945	34.768047
525.708740	724.080078	33925.511719	12256.679688	34.735249
526.057434	722.742676	35071.777344	12640.526367	34.696121
526.406067	724.005798	36418.214844	13139.916992	34.784103
526.754700	727.349304	37873.136719	13716.653320	34.968441
527.103333	724.971680	39587.597656	14350.010742	35.059494
527.451782	720.439209	41453.933594	15074.089844	35.237953
527.800293	722.445374	43406.980469	15768.671875	35.249832
528.148743	717.095520	45348.957031	16505.830078	35.375477
528.497131	715.460938	47227.625000	17163.333984	35.362518
528.845642	718.730225	48994.613281	17774.771484	35.330357
529.193909	721.256531	50521.761719	18304.251953	35.306866
529.542175	721.553711	51758.160156	18768.869141	35.361515
529.890503	720.736389	52567.464844	19158.736328	35.562515
530.238770	718.507324	52871.660156	19384.763672	35.791233
530.586914	723.262695	52737.324219	19391.226563	35.890228
530.934998	724.228699	52029.957031	19143.500000	35.901005
531.283142	726.532043	50914.230469	18711.726563	35.835865
531.631226	727.497864	49142.109375	18047.388672	35.774097
531.979248	723.336914	47148.421875	17265.871094	35.632751
532.327148	718.804504	45087.707031	16450.919922	35.457527
532.675110	712.265930	43406.906250	15790.590820	35.316669
533.023071	708.773682	42296.300781	15369.518555	35.252747
533.370850	712.191589	41753.449219	15121.718750	35.109859
533.718689	710.928406	41764.144531	15107.155273	35.067234
534.066467	713.157532	42032.378906	15120.901367	34.869350
534.414246	713.454773	42280.476563	15201.816406	34.855423
534.761963	715.163635	42492.832031	15239.710938	34.766293
535.109619	715.683838	42556.585938	15304.874023	34.868252
535.457153	718.581604	42291.250000	15238.372070	34.926289
535.804749	720.662109	41665.625000	15081.372070	35.073204
536.152344	719.621826	40842.199219	14819.231445	35.141335
536.499817	713.677551	39892.757813	14500.399414	35.188988
536.847229	712.563049	38922.660156	14109.566406	35.061420
537.194641	712.488770	38019.589844	13750.907227	34.948891
537.542114	720.364929	37388.906250	13487.503906	34.817688
537.889404	718.507324	36870.945313	13293.202148	34.782429
538.236694	720.364929	36469.933594	13176.324219	34.842262
538.583984	715.163757	36193.230469	13102.096680	34.914341
538.931213	716.501160	36103.621094	13088.350586	34.961449
539.278381	716.203918	35997.140625	13081.661133	35.048550
539.625488	716.872620	35928.781250	13096.002930	35.156086
539.972595	716.872620	35981.687500	13173.648438	35.323524
540.319641	718.433044	36286.480469	13312.297852	35.407806
540.666687	720.587708	36854.519531	13506.526367	35.384850
541.013611	725.863220	37734.414063	13773.791992	35.256523
541.360596	726.977844	38782.378906	14082.445313	35.094803
541.707458	723.931458	40076.437500	14463.543945	34.914196
542.054260	724.674500	41293.957031	14858.018555	34.837551
542.401062	713.900574	42513.488281	15251.672852	34.779705
542.747864	718.358704	43351.476563	15567.014648	34.828926
543.094666	713.306152	43804.644531	15757.971680	34.913433
543.441284	724.674500	43765.417969	15773.129883	34.963280
543.787903	720.810730	43305.558594	15648.524414	35.054134
544.134460	717.764221	42400.921875	15328.057617	35.050831
544.481079	724.228699	41146.246094	14924.518555	35.130089
544.827637	730.024231	39654.621094	14401.577148	35.123169
545.174072	732.253357	38064.316406	13851.067383	35.140877
545.520508	717.838562	36657.394531	13327.083008	35.084587
545.866943	704.018250	35460.972656	12887.360352	35.052963
546.213318	711.968750	34546.457031	12594.905273	35.120781
546.559631	717.244141	33745.324219	12308.691406	35.095737
546.905823	724.377197	33065.750000	12064.979492	35.065308
547.252136	721.256531	32524.458984	11825.500977	34.915489
547.598389	723.262695	32072.250000	11662.183594	34.894016
547.944458	719.919128	31692.708984	11546.418945	34.954876
548.290588	725.714661	31299.500000	11395.734375	34.899242
548.636658	728.166687	30846.552734	11248.911133	34.931301
548.982727	735.374023	30329.107422	11047.922852	34.847069
549.328735	725.045959	29772.208984	10871.826172	34.932087
549.674622	725.343201	29126.146484	10656.793945	34.968910
550.020569	725.343201	28487.884766	10424.152344	34.934875
550.366455	721.999573	27758.679688	10170.780273	34.948006
550.712280	715.906738	27119.228516	9933.084961	34.909161
551.058044	715.609558	26539.224609	9757.581055	35.014351
551.403748	724.228577	26106.929688	9588.914063	34.924122
551.749512	726.383301	25763.578125	9483.924805	34.978123
552.095154	723.634094	25500.916016	9382.874023	34.948307
552.440735	722.296692	25368.212891	9354.118164	35.023335
552.786316	720.662109	25329.423828	9324.768555	34.963589
553.131897	722.891174	25362.267578	9337.325195	34.962059
553.477417	719.844788	25388.646484	9359.393555	35.022167
553.822815	724.600098	25389.166016	9339.704102	34.929070
554.168213	724.080078	25361.599609	9326.254883	34.914940
554.513672	723.262695	25296.140625	9279.444336	34.819614
554.859009	715.089355	25214.626953	9262.428711	34.887760
555.204285	720.662109	25138.021484	9208.261719	34.760513
555.549500	724.525879	24990.009766	9159.741211	34.762196
555.894714	722.296692	24772.974609	9099.259766	34.830463
556.239990	710.556885	24452.281250	8984.983398	34.851837
556.585022	702.680847	24206.490234	8888.091797	34.825893
556.930115	706.618835	23968.718750	8793.950195	34.766129
557.275146	709.442383	23723.818359	8732.129883	34.859463
557.620178	707.807800	23499.427734	8679.449219	34.976196
557.965149	705.504395	23314.412109	8628.477539	35.043591
558.310059	703.349548	23207.490234	8591.846680	35.053535
558.654968	711.076965	23053.087891	8523.264648	34.966358
558.999756	711.076965	22917.931641	8454.907227	34.871349
559.344604	709.516663	22840.953125	8439.005859	34.925385
559.689331	710.705566	22779.208984	8439.452148	35.021614
560.033997	712.265869	22735.742188	8433.135742	35.057453
560.378723	719.473328	22697.994141	8393.905273	34.917873
560.723389	718.210144	22719.095703	8374.436523	34.799629
561.067932	718.655945	22712.412109	8353.037109	34.711586
561.412476	721.033630	22693.015625	8371.241211	34.818012
561.757019	722.965515	22686.478516	8356.232422	34.754307
562.101501	722.519592	22727.716797	8378.968750	34.793823
562.445862	723.485535	22747.181641	8363.514648	34.690044
562.790222	716.575439	22759.740234	8367.823242	34.710297
563.134644	716.649719	22760.705078	8368.269531	34.710583
563.478943	708.253601	22774.601563	8379.935547	34.766434
563.823181	717.467102	22761.599609	8396.133789	34.833153
564.167358	723.559875	22783.666016	8416.046875	34.870579
564.511536	727.423584	22809.968750	8423.253906	34.850285
564.855774	725.714600	22804.470703	8434.250977	34.913815
565.199768	720.959290	22864.728516	8446.808594	34.889492
565.543823	716.724060	22969.718750	8471.550781	34.848465
565.887817	712.265869	23166.474609	8521.258789	34.777412
566.231812	715.609558	23345.396484	8565.468750	34.688171
566.575745	710.482605	23544.156250	8616.588867	34.624767
566.919617	704.018311	23737.861328	8678.483398	34.620644
567.263428	697.554016	23935.208984	8745.281250	34.632271
567.607239	704.538391	24105.140625	8810.222656	34.638786
567.950989	714.792175	24210.873047	8856.661133	34.652031
568.294678	724.302917	24245.869141	8873.973633	34.647655
568.638367	724.748779	24190.068359	8856.066406	34.652489
568.981995	723.857117	24066.056641	8795.510742	34.579662
569.325623	723.931458	23938.107422	8750.112305	34.574482
569.669128	724.005676	23769.365234	8695.795898	34.591736
570.012573	721.479431	23629.453125	8638.806641	34.561447
570.356140	718.210144	23518.966797	8590.212891	34.525185
570.699524	718.730225	23457.515625	8567.996094	34.519283
571.042908	717.541321	23513.541016	8601.430664	34.584530
571.386230	715.015137	23564.212891	8622.831055	34.608727
571.729492	715.386536	23709.031250	8665.777344	34.576469
572.072815	713.306152	23846.046875	8696.092773	34.508610
572.416016	711.225647	23978.083984	8718.383789	34.414436
572.759094	716.872742	24119.181641	8752.563477	34.337173
573.102234	716.426819	24194.005859	8764.526367	34.279938
573.445374	724.228699	24239.406250	8807.621094	34.375214
573.788391	721.330872	24265.560547	8793.355469	34.284512
574.131409	728.389587	24305.833984	8809.850586	34.276237
574.474365	725.194580	24319.281250	8804.204102	34.241673
574.817261	726.829285	24206.119141	8790.011719	34.341682
575.160156	725.194519	24058.849609	8736.514648	34.333759
575.502930	719.176086	23837.576172	8659.908203	34.348103
575.845703	716.129639	23644.759766	8582.186523	34.306702
576.188477	718.655945	23373.478516	8503.946289	34.364826
576.531250	726.531982	23154.212891	8421.247070	34.309006
576.873901	724.377258	22906.859375	8346.944336	34.363003
577.216431	724.377258	22711.818359	8260.605469	34.275146
577.559082	718.878906	22495.521484	8177.980469	34.252762
577.901611	713.231750	22252.328125	8084.433105	34.222427
578.244080	703.721008	21997.320313	7996.681641	34.249542
578.586487	703.795410	21710.140625	7902.540527	34.269382
578.928955	750.977600	21566.587891	7953.660156	34.602314
579.271301	755.287170	21221.898438	7839.308594	34.612576
579.613647	757.293274	20829.060547	7713.662598	34.657482
579.955872	713.900574	20368.753906	7456.204590	34.303509
580.298157	716.501160	20097.326172	7358.644531	34.271729
580.640320	717.541443	19890.169922	7292.589355	34.293930
580.982483	716.649719	19665.402344	7238.720215	34.419525
581.324524	717.021301	19486.705078	7186.113281	34.465641
581.666626	718.433105	19350.582031	7119.092285	34.352772
582.008728	720.364929	19234.892578	7050.660156	34.190964
582.350647	722.668274	19065.484375	6993.743652	34.188179
582.692566	726.086243	18980.630859	6952.356934	34.108055
583.034424	727.052185	18874.525391	6926.945313	34.163948
583.376343	713.677673	18836.408203	6886.079590	34.058895
583.718201	705.727234	18800.519531	6868.395020	34.057686
584.059937	709.442383	18725.101563	6844.691895	34.055092
584.401611	716.872620	18656.966797	6830.277344	34.076771
584.743347	726.383301	18545.365234	6817.869141	34.185375
585.085022	718.135742	18471.136719	6773.213379	34.107349
585.426514	719.101746	18391.931641	6750.699219	34.129211
585.768127	706.916077	18303.806641	6690.662598	34.004566
586.109619	709.962585	18241.763672	6687.394043	34.094795
586.451172	712.711731	18169.615234	6655.591797	34.043148
586.792542	720.290527	18141.974609	6651.133301	34.042881
587.133850	725.566101	18088.328125	6606.626465	33.871689
587.475220	722.816833	18065.220703	6601.275879	33.896446
587.816589	722.371094	18042.853516	6596.817871	33.916183
588.157776	732.104736	18112.328125	6614.873535	33.847488
588.498962	734.928223	18151.041016	6614.279297	33.758114
588.840210	731.658875	18195.250000	6627.653809	33.761642
589.181335	729.949951	18225.638672	6657.598145	33.880623
589.522400	727.646545	18284.857422	6665.994629	33.822845
589.863403	727.349365	18342.369141	6659.827637	33.678524
590.204407	720.290527	18355.373047	6644.000488	33.590488
590.545410	720.885010	18385.240234	6655.220215	33.594971
590.886353	730.618652	18388.361328	6664.433594	33.604607
591.227112	725.714661	18395.125000	6656.557129	33.565594
591.567932	720.736389	18339.025391	6650.019043	33.654133
591.908752	708.104980	18278.841797	6635.083984	33.732105
592.249512	711.745789	18265.912109	6626.464844	33.694107
592.590149	719.547546	18237.306641	6589.091309	33.506248
592.930786	724.005676	18163.966797	6553.946777	33.428635
593.271423	712.265808	18016.923828	6519.990234	33.561626
593.612000	705.652893	17905.990234	6501.859863	33.698215
593.952576	711.448547	17877.978516	6495.469238	33.693592
594.292969	718.210144	17887.636719	6484.769531	33.586212
594.633484	716.203918	17931.251953	6490.490723	33.542088
594.973877	707.362000	17988.539063	6505.797363	33.553474
595.314209	715.089417	18114.335938	6558.626953	33.585003
595.654480	719.770508	18282.259766	6608.781250	33.531757
595.994812	720.142029	18439.408203	6652.545410	33.479961
596.335022	713.454773	18631.109375	6696.235840	33.390427
596.675171	715.535217	18798.513672	6754.488770	33.395790
597.015320	719.101807	18986.869141	6820.915527	33.402077
597.355408	726.160461	19077.224609	6842.686035	33.330631
597.695496	724.302917	19174.929688	6851.305176	33.207558
598.035461	719.919128	19216.689453	6846.252441	33.121101
598.375366	710.854065	19253.767578	6848.853027	33.101589
598.715271	705.281433	19244.998047	6832.060547	33.046780
599.055176	718.507324	19116.677734	6805.980469	33.087383
599.395081	721.553711	18955.218750	6761.993652	33.127956
599.734802	730.321472	18682.007813	6684.941406	33.170258
600.074524	719.621826	18420.982422	6580.100098	33.107502
600.414246	720.439209	18041.369141	6468.943359	33.188194
600.753906	725.343201	17676.541016	6371.606934	33.308937
601.093506	728.166687	17308.373047	6263.793457	33.386959
601.433044	732.922058	17063.025391	6160.363770	33.235809
601.772583	725.714661	16902.384766	6083.164063	33.118370
602.112122	732.030334	16836.998047	6029.442871	32.893036
602.451538	727.869446	16833.951172	6027.213379	32.902748
602.790894	727.275085	16883.212891	6035.386719	32.855488
603.130310	717.912903	16992.958984	6082.420410	32.961548
603.469604	719.696106	17147.505859	6147.212891	33.038589
603.808838	727.572266	17346.341797	6213.936035	33.013058
604.148010	725.417480	17590.648438	6281.923340	32.946514
604.487305	719.027405	17824.554688	6328.808594	32.795139
604.826416	712.488770	18035.498047	6379.780762	32.715401
605.165527	715.089417	18248.673828	6437.216309	32.635239
605.504456	714.049255	18466.232422	6501.116699	32.599186
605.843445	711.002747	18640.919922	6533.066406	32.471222
606.182434	710.408386	18717.896484	6547.704590	32.415939
606.521423	723.485596	18665.958984	6532.769531	32.377277
606.860229	727.497864	18554.578125	6532.844238	32.564762
607.199036	729.727051	18369.935547	6498.516113	32.702499
607.537903	719.696106	18194.283203	6426.665527	32.658676
607.876648	718.953125	17919.662109	6341.365723	32.687099
608.215271	723.411316	17624.679688	6242.246094	32.653378
608.553955	728.463867	17313.128906	6150.704590	32.694305
608.892578	735.596924	17037.687500	6067.783203	32.708607
609.231140	730.321472	16876.376953	5993.034668	32.594421
609.569641	726.680664	16753.333984	5959.376465	32.649960
609.908081	718.135742	16774.509766	5923.784668	32.421074
610.246521	721.999512	16771.462891	5903.351074	32.283646
610.584961	717.392822	16808.687500	5894.062988	32.170624
610.923340	708.773682	16797.244141	5888.119141	32.192902
611.261597	702.457947	16773.990234	5895.252441	32.310513
611.599854	703.721008	16707.560547	5873.630371	32.304180
611.938110	709.591003	16648.119141	5838.261719	32.177818
612.276245	721.628113	16500.181641	5789.222168	32.116974
612.614319	723.485596	16288.196289	5721.755371	32.112831
612.952393	728.240967	15962.453125	5646.040527	32.281288
613.290466	715.015076	15658.183594	5548.258301	32.344166
613.628479	712.785950	15355.176758	5475.070313	32.523952
613.966370	711.299988	15091.848633	5381.746094	32.477524
614.304260	716.203918	14847.094727	5311.381348	32.518665
614.642151	718.433044	14607.840820	5203.865234	32.293903
614.979980	718.655945	14435.831055	5138.255371	32.219460
615.317749	717.169861	14226.073242	5064.324707	32.179924
615.655396	726.977783	14133.121094	5032.003418	32.112331
615.993164	718.358704	14046.334961	5010.009277	32.200314
616.330811	724.377197	14047.969727	5001.241699	32.099934
616.668396	714.123474	14017.133789	4982.220215	32.083691
617.005859	723.485596	13989.567383	4960.301270	31.937202
617.343445	717.541321	13956.948242	4949.229980	31.962824
617.680908	720.439209	13937.333008	4947.967285	31.985794
618.018311	729.652771	13967.871094	4974.493164	32.065041
618.355652	735.894226	14018.397461	4979.916992	31.951982
618.692993	742.358459	14059.559570	4975.755859	31.788942
619.030273	733.293640	14047.820313	4952.796387	31.690973
619.367554	727.126465	14041.729492	4954.728516	31.751617
619.704712	724.525879	14017.135742	4952.053223	31.803593
620.041870	720.290527	14009.778320	4949.526855	31.823921
620.379028	719.696106	13986.893555	4936.375488	31.782743
620.716064	715.535156	13932.206055	4925.378906	31.852528
621.053040	715.906738	13886.659180	4896.995605	31.745256
621.389954	716.724060	13795.339844	4878.642578	31.822315
621.726929	713.751953	13719.551758	4851.373047	31.813662
622.063843	715.535156	13649.335938	4813.181641	31.681688
622.400635	716.278259	13607.875000	4770.606445	31.449387
622.737427	716.872620	13586.996094	4752.922363	31.359838
623.074219	725.640381	13506.153320	4742.668457	31.430883
623.410889	725.343201	13462.092773	4729.219727	31.435621
623.747559	730.098572	13440.618164	4719.263184	31.384748
624.084167	723.262695	13408.148438	4719.412109	31.503235
624.420715	720.216309	13389.348633	4721.641113	31.584047
624.757324	716.501160	13384.965820	4726.321777	31.651985
625.093750	721.256531	13433.858398	4709.083496	31.369085
625.430176	721.925232	13455.256836	4703.362793	31.267838
625.766602	730.692932	13461.424805	4707.597656	31.238619
626.102905	723.411316	13539.070313	4732.712402	31.284391
626.439209	726.977783	13622.363281	4744.749023	31.156658
626.775452	719.398926	13741.543945	4748.166504	30.937820
627.111694	722.148132	13822.164063	4745.789063	30.714779
627.447876	717.764343	13880.937500	4752.104492	30.648691
627.783997	723.931396	13934.063477	4752.030273	30.492496
628.120056	720.810730	13984.664063	4781.899902	30.617718
628.456055	732.699158	14017.729492	4797.280762	30.595200
628.792053	722.668274	14023.598633	4798.915527	30.646332
629.128052	726.977844	13976.045898	4773.058594	30.538607
629.463928	722.073914	13917.495117	4756.042969	30.570976
629.799744	724.228577	13799.129883	4746.383789	30.762413
630.135559	718.581726	13672.147461	4715.176270	30.853239
630.471375	710.779846	13542.636719	4671.263184	30.864462
630.807068	717.541321	13394.997070	4610.854980	30.710527
631.142700	721.776611	13265.413086	4569.022949	30.670900
631.478333	721.553711	13098.678711	4520.279785	30.691505
631.813965	715.312256	12954.308594	4467.600098	30.658461
632.149475	706.395996	12813.430664	4413.953125	30.623163
632.484924	716.575439	12713.270508	4373.458008	30.482416
632.820435	709.591003	12661.778320	4349.903809	30.457293
633.155884	718.953125	12587.921875	4345.297363	30.553154
633.491150	717.318420	12522.979492	4327.539063	30.580420
633.826477	724.674500	12457.742188	4295.960449	30.437786
634.161804	719.547546	12391.166992	4253.756348	30.280363
634.497009	713.306152	12338.858398	4227.155762	30.225225
634.832153	710.259705	12238.921875	4200.853027	30.277523
635.167297	713.751953	12179.776367	4179.973145	30.230366
635.502380	708.327820	12093.213867	4140.593262	30.147560
635.837463	705.058533	12017.350586	4114.141602	30.136095
636.172424	704.464172	11912.805664	4071.269287	30.038387
636.507324	701.640625	11821.191406	4046.451904	30.080454
636.842224	710.036804	11721.476563	4015.319092	30.016804
637.177124	712.637390	11621.762695	3987.306641	30.017708
637.511963	718.804504	11531.411133	3952.533203	29.907024
637.846741	707.882019	11434.891602	3913.524414	29.883839
638.181396	699.040039	11298.398438	3878.453369	29.996281
638.516113	706.395935	11182.484375	3835.283447	29.866943
638.850769	713.454773	11066.795898	3795.085938	29.764606
639.185303	721.776611	10993.086914	3743.891357	29.422874
639.519836	723.039795	10903.850586	3736.609619	29.600491
639.854370	727.423645	10827.689453	3709.935303	29.529043
640.188843	723.857117	10714.674805	3709.266602	29.881533
640.523254	714.197754	10628.038086	3663.198486	29.746302
640.857605	722.593933	10533.376953	3645.885742	29.796722
641.191895	728.984070	10472.894531	3602.195557	29.487253
641.526184	729.949951	10400.003906	3575.298096	29.424326
641.860413	719.919128	10333.948242	3543.273682	29.367025
642.194580	711.820068	10280.524414	3517.936768	29.325985
642.528748	710.854065	10210.084961	3497.057617	29.330835
642.862793	712.860291	10161.194336	3477.961914	29.265493
643.196838	714.940735	10111.113281	3472.834961	29.351252
643.530823	723.336914	10054.792969	3462.209717	29.350969
643.864746	719.324646	10019.424805	3444.005127	29.297321
644.198669	721.925232	9973.133789	3424.315186	29.211208
644.532532	719.324707	9921.641602	3406.705322	29.203306
644.866333	722.891174	9845.555664	3397.046143	29.313313
645.200073	724.228699	9790.125977	3382.557373	29.322289
645.533813	720.364929	9775.860352	3374.384033	29.308382
645.867554	713.900574	9773.928711	3366.433594	29.277315
646.201172	708.625061	9787.006836	3348.675049	29.080624
646.534729	714.792175	9820.665039	3340.055908	28.830444
646.868225	719.919128	9842.956055	3327.349854	28.580730
647.201782	714.643555	9848.008789	3329.653320	28.631393
647.535217	707.436218	9858.856445	3327.424561	28.629309
647.868591	709.293762	9880.331055	3332.105469	28.598856
648.201965	717.987244	9901.952148	3327.052734	28.408922
648.535278	719.547607	9877.432617	3318.507813	28.379482
648.868591	716.724060	9848.305664	3308.774170	28.385553
649.201782	721.107910	9794.064453	3302.309814	28.449400
649.534912	726.383362	9750.522461	3300.155518	28.520973
649.868103	724.674316	9709.434570	3281.282471	28.454941
650.201172	717.987122	9690.338867	3269.393799	28.436321
650.534180	716.649719	9644.344727	3256.019531	28.443733
650.867188	719.919006	9599.317383	3261.518311	28.623554
651.200134	727.869446	9557.782227	3246.657471	28.525627
651.533020	731.956116	9530.586914	3214.856201	28.219164
651.865845	736.414307	9461.930664	3180.007813	28.005144
652.198608	735.448425	9412.965820	3156.602539	27.901459
652.531433	725.937561	9387.256836	3134.608643	27.809517
652.864136	720.364929	9377.375000	3116.256104	27.675735
653.196777	1313.226196	10037.034180	3732.968750	27.737230
653.529358	1344.284790	9984.502930	3754.070313	27.890335
653.861938	1339.380859	9936.799805	3753.550049	28.080162
654.194519	737.380188	9178.836914	3106.225342	28.062042
654.526978	708.476379	9114.416992	3064.392578	28.026802
654.859375	713.454773	9060.176758	3043.885498	27.920311
655.191833	720.959290	9016.413086	3032.962891	27.870731
655.524170	715.906738	8967.000977	3011.414795	27.820652
655.856445	715.460938	8943.075195	2994.919678	27.704979
656.188660	735.076843	8947.905273	2995.885742	27.527775
656.520874	742.729980	8928.883789	2991.799072	27.474064
656.853088	743.398682	8908.672852	2971.588867	27.288614
657.185181	723.485596	8878.209961	2944.616943	27.237356
657.517212	721.553711	8879.397461	2925.744141	27.019278
657.849243	723.708496	8898.122070	2931.390625	27.007223
658.181274	722.816895	8950.059570	2944.765625	27.007212
658.513123	714.420593	9005.563477	2959.700439	27.080463
658.844971	710.111084	9074.813477	2973.669189	27.060833
659.176819	716.129639	9124.894531	2996.480469	27.118738
659.508667	730.544434	9192.287109	3016.913330	27.020073
659.840393	737.008728	9270.899414	3027.761719	26.843008
660.172058	729.578430	9337.474609	3029.767822	26.721853
660.503662	730.024231	9396.619141	3028.950439	26.526293
660.835266	731.287415	9436.372070	3036.826904	26.484974
661.166931	735.819885	9427.826172	3019.959961	26.278631
661.498413	736.934387	9392.383789	3008.666016	26.246260
661.829773	734.853821	9276.991211	2988.455322	26.382174
662.161194	737.528809	9161.599609	2964.604492	26.437050
662.492615	719.696228	9011.731445	2930.053711	26.656393
662.823975	723.782776	8880.140625	2885.174805	26.499475
663.155212	719.027405	8739.114258	2841.707764	26.467051
663.486450	727.126465	8624.911133	2794.822266	26.180706
663.817627	713.900574	8477.272461	2764.432617	26.412903
664.148743	711.820068	8337.656250	2731.293945	26.482000
664.479858	705.504395	8203.614258	2702.613037	26.634829
664.810913	710.333984	8113.114746	2661.969238	26.363543
665.141907	712.488770	8039.554688	2634.700195	26.234396
665.472778	720.364929	7959.307129	2614.043945	26.159609
665.803711	736.488586	7919.332520	2594.873779	25.872557
666.134583	735.894104	7863.902344	2584.471436	25.933996
666.465454	736.934387	7836.856934	2576.149658	25.904724
666.796143	722.519714	7777.711426	2563.146484	26.088968
667.126831	726.903564	7763.816895	2548.731689	25.889593
667.457458	724.302917	7740.485840	2531.047852	25.751108
667.788147	719.250305	7706.083496	2523.394775	25.822065
668.118774	715.089355	7681.860840	2518.639404	25.887888
668.449219	721.330811	7661.427734	2516.781982	25.870693
668.779663	726.680603	7668.634766	2498.652100	25.525543
669.110107	720.662109	7648.796875	2477.847412	25.363035
669.440552	712.414551	7643.372559	2463.358154	25.262650
669.770874	708.699402	7613.502441	2462.837891	25.404612
670.101135	714.643555	7587.423340	2469.153564	25.528389
670.431396	718.878906	7557.478516	2461.946289	25.488659
670.761597	717.838623	7512.228027	2436.237549	25.291439
671.091797	715.460938	7478.939941	2397.897461	24.875313
671.421875	718.655945	7420.984863	2381.253418	24.806263
671.751892	729.281250	7393.343750	2377.686768	24.735744
672.081909	732.996338	7361.914063	2371.371094	24.715569
672.411865	733.070618	7338.359375	2360.151611	24.633005
672.741821	723.634216	7305.146484	2334.814209	24.480391
673.071716	711.076965	7241.097656	2331.990967	24.822496
673.401550	709.145203	7177.271484	2312.152100	24.783171
673.731262	715.981018	7112.404785	2305.910889	24.856544
674.060974	727.126465	7069.308594	2291.050049	24.659077
674.390625	725.194519	7073.990234	2284.065674	24.553806
674.720276	718.507324	7067.822754	2280.276367	24.597441
675.049927	715.683777	7044.195313	2276.041016	24.655989
675.379395	714.643555	7004.814941	2269.651123	24.721228
675.708923	719.696106	6954.511719	2254.790527	24.621330
676.038330	717.987244	6927.316895	2237.923584	24.478268
676.367737	722.073792	6846.400879	2219.496826	24.450411
676.697083	721.553711	6826.190918	2215.261475	24.468412
677.026428	721.033630	6785.175781	2204.561768	24.463940
677.355652	714.717834	6767.492188	2198.097412	24.507433
677.684875	718.061523	6760.804688	2183.385498	24.249317
678.013977	713.306152	6755.603027	2155.596436	23.869902
678.343079	718.804504	6765.411621	2144.970947	23.586227
678.672180	713.306091	6737.993652	2123.348877	23.404413
679.001221	723.634094	6761.175781	2130.927734	23.309052
679.330139	722.073792	6794.166504	2141.404541	23.374657
679.659058	713.529053	6837.931152	2163.546631	23.676067
679.987976	716.872620	6857.249512	2173.280273	23.718538
680.316772	719.770508	6896.853027	2164.958252	23.395960
680.645630	731.584656	6928.653809	2170.159424	23.213791
680.974304	725.789001	6984.604004	2179.224365	23.222212
681.302979	722.222473	7007.191895	2180.487549	23.202423
681.631653	714.346375	7024.950684	2183.459961	23.280077
681.960266	715.386658	7037.953613	2174.989258	23.085600
682.288757	714.420715	7051.773438	2178.258545	23.098572
682.617249	717.689941	7074.732910	2176.697998	22.951050
682.945679	717.764343	7044.937988	2180.636230	23.120462
683.274109	722.371094	7017.817871	2175.286377	23.078827
683.602478	724.228577	6959.118652	2150.840820	22.881113
683.930725	730.247070	6906.363281	2128.698486	22.642893
684.259033	728.018066	6849.447754	2111.163086	22.595131
684.587280	727.349304	6790.525879	2093.776367	22.536486
684.915344	724.451477	6747.578613	2068.216309	22.310087
685.243469	728.612488	6688.285156	2056.996338	22.289541
685.571533	724.600098	6613.164551	2042.730347	22.384577
685.899536	722.148132	6520.509277	2031.956543	22.589285
686.227539	715.535156	6431.049316	2000.154907	22.476013
686.555420	716.798340	6392.263184	1979.350098	22.245787
686.883301	715.460938	6378.591309	1963.003540	22.029205
687.211121	720.587830	6363.730469	1962.706421	22.011116
687.538940	725.640381	6369.972168	1960.848755	21.884048
687.866638	722.965515	6368.485840	1959.734009	21.907078
688.194336	721.999512	6376.064941	1949.108887	21.703135
688.521973	719.473328	6377.476563	1958.619751	21.900772
688.849609	720.141907	6368.263672	1952.526978	21.819378
689.177063	720.736328	6353.476563	1946.582642	21.762877
689.504578	712.042969	6303.025391	1920.874023	21.621084
689.832031	717.689941	6258.964355	1910.099976	21.518696
690.159485	715.460876	6187.781738	1902.000977	21.682575
690.486816	716.352539	6103.745605	1880.230347	21.603729
690.814087	719.770508	6034.791504	1865.221191	21.551197
691.141296	723.559875	5959.003418	1847.908691	21.475714
691.468506	733.442200	5871.326660	1832.082397	21.383123
691.795715	727.052185	5755.042969	1804.738770	21.433741
692.122803	723.931396	5676.653809	1769.965210	21.120378
692.449829	718.210144	5616.319824	1753.692749	21.140453
692.776855	716.129639	5549.150391	1733.110962	21.042355
693.103821	713.454773	5475.887207	1715.724243	21.045326
693.430664	717.615662	5402.996582	1699.972046	20.966415
693.757568	712.934570	5351.579590	1689.643921	21.055920
694.084351	711.448547	5320.966309	1681.321899	21.040668
694.411133	708.402161	5281.585449	1665.123901	20.920259
694.737854	716.203918	5250.527344	1648.554321	20.562063
695.064575	714.197754	5197.177734	1638.969360	20.628502
695.391174	712.637390	5173.772461	1630.276001	20.569620
695.717773	707.659119	5150.367676	1633.991211	20.850616
696.044250	715.758118	5144.125977	1623.737427	20.503702
696.370789	711.522888	5132.237793	1618.684937	20.520710
696.697205	712.637390	5139.445313	1609.619751	20.262508
697.023621	707.510498	5169.017090	1620.765259	20.469648
697.349915	721.405090	5217.017090	1628.344116	20.173874
697.676208	724.302917	5287.753418	1628.789917	19.820242
698.002380	721.330872	5357.523438	1628.046875	19.557343
698.328674	718.135803	5452.110840	1647.291382	19.627386
698.654724	714.643555	5525.968262	1667.204468	19.798309
698.980896	720.662109	5632.146484	1675.749390	19.446001
699.306946	718.284424	5701.396484	1688.975220	19.479609
699.632935	718.878723	5777.333984	1694.919434	19.295233
699.958862	718.507324	5795.910156	1697.148438	19.274443
700.284729	718.061523	5796.578125	1692.690308	19.191210
700.610596	719.101746	5770.720703	1688.752319	19.194847
700.936340	717.764221	5717.000000	1682.510742	19.297880
701.262146	711.299988	5637.718750	1654.127075	19.138184
701.587830	709.813965	5516.530762	1631.019043	19.164955
701.913513	713.603333	5390.810547	1602.635376	19.007755
702.239075	721.925293	5250.007324	1574.846313	18.836254
702.564697	721.182190	5125.179199	1542.970337	18.660051
702.890137	724.377197	4996.337891	1524.469116	18.728914
703.215698	719.398926	4907.991699	1498.908813	18.610306
703.541016	720.513489	4794.605957	1476.692261	18.560667
703.866455	709.219543	4709.752441	1458.413696	18.727358
704.191711	713.157532	4633.443359	1448.903198	18.767653
704.517029	706.321594	4561.741211	1435.900024	18.923450
704.842163	709.739563	4502.224609	1420.296509	18.735920
705.167419	711.225586	4435.500977	1411.677368	18.807734
705.492493	715.089355	4415.439453	1405.807495	18.666292
705.817566	707.213318	4368.257324	1394.439087	18.771307
706.142578	699.560120	4337.792969	1376.755005	18.613291
706.467590	702.086426	4320.777344	1366.278320	18.354481
706.792480	707.436218	4306.957031	1361.671753	18.175629
707.117371	711.002747	4306.437012	1359.145386	18.026825
707.442200	719.696228	4290.461426	1359.814087	17.926630
707.766907	718.061523	4288.158691	1358.402222	17.936226
708.091675	717.912903	4282.883301	1351.343506	17.768187
708.416321	713.380371	4295.812012	1336.780151	17.401583
708.741028	710.928406	4317.433594	1332.247681	17.227739
709.065552	712.042969	4336.678223	1330.687378	17.067770
709.390137	709.516663	4348.641113	1341.906982	17.377541
709.714600	720.736389	4360.380859	1352.458008	17.356684
710.039063	718.878845	4392.999512	1370.662231	17.739847
710.363403	724.525818	4434.535156	1378.686890	17.632330
710.687744	713.231750	4489.741699	1370.216431	17.396608
711.012085	710.779785	4519.388184	1370.588013	17.324129
711.336304	702.160645	4550.520996	1375.640625	17.500439
711.660461	710.631165	4581.951172	1385.448608	17.431198
711.984619	712.563049	4609.517578	1383.962524	17.228825
712.308716	717.764343	4638.198730	1372.891235	16.710569
712.632751	725.120300	4650.235840	1362.934692	16.249571
712.956726	735.596924	4654.693848	1356.470459	15.842260
713.280701	737.157288	4622.000488	1357.436401	15.966644
713.604553	734.556702	4575.709961	1356.247559	16.185005
713.928467	731.064453	4493.902832	1347.479736	16.381657
714.252258	729.206970	4430.448242	1333.064941	16.315012
714.575989	722.816895	4365.210449	1318.353149	16.350134
714.899719	718.135803	4327.167480	1302.378052	16.188337
715.223267	715.163757	4285.186523	1290.118164	16.105062
715.546936	717.912842	4228.642090	1287.814819	16.233150
715.870422	718.655945	4173.806641	1274.588867	16.089977
716.193970	716.352539	4142.896973	1260.842896	15.890364
716.517395	712.785950	4123.652344	1247.171265	15.667143
716.840820	710.259766	4108.568848	1245.164917	15.740333
717.164124	717.021240	4058.489014	1239.666626	15.641191
717.487488	723.336975	4026.538818	1231.864746	15.394995
717.810730	725.417419	3990.501953	1232.979370	15.545140
718.133972	726.383301	3942.576904	1228.223999	15.603560
718.457092	724.302917	3880.905518	1217.078491	15.610948
718.780212	720.290527	3844.719727	1203.481079	15.464922
719.103210	706.247375	3795.382813	1184.831177	15.492483
719.426208	700.377441	3746.268311	1170.713623	15.441662
719.749207	713.677551	3691.210205	1161.425903	15.037562
720.072083	721.256531	3646.628906	1162.614746	15.087250
720.394958	727.943665	3607.991455	1159.270996	14.976395
720.717773	718.655945	3557.911377	1150.651855	15.215113
721.040527	715.460938	3514.815674	1137.500366	15.076311
721.363281	713.454773	3478.704834	1142.404419	15.512147
721.685913	722.816833	3446.754639	1140.398315	15.330067
722.008545	728.389587	3435.906494	1139.209473	15.173308
722.331055	722.891113	3414.656006	1120.930786	14.787312
722.653503	719.250305	3389.095703	1105.847412	14.480130
722.976013	715.535156	3357.294189	1106.218872	14.788772
723.298401	722.222473	3333.294189	1100.720581	14.495891
723.620789	717.169922	3315.239014	1094.924927	14.539837
723.943115	721.330811	3305.579834	1082.962280	13.993677
724.265381	717.912903	3302.755859	1074.714600	13.803612
724.587585	719.473206	3311.152100	1073.377075	13.655390
724.909790	712.191589	3297.480469	1074.788940	14.025410
725.231873	712.191589	3296.143311	1079.841431	14.228201
725.553894	711.076965	3298.149170	1083.705200	14.403472
725.875916	852.400696	3461.837891	1213.734985	13.847211
726.197937	865.552307	3482.123047	1221.536621	13.604995
726.519775	860.276855	3470.754639	1220.644897	13.804678
726.841675	722.371094	3337.975586	1082.887817	13.783304
727.163513	708.030579	3339.461670	1075.457642	13.963013
727.485291	708.922302	3352.389893	1071.222290	13.705482
727.806946	712.414551	3371.708984	1077.166626	13.716123
728.128662	715.609558	3395.188477	1072.931274	13.334995
728.450256	722.668274	3417.330811	1078.578369	13.207965
728.771790	723.188416	3420.822998	1077.984009	13.152101
729.093323	722.148132	3410.717529	1081.550415	13.367789
729.414795	714.792236	3424.389404	1080.733032	13.505358
729.736145	718.061462	3436.203369	1084.819702	13.492976
730.057495	718.061462	3458.717041	1079.098267	13.173374
730.378845	727.349304	3457.677002	1082.293335	13.000052
730.700134	724.674500	3449.503906	1073.674316	12.808135
731.021301	725.566101	3433.603271	1079.395630	13.065904
731.342468	729.206848	3434.345947	1060.299805	12.239406
731.663574	732.699158	3427.956055	1065.352417	12.342173
731.984680	734.556641	3433.454346	1070.553589	12.449414
732.305664	720.662109	3428.921875	1078.281128	13.204753
732.626648	716.872742	3448.166260	1071.445190	12.981851
732.947571	714.792175	3457.305664	1060.076782	12.590079
733.268433	718.953125	3453.144775	1064.980835	12.655577
733.589233	714.049133	3434.197510	1063.717773	12.854763
733.909973	717.615662	3423.498047	1062.454590	12.744047
734.230713	724.525818	3411.832275	1055.916016	12.331686
734.551331	729.058289	3383.820313	1047.891235	12.009851
734.871948	718.581543	3340.501709	1037.414673	12.160292
735.192505	710.631165	3295.919922	1027.978149	12.275107
735.513062	715.015076	3261.963623	1021.513855	12.033960
735.833435	724.377197	3215.970459	1019.953430	11.862941
736.153931	729.206848	3166.113281	1005.538757	11.339455
736.474304	724.228577	3124.429688	1001.972229	11.571682
736.794617	724.822998	3085.123291	987.185852	11.115656
737.114807	723.931396	3059.266357	985.997070	11.221760
737.434998	717.912903	3035.637939	977.600891	11.204434
737.755188	714.272034	3031.328125	980.647278	11.496279
738.075256	705.430115	3026.647217	979.235535	11.795770
738.395325	711.299988	3034.523193	979.012634	11.523329
738.715271	714.866516	3045.296875	984.659668	11.576966
739.035278	719.324707	3070.559814	990.306641	11.525088
739.355164	712.042969	3082.076904	993.575989	11.878860
739.675049	704.612610	3095.748291	984.288086	11.696344
739.994873	711.894348	3096.268555	976.634949	11.103148
740.314636	720.959290	3105.407959	977.972412	10.778723
740.634277	724.897278	3098.348877	985.328430	10.972675
740.953979	713.157532	3072.268799	983.768066	11.470867
741.273499	711.151367	3044.851318	982.430603	11.624427
741.593140	714.569275	2998.783203	968.387390	11.111836
741.912598	719.176025	2964.009766	962.071594	10.820203
742.232117	718.061523	2906.053711	953.972656	10.782083
742.551453	713.008972	2868.159424	947.062500	10.860194
742.870850	723.931396	2843.639404	944.536316	10.407326
743.190063	724.823059	2820.457031	936.883057	10.119133
743.509338	720.216309	2796.680420	938.740540	10.523863
743.828552	715.535156	2757.819580	932.201843	10.609035
744.147705	713.157532	2722.451904	928.338135	10.709262
744.466797	727.200684	2683.145508	924.400146	10.082057
744.785828	727.646484	2656.545166	926.480652	10.308170
745.104858	738.940613	2643.913818	924.771667	9.755049
745.423706	734.259460	2640.941650	913.626282	9.407274
745.742615	733.516418	2630.316406	912.363098	9.428864
746.061401	727.275085	2612.335205	913.329041	9.869922
746.380249	724.525879	2605.053467	922.393860	10.521940
746.698975	718.210022	2589.301270	917.712891	10.662380
747.017639	715.163635	2579.864746	910.356934	10.467806
747.336304	708.922180	2549.474854	903.892578	10.593035
747.654907	709.888184	2556.607910	903.669739	10.493284
747.973389	713.677551	2556.087891	909.688232	10.638818
748.291931	714.197754	2573.846436	907.904968	10.416334
748.610352	719.919128	2569.239502	901.812073	9.835665
748.928711	716.649719	2568.645264	889.403564	9.327984
749.247070	725.863281	2560.100342	890.072266	8.952440
749.565308	722.519592	2557.945313	882.939270	8.740189
749.883545	723.634094	2541.449951	884.945496	8.873913
750.201782	724.525818	2530.527588	875.211853	8.343626
750.519836	721.256531	2509.500000	883.385071	9.066358
750.837952	718.433044	2502.515869	889.626465	9.595598
751.155884	709.368103	2476.286865	900.028870	10.790580
751.473877	706.544617	2464.769775	892.672852	10.586143
751.791809	718.210144	2455.927734	881.973328	9.424039
752.109619	730.915833	2460.385986	875.731934	8.373437
752.427490	741.392578	2454.887451	872.685547	7.662292
752.745300	734.556641	2445.228271	872.982666	8.091911
753.062988	725.343079	2449.463379	862.506042	7.955533
753.380615	711.820068	2447.160156	859.088074	8.486406
753.698303	719.398926	2450.429443	856.636047	7.928059
754.015808	719.547546	2436.683350	858.345032	8.083082
754.333374	727.497986	2424.646484	865.329529	8.121361
754.650757	721.628113	2417.884766	868.301575	8.646892
754.968262	726.680603	2407.036865	870.679260	8.569531
755.285583	732.847717	2408.522705	865.998230	7.946082
755.602905	730.767273	2407.928467	863.769043	7.930172
755.920105	724.080078	2404.064697	863.249023	8.283941
756.237305	726.160461	2394.033936	860.499817	8.054529
756.554443	724.971680	2385.711914	855.372864	7.851992
756.871582	726.977844	2379.916260	856.636047	7.844103
757.188599	716.129639	2378.950195	856.561768	8.445417
757.505615	717.764343	2375.309326	855.818665	8.328843
757.822510	725.937561	2395.073975	858.567932	7.946047
758.139465	728.092346	2402.801514	855.744446	7.622344
758.456238	725.789001	2411.197510	859.162415	7.913418
758.773010	716.872742	2419.816650	850.914795	7.871196
759.089783	720.513489	2445.079590	860.425537	8.112884
759.406433	716.278320	2459.122803	860.871277	8.296377
759.723145	712.934570	2461.723633	872.536804	9.126443
760.039673	712.414551	2464.918457	865.032227	8.708549
760.356201	715.758118	2462.317871	860.276855	8.274480
760.672668	719.250305	2460.237305	852.549500	7.656530
760.989136	713.603333	2438.912842	853.292480	8.096469
761.305481	709.516663	2437.500732	854.258362	8.376332
761.621826	708.327820	2435.420166	852.549316	8.350538
761.938049	716.724060	2448.423584	859.756653	8.259666
762.254333	724.005676	2471.754395	861.242859	7.852226
762.570496	732.550537	2508.237061	864.363586	7.423216
762.886597	727.795166	2574.069092	864.586487	7.409048
763.202637	722.593994	2660.780518	859.979675	7.088362
763.518677	717.615662	2786.129150	868.970276	7.317072
763.834656	716.946960	2920.988525	880.710144	7.430131
764.150574	716.798340	3056.368164	897.874023	7.739700
764.466370	715.312256	3155.116455	904.115479	7.738458
764.782288	713.306152	3206.162109	896.016541	7.329360
765.097961	713.900574	3211.660889	900.177490	7.457758
765.413696	714.569336	3175.029297	891.706970	7.199371
765.729309	720.736389	3102.287109	884.128113	6.860728
766.044861	727.052185	3003.687500	872.834045	6.403391
766.360474	726.680664	2879.156250	862.506042	6.310194
766.675903	721.925232	2755.145264	860.648438	6.822833
766.991394	716.426819	2624.743652	847.422546	6.864464
767.306763	717.541321	2521.239990	844.376160	7.031930
767.622131	718.432922	2423.754639	835.831238	6.884233
767.937378	714.123352	2358.071045	828.252441	6.942379
768.252625	715.535156	2310.368652	828.921204	7.109585
768.567810	707.584778	2261.031982	827.137878	7.695987
768.882996	713.306152	2225.218018	824.611572	7.361899
769.197998	711.820129	2177.738525	820.004883	7.379998
769.513062	716.501160	2145.565430	817.107117	7.039989
769.828064	715.163757	2106.482178	816.809814	7.305737
770.142944	710.333984	2076.464111	810.939941	7.364303
770.457825	712.934570	2061.157471	808.636536	7.098379
770.772705	707.361877	2031.436523	808.562195	7.643097
771.087402	704.761292	2008.030884	806.853210	7.833523
771.402100	705.653015	1981.727905	802.617981	7.598689
771.716736	706.841797	1966.198608	803.435303	7.670066
772.031372	713.231750	1940.712769	802.915222	7.306303
772.345947	711.448547	1929.047241	797.565430	7.072682
772.660461	710.705505	1913.294922	796.079407	7.099173
772.974854	711.597168	1905.641968	792.735657	6.795263
773.289246	715.832336	1883.202515	801.280518	7.319716
773.603638	722.742493	1861.283081	796.896667	6.513091
773.917908	718.730225	1846.868286	796.079407	6.856358
774.232178	714.940735	1845.308105	787.683105	6.435286
774.546265	723.188416	1845.828247	781.367432	5.182340
774.860474	725.120300	1840.478516	773.194153	4.310172
775.174561	724.451477	1823.537476	771.262207	4.259060
775.488586	718.655945	1800.131958	783.596436	6.004801
775.802551	720.959290	1788.169312	798.457031	7.261714
776.116516	729.355469	1775.834961	802.023621	6.944059
776.430359	722.222473	1776.429565	793.776062	6.787432
776.744202	725.491760	1773.457397	781.961914	5.388550
777.057922	718.804443	1769.370605	784.413879	6.245150
777.371704	714.792175	1762.906250	782.110535	6.422809
777.685303	706.618896	1750.423462	785.082520	7.517080
777.998962	704.464172	1737.791992	777.800964	7.097147
778.312500	710.334045	1728.207031	778.841125	6.730415
778.626038	709.665344	1712.826172	778.543945	6.866158
778.939453	713.306152	1713.792114	782.927795	6.958783
779.252869	720.513489	1719.587891	789.094910	6.864496
779.566223	723.262695	1716.690063	785.231201	6.237850
779.879578	726.234802	1706.807983	779.807129	5.463368
780.192749	717.318420	1691.427124	764.352051	4.828376
780.505920	710.408386	1685.705933	761.602844	5.249112
780.819031	705.504333	1674.114624	759.893860	5.615212
781.132141	721.627991	1676.715210	784.933899	6.628285
781.445190	733.516418	1670.696655	788.128906	5.827320
781.758118	737.603088	1673.520142	790.209412	5.620832
782.071045	732.104675	1665.124023	771.633728	4.236681
782.383911	727.572266	1654.350098	767.472839	4.305301
782.696838	725.343201	1640.752563	767.027039	4.553574
783.009583	717.987122	1613.557983	765.541016	5.309897
783.322266	717.244141	1590.003906	766.729797	5.670021
783.634888	711.894348	1586.883179	764.054871	5.961278
783.947510	711.671387	1584.208374	758.110657	5.322327
784.260132	718.581543	1594.313477	755.584412	4.225365
784.572571	724.674500	1582.722290	757.590515	3.836152
784.885010	717.021301	1575.960571	762.717468	5.320070
785.197449	715.609558	1562.363281	762.345886	5.519471
785.509766	719.473206	1553.669922	762.420227	5.148309
785.822083	729.949951	1539.626587	759.002258	3.588137
786.134277	727.497864	1540.666992	763.460449	4.422522
786.446533	719.993347	1536.283081	767.844299	5.862006
786.758606	715.832458	1551.366577	768.810303	6.340596
787.070740	722.593994	1548.840210	769.479004	5.674460
787.382690	719.324707	1555.304565	762.643127	5.181754
787.694641	715.832458	1559.168335	765.243713	5.859025
788.006653	703.498230	1579.155762	761.751465	6.652514
788.318481	708.104980	1599.514648	765.020813	6.384924
788.630310	711.299988	1615.935547	763.534729	5.774120
788.942017	712.414490	1633.916870	773.862793	6.668274
789.253784	718.135742	1649.891724	772.822571	5.869222
789.565430	722.148132	1657.990845	783.373596	6.542282
789.877014	723.485596	1656.950562	772.079590	5.205765
790.188538	714.494934	1639.266602	773.119812	6.339389
790.500061	712.488770	1616.084106	762.866028	5.575201
790.811462	718.432922	1600.257690	763.237488	5.080892
791.122925	725.788879	1586.957397	764.575012	4.503896
791.434204	728.389587	1569.793457	759.225159	3.664777
791.745483	732.624817	1542.970215	753.949707	2.631580
792.056702	729.281189	1510.351196	750.011658	2.654111
792.367920	723.336914	1501.212280	753.206726	3.839923
792.678955	725.566101	1479.812988	756.773193	4.137517
792.990112	731.881836	1480.184448	760.265442	3.793065
793.301086	736.562927	1465.769897	758.333557	2.985521
793.612122	723.559875	1470.302368	753.949707	4.069654
793.922974	713.603333	1460.717285	745.999329	4.336152
794.233826	715.683838	1461.163086	751.423401	4.794173
794.544556	723.188416	1462.872070	750.828918	3.736801
794.855286	724.228699	1463.540649	751.497742	3.688435
795.166016	725.120300	1467.999023	754.098328	3.900775
795.476624	723.039734	1457.224976	753.875427	4.199988
795.787292	724.451477	1466.438477	756.327393	4.296021
796.097778	716.055359	1472.531250	745.404968	3.879781
796.408264	712.637390	1493.336060	749.714539	4.749227
796.718689	713.751953	1500.914917	751.943542	4.851802
797.029053	718.878845	1503.367065	754.395508	4.527367
797.339355	716.946960	1502.401001	748.377014	4.001514
797.649658	714.940735	1497.794434	744.216064	3.739566
797.959839	716.872620	1498.165894	740.798157	3.062299
798.270020	718.581543	1503.069824	750.531799	4.072751
798.580078	725.343079	1498.017212	759.373840	4.404284
798.890137	716.426819	1477.138062	772.079590	7.315886
799.200195	712.265869	1453.212524	765.466614	7.180105
799.510071	708.996582	1447.045532	753.058105	5.970000
799.820007	715.609558	1443.553223	743.993164	3.899149
800.129883	725.491760	1432.259277	742.507080	2.407485
800.439575	719.770508	1411.454468	739.237793	2.814477
800.749329	719.621887	1400.383423	743.547363	3.514516
801.058960	716.872742	1395.999634	744.216064	4.026247
801.368591	720.662109	1390.724121	752.835144	4.801501
801.678162	723.262695	1390.278320	754.246887	4.645197
801.987671	733.144958	1385.745728	751.646301	2.835017
802.297119	740.946716	1385.745728	751.423401	1.624799
802.606506	739.386292	1381.882202	738.494690	-0.138772
802.915894	719.250305	1381.361938	735.968445	2.524973
803.225159	710.259705	1369.250610	734.556702	3.687000
803.534424	708.253601	1356.098999	739.460693	4.817059
803.843628	722.296692	1351.343628	741.987000	3.130181
804.152771	723.411316	1351.566528	744.290344	3.323864
804.461792	734.408020	1349.634644	749.863037	2.512085
804.770874	726.606384	1347.702759	754.915710	4.557961
805.079773	724.748718	1346.811157	748.079834	3.750607
805.388733	708.253479	1358.476685	735.745605	4.228106
805.697571	716.278259	1366.278320	735.671204	2.983530
806.006470	721.553711	1372.296875	739.460632	2.751765
806.315125	724.080078	1379.132813	742.804382	2.858442
806.623901	717.912903	1384.408203	739.534973	3.244144
806.932495	709.888184	1386.934570	734.779602	3.676472
807.241150	718.210144	1380.098755	735.076843	2.548269
807.549622	716.501160	1373.040039	736.860107	3.100951
807.858154	721.925293	1372.742798	738.494812	2.545955
808.166565	715.386658	1364.940918	740.055115	3.797752
808.474915	721.850891	1350.674927	735.968445	2.245072
808.783264	720.439148	1352.681030	743.250183	3.607960
809.091492	720.067688	1347.628418	743.101563	3.670382
809.399719	715.609558	1351.715088	742.284180	4.193427
809.707825	715.386536	1334.699707	734.928223	3.155380
810.015930	723.039795	1330.018677	731.733215	1.432244
810.323975	724.897278	1321.102417	732.104675	1.208879
810.632080	719.101746	1310.922852	733.219238	2.385432
810.939880	712.488770	1292.867310	733.367859	3.597495
811.247864	711.745789	1293.461792	731.733215	3.435942
811.555664	710.928406	1287.146118	725.194519	2.475820
811.863464	715.980957	1283.653809	733.367859	3.062838
812.171143	709.665344	1270.947998	741.838379	5.732056
812.478882	719.621887	1270.205078	751.423523	5.775991
812.786438	715.683838	1276.149170	756.550293	7.291523
813.094055	721.033691	1258.613770	754.544128	6.233571
813.401489	713.529053	1261.734497	745.850769	5.895913
813.708984	711.448547	1258.539429	733.516418	4.033676
814.016357	719.250305	1270.353638	735.819824	3.006608
814.323730	729.875671	1265.375366	743.250183	2.497576
814.630981	733.813721	1264.855225	749.120056	2.882324
814.938232	724.228699	1263.443481	745.107605	3.872095
815.245361	721.405212	1257.127808	743.027161	4.036035
815.552490	717.318542	1253.635498	736.711426	3.615937
815.859619	715.238037	1249.326050	741.764099	4.966609
816.166565	719.101746	1250.737671	737.603210	3.480101
816.473572	714.123474	1254.973022	737.900391	4.396216
816.780457	721.405090	1264.855103	733.070618	2.146569
817.087341	720.141907	1274.663208	736.414246	2.934484
817.394043	722.445374	1274.737549	744.438965	3.982239
817.700806	721.182129	1271.988281	738.271790	3.102663
818.007507	711.671448	1281.053223	733.219238	3.784419
818.314209	719.027405	1297.028320	727.200745	1.414070
818.620667	719.176025	1309.213989	729.058289	1.674852
818.927246	724.228577	1317.833130	735.968445	1.977725
819.233704	720.885010	1334.105347	733.219238	2.011386
819.540161	711.374268	1354.092773	733.442139	3.433520
819.846497	715.163757	1386.860229	734.110901	2.820790
820.152832	718.135742	1423.119751	740.203796	3.130291
820.458984	728.538147	1470.896484	748.154114	2.642385
820.765259	727.497864	1531.973511	745.850769	2.281350
821.071350	728.538147	1613.929321	751.423340	2.584755
821.377502	722.445313	1764.392456	748.302673	2.481638
821.683472	723.337097	2009.294312	759.968201	2.848547
821.989441	715.312317	2443.370605	762.271545	2.717456
822.295349	721.925232	3021.371826	783.224915	2.665845
822.601196	716.872620	3675.086914	792.512878	2.556957
822.907043	718.135803	4255.837402	813.837646	2.705198
823.212769	715.535217	4641.170898	815.918152	2.557113
823.518494	715.386658	4797.875488	822.976990	2.635410
823.824097	721.256531	4690.879395	816.364014	2.395882
824.129700	713.603333	4468.194336	814.357849	2.683502
824.435242	714.717773	4187.404297	799.868835	2.452023
824.740723	711.448547	3939.827393	796.079407	2.621466
825.046082	717.169922	3677.167236	782.704895	2.214021
825.351501	712.860352	3395.485596	772.376770	2.218589
825.656799	710.779846	3083.636963	762.420227	2.176295
825.962036	718.061523	2791.553467	763.386169	2.185909
826.267212	718.135803	2530.082031	771.113586	2.923805
826.572449	719.770508	2386.157715	768.735901	2.938416
826.877502	711.374207	2339.644043	764.649414	3.271891
827.182495	716.798340	2418.553467	776.760742	3.523562
827.487488	712.042969	2515.221436	781.738953	3.865174
827.792419	707.659119	2608.248291	789.169250	4.288677
828.097290	700.748962	2625.486816	775.869080	3.902875
828.402100	705.652893	2586.477783	774.308594	3.650297
828.706848	712.711670	2494.045166	770.370605	3.236841
829.011597	716.872620	2384.077148	761.082764	2.651753
829.316223	712.563171	2267.422119	749.640137	2.384587
829.620789	711.225769	2155.967773	744.661926	2.314334
829.925354	718.358704	2034.631470	752.166443	2.568445
830.229797	727.795166	1910.843140	755.212891	2.317550
830.534302	734.333801	1778.212769	761.305664	2.583812
830.838562	730.395752	1644.022095	754.023987	2.586203
831.142944	726.903564	1532.419312	750.606018	2.942519
831.447144	723.559875	1441.026978	735.745544	1.698429
831.751404	723.931396	1395.925171	733.516418	1.426356
832.055542	725.714661	1357.585083	738.940613	2.093143
832.359619	721.033508	1346.885376	743.473083	3.585445
832.663635	724.525818	1338.266235	747.188171	3.692498
832.967651	725.491760	1365.163940	736.339905	1.695891
833.271545	729.504089	1409.671265	736.488586	1.026879
833.575439	727.423645	1492.295898	730.544373	0.408006
833.879211	717.244141	1590.895508	739.089172	2.500429
834.183044	712.785950	1705.396118	738.346191	2.575053
834.486694	705.429993	1785.494507	740.946716	3.288389
834.790344	721.925293	1851.178101	747.559631	2.270026
835.093933	717.318542	1851.178101	744.513184	2.398413
835.397522	718.878906	1840.924316	748.674255	2.655449
835.700928	712.711731	1771.897095	736.488586	2.244825
836.004395	728.909668	1722.337036	749.268738	2.049377
836.307739	734.185120	1663.415039	747.931152	1.479293
836.611023	729.875549	1601.520874	742.135559	1.406536
836.914307	716.055359	1528.852661	727.052063	1.352945
837.217529	719.696106	1456.258911	727.943787	1.119753
837.520691	714.940735	1393.547485	729.206848	2.102265
837.823730	720.587830	1326.823730	720.141907	-0.073556
838.126831	714.197754	1265.821167	716.055359	0.336752
838.429749	726.754944	1225.697632	721.776611	-0.997776
838.732727	718.730225	1200.063110	729.727051	2.284661
839.035522	717.467041	1179.852905	726.977783	2.056884
839.338379	713.231873	1161.945923	718.730164	1.225344
839.641113	720.736511	1153.847046	726.457703	1.320954
839.943848	725.566101	1171.233765	732.104736	1.467155
840.246460	720.513489	1192.410034	735.894226	3.259345
840.549072	717.689941	1209.128296	726.011902	1.693388
840.851563	714.494934	1218.416138	725.937561	2.270717
841.154053	708.253479	1218.118896	727.646545	3.803566
841.456482	713.306152	1213.437744	743.101563	5.957514
841.758850	712.265930	1197.016846	747.188171	7.204162
842.061157	721.405090	1182.750732	745.999329	5.330979
842.363403	713.677673	1179.481445	732.699036	4.083557
842.665588	717.244141	1158.676636	720.290527	0.690114
842.967712	719.398926	1146.119507	726.829163	1.741242
843.269775	719.621826	1115.135254	730.098572	2.648898
843.571777	714.420654	1096.856812	734.408020	5.226327
843.873840	718.135742	1074.343140	728.315247	2.857747
844.175659	721.479431	1059.110962	730.321472	2.618843
844.477600	726.829285	1052.869507	732.476257	1.731987
844.779297	724.228699	1040.312378	739.980774	4.983514
845.081116	724.897400	1032.139038	737.008606	3.941916
845.382751	719.101807	1020.102051	736.117004	5.652885
845.684387	710.111145	1006.578918	730.098572	6.741855
845.985962	708.327820	1000.411865	725.566101	5.901822
846.287537	705.801575	995.582214	720.587830	5.102568
846.588989	702.457947	997.068298	718.581543	5.472855
846.890381	702.160706	986.963074	731.213074	10.200887
847.191711	707.807800	971.879578	744.661926	13.956101
847.493042	717.987122	970.913635	745.553528	10.898978
847.794250	721.033630	972.548340	740.872375	7.887708
848.095459	724.748718	973.068359	734.482422	3.919828
848.396606	724.748718	955.904480	738.643311	6.010922
848.697693	721.702332	948.102722	738.569031	7.449943
848.998657	722.816895	940.969727	735.671204	5.892341
849.299622	724.674377	950.777649	733.144958	3.746333
849.600464	727.720886	952.932434	727.646545	-0.033009
849.901367	718.432922	956.944763	724.154297	2.398780
850.202087	714.272034	952.412292	715.683838	0.592846
850.502808	713.380432	953.080872	719.770508	2.665859
850.803467	714.643555	956.424561	716.352539	0.706832
851.104065	730.247253	959.396667	724.377258	-2.561645
851.404663	732.104736	949.142883	727.423645	-2.156806
851.705139	738.940613	946.170898	734.408142	-2.187166
852.005615	726.011902	940.895325	735.076843	4.218539
852.306030	722.371094	943.718933	723.039734	0.302077
852.606384	725.120300	936.139954	717.615723	-3.556341
852.906616	731.510254	934.282410	718.804504	-6.266023
853.206909	727.869446	931.681824	726.829285	-0.510352
853.506958	716.649719	941.787048	726.680664	4.455478
853.807129	712.637390	933.093567	719.993408	3.336726
854.107178	719.621887	936.734436	720.736511	0.513385
854.407166	725.268860	935.396973	723.188477	-0.990055
854.707092	724.748718	939.780823	724.302917	-0.207318
855.007019	716.055359	933.465088	725.789001	4.477096
855.306763	716.872620	926.109131	727.423645	5.042631
855.606567	713.157532	930.790222	724.600159	5.257770
855.906250	718.953125	930.195801	719.993469	0.492488
856.205933	716.872620	926.109070	720.810730	1.882134
856.505493	717.764221	927.372253	721.851013	1.949731
856.805054	718.878845	935.396973	724.377258	2.539470
857.104492	712.934631	935.619934	723.708496	4.838157
857.403931	714.792175	928.115234	726.829163	5.642610
857.703308	709.368103	922.691162	731.733215	10.484151
858.002563	714.272034	927.075012	732.699036	8.659184
858.301819	710.705566	934.059570	733.367859	10.146356
858.601013	717.541443	932.053284	723.857117	2.944208
858.900208	715.683838	920.016296	716.426941	0.363674
859.199219	716.426819	921.428040	717.021301	0.289990
859.498291	721.033508	922.022461	729.058289	3.992647
859.797302	722.222412	938.220459	739.089172	7.808756
860.096191	727.423645	934.505310	741.615479	6.853254
860.395020	718.581726	934.356689	729.652649	5.130773
860.693787	716.426941	923.880066	724.080078	3.689092
860.992554	713.826233	923.508484	713.677673	-0.070850
861.291260	716.798340	921.056458	715.386658	-0.691127
861.589844	717.244141	933.836609	719.398926	0.994857
861.888428	716.352539	927.892395	735.299744	8.956801
862.186890	725.343201	937.700378	736.117126	5.073493
862.485413	728.018066	934.059509	732.847717	2.344019
862.783813	724.451477	938.146179	715.535217	-4.172429
863.082153	714.569275	930.715881	711.151306	-1.581320
863.380371	719.919128	922.988464	707.807678	-5.964194
863.678589	725.863281	925.589050	710.631165	-7.626515
863.976746	729.058289	926.629333	713.826172	-7.709691
864.274902	727.720886	929.229797	718.507324	-4.572285
864.572937	719.919128	932.945007	720.364807	0.209213
864.870911	720.290527	935.917175	724.080078	1.757459
865.168884	711.745789	933.910950	719.770447	3.612024
865.466736	713.974854	925.291809	724.302979	4.887504
865.764587	718.135742	917.118591	721.033630	1.456351
866.062317	725.268799	928.412537	723.485596	-0.877804
866.360107	734.630920	927.446533	724.005676	-5.510572
866.657715	722.965393	931.458923	723.336914	0.178193
866.955322	720.662109	924.920227	722.593933	0.945776
867.252808	712.711731	927.966614	722.816895	4.694511
867.550293	721.851013	936.808655	723.114075	0.587586
867.847717	717.095520	932.201965	719.919128	1.312656
868.145081	717.392822	930.641602	715.906677	-0.696907
868.442383	711.448547	929.972839	717.764343	2.890203
868.739624	721.553711	934.653870	724.525879	1.394728
869.036804	718.878845	931.830383	730.841553	5.617573
869.333984	718.878845	932.647705	731.064453	5.700366
869.631042	710.705566	930.492920	724.525818	6.288010
869.928101	718.210144	929.378418	726.457703	3.905681
870.224976	715.906738	918.158691	727.275085	5.620884
870.521851	734.185120	934.059570	739.757874	2.788127
870.818726	728.909668	945.725098	735.819824	3.187115
871.115479	732.773438	954.046936	738.643311	2.652768
871.412231	717.467041	939.112122	733.219238	7.106946
871.708862	716.203918	930.641602	731.064453	6.930002
872.005493	716.055359	933.316589	725.343201	4.274965
872.302063	724.228699	933.613708	721.405090	-1.348525
872.598572	732.550537	933.242188	723.782776	-4.368773
872.895020	732.624817	929.155518	725.194641	-3.780669
873.191406	728.538269	934.728210	722.593994	-2.882912
873.487671	719.770508	944.684814	714.420654	-2.378618
873.783997	724.005676	944.387695	709.368103	-6.641909
874.080200	716.055359	944.016113	713.157532	-1.271196
874.376343	719.547546	941.266846	727.646545	3.652817
874.672424	718.135742	956.944641	738.717590	8.618544
874.968445	724.600159	968.758789	737.305908	5.203891
875.264465	724.080078	971.136536	726.086182	0.812002
875.560364	718.210144	959.619629	723.782776	2.308373
875.856201	709.145203	946.542419	720.587708	4.819983
876.152039	710.259766	942.678711	725.789001	6.681571
876.447754	713.900574	942.604431	720.662109	2.956459
876.743469	714.569275	952.486633	726.309082	4.934405
877.039063	713.677673	952.709534	717.244141	1.492047
877.334595	715.089417	956.944824	713.974915	-0.460813
877.630127	723.634094	952.115051	705.801575	-7.804817
877.925537	723.336914	952.338074	713.157532	-4.445123
878.221008	715.386536	953.526855	713.380371	-0.842430
878.516296	707.584717	953.972656	718.358704	4.372774
878.811646	702.903748	958.728027	714.866455	4.676142
879.106812	709.070801	971.582458	716.798340	2.943694
879.401978	710.482605	984.659668	709.293762	-0.433604
879.697083	711.299988	1009.551025	712.117371	0.274059
879.992126	709.070984	1025.303223	710.185364	0.352393
880.287109	711.374268	1064.312134	717.467102	1.726319
880.582031	712.934570	1121.079468	715.906738	0.728214
880.876892	719.993347	1236.322876	717.912903	-0.402930
881.171753	725.045959	1416.135376	722.965515	-0.301038
881.466492	734.631042	1685.111328	731.807434	-0.297072
881.761230	728.835449	2002.978394	732.476135	0.285736
882.055786	730.693054	2330.133301	733.219238	0.157942
882.350403	723.782898	2584.545654	733.144836	0.503124
882.644958	722.965515	2725.052490	740.798157	0.890703
882.939453	711.225647	2750.240967	741.243958	1.472196
883.233826	704.464111	2704.544922	738.569031	1.705177
883.528137	703.349609	2650.229248	740.872498	1.927335
883.822449	706.024414	2579.641846	743.101563	1.978907
884.116577	705.058533	2501.103760	738.866211	1.882340
884.410828	707.436218	2385.489014	734.408142	1.607335
884.704956	705.801575	2228.561279	738.049011	2.117697
884.999023	711.448547	2029.578735	746.965332	2.694482
885.292969	711.374268	1815.066895	744.513367	3.002566
885.586914	714.123535	1616.901489	730.692932	1.835379
885.880798	713.603333	1467.850220	723.782898	1.349633
886.174622	716.649658	1351.715088	724.451477	1.228506
886.468384	712.637390	1273.994507	731.213074	3.309067
886.762085	709.888245	1214.700928	734.408020	4.857203
887.055664	709.665344	1177.178101	732.104675	4.799726
887.349304	715.460938	1147.977051	725.045959	2.216108
887.642822	719.844788	1116.026855	716.798340	-0.768951
887.936340	715.981018	1089.129272	712.637390	-0.896059
888.229736	713.529053	1063.346313	714.792175	0.361081
888.523071	708.922302	1049.526001	716.872620	2.334184
888.816284	710.631165	1034.368164	724.748718	4.360809
889.109619	716.278137	1027.680786	729.949951	4.390398
889.402710	715.015076	1011.780090	734.408142	6.534822
889.695862	712.340149	992.461426	729.206848	6.021213
889.988892	706.767517	981.241699	718.878906	4.412579
890.281921	709.516724	983.916626	703.721069	-2.112120
>>>>>End Processed Spectral Data<<<<<
