Jaz Data File
++++++++++++++++++++++++++++++++++++
Date: Fri Jun 04 17:02:21 2021
User: jaz
Dark Spectrum Present: Yes
Reference Spectrum Present: Yes
Processed Spectrum Present: Yes
Spectrometers: JAZA3586
Integration Time (usec): 121000 (JAZA3586)
Spectra Averaged: 10 (JAZA3586)
Boxcar Smoothing: 1 (JAZA3586)
Correct for Electrical Dark: No (JAZA3586)
Strobe/Lamp Enabled: Yes (JAZA3586)
Correct for Detector Non-linearity: No (JAZA3586)
Correct for Stray Light: No (JAZA3586)
Number of Pixels in Processed Spectrum: 2048
>>>>>Begin Processed Spectral Data<<<<<
W	D	R	S	P
191.335022	0.000000	0.000000	0.000000	0.000000
191.713211	225.805969	227.812134	223.576904	-111.110771
192.091385	456.738800	461.791412	455.698608	-20.587206
192.469528	686.482849	693.913086	688.934814	32.999828
192.847641	699.188538	708.030579	700.897461	19.327250
193.225739	716.501160	719.696106	713.528992	-93.027168
193.603790	733.145020	731.584656	720.290527	823.813782
193.981842	736.117004	733.962341	729.206848	320.707031
194.359863	734.779602	737.157227	729.949890	-203.131821
194.737854	737.380188	747.931152	739.312012	18.309452
195.115829	753.281067	748.154114	737.528809	307.244049
195.493774	759.596680	749.268616	737.825989	210.791595
195.871704	762.791748	744.810547	732.922058	166.116211
196.249603	761.082825	753.726807	737.900330	315.150055
196.627457	756.178772	751.051941	743.918884	239.131882
197.005310	760.191162	749.640137	742.878601	164.084152
197.383133	755.361511	742.358459	747.188171	62.857090
197.760910	755.955872	743.918762	743.844543	100.616585
198.138687	748.376953	747.188171	747.336731	87.503212
198.516449	743.324402	750.383240	736.414307	-97.892815
198.894180	742.729980	741.764099	728.761047	1446.236938
199.271866	743.101563	731.138855	728.240967	124.224350
199.649536	742.878601	726.606262	729.058289	84.931320
200.027191	743.324402	733.293518	728.612488	146.666183
200.404816	737.603088	736.191406	724.302979	942.146240
200.782410	740.649597	748.525635	733.219238	-94.341331
201.159988	736.934387	759.225281	746.147949	41.333302
201.537537	738.197571	773.937195	757.367676	53.638241
201.915070	729.058289	768.513000	757.219055	71.374916
202.292557	726.606262	768.587341	760.562683	80.885063
202.670029	726.531982	763.609070	755.658691	78.557167
203.047485	732.104675	771.187988	757.516174	65.018791
203.424911	730.692932	768.215820	751.349121	55.049572
203.802292	724.600098	763.386169	751.200500	68.582359
204.179688	724.377197	762.420227	752.240723	73.242126
204.557037	733.219238	762.568848	747.411072	48.354420
204.934357	733.070618	769.404602	748.228455	41.718071
205.311661	728.612488	767.175598	740.575256	31.021275
205.688934	716.575439	765.540833	743.101563	54.173206
206.066177	720.216309	764.575012	742.209900	49.581230
206.443390	713.900574	759.225281	737.751709	52.622810
206.820587	721.850891	755.435730	733.293640	34.071175
207.197769	727.646667	755.732910	730.693054	10.846544
207.574921	733.962341	758.482117	736.934387	12.121016
207.952042	727.646545	761.900085	734.853943	21.041321
208.329147	724.897400	759.522461	740.798096	45.922504
208.706223	763.757629	806.853210	783.002014	44.655125
209.083267	769.627625	809.156555	792.141296	56.954922
209.460297	771.039368	811.014160	795.707825	61.710030
209.837280	735.076843	764.946533	746.668152	38.806255
210.214264	730.247131	769.107422	738.420471	21.032627
210.591217	728.538147	770.444885	730.767334	5.319400
210.968124	728.983948	771.559509	739.237793	24.083876
211.345016	731.733215	767.472839	743.101563	31.808805
211.721893	731.361633	758.853699	735.448303	14.864907
212.098724	732.773438	756.030273	721.627991	-47.923317
212.475555	732.847717	755.510071	725.194580	-33.770267
212.852356	728.686768	758.779358	724.748779	-13.086239
213.229126	726.829285	765.912415	735.374023	21.862986
213.605865	724.154297	762.643066	721.033630	-8.107992
213.982590	721.776672	765.020813	725.863281	9.450087
214.359283	715.237976	762.494446	724.451477	19.496803
214.735931	709.591003	762.791748	734.408020	46.647873
215.112579	714.346375	757.367676	730.395752	37.305653
215.489197	719.250305	755.732910	724.748718	15.071328
215.865799	725.120300	759.819641	725.937561	2.355263
216.242355	716.575439	762.197266	724.005676	16.286583
216.618896	717.764221	760.785583	728.463867	24.870543
216.995407	718.135742	763.163269	725.640381	16.666780
217.371902	723.411316	764.129150	729.727051	15.510980
217.748367	732.922058	762.791687	734.630920	5.721070
218.124802	731.138855	753.503906	736.191345	22.591007
218.501236	730.024231	756.327393	733.665039	13.841713
218.877609	718.878845	755.881592	729.504089	28.714745
219.253983	718.433044	758.705078	725.417480	17.343142
219.630295	725.491760	755.361511	728.240967	9.203982
220.006592	728.835449	750.903320	726.680603	-9.764631
220.382889	730.024231	746.073669	727.720886	-14.351560
220.759140	717.541321	745.107727	733.367859	57.412411
221.135391	716.426819	742.952942	733.293518	63.585239
221.511581	715.535156	752.760925	741.987000	71.057884
221.887772	723.485596	756.253113	735.448425	36.508198
222.263931	724.080078	772.079590	739.683594	32.507656
222.640060	724.005676	766.581238	732.922058	20.942488
223.016159	717.095520	767.621399	728.909729	23.382490
223.392212	719.919006	757.813477	729.578430	25.490326
223.768265	726.011902	767.398438	723.782776	-5.386114
224.144302	732.773376	768.958801	727.275085	-15.194767
224.520294	721.182129	773.788574	720.513489	-1.271023
224.896286	716.055237	773.565613	726.383484	17.958927
225.272217	717.467102	775.868958	731.436035	23.918646
225.648148	727.052185	778.766785	736.265625	17.815935
226.024048	724.971619	770.890686	736.042786	24.110174
226.399902	719.621826	769.256104	733.665039	28.293377
226.775772	711.225586	763.237549	735.225403	46.142879
227.151581	718.433044	765.318054	736.117004	37.717728
227.527374	715.015137	761.825867	731.658875	35.555389
227.903137	718.730164	761.454346	724.525818	13.565278
228.278870	716.798340	758.184875	725.566101	21.185057
228.654572	717.392761	757.887695	728.018066	26.238604
229.030273	717.764343	762.271667	731.510254	30.884604
229.405930	715.683777	765.838135	723.336975	15.259289
229.781555	728.166687	768.736023	724.154297	-9.890204
230.157181	736.562927	762.568848	728.315247	-31.714626
230.532761	736.934387	764.723633	733.739319	-11.497499
230.908325	730.767273	770.221985	729.949951	-2.071544
231.283859	726.383484	775.348877	725.863281	-1.062388
231.659332	727.572266	772.674011	727.052185	-1.153127
232.034821	728.612488	765.838135	731.956116	8.982055
232.410263	719.696228	766.432556	734.779602	32.273338
232.785690	721.033630	767.844238	730.098572	19.365143
233.161087	721.925293	768.067200	726.160461	9.178573
233.536469	724.377197	763.980652	716.426819	-20.074963
233.911804	722.816895	763.757629	717.987122	-11.796987
234.287140	721.776611	764.277832	720.587830	-2.797053
234.662430	727.646484	768.661621	727.126404	-1.268021
235.037704	723.782898	774.234375	732.253357	16.789318
235.412933	725.268860	773.937073	737.380188	24.885500
235.788162	720.067688	769.479004	741.541199	43.458691
236.163345	718.730286	764.649231	735.299744	36.084145
236.538513	716.724060	769.776123	728.315247	21.848701
236.913635	716.575439	768.290100	726.234863	18.678308
237.288742	720.884949	764.500671	730.395752	21.805906
237.663834	718.655945	757.070496	738.866272	52.611126
238.038879	724.302917	762.717468	738.717590	37.523991
238.413910	719.547546	763.906311	736.414307	38.023514
238.788910	719.324646	766.135437	732.030457	27.142910
239.163879	718.432922	767.175598	734.556702	33.079388
239.538834	713.751953	763.311829	740.203796	53.373505
239.913757	718.655945	764.575012	739.980774	46.440029
240.288651	715.015076	763.757629	736.488586	44.054955
240.663528	723.782776	773.268372	735.076843	22.822939
241.038361	720.513489	777.355042	734.036621	23.790928
241.413177	722.593994	773.417053	741.838379	37.865459
241.787979	725.640320	766.061035	742.135559	40.808876
242.162735	728.092346	765.466614	739.609314	30.815233
242.537476	725.937500	770.444885	736.191406	23.038662
242.912170	720.884949	777.949463	738.940613	31.640791
243.286865	718.135742	779.212646	745.107727	44.160694
243.661514	713.157532	780.104309	737.083008	35.738056
244.036148	719.176025	779.212646	729.727051	17.574316
244.410751	725.417480	776.389160	725.789001	0.728877
244.785339	735.076843	776.166260	729.504089	-13.562505
245.159882	736.711487	776.983582	732.773438	-9.778605
245.534378	732.476135	785.231140	733.739441	2.394665
245.908890	726.160461	784.859619	734.408142	14.050765
246.283356	726.457703	777.652283	732.699036	12.191394
246.657791	725.343201	766.878418	728.166687	6.797813
247.032196	731.510254	772.228210	732.773438	3.102277
247.406586	725.640320	783.522217	734.110901	14.634250
247.780960	728.463867	787.311707	732.996338	7.702017
248.155289	727.795166	783.002136	723.411316	-7.940755
248.529602	722.965515	777.726563	723.857117	1.628168
248.903870	724.674500	784.339539	731.287354	11.083298
249.278122	717.095520	784.265320	735.671204	27.654814
249.652344	720.513489	784.116638	733.293518	20.093391
250.026550	713.751892	774.085754	727.720886	23.152826
250.400711	712.785950	780.178528	728.463867	23.263567
250.774857	713.900452	777.726563	727.720886	21.653261
251.148987	719.027405	783.968018	734.185242	23.341074
251.523071	724.674377	777.726563	735.299805	20.028255
251.897125	728.686829	783.447937	739.757813	20.216873
252.271164	723.559875	778.766785	736.042725	22.611027
252.645187	725.120300	776.389160	734.185120	17.680946
253.019165	726.234863	769.924805	732.699158	14.795841
253.393112	733.888000	777.132141	749.565918	36.254433
253.767044	729.652771	771.930969	747.485352	42.179142
254.140930	727.349304	781.293152	751.200500	44.214859
254.514801	722.148132	776.537781	734.333740	22.404278
254.888657	725.045898	782.110413	737.677429	22.135527
255.262466	731.287354	775.051697	734.110901	6.451707
255.636276	731.064453	781.441711	741.169678	20.059099
256.010010	732.922058	781.738953	746.073669	26.940697
256.383759	724.080017	780.847351	751.720642	48.691074
256.757446	730.098450	773.194092	743.472961	31.034487
257.131134	724.451477	775.646057	736.562805	23.657442
257.504791	724.228577	776.983459	733.888000	18.310009
257.878418	715.460938	775.720398	730.841614	25.524086
258.252014	723.782776	780.550049	735.151123	20.026234
258.625580	720.885010	788.797668	730.915955	14.770361
258.999115	729.875671	794.073242	734.556702	7.291600
259.372650	726.680603	793.701660	737.008728	15.410269
259.746124	727.274963	791.546875	740.500916	20.578121
260.119598	728.463867	791.398254	739.163391	17.001078
260.493042	729.281250	796.822449	734.556641	7.810627
260.866425	728.166687	803.806824	733.516541	7.072771
261.239838	717.318420	810.048340	732.327637	16.185947
261.613159	708.922302	806.556152	721.999573	13.394197
261.986511	712.340149	801.800720	720.067627	8.637859
262.359802	720.513489	792.067078	720.216248	-0.415411
262.733063	728.761169	789.020569	729.429749	1.109502
263.106293	725.937683	777.726563	729.949890	7.747237
263.479523	719.398926	785.008240	742.432800	35.107628
263.852692	719.696106	791.026855	740.575195	29.270811
264.225861	719.844788	802.172180	739.906494	24.368204
264.598969	730.990173	798.085632	732.327637	1.993374
264.972076	724.674500	792.587158	729.875671	7.658619
265.345154	726.531982	796.896729	736.117004	13.621909
265.718201	715.906738	803.509583	737.157227	24.257761
266.091217	729.801331	809.676758	749.565918	24.744265
266.464203	733.590820	815.323730	746.593750	15.909050
266.837158	739.014893	813.391846	746.519531	10.090006
267.210114	724.748718	820.673523	737.751770	13.555464
267.583038	719.770508	827.360779	737.380188	16.367353
267.955902	717.689941	834.419617	741.243958	20.178259
268.328766	722.965515	824.463074	745.925049	22.620775
268.701569	727.052063	813.168945	739.683594	14.667892
269.074371	719.473206	808.710754	737.083008	19.733624
269.447144	712.488770	815.992493	735.968445	22.684860
269.819885	709.591003	820.896484	742.209900	29.305742
270.192596	716.129700	825.577454	738.346191	20.298719
270.565277	730.767334	831.670349	742.135681	11.266608
270.937927	739.609375	831.150208	736.340027	-3.571464
271.310577	735.671326	834.419617	744.141785	8.577828
271.683136	726.011902	824.165771	740.055115	14.307345
272.055725	717.690002	829.812805	747.485413	26.573908
272.428284	717.764343	830.555847	744.438965	23.649496
272.800812	720.364929	841.849854	741.243958	17.186518
273.173279	726.977783	836.351379	734.259521	6.657675
273.545776	735.522644	833.527893	733.516541	-2.046935
273.918152	729.281250	831.075989	742.209961	12.700766
274.290558	719.621887	832.339111	745.702148	23.137777
274.662964	713.528992	837.094482	739.014893	20.625420
275.035278	720.439148	836.648621	731.213074	9.271125
275.407593	725.045898	836.500000	738.420410	12.000017
275.779907	724.822998	845.787842	750.903320	21.560249
276.152161	716.278259	852.846497	750.085999	24.755199
276.524384	712.934570	862.654541	739.906555	18.014956
276.896606	713.157410	861.242859	738.271790	16.959383
277.268799	719.027344	865.775391	738.271790	13.113936
277.640930	724.525818	863.026123	739.832214	11.051525
278.013031	731.138733	860.351257	737.305908	4.772893
278.385162	730.321472	854.704285	736.265625	4.778918
278.757233	722.296692	855.372864	731.584656	6.979434
279.129272	719.844727	859.608154	734.110840	10.207330
279.501282	718.953125	863.026062	735.225403	11.294472
279.873230	723.559875	869.861877	738.494690	10.208209
280.245178	724.971680	875.806152	727.275085	1.527108
280.617126	721.182312	877.589355	728.389587	4.608025
280.988983	715.015137	878.258118	731.658936	10.195721
281.360870	716.724060	885.465515	740.500977	14.090738
281.732697	721.702332	894.679016	735.002502	7.688996
282.104492	731.138733	902.778015	726.606262	-2.640695
282.476288	730.544373	901.960754	721.330811	-5.374960
282.848053	732.253357	908.945129	725.045898	-4.079114
283.219757	730.321472	915.409485	735.225403	2.649513
283.591461	725.194519	924.474426	737.677429	6.264009
283.963135	726.086121	923.954285	740.129395	7.097288
284.334747	736.637146	924.845947	741.095398	2.368780
284.706360	734.779602	925.291809	745.479187	5.616220
285.077942	734.333801	936.362976	752.017822	8.753201
285.449524	715.460876	947.359680	752.166504	15.828296
285.821014	713.157532	955.235779	747.485352	14.180465
286.192535	711.225647	957.687805	746.296570	14.229739
286.563995	715.609436	967.198547	738.346130	9.037233
286.935425	715.832458	964.300781	744.290283	11.453300
287.306824	719.027527	964.597961	738.271790	7.836555
287.678223	713.751953	954.418457	737.528809	9.879586
288.049561	726.011963	955.235779	734.110840	3.533174
288.420898	724.154358	952.783752	737.603088	5.882328
288.792145	732.327637	952.486572	744.141785	5.366190
289.163452	729.504150	958.876526	743.993164	6.316809
289.534668	737.454529	966.975586	742.729980	2.298461
289.905914	737.380188	972.548340	739.832214	1.042669
290.277039	735.745544	985.105469	745.999329	4.112042
290.648193	735.299744	1001.229187	755.955872	7.767522
291.019318	731.881836	1010.591248	755.510071	8.477732
291.390381	724.451599	1006.727539	743.770264	6.843894
291.761475	708.996582	995.582214	736.340027	9.541108
292.132507	712.042969	994.616211	738.048889	9.203250
292.503510	715.758118	1004.126953	741.763977	9.018263
292.874481	729.727051	1021.439453	755.287170	8.762095
293.245422	727.572266	1028.126709	756.550293	9.641523
293.616364	724.600159	1034.442383	758.184875	10.839296
293.987213	717.912903	1029.464233	744.438965	8.514187
294.358093	718.061523	1047.073975	744.959167	8.175266
294.728943	714.940857	1060.448364	748.822815	9.806432
295.099731	711.745789	1076.720825	741.615479	8.184036
295.470490	717.467041	1094.776245	738.940613	5.691240
295.841248	720.736328	1105.773193	731.287354	2.740264
296.211975	722.073792	1118.999146	731.138733	2.283790
296.582642	719.547546	1123.902954	727.572266	1.984571
296.953308	719.770508	1133.116577	724.600098	1.168413
297.323883	724.005676	1144.410400	728.166687	0.989763
297.694519	720.364929	1144.113281	731.064453	2.524971
298.065063	719.993408	1146.565308	738.569092	4.354643
298.435608	721.107910	1139.952271	731.658875	2.519066
298.806122	729.429871	1132.447754	732.327637	0.719017
299.176575	731.584534	1129.252808	731.956055	0.093425
299.547028	728.761047	1123.680054	735.225403	1.636881
299.917450	722.148132	1121.525269	733.739319	2.902316
300.287872	721.702332	1114.317993	731.881836	2.592740
300.658234	725.937561	1115.952515	738.123230	3.124411
301.028564	727.795166	1120.782227	746.519348	4.764580
301.398865	726.977844	1122.714111	747.188171	5.107019
301.769135	722.891113	1129.995728	750.011719	6.661827
302.139374	716.575439	1132.893555	744.513367	6.710716
302.509583	716.129639	1126.354980	736.488586	4.962869
302.879791	713.454773	1118.850464	735.522644	5.443539
303.249939	715.832458	1116.026855	733.219238	4.344584
303.620087	718.804504	1127.172241	743.621643	6.077155
303.990173	720.810730	1130.367310	740.872375	4.898382
304.360260	721.182190	1138.837891	751.349121	7.222919
304.730286	724.600159	1140.472412	754.469910	7.182434
305.100281	722.891174	1142.552856	751.497742	6.816578
305.470276	728.166687	1135.345581	748.525574	4.999986
305.840179	722.668274	1137.203125	737.900208	3.674464
306.210144	719.621887	1140.249634	741.020996	5.087422
306.579987	719.473328	1152.658081	740.129395	4.768420
306.949890	714.049133	1159.345337	745.627869	7.091625
307.319702	718.878845	1177.846680	745.925049	5.892832
307.689484	714.494934	1184.905396	740.946777	5.623141
308.059265	725.789001	1204.298462	746.965271	4.425465
308.429016	727.497986	1212.174683	743.844543	3.372673
308.798737	726.531982	1233.722412	743.770264	3.398779
309.168396	725.863281	1243.456055	735.151123	1.794430
309.538055	714.346375	1256.533325	735.002502	3.809780
309.907684	719.324646	1268.793213	736.340027	3.096698
310.277313	714.569336	1281.796143	738.494812	4.217973
310.646851	723.559875	1294.353394	748.525574	4.373858
311.016388	717.764343	1306.241821	757.516296	6.755051
311.385895	724.525818	1312.483276	760.785461	6.167052
311.755371	723.931396	1314.415039	750.160339	4.441942
312.124817	722.148132	1313.300537	748.599915	4.474613
312.494232	719.993347	1310.254272	743.993103	4.065957
312.863617	721.330811	1307.876343	748.376953	4.611090
313.232971	724.377258	1304.978638	738.346191	2.405942
313.602295	719.473328	1306.910522	739.089172	3.339224
313.971619	717.095520	1316.049805	736.637207	3.262634
314.340820	721.702332	1320.359253	738.643372	2.829841
314.710083	729.058350	1331.430542	740.278015	1.862580
315.079285	730.618652	1344.433472	736.265625	0.919980
315.448486	729.652649	1366.204102	743.621582	2.194470
315.817596	717.838562	1358.328003	740.872375	3.596283
316.186707	719.621765	1352.532349	742.209961	3.568939
316.555786	717.169739	1331.950684	736.414307	3.130313
316.924866	724.080017	1334.551147	737.454407	2.190831
317.293884	713.083191	1332.322144	740.798035	4.475630
317.662872	709.293762	1336.557251	740.352234	4.951424
318.031830	709.739563	1343.393066	735.522644	4.068956
318.400757	724.154297	1354.538574	737.677429	2.145221
318.769684	724.897278	1368.730469	743.324402	2.862096
319.138550	717.244141	1373.188599	752.166504	5.323982
319.507416	713.306152	1378.092407	754.692810	6.225559
319.876190	713.603333	1378.909790	755.435730	6.287688
320.244995	717.541321	1387.157593	753.578125	5.381710
320.613770	719.547546	1381.064819	747.262451	4.189597
320.982483	724.228699	1377.869629	735.151184	1.671022
321.351166	727.572266	1367.690063	730.247253	0.417890
321.719818	725.120178	1363.826294	733.962341	1.384387
322.088440	727.646545	1368.730347	741.615479	2.178956
322.457062	730.395752	1385.225586	742.804382	1.894940
322.825623	721.925232	1408.705200	743.918884	3.202431
323.194183	717.021179	1418.884766	741.541199	3.493559
323.562653	710.408264	1439.912476	739.312073	3.962117
323.931183	719.621826	1457.596558	736.711487	2.315752
324.299591	719.398926	1492.741821	743.993164	3.180250
324.668060	724.228699	1513.100586	753.726868	3.739285
325.036407	724.302917	1536.654663	751.423401	3.338515
325.404755	725.937683	1552.555298	740.946777	1.815724
325.773102	721.702332	1549.954712	741.392578	2.377325
326.141388	728.463867	1556.864868	745.404846	2.045022
326.509674	732.401917	1556.270508	747.262451	1.803751
326.877899	739.683594	1577.744141	750.680359	1.312168
327.246124	736.117126	1581.087769	749.714417	1.609203
327.614288	734.556641	1586.511719	756.327393	2.555387
327.982422	733.962219	1578.561401	749.565857	1.847461
328.350525	738.643311	1576.406616	752.240723	1.623061
328.718628	739.460632	1575.589233	741.318298	0.222175
329.086700	739.089172	1588.963745	743.844543	0.559538
329.454712	735.225403	1590.895508	749.342957	1.649883
329.822693	736.934387	1598.177246	759.076599	2.570960
330.190674	735.968445	1604.047241	758.333557	2.576392
330.558563	732.253235	1618.461792	750.234558	2.029017
330.926483	724.079895	1628.418457	738.866211	1.635042
331.294312	719.175964	1638.672241	734.556702	1.672735
331.662231	718.135742	1660.145630	727.646545	1.009629
332.029999	713.751953	1687.860718	732.847717	1.960332
332.397766	713.603333	1714.906860	732.030457	1.840314
332.765503	713.008972	1738.906616	734.408020	2.085885
333.133240	720.513489	1757.779419	737.528809	1.640401
333.500916	720.959290	1788.169312	743.993164	2.158326
333.868561	720.067627	1800.131958	746.593750	2.455976
334.236176	710.854065	1804.144409	749.417236	3.527258
334.603790	711.745789	1798.720337	750.160339	3.534080
334.971344	712.117249	1805.927612	750.234558	3.484819
335.338867	719.993347	1810.608765	750.234558	2.772857
335.706360	715.089417	1810.757202	745.181946	2.746501
336.073853	719.696228	1814.843872	743.770264	2.198246
336.441284	716.426819	1826.806641	735.968445	1.759905
336.808655	718.581604	1826.509399	734.705322	1.455304
337.176086	719.993408	1801.246582	739.980774	1.848537
337.543396	730.247131	1762.460571	744.736267	1.403696
337.910706	730.544373	1733.928223	746.519531	1.592128
338.277954	733.219238	1758.373657	746.742371	1.319131
338.645264	727.869446	1824.354614	748.451355	1.877081
339.012421	725.714661	1905.716187	748.451355	1.926836
339.379669	721.999512	1972.217163	744.216064	1.777015
339.746796	726.086182	2016.798706	747.113831	1.629151
340.113953	735.225403	2035.820313	746.519470	0.868377
340.481018	733.219238	2043.919067	755.584290	1.706344
340.848114	728.612488	2029.578735	752.686523	1.850473
341.215118	721.850891	2030.618774	744.661865	1.742935
341.582153	725.640320	2033.219604	732.327637	0.511427
341.949066	724.971680	2051.498047	728.909668	0.296865
342.316010	725.120300	2061.454834	739.089172	1.045313
342.682922	724.228699	2072.971680	741.392578	1.272583
343.049835	726.680664	2091.993408	742.209900	1.137412
343.416656	733.590820	2141.924561	748.971497	1.092119
343.783478	736.117004	2193.416260	753.058105	1.162500
344.150269	746.222229	2248.846191	756.401794	0.677453
344.516998	748.005432	2288.895264	751.869202	0.250749
344.883728	740.798096	2322.628662	752.389343	0.732774
345.250427	725.268860	2357.848145	756.178711	1.893314
345.617065	719.696106	2377.835693	751.126221	1.895505
345.983704	721.107910	2385.414307	746.668030	1.535782
346.350281	722.668213	2383.928467	739.832214	1.033192
346.716827	717.838562	2357.996826	735.596924	1.082723
347.083405	716.278259	2350.046631	736.191406	1.218848
347.449860	733.145020	2346.108398	747.113953	0.866042
347.816376	738.123230	2348.040283	753.206726	0.936911
348.182770	742.209900	2340.312744	756.773254	0.911290
348.549194	731.658875	2322.851563	747.931213	1.022650
348.915558	732.624817	2330.281982	746.742371	0.883641
349.281921	727.423645	2331.396240	742.507141	0.940384
349.648193	721.999512	2351.086670	744.513367	1.381992
350.014526	722.965515	2371.074219	742.952942	1.212749
350.380737	725.194519	2401.017822	745.776367	1.228163
350.746948	730.841553	2438.986572	750.011719	1.122280
351.113159	726.457703	2464.026611	758.556458	1.847337
351.479309	723.708496	2482.528076	770.519226	2.661486
351.845428	722.816895	2496.943115	767.844299	2.538005
352.211517	730.841553	2537.289063	760.414063	1.637053
352.577576	727.200745	2572.508789	751.126160	1.296554
352.943604	727.869446	2598.886475	751.646301	1.270798
353.309601	723.782898	2627.121582	749.194336	1.335098
353.675537	730.470032	2678.241699	746.370850	0.816359
354.041473	727.423645	2737.832275	738.569031	0.554384
354.407379	730.990173	2779.664795	738.420410	0.362685
354.773254	733.813660	2830.339111	743.027161	0.439465
355.139038	725.491760	2874.177734	736.414246	0.508333
355.504913	725.268860	2949.074951	741.689697	0.738411
355.870636	720.142029	3007.997070	735.002441	0.649535
356.236389	725.566101	3068.776611	741.541199	0.681761
356.602081	718.432922	3120.714111	741.987000	0.980488
356.967804	720.587708	3175.401123	747.411072	1.092684
357.333405	720.959290	3246.285889	754.172607	1.315209
357.699036	715.906738	3330.545166	753.280945	1.429422
358.064606	716.203918	3415.398682	752.909485	1.359871
358.430176	717.615723	3485.391846	754.395508	1.328857
358.795654	727.275085	3517.193604	754.023987	0.958770
359.161163	727.052063	3540.153320	753.949707	0.956156
359.526581	727.497864	3544.239502	748.451355	0.743891
359.892029	732.179016	3581.837158	753.132385	0.735294
360.257416	729.875671	3638.306885	749.119934	0.661672
360.622772	731.510254	3736.163818	749.417236	0.595975
360.988098	723.411316	3836.992188	738.420410	0.482053
361.353394	722.816895	3967.913330	741.764099	0.583872
361.718658	721.850891	4110.352051	744.661926	0.673190
362.083893	720.364929	4258.511719	749.045715	0.810616
362.449097	719.844727	4351.093262	744.884766	0.689571
362.814209	714.272034	4358.969238	747.708313	0.917395
363.179382	721.776672	4269.285645	743.547302	0.613688
363.544434	723.857117	4122.834961	740.500977	0.489673
363.909546	731.881836	3960.409180	738.569092	0.207130
364.274536	726.680664	3817.302002	744.587585	0.579396
364.639587	728.835388	3710.157959	746.668030	0.598145
365.004517	726.829163	3639.421143	738.643372	0.405625
365.369507	730.841553	3597.589111	738.420471	0.264373
365.734344	726.011902	3582.951416	747.931152	0.767228
366.099274	726.754883	3580.128174	756.698914	1.049426
366.464081	724.005676	3585.923828	765.020813	1.433134
366.828918	731.584534	3583.322998	758.184998	0.932781
367.193665	730.841553	3585.329102	756.476013	0.898041
367.558411	728.761047	3586.072266	748.525574	0.691718
367.923126	728.909668	3585.106201	751.423401	0.788242
368.287781	737.008728	3590.233154	755.584290	0.651038
368.652435	735.968445	3580.945313	754.915588	0.665986
369.017059	736.711487	3578.790771	753.503906	0.590850
369.381653	728.835388	3566.159180	752.537903	0.835383
369.746185	731.064514	3574.629639	753.206604	0.778674
370.110687	724.451599	3585.923584	753.503906	1.015292
370.475220	725.491760	3618.022461	751.200500	0.888797
370.839661	720.141907	3652.573242	755.064209	1.190899
371.204041	723.039795	3705.253906	764.277771	1.382797
371.568451	716.724060	3745.600342	763.534668	1.545478
371.932770	722.073792	3782.157471	760.562683	1.257772
372.297150	719.324646	3791.519531	760.711243	1.347134
372.661377	720.662109	3808.608643	758.036316	1.210326
373.025696	714.420654	3827.258789	758.333557	1.410703
373.389862	720.736389	3841.748047	750.011658	0.938006
373.754059	721.702332	3844.719971	755.584412	1.084915
374.118225	731.807434	3860.917969	750.903320	0.610266
374.482361	727.423645	3887.221436	750.234558	0.721911
374.846436	727.497986	3932.174561	742.358582	0.463716
375.210510	720.587830	3974.155518	741.987000	0.657714
375.574524	722.222473	4056.705811	747.336731	0.753168
375.938538	721.330811	4155.156738	752.017883	0.893670
376.302460	727.720886	4245.806152	763.534851	1.017996
376.666412	727.943665	4338.164551	768.661621	1.127852
377.030304	728.686768	4413.582031	770.816406	1.143306
377.394196	721.776672	4515.970703	771.708069	1.315995
377.757996	723.039795	4579.351074	768.736023	1.184973
378.121796	722.965515	4624.898926	767.844299	1.150168
378.485565	729.875671	4628.911133	762.345886	0.832776
378.849304	719.324646	4609.072266	766.209656	1.205348
379.212982	717.912842	4559.883789	772.005310	1.407935
379.576630	714.272034	4475.624512	771.336609	1.517129
379.940277	717.764343	4411.204102	768.587341	1.376034
380.303864	726.086182	4368.183105	769.850403	1.201622
380.667450	725.640320	4379.327637	769.479004	1.199848
381.030945	725.714661	4390.547363	771.633789	1.252967
381.394501	724.228699	4421.532227	768.810303	1.205787
381.757935	730.767273	4436.021484	786.345703	1.499990
382.121399	733.962219	4445.977539	788.946289	1.481246
382.484741	733.293640	4468.640137	801.577820	1.828055
382.848145	723.782776	4501.779297	794.444763	1.870356
383.211487	724.451477	4539.673340	797.416809	1.912479
383.574768	716.649719	4596.218262	793.553040	1.982265
383.938019	719.324646	4655.065430	793.627441	1.887899
384.301270	718.507324	4729.442871	797.268250	1.963655
384.664459	722.742615	4785.541016	799.794495	1.896522
385.027649	721.107910	4818.085449	808.339355	2.129166
385.390778	725.045898	4877.750488	819.410461	2.272364
385.753876	725.194580	4892.091309	831.075989	2.541014
386.116943	732.104736	4928.722168	842.964355	2.641642
386.479980	727.869446	4926.716309	849.651672	2.900373
386.842987	733.665039	4987.719238	862.654602	3.032156
387.205994	730.767273	5037.278809	879.521301	3.454165
387.568909	725.045959	5100.139160	879.149719	3.522297
387.931793	718.804504	5130.454590	880.561523	3.666588
388.294678	718.135742	5167.902832	875.806152	3.543341
388.657471	720.513489	5171.766113	887.397400	3.749145
389.020294	726.309082	5179.939453	911.620117	4.160898
389.383057	727.646484	5178.825195	936.139954	4.684006
389.745819	730.767273	5207.951660	961.328613	5.149695
390.108521	727.423645	5228.607910	969.278992	5.373149
390.471191	726.011902	5286.415527	979.309875	5.554288
390.833801	721.925232	5363.987793	986.145752	5.691878
391.196442	716.798340	5472.395020	1003.458313	6.027844
391.558960	708.625000	5561.484375	1029.241333	6.606751
391.921509	708.625000	5656.665527	1058.367920	7.068312
392.284027	706.544617	5756.826172	1092.918579	7.650543
392.646484	713.306152	5859.884277	1114.838013	7.801919
393.008911	719.101746	5897.704590	1137.574585	8.080806
393.371307	722.816895	5889.084473	1162.763306	8.515750
393.733673	734.408142	5845.543457	1184.088257	8.798048
394.096008	736.117004	5824.812988	1207.196289	9.257368
394.458344	736.414246	5844.726563	1236.248657	9.784726
394.820587	726.457703	5876.007813	1259.876953	10.358560
395.182831	726.234802	5914.273438	1288.854980	10.844564
395.545013	729.281189	5898.075684	1308.470825	11.205507
395.907196	732.550476	5876.750488	1347.628418	11.956726
396.269287	735.374023	5824.144531	1383.070801	12.727962
396.631409	735.002502	5767.154297	1411.900391	13.451460
396.993469	731.138733	5708.009277	1434.711304	14.136847
397.355530	725.566101	5642.103027	1459.454102	14.926929
397.717499	720.364929	5626.499512	1486.054565	15.606779
398.079468	719.324646	5612.232910	1514.958374	16.260958
398.441376	720.290527	5618.845703	1546.908325	16.874727
398.803284	726.011902	5621.595215	1580.047363	17.445019
399.165131	727.572205	5639.279785	1625.149048	18.274233
399.526978	727.126404	5651.093750	1658.956909	18.924385
399.888763	723.262695	5661.941406	1693.433228	19.644333
400.250519	724.302917	5684.455078	1727.315430	20.221405
400.612244	729.652771	5726.807129	1778.584351	20.990580
400.973938	726.086182	5731.117188	1816.924438	21.794834
401.335602	724.823059	5727.699219	1856.453613	22.619602
401.697205	725.343079	5768.417480	1897.394409	23.240810
402.058807	731.361633	5843.166016	1946.211304	23.765574
402.420349	728.983948	5940.725098	1997.405884	24.337776
402.781860	724.302917	6006.037109	2044.662476	24.998600
403.143341	719.250305	6070.309082	2102.395508	25.848068
403.504822	717.987244	6137.479004	2167.261719	26.741888
403.866241	711.151367	6247.669434	2239.929688	27.612631
404.227631	712.488770	6360.460938	2308.882813	28.264906
404.588959	715.312317	6501.933594	2371.668701	28.623898
404.950287	715.683838	6629.585938	2431.110596	29.006681
405.311554	717.987244	6712.582031	2476.361084	29.332655
405.672821	719.844727	6754.265625	2521.388428	29.854458
406.034027	719.696106	6745.126465	2550.366455	30.382402
406.395203	720.959290	6715.257324	2579.418701	31.003790
406.756348	718.953125	6665.919922	2584.917236	31.376738
407.117493	724.600098	6634.044434	2598.960449	31.718048
407.478516	723.262695	6638.725098	2630.241943	32.237198
407.839600	725.045898	6689.994141	2675.418213	32.697220
408.200592	726.234802	6708.049316	2714.575439	33.239758
408.561554	725.046082	6693.560547	2735.751953	33.688545
408.922485	721.553772	6674.539063	2751.503906	34.099701
409.283417	718.953125	6681.671875	2766.364502	34.336876
409.644257	717.169922	6756.644043	2808.717041	34.631279
410.005096	720.959290	6853.162598	2872.394531	35.084213
410.365906	722.148132	6922.339355	2921.583008	35.473660
410.726715	727.795166	7015.217285	2968.839600	35.643295
411.087433	725.120178	7061.804688	3000.343750	35.905586
411.448120	725.714661	7138.782715	3058.151611	36.370068
411.808807	721.553711	7166.052246	3082.819580	36.640026
412.169434	717.615723	7154.162598	3086.535156	36.804199
412.530029	719.621887	7150.670410	3096.937500	36.966225
412.890564	732.104675	7135.142090	3130.299561	37.454018
413.251099	735.448303	7156.540527	3173.989258	37.977043
413.611572	730.767273	7194.880859	3206.831299	38.304771
413.972076	724.971680	7225.568359	3232.093994	38.567574
414.332489	722.965515	7262.645996	3268.353760	38.922211
414.692871	722.296814	7324.391113	3319.771240	39.343189
415.053223	719.473328	7422.099121	3369.999756	39.544598
415.413574	725.343201	7568.921387	3449.132080	39.800655
415.773834	728.018066	7688.027832	3490.147217	39.685707
416.134094	727.052185	7808.026855	3551.372803	39.886044
416.494263	724.525879	7887.382324	3582.505615	39.900002
416.854462	724.080078	8059.838379	3685.563477	40.370514
417.214630	726.903503	8273.162109	3785.723389	40.534256
417.574738	722.445374	8500.305664	3887.666992	40.695274
417.934784	725.863281	8692.898438	3966.947998	40.681190
418.294861	732.996399	8928.438477	4081.151611	40.853870
418.654846	737.900330	9249.500000	4224.480957	40.962696
419.014832	739.832214	9575.762695	4377.544922	41.169548
419.374756	730.098450	9917.407227	4512.998047	41.175278
419.734680	726.160461	10268.117188	4672.080566	41.353363
420.094543	717.318542	10637.030273	4821.206543	41.371040
420.454376	716.203918	10928.147461	4959.111816	41.548485
420.814148	721.479431	11216.813477	5090.181641	41.625183
421.173920	720.216309	11521.602539	5248.967285	41.927494
421.533691	719.101746	11896.459961	5389.696777	41.786217
421.893341	717.541443	12194.785156	5517.274902	41.819565
422.253021	724.971680	12432.034180	5601.385254	41.653606
422.612640	728.315247	12524.614258	5656.666016	41.778786
422.972260	726.903503	12556.269531	5690.622559	41.960991
423.331757	725.417480	12493.260742	5707.414551	42.335682
423.691315	729.801270	12497.940430	5749.692871	42.656631
424.050781	732.178955	12553.148438	5786.250000	42.755131
424.410248	730.618652	12631.760742	5816.714355	42.736198
424.769653	720.736328	12724.563477	5841.457031	42.659069
425.128998	717.095520	12766.842773	5858.620605	42.669151
425.488373	717.987122	12744.997070	5854.905762	42.711517
425.847656	722.222473	12655.315430	5817.753906	42.700844
426.206940	724.302917	12541.407227	5765.667969	42.661594
426.566193	719.176086	12383.218750	5683.191895	42.558277
426.925385	716.426941	12157.784180	5594.771973	42.637817
427.284576	712.265930	11863.840820	5478.414063	42.739685
427.643677	717.021301	11630.456055	5395.120605	42.865509
428.002777	720.439148	11410.891602	5309.598145	42.927643
428.361847	726.680603	11180.479492	5229.573730	43.074226
428.720856	727.200684	10941.670898	5149.029785	43.289852
429.079865	726.903503	10762.675781	5102.813477	43.603123
429.438812	725.268860	10633.313477	5070.046387	43.851006
429.797760	728.092468	10543.779297	5054.590820	44.077393
430.156616	725.789063	10446.590820	5011.123535	44.084167
430.515503	728.984070	10378.975586	4978.876953	44.040382
430.874268	732.699219	10349.476563	4971.892090	44.081223
431.233093	735.745605	10364.932617	5001.167480	44.296799
431.591827	729.206848	10415.458008	5040.027344	44.504528
431.950562	726.903503	10448.894531	5071.829590	44.691730
432.309204	721.405090	10492.287109	5090.851074	44.719051
432.667877	724.154297	10552.546875	5129.710938	44.824795
433.026459	721.702332	10658.131836	5181.203125	44.880314
433.385010	725.194580	10750.042969	5247.109375	45.107067
433.743561	726.383484	10903.626953	5318.960449	45.125946
434.102051	722.445374	11035.291992	5366.514160	45.031879
434.460510	730.247253	11185.606445	5439.999512	45.046299
434.818939	722.816895	11271.203125	5470.686035	45.010384
435.177338	718.433044	11331.387695	5506.128906	45.111809
435.535675	712.265930	11346.247070	5489.187500	44.921288
435.894012	714.643616	11312.218750	5487.182129	45.034252
436.252289	710.928467	11329.233398	5509.101074	45.187748
436.610535	706.841797	11311.846680	5536.221191	45.538681
436.968719	712.860352	11409.331055	5575.750000	45.462563
437.326935	718.284363	11488.538086	5607.997559	45.400169
437.685028	722.371094	11608.387695	5649.979004	45.265484
438.043152	715.980957	11684.176758	5702.214355	45.460838
438.401215	717.987122	11849.500000	5780.603027	45.480034
438.759277	713.529053	12044.842773	5870.806641	45.513500
439.117249	721.107910	12344.430664	6019.932129	45.587864
439.475250	724.600098	12549.804688	6128.265625	45.696167
439.833130	730.767273	12814.024414	6266.839844	45.816063
440.191071	734.779602	12992.648438	6358.083984	45.875053
440.548889	730.915833	13226.924805	6468.200684	45.912937
440.906708	730.321472	13462.539063	6580.992188	45.951702
441.264496	720.662109	13657.657227	6666.439941	45.959496
441.622223	728.538147	13836.058594	6742.749512	45.883671
441.979950	724.897278	13927.301758	6778.339844	45.851059
442.337616	730.321472	13985.778320	6811.404785	45.876076
442.695251	723.411316	13912.144531	6788.519531	45.987041
443.052887	725.789063	13795.859375	6752.631348	46.111782
443.410461	719.324646	13699.563477	6722.240723	46.246574
443.768005	718.210144	13602.301758	6697.275391	46.406574
444.125458	717.764343	13520.643555	6669.337402	46.486210
444.482941	726.383484	13514.178711	6679.963379	46.556736
444.840393	738.049011	13601.039063	6729.300781	46.577442
445.197754	740.203796	13754.696289	6839.416504	46.864777
445.555084	736.117126	13909.246094	6944.629395	47.130127
445.912415	726.011902	14179.411133	7096.281250	47.350632
446.269714	724.451477	14453.661133	7206.323730	47.212273
446.626953	723.262695	14740.991211	7328.179688	47.118313
446.984161	716.426819	14963.230469	7428.117188	47.110149
447.341309	709.293762	15168.676758	7521.812500	47.114864
447.698456	711.820007	15332.664063	7586.084473	47.016880
448.055542	715.832458	15455.559570	7641.588379	46.987000
448.412598	723.411316	15442.557617	7666.925781	47.173351
448.769653	724.451477	15393.666992	7636.313965	47.118145
449.126617	733.293640	15197.284180	7547.298828	47.110134
449.483582	733.219238	15048.604492	7484.438965	47.160587
449.840515	726.457764	14786.687500	7415.337402	47.573048
450.197388	719.176025	14614.007813	7352.997559	47.743084
450.554230	722.668274	14483.235352	7287.907715	47.710526
450.911041	725.491760	14394.815430	7228.540527	47.574036
451.267822	725.937683	14322.293945	7182.026855	47.483967
451.624573	724.674500	14185.801758	7121.692871	47.522163
451.981262	716.575439	14086.012695	7100.888184	47.753036
452.337921	717.615662	13967.351563	7060.021484	47.868164
452.694580	714.123474	13902.187500	7042.040527	47.982151
453.051147	716.649719	13931.536133	7038.770996	47.840904
453.407715	716.501160	13896.762695	7029.780762	47.899502
453.764221	719.696106	13948.179688	7074.139160	48.036064
454.120728	723.411316	13827.364258	7024.356934	48.084312
454.477142	721.627991	13806.784180	7042.040527	48.302155
454.833557	722.816895	13694.808594	6985.421875	48.277897
455.189911	723.857178	13571.093750	6958.003906	48.525196
455.546265	727.497986	13421.523438	6899.082031	48.618023
455.902557	727.646545	13309.549805	6849.076172	48.652653
456.258820	720.959290	13323.964844	6851.082031	48.640163
456.615051	718.061462	13378.429688	6883.032715	48.695038
456.971252	722.965515	13363.493164	6888.531250	48.776176
457.327393	730.990234	13458.601563	6963.130859	48.965515
457.683502	733.962341	13635.291992	7054.597656	48.992123
458.039612	729.429871	13994.174805	7245.555176	49.123638
458.395630	728.983948	14305.651367	7430.939941	49.363781
458.751648	728.538086	14641.424805	7611.867188	49.474483
459.107605	721.256531	15080.406250	7861.376465	49.725231
459.463562	720.662109	15574.221680	8070.092285	49.479252
459.819458	717.392822	16056.594727	8303.551758	49.456020
460.175323	716.798340	16471.501953	8481.878906	49.287380
460.531158	718.432922	16925.490234	8705.529297	49.281593
460.886932	719.919006	17259.408203	8852.796875	49.172489
461.242676	719.547546	17508.248047	8960.981445	49.089169
461.598419	716.501160	17497.845703	8935.942383	48.979637
461.954102	716.724060	17263.123047	8856.438477	49.193268
462.309723	729.949951	16859.138672	8666.223633	49.204418
462.665344	733.888000	16372.602539	8453.717773	49.363579
463.020905	737.380188	15941.277344	8238.536133	49.337059
463.376373	730.841614	15580.389648	8081.386719	49.500126
463.731873	726.829285	15266.014648	7969.857910	49.817295
464.087341	726.011902	15035.081055	7884.113281	50.024929
464.442749	726.160583	14889.745117	7829.946777	50.155285
464.798126	726.234863	14784.085938	7772.435547	50.122883
465.153503	723.336914	14841.372070	7772.138672	49.927639
465.508820	716.426819	14851.776367	7786.404785	50.016293
465.864105	712.117249	14946.734375	7834.182129	50.033413
466.219330	714.494934	15146.238281	7976.917480	50.322559
466.574524	718.581543	15344.477539	8066.600098	50.239780
466.929657	722.891113	15539.226563	8171.218750	50.271049
467.284790	725.640381	15693.403320	8244.926758	50.236542
467.639893	724.154297	15821.204102	8326.734375	50.358051
467.994934	724.897278	16082.971680	8410.622070	50.043545
468.349945	723.411316	16210.698242	8463.377930	49.976261
468.704926	720.736328	16287.899414	8485.296875	49.877815
469.059875	719.176025	16139.516602	8461.074219	50.205753
469.414764	715.089355	15990.243164	8376.368164	50.155167
469.769653	719.547546	15840.820313	8322.499023	50.279839
470.124451	720.067627	15734.937500	8273.235352	50.304585
470.479248	717.541321	15620.437500	8226.127930	50.383404
470.834015	717.169922	15533.429688	8187.193848	50.417744
471.188721	722.371094	15553.342773	8228.506836	50.611221
471.543365	726.234863	15604.834961	8259.193359	50.629486
471.898010	729.058350	15686.195313	8306.152344	50.658718
472.252625	724.080078	15822.838867	8349.247070	50.501945
472.607178	726.903503	15983.183594	8470.362305	50.755878
472.961700	726.011902	16173.622070	8577.208984	50.824673
473.316193	728.166687	16413.619141	8697.059570	50.804356
473.670654	727.572266	16589.494141	8786.965820	50.809692
474.025055	728.389465	16808.685547	8899.534180	50.814640
474.379456	726.457581	17004.919922	8995.831055	50.799473
474.733795	718.878845	17188.669922	9082.913086	50.784096
475.088104	713.306091	17378.886719	9156.770508	50.664093
475.442383	713.826233	17377.845703	9191.990234	50.877064
475.796570	721.776672	17457.572266	9213.092773	50.737453
476.150787	725.566101	17524.371094	9290.217773	50.983696
476.504944	723.114075	17705.447266	9382.799805	50.992317
476.859070	719.473206	17901.310547	9514.017578	51.185116
477.213135	726.606262	18121.320313	9625.917969	51.161007
477.567200	729.875549	18423.955078	9795.253906	51.233959
477.921173	728.315247	18732.904297	9969.122070	51.324726
478.275146	721.256531	19141.123047	10187.793945	51.393082
478.629089	722.371094	19444.353516	10346.282227	51.404339
478.983002	723.262695	19814.753906	10536.274414	51.399921
479.336823	722.816895	20138.861328	10713.784180	51.457272
479.690643	721.925232	20502.349609	10912.320313	51.517578
480.044403	724.823059	20908.710938	11143.921875	51.620869
480.398163	723.559875	21426.675781	11418.098633	51.656666
480.751862	720.587708	22152.166016	11815.174805	51.767475
481.105499	722.742493	23046.326172	12280.457031	51.773563
481.459137	727.200684	24208.419922	12922.507813	51.936428
481.812744	728.018066	25597.287109	13731.664063	52.288010
482.166290	723.782898	27302.978516	14732.817383	52.706764
482.519806	724.005676	29321.337891	15854.864258	52.910034
482.873291	727.869446	31688.771484	17131.458984	52.981628
483.226715	729.206970	34352.972656	18553.759766	53.011768
483.580139	718.878723	37052.539063	20029.562500	53.148193
483.933502	721.999512	39992.996094	21523.046875	52.967964
484.286804	731.435974	42836.859375	22952.929688	52.775848
484.640106	737.305847	45566.074219	24268.830078	52.492012
484.993347	730.693054	47640.675781	25332.916016	52.445599
485.346558	721.033630	48884.656250	25966.349609	52.415737
485.699738	721.479492	49043.066406	26080.107422	52.478882
486.052887	718.804504	48244.457031	25690.388672	52.543381
486.405975	719.473206	46833.300781	24984.884766	52.620686
486.759064	719.993347	45016.156250	24084.187500	52.745411
487.112061	732.699158	43216.621094	23130.810547	52.721382
487.464996	729.652649	41803.679688	22371.583984	52.690063
487.817963	725.789001	41069.566406	21952.294922	52.614075
488.170868	712.934570	40851.710938	21785.410156	52.499050
488.523743	718.210144	40998.085938	21777.458984	52.282307
488.876587	710.408386	41222.480469	21778.423828	52.004292
489.229401	716.426758	41287.644531	21791.576172	51.946056
489.582153	705.058411	40882.699219	21611.019531	52.033821
489.934845	710.631165	40110.468750	21299.839844	52.257092
490.287537	706.990417	39139.625000	20844.216797	52.396168
490.640198	718.061523	38262.410156	20441.792969	52.534489
490.992798	718.953125	37500.656250	20036.396484	52.519165
491.345337	727.497986	37025.417969	19803.234375	52.553246
491.697876	732.253357	36762.089844	19653.216797	52.514706
492.050354	746.222229	36981.800781	19755.904297	52.461372
492.402832	745.033386	37332.363281	19841.279297	52.193607
492.755219	742.878601	37589.671875	19879.099609	51.934563
493.107605	729.504150	37402.425781	19722.542969	51.790363
493.459930	722.222473	36855.933594	19420.798828	51.748287
493.812225	718.655945	35841.402344	18895.033203	51.751015
494.164490	717.838562	34416.058594	18166.271484	51.778503
494.516724	723.857117	32655.154297	17325.982422	51.993267
494.868896	720.513489	30925.312500	16453.593750	52.088017
495.221039	725.714661	29468.830078	15696.968750	52.086399
495.573120	717.244141	28261.708984	15076.393555	52.130798
495.925201	732.401855	27520.837891	14699.530273	52.138653
496.277222	737.305847	27037.943359	14480.485352	52.254169
496.629211	739.757874	26861.177734	14386.938477	52.245171
496.981140	722.816895	26752.470703	14355.434570	52.373409
497.333069	722.371094	26822.835938	14385.526367	52.348320
497.684967	727.646545	26881.833984	14427.209961	52.380001
498.036804	726.754883	26952.867188	14455.000000	52.345711
498.388580	722.891174	26927.009766	14429.885742	52.308548
498.740326	713.529053	26929.833984	14407.967773	52.236343
499.092072	712.117249	26795.937500	14324.081055	52.185467
499.443756	715.015076	26567.607422	14215.522461	52.221100
499.795410	721.999512	26296.103516	14076.872070	52.220299
500.147003	733.665100	25981.208984	13948.105469	52.339512
500.498566	728.538147	25673.001953	13805.370117	52.423786
500.850098	731.956116	25353.275391	13601.854492	52.271362
501.201599	732.773438	25087.794922	13453.993164	52.232430
501.553009	739.980774	24815.921875	13318.317383	52.244423
501.904449	736.265625	24599.701172	13236.881836	52.383976
502.255859	736.191345	24443.812500	13135.161133	52.299511
502.607178	730.470032	24357.546875	13117.551758	52.427486
502.958405	734.110840	24267.865234	13060.487305	52.377438
503.309692	722.816895	24186.353516	13048.598633	52.531643
503.660919	719.324707	24213.025391	12998.741211	52.266842
504.012115	717.021301	24239.330078	13043.916992	52.405125
504.363251	728.761047	24314.080078	13055.507813	52.264492
504.714294	727.646545	24314.822266	13097.340820	52.442455
505.065369	728.835388	24387.119141	13135.754883	52.442181
505.416443	726.160461	24451.390625	13172.239258	52.459255
505.767395	736.117126	24518.783203	13212.510742	52.460030
506.118317	733.813660	24511.947266	13200.398438	52.428780
506.469238	727.423584	24516.259766	13232.497070	52.566982
506.820160	718.433044	24515.068359	13240.374023	52.620640
507.170929	726.606262	24578.896484	13299.371094	52.710930
507.521729	727.497864	24640.044922	13328.496094	52.696178
507.872498	722.891113	24748.677734	13369.511719	52.637699
508.223236	715.832336	24864.439453	13437.200195	52.679512
508.573883	715.015137	25005.763672	13494.934570	52.612293
508.924500	725.268860	25156.968750	13598.585938	52.691044
509.275116	728.761047	25318.650391	13679.204102	52.665726
509.625702	729.429871	25512.138672	13804.405273	52.758461
509.976196	729.949890	25750.203125	13930.496094	52.759441
510.326660	728.983948	26007.291016	14068.253906	52.769634
510.677124	732.624756	26257.837891	14198.877930	52.756672
511.027557	736.860046	26456.822266	14322.518555	52.821453
511.377869	733.888000	26658.257813	14439.395508	52.867275
511.728180	736.265625	26780.853516	14545.575195	53.021801
512.078430	728.909668	26911.775391	14575.147461	52.882824
512.428650	722.891174	26987.416016	14629.536133	52.948395
512.778931	715.535217	27081.853516	14668.026367	52.917858
513.129028	716.724060	27152.072266	14724.793945	52.989922
513.479126	718.581604	27236.554688	14736.311523	52.861240
513.829285	726.160461	27317.244141	14721.079102	52.630119
514.179382	727.943665	27342.880859	14701.981445	52.504494
514.529297	729.206848	27331.810547	14668.098633	52.396721
514.879272	721.256409	27344.068359	14696.557617	52.493706
515.229187	715.683777	27276.826172	14668.916992	52.532505
515.579163	719.324646	27295.400391	14729.101563	52.715748
515.928955	715.535156	27295.548828	14754.809570	52.818913
516.278748	718.210144	27469.937500	14886.549805	52.962337
516.628540	715.238037	27678.281250	14980.914063	52.908257
516.978333	720.959290	27983.740234	15158.944336	52.958591
517.327942	725.194519	28340.468750	15380.367188	53.069084
517.677612	726.309082	28801.218750	15639.609375	53.119675
518.027222	724.971680	29323.939453	15891.791992	53.032753
518.376831	725.640381	29946.375000	16204.308594	52.971523
518.726379	724.748718	30522.517578	16527.451172	53.033173
519.075867	724.302917	31028.445313	16810.025391	53.080936
519.425293	727.052063	31512.078125	17028.326172	52.951962
519.774658	724.600159	31866.724609	17186.441406	52.860367
520.124084	730.247131	32076.781250	17294.255859	52.841595
520.473389	725.640381	32032.201172	17257.253906	52.805588
520.822693	727.869446	31863.531250	17168.759766	52.804050
521.171997	730.395691	31540.763672	17013.837891	52.850529
521.521240	731.733154	31202.312500	16866.345703	52.951443
521.870361	732.550476	30808.734375	16686.609375	53.045490
522.219482	729.058289	30542.802734	16524.552734	52.980579
522.568604	725.566101	30234.447266	16335.377930	52.898689
522.917664	715.832336	30026.994141	16208.468750	52.855759
523.266724	715.237976	29900.751953	16191.602539	53.027554
523.615662	715.683777	30034.718750	16321.632813	53.228046
523.964600	728.315247	30330.443359	16513.927734	53.325935
524.313538	726.309082	30793.351563	16733.791016	53.239296
524.662354	732.773438	31304.033203	17036.351563	53.329754
525.011169	737.008728	32028.562500	17457.572266	53.434750
525.359985	741.020996	32827.984375	17916.466797	53.527802
525.708740	736.414246	33832.332031	18458.949219	53.549007
526.057434	738.643311	34949.773438	19066.820313	53.573730
526.406067	730.692932	36279.269531	19836.671875	53.746113
526.754700	724.748779	37780.261719	20697.765625	53.900261
527.103333	720.067688	39501.332031	21680.791016	54.048576
527.451782	721.182190	41415.371094	22799.568359	54.254398
527.800293	732.773438	43362.917969	23916.857422	54.384251
528.148743	722.148132	45291.449219	25073.750000	54.637611
528.497131	720.736328	47091.136719	26123.572266	54.782440
528.845642	714.940735	48792.449219	27107.193359	54.895218
529.193909	716.946960	50341.136719	27954.689453	54.888031
529.542175	711.597168	51640.390625	28693.406250	54.943005
529.890503	707.733398	52523.328125	29185.812500	54.960438
530.238770	714.197754	52831.531250	29387.837891	55.017475
530.586914	727.200684	52720.824219	29232.697266	54.824982
530.934998	722.593933	51970.144531	28744.228516	54.678974
531.283142	722.445313	50811.105469	27958.181641	54.375053
531.631226	722.222412	49007.175781	26882.203125	54.178329
531.979248	732.847717	47010.144531	25690.388672	53.930420
532.327148	732.401917	44964.074219	24532.900391	53.808723
532.675110	730.915833	43314.472656	23622.171875	53.756088
533.023071	730.544250	42253.281250	23045.583984	53.741734
533.370850	731.213074	41752.777344	22721.029297	53.605507
533.718689	723.114075	41808.730469	22660.992188	53.395519
534.066467	718.135925	42037.582031	22742.427734	53.302486
534.414246	719.176086	42262.347656	22866.365234	53.311264
534.761963	724.600098	42373.429688	22957.458984	53.381718
535.109619	731.881836	42431.609375	22975.513672	53.342396
535.457153	734.110840	42218.363281	22830.476563	53.264462
535.804749	739.534973	41639.246094	22553.849609	53.336109
536.152344	733.813660	40845.320313	22114.052734	53.302006
536.499817	728.686829	39882.875000	21604.630859	53.317268
536.847229	724.451477	38920.878906	20976.031250	53.019569
537.194641	722.148132	37995.363281	20439.339844	52.899090
537.542114	720.662109	37349.750000	20068.197266	52.820141
537.889404	720.513489	36892.714844	19824.560547	52.814163
538.236694	722.371094	36538.363281	19648.462891	52.842571
538.583984	725.566101	36284.691406	19511.451172	52.829998
538.931213	726.086182	36114.761719	19452.824219	52.917320
539.278381	722.891113	36002.714844	19436.255859	53.042683
539.625488	718.210144	35900.921875	19456.687500	53.260468
539.972595	717.467102	35950.035156	19576.611328	53.527592
540.319641	709.888184	36259.953125	19784.806641	53.656490
540.666687	710.556946	36799.242188	20121.472656	53.786713
541.013611	710.408386	37688.347656	20560.378906	53.680580
541.360596	717.095520	38732.746094	21106.208984	53.633469
541.707458	715.981018	40031.851563	21725.224609	53.437057
542.054260	718.210144	41243.730469	22365.865234	53.417339
542.401062	724.451599	42419.644531	22945.052734	53.292961
542.747864	726.160461	43312.097656	23375.562500	53.185169
543.094666	726.309082	43824.343750	23594.085938	53.059906
543.441284	728.092346	43770.027344	23534.494141	52.986473
543.787903	727.572266	43307.937500	23254.892578	52.905415
544.134460	728.389587	42395.277344	22736.484375	52.819149
544.481079	722.668274	41192.460938	22085.146484	52.786232
544.827637	726.829285	39689.691406	21253.255859	52.682026
545.174072	723.857117	38105.480469	20426.857422	52.707714
545.520508	723.485596	36716.839844	19686.578125	52.684978
545.866943	718.730225	35478.957031	19053.595703	52.746681
546.213318	722.296692	34539.097656	18531.396484	52.663467
546.559631	723.262695	33726.527344	18060.166016	52.530869
546.905823	723.337097	33061.441406	17696.457031	52.486439
547.252136	720.736389	32523.861328	17415.443359	52.493919
547.598389	718.507324	32056.275391	17166.009766	52.484600
547.944458	716.575500	31740.859375	16989.093750	52.450909
548.290588	715.089355	31368.306641	16751.251953	52.314777
548.636658	719.473328	30905.771484	16524.406250	52.357967
548.982727	726.680664	30299.685547	16229.125977	52.420937
549.328735	730.841614	29731.789063	15923.147461	52.385551
549.674622	726.903503	29099.916016	15584.549805	52.365417
550.020569	726.531982	28502.748047	15228.120117	52.208649
550.366455	729.578430	27778.072266	14868.049805	52.270828
550.712280	728.538147	27131.341797	14518.901367	52.230679
551.058044	726.903503	26562.703125	14250.073242	52.342758
551.403748	721.405090	26057.443359	14038.682617	52.562588
551.749512	723.782776	25730.140625	13870.832031	52.574825
552.095154	722.371094	25497.275391	13721.335938	52.468273
552.440735	732.699158	25416.880859	13652.159180	52.339024
552.786316	733.219238	25338.492188	13614.785156	52.352867
553.131897	732.624817	25334.330078	13587.144531	52.250523
553.477417	717.318420	25356.396484	13547.168945	52.071148
553.822815	716.575439	25389.833984	13546.351563	51.998711
554.168213	718.061523	25414.650391	13565.596680	52.021496
554.513672	721.330872	25383.517578	13527.256836	51.925343
554.859009	719.324646	25273.177734	13477.695313	51.960770
555.204285	719.621887	25099.906250	13413.499023	52.066154
555.549500	715.758118	24898.544922	13325.524414	52.143562
555.894714	724.302917	24720.218750	13221.872070	52.082069
556.239990	722.816895	24462.685547	13061.973633	51.976513
556.585022	730.395752	24209.015625	12937.441406	51.992180
556.930115	724.525879	23925.552734	12790.024414	52.004154
557.275146	728.538269	23680.203125	12674.112305	52.046658
557.620178	724.377258	23486.125000	12603.153320	52.187450
557.965149	723.039734	23303.193359	12514.956055	52.222477
558.310059	720.439148	23138.312500	12416.950195	52.174934
558.654968	723.039795	22969.201172	12313.596680	52.101376
558.999756	718.210144	22886.130859	12258.239258	52.057339
559.344604	722.222473	22848.013672	12226.214844	51.993587
559.689331	724.971680	22796.890625	12190.625000	51.946793
560.033997	729.578430	22684.916016	12142.550781	51.982677
560.378723	725.789001	22645.015625	12153.546875	52.135773
560.723389	720.736389	22634.687500	12157.040039	52.187321
561.067932	718.433044	22713.896484	12167.813477	52.053375
561.412476	721.627991	22689.599609	12158.229492	52.060345
561.757019	726.011902	22717.460938	12137.200195	51.889206
562.101501	731.956055	22710.179688	12147.604492	51.940727
562.445862	730.098450	22733.437500	12150.129883	51.901352
562.790222	728.389465	22733.958984	12163.207031	51.963287
563.134644	728.463806	22720.955078	12142.401367	51.899246
563.478943	734.036438	22735.146484	12130.290039	51.798542
563.823181	727.200684	22770.664063	12136.679688	51.759010
564.167358	727.349304	22807.740234	12165.362305	51.801678
564.511536	721.999512	22849.796875	12191.813477	51.834415
564.855774	731.956055	22830.476563	12190.031250	51.849968
565.199768	729.132568	22896.531250	12231.343750	51.887962
565.543823	721.850891	22951.960938	12276.370117	51.976891
565.887817	717.912903	23140.244141	12368.579102	51.960098
566.231812	719.919128	23267.525391	12416.429688	51.874737
566.575745	728.315247	23499.646484	12503.215820	51.709316
566.919617	724.154297	23689.787109	12584.057617	51.641960
567.263428	725.714661	23885.351563	12691.202148	51.665264
567.607239	721.702332	24058.404297	12758.223633	51.577648
567.950989	724.525818	24132.408203	12803.250000	51.601097
568.294678	719.844727	24209.757813	12837.207031	51.585384
568.638367	717.689941	24096.521484	12810.829102	51.726871
568.981995	716.129639	24022.218750	12766.842773	51.706284
569.325623	726.234802	23867.000000	12666.906250	51.600159
569.669128	733.813660	23757.923828	12598.621094	51.532101
570.012573	734.482422	23614.000000	12524.020508	51.528790
570.356140	727.200745	23580.562500	12491.550781	51.477547
570.699524	717.987122	23511.906250	12439.539063	51.424026
571.042908	723.782776	23520.677734	12469.483398	51.523247
571.386230	718.358704	23580.640625	12485.308594	51.468838
571.729492	727.275085	23690.310547	12555.153320	51.508339
572.072815	721.850891	23848.646484	12589.406250	51.315178
572.416016	726.086243	23908.978516	12626.854492	51.334270
572.759094	723.336975	24048.671875	12684.067383	51.277851
573.102234	722.816895	24117.548828	12737.121094	51.354744
573.445374	718.878906	24194.376953	12788.760742	51.414806
573.788391	715.906738	24226.177734	12811.274414	51.447163
574.131409	717.169861	24279.083984	12805.332031	51.303822
574.474365	719.250305	24297.138672	12800.055664	51.237862
574.817261	721.256531	24192.890625	12753.765625	51.264042
575.160156	721.330811	24023.630859	12687.784180	51.353096
575.502930	718.433044	23805.775391	12575.438477	51.357174
575.845703	720.810730	23636.734375	12457.000000	51.214123
576.188477	735.002502	23419.177734	12318.424805	51.063889
576.531250	734.036621	23223.242188	12193.448242	50.955166
576.873901	728.389587	22974.548828	12059.480469	50.935040
577.216431	715.609558	22722.439453	11934.428711	50.978806
577.559082	716.649719	22459.705078	11795.112305	50.951733
577.901611	717.541321	22224.017578	11669.465820	50.923843
578.244080	718.061523	22005.345703	11551.174805	50.890064
578.586487	726.977844	21728.271484	11425.602539	50.942696
578.928955	767.472839	21454.093750	11308.875000	50.957584
579.271301	763.460449	21100.857422	11138.945313	51.016777
579.613647	755.658691	20740.341797	10973.174805	51.126732
579.955872	716.278259	20392.455078	10765.350586	51.072277
580.298157	717.912903	20104.978516	10616.446289	51.057407
580.640320	721.033508	19884.968750	10471.853516	50.881096
580.982483	723.559875	19662.728516	10376.523438	50.968258
581.324524	723.336975	19465.677734	10271.385742	50.943741
581.666626	729.058289	19282.892578	10169.441406	50.881035
582.008728	727.646484	19133.544922	10087.931641	50.854813
582.350647	730.470032	19011.169922	10016.675781	50.797871
582.692566	727.423645	18953.435547	10005.233398	50.904224
583.034424	723.782776	18910.042969	9955.599609	50.762589
583.376343	720.959290	18843.023438	9949.432617	50.923965
583.718201	719.027527	18774.662109	9902.100586	50.859875
584.059937	719.993347	18675.466797	9895.933594	51.103863
584.401611	715.015137	18606.218750	9819.773438	50.889580
584.743347	712.191589	18529.685547	9759.440430	50.777336
585.085022	707.882019	18476.189453	9681.867188	50.505573
585.426514	715.015137	18363.916016	9647.018555	50.609409
585.768127	714.643555	18261.898438	9614.399414	50.718796
586.109619	714.420654	18156.537109	9567.291992	50.755714
586.451172	708.625061	18144.873047	9541.657227	50.659019
586.792542	711.448547	18121.466797	9523.825195	50.616703
587.133850	721.999573	18121.914063	9508.073242	50.494923
587.475220	725.045959	18100.216797	9479.764648	50.386379
587.816589	725.491760	18054.966797	9449.374023	50.341293
588.157776	722.668274	18072.353516	9481.472656	50.483940
588.498962	729.132629	18123.400391	9514.685547	50.508324
588.840210	720.142029	18153.492188	9553.842773	50.671280
589.181335	726.754883	18217.320313	9552.952148	50.462616
589.522400	724.377197	18224.525391	9547.231445	50.415882
589.863403	729.875671	18306.408203	9562.760742	50.253849
590.204407	726.754883	18288.576172	9576.877930	50.394112
590.545410	729.132568	18367.039063	9600.581055	50.297626
590.886353	741.987000	18389.849609	9604.221680	50.217037
591.227112	737.825989	18399.210938	9593.522461	50.141575
591.567932	732.179016	18358.269531	9577.249023	50.181694
591.908752	728.240967	18278.171875	9547.973633	50.255081
592.249512	730.470032	18282.705078	9534.672852	50.160015
592.590149	731.436035	18207.064453	9494.624023	50.145191
592.930786	729.504150	18162.111328	9468.767578	50.131706
593.271423	723.559875	18046.568359	9412.519531	50.158493
593.612000	723.411316	17934.818359	9361.696289	50.189304
593.952576	718.804504	17897.814453	9325.957031	50.102726
594.292969	719.250305	17882.732422	9311.541992	50.061474
594.633484	717.541321	17962.904297	9335.320313	49.971573
594.973877	718.358704	18033.791016	9389.411133	50.077023
595.314209	728.761169	18145.615234	9467.058594	50.171505
595.654480	729.652771	18286.642578	9535.565430	50.156166
595.994812	731.361755	18443.496094	9581.187500	49.964764
596.335022	725.566101	18642.626953	9644.567383	49.779377
596.675171	727.275085	18764.037109	9708.764648	49.795464
597.015320	722.519714	18923.044922	9794.064453	49.842216
597.355408	728.315247	19015.031250	9853.953125	49.903095
597.695496	722.073914	19173.148438	9890.509766	49.690525
598.035461	720.142029	19187.044922	9894.150391	49.678116
598.375366	711.299988	19227.539063	9906.632813	49.660912
598.715271	720.810730	19185.484375	9923.574219	49.839840
599.055176	730.841492	19076.556641	9874.832031	49.842648
599.395081	730.098450	18905.212891	9759.959961	49.682552
599.734802	731.956055	18651.990234	9620.494141	49.601120
600.074524	726.680603	18374.691406	9477.164063	49.583397
600.414246	730.395691	18018.560547	9314.069336	49.650581
600.753906	728.166687	17672.457031	9132.027344	49.597000
601.093506	726.531982	17320.412109	8942.703125	49.513256
601.433044	728.761047	17075.287109	8823.819336	49.521580
601.772583	732.996399	16888.710938	8721.727539	49.448330
602.112122	739.014893	16850.072266	8684.056641	49.314217
602.451538	730.395813	16836.402344	8659.016602	49.227726
602.790894	728.315369	16900.005859	8700.031250	49.294266
603.130310	728.315247	16994.962891	8757.245117	49.358234
603.469604	732.104736	17149.812500	8845.812500	49.420471
603.808838	720.513489	17357.933594	8909.193359	49.218449
604.148010	723.708496	17604.693359	9011.137695	49.093285
604.487305	727.943787	17835.626953	9125.042969	49.083790
604.826416	734.110840	18046.349609	9248.237305	49.179817
605.165527	725.789001	18246.296875	9355.307617	49.253815
605.504456	723.485596	18442.380859	9440.754883	49.197594
605.843445	726.309082	18580.064453	9505.918945	49.175140
606.182434	729.504150	18687.208984	9505.621094	48.871040
606.521423	732.104736	18645.228516	9464.903320	48.750843
606.860229	729.578430	18548.337891	9406.948242	48.697948
607.199036	730.024231	18376.994141	9353.970703	48.869274
607.537903	728.761047	18198.966797	9260.200195	48.834225
607.876648	727.572266	17945.294922	9133.737305	48.822746
608.215271	720.885010	17642.212891	8985.948242	48.844059
608.553955	717.615723	17330.960938	8857.032227	48.993240
608.892578	725.937683	17085.689453	8746.618164	49.026909
609.231140	726.234863	16892.947266	8657.901367	49.061714
609.569641	725.491699	16780.304688	8569.778320	48.859409
609.908081	716.352539	16749.988281	8528.391602	48.722816
610.246521	724.525818	16790.185547	8512.862305	48.478161
610.584961	728.463867	16829.123047	8519.846680	48.391701
610.923340	726.754883	16829.492188	8509.965820	48.334709
611.261597	723.559875	16762.546875	8486.931641	48.403130
611.599854	718.135742	16723.091797	8486.782227	48.539005
611.938110	721.627991	16651.166016	8447.773438	48.502007
612.276245	720.364807	16511.031250	8366.634766	48.422722
612.614319	723.782776	16244.061523	8226.945313	48.344254
612.952393	723.782898	15944.843750	8084.507813	48.358818
613.290466	728.612488	15622.742188	7940.583496	48.421566
613.628479	722.891174	15321.518555	7805.872559	48.518135
613.966370	727.795105	15020.666992	7682.009766	48.655125
614.304260	720.959290	14788.543945	7560.895996	48.621967
614.642151	722.073914	14581.686523	7435.175781	48.436436
614.979980	715.015137	14417.699219	7345.714844	48.389790
615.317749	714.420654	14259.210938	7273.864746	48.427803
615.655396	723.114075	14167.968750	7247.561035	48.527462
615.993164	718.953125	14052.575195	7197.184082	48.585682
616.330811	724.823059	14006.879883	7186.410156	48.648994
616.668396	711.820129	13922.916992	7141.085938	48.665646
617.005859	723.559875	13938.745117	7142.794922	48.574684
617.343445	720.662109	13938.000977	7110.770020	48.346401
617.680908	730.990173	13984.515625	7111.142090	48.139282
618.018311	726.531982	13994.843750	7112.479004	48.129314
618.355652	724.005676	14019.140625	7118.795410	48.098721
618.692993	725.789001	14038.980469	7112.256348	47.970970
619.030273	727.497864	14045.370117	7089.222168	47.768322
619.367554	733.665039	14033.182617	7096.949707	47.845982
619.704712	729.875671	13996.625977	7104.454590	48.049290
620.041870	733.144958	13989.566406	7113.890625	48.133244
620.379028	727.572266	13983.920898	7082.164063	47.936214
620.716064	730.544373	13966.534180	7057.346191	47.799988
621.053040	720.662109	13905.233398	7014.028809	47.732811
621.389954	718.284363	13814.137695	7006.003418	48.013054
621.726929	714.494934	13728.765625	6942.028809	47.851578
622.063843	719.176025	13662.188477	6910.524902	47.835453
622.400635	723.782776	13623.254883	6858.289551	47.556263
622.737427	727.275085	13600.444336	6852.494141	47.581284
623.074219	724.600159	13540.928711	6821.881348	47.574322
623.410889	728.092346	13486.539063	6793.571777	47.540894
623.747559	722.891174	13466.328125	6779.603027	47.528088
624.084167	734.333801	13464.768555	6750.550781	47.258533
624.420715	725.343201	13444.112305	6742.154785	47.306553
624.757324	727.646545	13421.151367	6729.969238	47.286568
625.093750	723.039734	13433.411133	6745.350098	47.381077
625.430176	728.686768	13456.073242	6771.058594	47.475357
625.766602	736.340027	13462.463867	6779.529297	47.486488
626.102905	729.652649	13516.036133	6812.742188	47.574745
626.439209	724.377197	13601.929688	6820.246582	47.337170
626.775452	716.055359	13714.276367	6857.917969	47.251564
627.111694	715.237976	13789.171875	6866.462891	47.049538
627.447876	718.581604	13858.424805	6916.765625	47.170914
627.783997	716.203918	13925.445313	6936.679199	47.091843
628.120056	719.324646	14022.112305	6962.164551	46.928806
628.456055	721.627991	14068.625977	6952.951172	46.687077
628.792053	721.182190	14053.022461	6950.722656	46.726788
629.128052	719.398926	13962.596680	6945.372559	47.012619
629.463928	718.730225	13858.200195	6923.675781	47.223713
629.799744	726.011902	13752.690430	6875.453125	47.206516
630.135559	722.891113	13635.812500	6806.054688	47.109119
630.471375	718.433044	13492.706055	6720.310059	46.984097
630.807068	721.256531	13346.477539	6638.353516	46.867275
631.142700	724.080078	13236.731445	6565.685547	46.685593
631.478333	729.652771	13102.838867	6497.921875	46.619106
631.813965	719.993408	12986.109375	6439.891113	46.631691
632.149475	715.683838	12792.997070	6380.151855	46.901722
632.484924	717.615723	12713.641602	6333.341309	46.813217
632.820435	723.485596	12605.828125	6279.100098	46.755211
633.155884	732.699158	12558.942383	6247.893066	46.635216
633.491150	742.284180	12498.534180	6227.607910	46.658787
633.826477	745.776428	12454.027344	6199.596191	46.580994
634.161804	736.265686	12386.040039	6172.550293	46.664291
634.497009	722.593994	12286.252930	6117.045410	46.650036
634.832153	708.253601	12186.834961	6091.782715	46.900650
635.167297	707.882080	12130.586914	6041.404785	46.692287
635.502380	711.597168	12080.136719	6013.542480	46.636997
635.837463	718.878845	12008.359375	5965.096191	46.469963
636.172424	725.343079	11925.289063	5929.134277	46.462643
636.507324	726.309082	11832.485352	5901.121582	46.594009
636.842224	727.720886	11761.229492	5862.038574	46.533863
637.177124	730.470032	11660.401367	5796.132324	46.346695
637.511963	726.309082	11538.840820	5715.142090	46.139362
637.846741	721.330811	11405.020508	5640.244629	46.041344
638.181396	709.813904	11251.808594	5586.152344	46.256313
638.516113	707.882019	11151.278320	5532.357422	46.196423
638.850769	717.689941	11029.421875	5488.296387	46.263870
639.185303	726.532043	10980.827148	5442.822754	45.993317
639.519836	725.566101	10914.475586	5391.776855	45.796963
639.854370	715.683838	10826.872070	5364.062012	45.972618
640.188843	717.764343	10715.715820	5324.830078	46.080101
640.523254	720.067688	10588.954102	5302.093262	46.429001
640.857605	723.931396	10525.575195	5251.938965	46.196415
641.191895	716.055359	10454.319336	5204.831055	46.094212
641.526184	716.352539	10411.965820	5151.853516	45.747501
641.860413	712.340149	10340.040039	5126.813477	45.851791
642.194580	713.454773	10264.995117	5104.819824	45.975468
642.528748	715.312317	10165.206055	5087.507324	46.267132
642.862793	720.662109	10119.956055	5046.343750	46.021347
643.196838	723.039795	10083.547852	5005.699707	45.752434
643.530823	730.544373	10049.815430	4992.027832	45.727646
643.864746	730.247131	9970.831055	4976.796387	45.955421
644.198669	736.117004	9907.896484	4966.394043	46.122749
644.532532	728.983948	9873.642578	4932.512207	45.967037
644.866333	732.327637	9840.354492	4896.995605	45.725246
645.200073	732.179016	9838.794922	4881.540039	45.564243
645.533813	729.058289	9816.503906	4853.527832	45.386459
645.867554	723.411316	9814.051758	4850.778809	45.402386
646.201172	721.033508	9775.636719	4834.729004	45.432087
646.534729	724.080017	9797.333008	4844.314453	45.410774
646.868225	721.627991	9813.011719	4833.763672	45.231133
647.201782	712.265930	9816.950195	4821.949219	45.138115
647.535217	713.008972	9790.944336	4803.150879	45.055859
647.868591	718.953125	9795.253906	4817.268066	45.154022
648.201965	729.281189	9812.268555	4832.500488	45.174778
648.535278	728.612488	9807.364258	4839.708008	45.282608
648.868591	728.761047	9783.736328	4832.574707	45.321087
649.201782	720.662109	9746.734375	4818.011719	45.394604
649.534912	722.742493	9721.992188	4813.479004	45.456417
649.868103	717.392761	9695.390625	4780.266113	45.253666
650.201172	719.993408	9674.437500	4755.448730	45.066509
650.534180	718.953125	9636.541992	4721.046387	44.878647
650.867188	720.959290	9607.563477	4705.368652	44.836128
651.200134	724.080017	9568.407227	4688.278320	44.821930
651.533020	721.107910	9532.816406	4680.253906	44.930511
651.865845	730.544434	9493.659180	4665.765137	44.906643
652.198608	735.225403	9461.411133	4656.328613	44.934906
652.531433	735.968445	9429.015625	4628.613770	44.778835
652.864136	729.058289	9357.833008	4606.619629	44.937569
653.196777	1342.947388	9988.440430	5226.081543	44.915127
653.529358	1369.473511	9957.307617	5234.255371	45.002987
653.861938	1370.216431	9914.658203	5205.500000	44.886299
654.194519	754.246887	9174.602539	4518.497559	44.704178
654.526978	740.872375	9110.851563	4458.237793	44.413078
654.859375	737.083008	9049.774414	4422.498047	44.334801
655.191833	733.665100	9017.675781	4401.692871	44.278404
655.524170	725.863281	8954.145508	4369.520020	44.282108
655.856445	730.395752	8930.963867	4356.591309	44.218834
656.188660	751.646301	8909.194336	4360.232422	44.236164
656.520874	750.606140	8872.414063	4350.573730	44.324707
656.853088	748.897156	8860.154297	4338.016113	44.248615
657.185181	726.532043	8800.860352	4312.752441	44.415096
657.517212	720.513489	8821.665039	4316.468262	44.388195
657.849243	719.176025	8854.358398	4331.923340	44.408928
658.181274	719.919128	8941.738281	4361.050293	44.286198
658.513123	716.278259	8977.032227	4376.430176	44.307720
658.844971	712.265869	9031.049805	4386.089355	44.162987
659.176819	717.764343	9081.055664	4411.798340	44.169621
659.508667	724.525879	9172.299805	4448.578125	44.083241
659.840393	726.977844	9257.227539	4499.178223	44.221451
660.172058	729.206848	9327.741211	4519.686035	44.082855
660.503662	725.417480	9383.914063	4528.899414	43.927742
660.835266	728.835449	9434.290039	4519.908691	43.548248
661.166931	719.844727	9412.593750	4493.828613	43.415310
661.498413	721.850891	9368.829102	4478.076172	43.439743
661.829773	721.405090	9270.081055	4451.178711	43.629841
662.161194	728.092346	9165.314453	4406.745605	43.600292
662.492615	728.389465	9041.452148	4346.634766	43.524818
662.823975	741.020996	8878.803711	4275.972656	43.438759
663.155212	738.940613	8737.405273	4211.924316	43.420628
663.486450	740.575256	8580.032227	4139.925293	43.362061
663.817627	731.287415	8454.385742	4087.095459	43.451580
664.148743	729.727051	8314.176758	4020.074219	43.382809
664.479858	724.005676	8211.862305	3969.028564	43.337143
664.810913	712.191589	8110.513184	3909.809326	43.220852
665.141907	713.751953	8045.275391	3878.527588	43.166683
665.472778	717.467102	7966.291504	3858.540039	43.332172
665.803711	732.104736	7904.769531	3842.342041	43.362366
666.134583	730.544434	7853.722656	3814.924561	43.300617
666.465454	729.950012	7811.667480	3788.770264	43.193199
666.796143	719.101746	7779.865723	3761.575439	43.089863
667.126831	722.891174	7754.157715	3769.674561	43.331928
667.457458	729.132629	7736.324707	3761.426758	43.274029
667.788147	735.522644	7713.885254	3761.352539	43.360168
668.118774	731.584656	7681.711426	3741.587891	43.308605
668.449219	720.290588	7685.576172	3731.037109	43.225025
668.779663	720.736328	7691.074219	3707.705811	42.852577
669.110107	723.262695	7668.932129	3687.495361	42.677422
669.440552	732.624817	7618.480469	3668.473633	42.635937
669.770874	729.504150	7577.911621	3661.489502	42.812660
670.101135	724.823059	7561.268066	3655.322266	42.865837
670.431396	727.497864	7528.723145	3650.938477	42.984032
670.761597	729.058350	7469.875488	3625.229736	42.964691
671.091797	731.584656	7443.869629	3601.824219	42.760990
671.421875	720.067688	7411.845215	3568.090820	42.560040
671.751892	717.764343	7412.364746	3563.632813	42.509907
672.081909	717.764343	7369.863770	3548.177734	42.549171
672.411865	720.141907	7311.907715	3534.208984	42.690643
672.741821	716.352539	7256.329590	3505.825439	42.652641
673.071716	714.272156	7203.871582	3474.543945	42.533775
673.401550	717.169922	7182.250000	3459.014404	42.410061
673.731262	723.485596	7141.902832	3443.485107	42.378044
674.060974	727.052063	7130.460449	3426.395752	42.154797
674.390625	722.445313	7098.063965	3416.141846	42.249962
674.720276	716.798340	7061.656250	3394.817139	42.207703
675.049927	719.250305	7015.811035	3385.455078	42.343830
675.379395	726.383362	6991.886230	3357.517334	41.993980
675.708923	732.550537	6940.468750	3340.279053	42.006493
676.038330	733.219238	6901.459473	3324.378174	42.008076
676.367737	735.002502	6844.321777	3295.474365	41.910919
676.697083	741.095398	6801.151855	3271.771484	41.759941
677.026428	740.649597	6753.077637	3256.316650	41.841114
677.355652	731.287354	6733.238281	3239.747070	41.794071
677.684875	728.909668	6762.216309	3236.700928	41.565784
678.013977	718.655945	6739.554688	3223.029297	41.594673
678.343079	719.844727	6741.560547	3215.449951	41.443424
678.672180	708.179199	6725.808594	3216.416016	41.681477
679.001221	704.166809	6773.807129	3229.121826	41.599751
679.330139	709.145203	6781.683594	3251.635742	41.868660
679.659058	711.522766	6800.927734	3255.722412	41.780762
679.987976	720.216248	6823.887207	3266.644775	41.719624
680.316772	714.494934	6881.546387	3275.858154	41.533031
680.645630	711.820068	6925.087891	3285.369141	41.420219
680.974304	717.467102	6970.189941	3293.170654	41.193314
681.302979	722.519714	6996.493652	3306.991211	41.193531
681.631653	728.240967	7036.468262	3317.319336	41.042881
681.960266	721.553711	7078.820313	3331.882813	41.060558
682.288757	720.290588	7098.658691	3342.656494	41.113430
682.617249	717.244141	7088.107910	3333.591797	41.067394
682.945679	721.925293	7060.467285	3326.161377	41.085728
683.274109	733.070618	7037.656250	3304.687744	40.789631
683.602478	745.033386	7001.173340	3292.502197	40.719498
683.930725	733.516418	6926.500000	3257.877197	40.761627
684.259033	726.531982	6839.416504	3222.286133	40.827763
684.587280	721.033630	6775.665527	3186.992432	40.728466
684.915344	731.436035	6718.674316	3157.419922	40.519249
685.243469	733.962341	6664.359375	3136.318115	40.509190
685.571533	735.076843	6584.186035	3109.791748	40.599598
685.899536	733.590820	6517.611328	3078.287354	40.537487
686.227539	732.178955	6444.869629	3048.566406	40.548100
686.555420	733.442200	6408.609863	3043.142334	40.698360
686.883301	730.395752	6394.120605	3032.368408	40.644150
687.211121	725.937683	6400.957031	3033.780029	40.666683
687.538940	713.751953	6396.869629	3019.662354	40.574741
687.866638	718.061523	6373.539063	3010.523438	40.535248
688.194336	717.615662	6363.804688	2996.331787	40.358479
688.521973	725.268860	6344.783691	2981.470947	40.149414
688.849609	718.210144	6331.854980	2987.712646	40.428322
689.177063	716.798340	6328.363281	2979.093750	40.314877
689.504578	717.541321	6313.799316	2967.279297	40.200756
689.832031	715.981018	6279.769043	2938.449951	39.945248
690.159485	715.386658	6201.676270	2911.477783	40.028713
690.486816	706.024475	6115.410645	2879.453125	40.178841
690.814087	719.919128	6041.925293	2850.846680	40.039928
691.141296	721.330811	5934.261230	2821.348877	40.284786
691.468506	722.073914	5831.648926	2784.643311	40.366749
691.795715	716.872620	5719.451660	2739.392822	40.429550
692.122803	720.959290	5645.595215	2694.736572	40.079662
692.449829	730.990173	5592.691406	2665.981689	39.800709
692.776855	730.767273	5552.122559	2622.365967	39.233753
693.103821	723.336914	5502.116699	2599.034912	39.250565
693.430664	715.460876	5428.036621	2567.010498	39.289547
693.757568	710.482666	5344.892090	2542.936279	39.540176
694.084351	715.906738	5282.552246	2506.528076	39.210869
694.411133	722.891174	5256.843262	2493.822266	39.059326
694.737854	726.234863	5214.342285	2481.042236	39.099049
695.064575	722.519714	5198.292969	2479.779053	39.261578
695.391174	720.142029	5153.190918	2461.723389	39.286308
695.717773	729.132629	5136.621582	2462.540771	39.328705
696.044250	721.776611	5112.770020	2455.853760	39.491684
696.370789	720.959290	5115.519531	2454.887695	39.456245
696.697205	701.417725	5115.593262	2450.801025	39.631031
697.023621	708.699280	5146.726074	2466.255859	39.602207
697.349915	717.467041	5194.726074	2484.162842	39.459320
697.676208	728.761047	5280.174316	2512.100830	39.182114
698.002380	729.429871	5363.616211	2521.165771	38.663437
698.328674	724.451477	5459.317871	2548.509033	38.523952
698.654724	721.553711	5550.413574	2576.669678	38.417267
698.980896	724.525879	5634.078125	2620.656982	38.621262
699.306946	729.429871	5701.173340	2653.499023	38.700085
699.632935	737.603027	5769.160156	2678.241455	38.569340
699.958862	730.915833	5802.894043	2680.247803	38.433369
700.284729	720.810730	5816.268066	2663.455322	38.125027
700.610596	715.535156	5780.603027	2650.526611	38.202675
700.936340	726.829285	5709.792969	2630.985107	38.213318
701.262146	728.686768	5603.020020	2600.892578	38.409477
701.587830	728.835388	5501.818848	2551.927002	38.196060
701.913513	727.274963	5387.913086	2493.896484	37.905144
702.239075	727.646484	5261.375488	2446.342773	37.909111
702.564697	723.782776	5118.714355	2397.674561	38.086868
702.890137	716.129639	4995.223145	2355.619141	38.313942
703.215698	716.724121	4898.927246	2305.241943	37.982800
703.541016	713.974854	4804.859863	2254.121338	37.648247
703.866455	719.473206	4731.820313	2228.264404	37.603706
704.191711	719.473206	4645.777832	2213.552490	38.053066
704.517029	727.275085	4575.561523	2188.066406	37.959526
704.842163	729.429871	4519.982910	2160.500244	37.753601
705.167419	723.931396	4477.110840	2135.980225	37.622738
705.492493	720.067688	4436.243652	2125.206299	37.811413
705.817566	708.327820	4370.857910	2097.937500	37.941250
706.142578	710.556946	4345.148926	2083.596924	37.777004
706.467590	718.432922	4327.910645	2069.553955	37.432590
706.792480	724.674377	4323.601074	2067.993408	37.325546
707.117371	720.736328	4323.972656	2057.293945	37.093254
707.442200	718.730225	4327.464355	2060.562988	37.182922
707.766907	714.792175	4327.167480	2050.606445	36.978832
708.091675	718.358704	4304.876465	2056.922119	37.322090
708.416321	710.854065	4280.653809	2045.182251	37.378235
708.741028	716.203918	4290.981934	2049.640625	37.301247
709.065552	725.937561	4311.043457	2047.931641	36.874619
709.390137	726.754883	4349.384277	2058.259766	36.755207
709.714600	726.086182	4374.572754	2065.467041	36.710587
710.039063	712.117249	4406.522949	2078.395752	36.982365
710.363403	723.039795	4445.680176	2097.565674	36.923412
710.687744	722.073792	4486.546875	2101.503662	36.643372
711.012085	728.240906	4533.282715	2094.519287	35.907051
711.336304	724.674377	4567.165527	2100.834961	35.814281
711.660461	726.903503	4618.285645	2111.757813	35.587723
711.984619	729.949951	4648.378418	2136.946289	35.907158
712.308716	725.417480	4669.926270	2150.023682	36.116188
712.632751	722.668274	4659.226563	2153.812988	36.355228
712.956726	726.606262	4660.861328	2147.274414	36.110222
713.280701	725.343079	4623.783691	2123.423096	35.862545
713.604553	734.556641	4578.533691	2114.358154	35.895153
713.928467	731.287354	4508.837891	2087.906494	35.912666
714.252258	734.779602	4444.120117	2063.906494	35.831894
714.575989	728.315247	4385.791992	2033.516724	35.685844
714.899719	727.720886	4311.638184	2009.888550	35.775597
715.223267	724.525818	4276.493652	1990.718384	35.647640
715.546936	720.290527	4231.391113	1978.458496	35.834003
715.870422	720.513489	4191.788086	1967.164429	35.913345
716.193970	718.135803	4144.605957	1956.762085	36.148750
716.517395	723.708496	4117.336426	1945.765259	36.010334
716.840820	718.135742	4091.776367	1931.424805	35.963791
717.164124	723.039795	4060.940674	1907.945313	35.498524
717.487488	720.513489	4029.139404	1899.177368	35.623966
717.810730	718.655945	3993.622803	1873.245972	35.255016
718.133972	718.878845	3950.452881	1860.911621	35.339828
718.457092	717.244141	3893.239502	1843.747681	35.469307
718.780212	716.203918	3850.589844	1842.856079	35.944904
719.103210	714.123535	3798.875244	1828.738647	36.133057
719.426208	711.745789	3759.643311	1793.221802	35.482693
719.749207	728.538269	3719.965820	1761.420288	34.528069
720.072083	728.092346	3687.049805	1728.429810	33.807091
720.394958	728.315247	3647.000732	1718.101685	33.912060
720.717773	720.662109	3591.570313	1710.819946	34.489361
721.040527	717.021240	3535.769287	1702.646851	34.966785
721.363281	720.587830	3497.057617	1685.780151	34.763294
721.685913	724.897278	3470.977295	1672.108398	34.493210
722.008545	727.349304	3448.240967	1662.969116	34.386517
722.331055	718.804504	3412.500977	1649.966187	34.568172
722.653503	709.070862	3369.628174	1634.362671	34.778118
722.976013	705.875793	3360.860596	1624.108887	34.585247
723.298401	719.621887	3342.730713	1606.201782	33.798820
723.620789	723.931458	3336.935303	1600.926392	33.562710
723.943115	731.287354	3296.365967	1599.886230	33.862465
724.265381	722.891174	3291.833252	1614.523804	34.708164
724.587585	723.559875	3284.923584	1614.969727	34.802158
724.909790	724.228699	3302.756104	1614.375122	34.521503
725.231873	732.179016	3296.068604	1607.316406	34.133194
725.553894	732.253357	3305.133545	1607.464966	34.016804
725.875916	929.750000	3525.589844	1739.426636	31.191317
726.197937	931.013184	3533.020264	1742.918945	31.203058
726.519775	924.846008	3531.682617	1727.315308	30.783260
726.841675	720.290527	3323.337891	1583.911133	33.177292
727.163513	715.981018	3332.551514	1583.539673	33.156326
727.485291	721.182129	3349.120361	1598.400024	33.380463
727.806946	724.748718	3371.411377	1613.409180	33.576645
728.128662	719.398926	3401.429932	1616.455688	33.446918
728.450256	721.405090	3424.463623	1618.387573	33.183983
728.771790	720.736328	3436.203369	1619.873657	33.111702
729.093323	725.789001	3443.931396	1626.040649	33.120106
729.414795	723.485535	3455.151123	1630.053101	33.187355
729.736145	722.222412	3457.974365	1622.102661	32.893341
730.057495	718.432922	3454.184814	1613.557739	32.719517
730.378845	721.330811	3457.008545	1614.226563	32.638924
730.700134	727.423645	3454.482422	1617.198730	32.627644
731.021301	733.144958	3459.237549	1619.947876	32.530186
731.342468	733.367859	3449.355469	1621.359741	32.694992
731.663574	725.268860	3454.705078	1610.214233	32.422276
731.984680	719.919128	3447.125977	1605.533203	32.473301
732.305664	709.516785	3453.144775	1593.198853	32.208523
732.626648	710.779846	3458.494873	1602.932617	32.468895
732.947571	712.414490	3458.791748	1603.081177	32.430603
733.268433	714.866516	3462.581055	1606.796387	32.460789
733.589233	722.965515	3462.878174	1606.499023	32.246777
733.909973	731.138855	3450.692627	1599.737671	31.939020
734.230713	741.541199	3420.526123	1595.725220	31.884615
734.551331	737.083008	3367.696533	1581.013306	32.081120
734.871948	726.457703	3328.390381	1568.381836	32.357647
735.192505	721.330811	3292.724854	1543.416138	31.970415
735.513062	723.114075	3239.375732	1521.719727	31.737782
735.833435	727.497986	3191.747803	1502.029419	31.430719
736.153931	727.349304	3145.308594	1491.329956	31.596094
736.474304	728.538147	3121.828857	1482.265015	31.493326
736.794617	731.956055	3101.172607	1470.822388	31.186104
737.114807	736.488586	3072.268799	1461.386108	31.034491
737.434998	732.550476	3054.956299	1453.807129	31.056444
737.755188	732.327576	3040.393311	1454.550171	31.291250
738.075256	728.092285	3035.860596	1447.268433	31.163273
738.395325	728.240967	3035.786377	1443.999023	31.018156
738.715271	729.949951	3045.520264	1450.537598	31.119230
739.035278	728.984070	3064.169922	1456.110352	31.137835
739.355164	729.801331	3078.510498	1455.813110	30.911097
739.675049	720.587830	3095.674072	1450.834961	30.746132
739.994873	718.210144	3107.042236	1456.779175	30.917580
740.314636	717.987305	3112.094971	1462.871948	31.113247
740.634277	717.690002	3099.835205	1466.289673	31.425442
740.953979	715.460938	3069.222656	1453.583984	31.359293
741.273499	713.528992	3050.126953	1449.943359	31.516521
741.593140	713.603333	3006.288330	1432.110718	31.339123
741.912598	718.358704	2969.285156	1420.593750	31.197599
742.232117	711.968567	2911.106445	1403.578247	31.449127
742.551453	711.597168	2876.704102	1376.234985	30.697691
742.870850	708.253479	2843.713623	1362.340332	30.629784
743.190063	715.312256	2812.283447	1354.464355	30.479774
743.509338	720.141907	2783.528564	1344.507813	30.259277
743.828552	722.445313	2755.293701	1330.538940	29.913378
744.147705	722.296692	2740.135742	1311.071533	29.178482
744.466797	720.884949	2720.445557	1311.740356	29.549263
744.785828	723.485596	2699.120361	1311.814575	29.779238
745.104858	727.275085	2667.541748	1311.071533	30.088465
745.423706	734.408203	2647.703125	1303.344116	29.735924
745.742615	734.556702	2637.152100	1297.102539	29.567286
746.061401	731.956238	2636.929199	1289.746582	29.280750
746.380249	724.005798	2615.604492	1289.078003	29.872732
746.698975	724.674377	2601.115234	1281.499146	29.674517
747.017639	724.897278	2579.047607	1273.325806	29.578428
747.336304	724.823059	2555.493408	1273.920044	29.994312
747.654907	722.891113	2541.895996	1274.068726	30.301052
747.973389	720.587708	2541.524414	1283.059448	30.889141
748.291931	720.216309	2547.840088	1274.440308	30.324841
748.610352	724.823059	2556.162354	1269.907837	29.764269
748.928711	727.275085	2567.159180	1266.638550	29.315079
749.247070	728.538147	2574.218018	1268.718872	29.267302
749.565308	726.903564	2558.019775	1269.907715	29.654270
749.883545	729.949951	2533.574219	1260.917114	29.438902
750.201782	731.584656	2530.973633	1259.133789	29.318239
750.519836	724.005676	2521.982666	1247.914185	29.138777
750.837952	715.609436	2517.598877	1245.165039	29.387274
751.155884	710.482605	2493.896484	1236.025757	29.468380
751.473877	714.272156	2483.642822	1231.419067	29.227734
751.791809	716.649719	2469.376709	1222.725708	28.873634
752.109619	720.067688	2475.023682	1208.830933	27.850454
752.427490	719.324707	2469.079346	1210.094116	28.047899
752.745300	728.240967	2460.831787	1220.868042	28.432972
753.062988	729.281250	2445.302490	1225.251953	28.902365
753.380615	726.977783	2442.478760	1220.645142	28.776863
753.698303	721.999512	2438.837891	1209.945679	28.421206
754.015808	722.668213	2431.184814	1213.437866	28.724897
754.333374	726.680603	2413.575195	1210.911499	28.705463
754.650757	724.451477	2409.860107	1212.323120	28.946785
754.968262	721.702332	2405.104736	1211.654419	29.104872
755.285583	728.835388	2416.621826	1205.190063	28.223635
755.602905	734.853821	2404.733154	1189.214966	27.209219
755.920105	732.773438	2399.680664	1179.778564	26.816437
756.237305	727.572266	2391.804443	1185.574219	27.520315
756.554443	724.971680	2379.842041	1185.351196	27.819674
756.871582	722.668274	2365.575684	1179.109863	27.782551
757.188599	712.191589	2350.269287	1169.302002	27.905296
757.505615	709.516602	2364.386963	1170.713745	27.869080
757.822510	714.866455	2389.204102	1175.840576	27.531731
758.139465	718.655945	2413.798096	1182.379150	27.356009
758.456238	721.999512	2422.714600	1188.397827	27.423660
758.773010	726.606262	2437.723633	1196.645264	27.469709
759.089783	733.144958	2441.810303	1199.617310	27.300394
759.406433	727.646545	2452.510010	1199.320190	27.345564
759.723145	718.581604	2449.314941	1193.821899	27.458897
760.039673	717.095520	2457.116455	1190.106567	27.184216
760.356201	722.148132	2469.079346	1193.004517	26.953344
760.672668	728.686768	2472.868896	1193.970337	26.676317
760.989136	728.686768	2471.159912	1193.078735	26.651312
761.305481	723.337097	2452.955811	1189.214966	26.935293
761.621826	724.228699	2454.070313	1200.434692	27.528879
761.938049	727.275085	2461.797852	1210.614136	27.865824
762.254333	738.569031	2497.240234	1207.419067	26.659336
762.570496	731.733154	2528.075928	1208.905151	26.563526
762.886597	720.662109	2594.428223	1218.267456	26.556427
763.202637	711.820068	2665.461426	1250.663452	27.581490
763.518677	713.603333	2792.221924	1273.251465	26.924040
763.834656	719.696106	2929.681885	1304.830078	26.476820
764.150574	718.061462	3060.380615	1331.579102	26.192743
764.466370	719.844727	3155.859375	1355.504639	26.094257
764.782288	721.182190	3188.181396	1367.913086	26.215284
765.097961	727.275085	3222.137451	1372.965820	25.880817
765.413696	726.309082	3194.422607	1366.798462	25.950563
765.729309	723.708496	3134.534424	1346.885376	25.849104
766.044861	714.643616	3014.089844	1315.381226	26.125317
766.360474	713.677734	2872.766357	1279.567261	26.209648
766.675903	710.482666	2739.764404	1246.651123	26.421587
766.991394	713.677673	2615.827393	1214.998169	26.355471
767.306763	713.826355	2529.413086	1188.769165	26.159193
767.622131	718.284424	2440.547119	1164.472290	25.907074
767.937378	723.337097	2381.996582	1146.342407	25.502844
768.252625	727.052185	2314.901123	1139.209351	25.956951
768.567810	730.544250	2262.072021	1127.172241	25.897537
768.882996	731.436035	2214.221191	1112.088745	25.671467
769.197998	730.544434	2178.333008	1086.900269	24.613804
769.513062	724.674500	2153.961914	1079.321411	24.812849
769.828064	722.371094	2112.203613	1068.770386	24.923815
770.142944	719.250305	2084.042725	1069.513428	25.664204
770.457825	717.244141	2058.259766	1063.049072	25.786793
770.772705	716.129578	2033.590942	1058.665161	25.999666
771.087402	715.758118	2007.956665	1049.897339	25.858196
771.402100	717.169861	1979.349976	1037.414551	25.372343
771.716736	714.717957	1956.242065	1035.779907	25.860306
772.031372	714.197754	1933.876831	1030.578735	25.939692
772.345947	721.479431	1926.669434	1027.383667	25.382242
772.660461	728.686707	1919.907837	1018.021484	24.288921
772.974854	733.739319	1904.824585	1013.711975	23.907112
773.289246	730.767273	1887.066284	1010.517029	24.193546
773.603638	722.222412	1879.487305	1011.260071	24.975929
773.917908	718.581543	1875.177856	1009.996887	25.195942
774.232178	722.668213	1857.865234	1006.504700	25.003281
774.546265	723.634094	1838.472290	1003.606873	25.113312
774.860474	720.587830	1824.131836	993.204407	24.703735
775.174561	713.454651	1810.831665	993.724609	25.539989
775.488586	718.210144	1802.955566	987.780457	24.851023
775.802551	721.627991	1788.392212	985.625671	24.747520
776.116516	729.429871	1783.414063	978.566895	23.637644
776.430359	724.377258	1764.466797	973.588562	23.960562
776.744202	728.761047	1759.116821	980.275818	24.410479
777.057922	715.535217	1747.599976	974.480164	25.089993
777.371704	717.987122	1740.318359	968.758972	24.529413
777.685303	716.426758	1729.916016	955.830261	23.621712
777.998962	726.011902	1724.491821	952.635254	22.696836
778.312500	723.634277	1719.216309	956.647644	23.404737
778.626038	723.857178	1709.110962	963.111877	24.283560
778.939453	724.897278	1701.680786	958.950867	23.961664
779.252869	731.807434	1710.374390	965.340881	23.864841
779.566223	731.138855	1710.225708	959.768250	23.351288
779.879578	726.977844	1715.946899	960.139832	23.576267
780.192749	721.182129	1703.166992	949.663147	23.267265
780.505920	728.835388	1703.984253	954.269836	23.117952
780.819031	729.504089	1690.015503	956.498962	23.632710
781.132141	749.268616	1702.572632	970.913635	23.250193
781.445190	745.702087	1698.931641	960.436951	22.527088
781.758118	754.395508	1695.736694	951.669250	20.956667
782.071045	734.259460	1674.560425	931.013123	20.924541
782.383911	729.652649	1656.579102	928.486816	21.450911
782.696838	719.547546	1638.449219	936.957275	23.659739
783.009583	718.135742	1620.616699	940.300964	24.617165
783.322266	710.928467	1611.700317	941.564148	25.604229
783.634888	708.625000	1610.734375	934.059509	24.989710
783.947510	712.043030	1607.762329	927.743835	24.081295
784.260132	720.290527	1602.412476	921.502258	22.809967
784.572571	726.457703	1594.907837	920.982178	22.399038
784.885010	728.315247	1583.168091	923.137024	22.790094
785.197449	731.213135	1568.530396	923.731445	22.992277
785.509766	727.498047	1557.756470	921.576660	23.375687
785.822083	728.315247	1553.446899	914.517883	22.566416
786.134277	725.937561	1546.462524	919.347595	23.571499
786.446533	732.550537	1540.369751	920.387756	23.252382
786.758606	730.024231	1542.747437	926.703430	24.200022
787.070740	727.423645	1561.397339	918.678772	22.932993
787.382690	717.987122	1569.347778	914.220642	23.049400
787.694641	717.318420	1570.090820	914.666504	23.141941
788.006653	715.312317	1579.898560	917.267029	23.358540
788.318481	719.696106	1594.536499	928.040955	23.815184
788.630310	718.061523	1618.387695	937.403137	24.362461
788.942017	720.587830	1627.972656	939.929443	24.172943
789.253784	723.559875	1656.876343	947.211121	23.963066
789.565430	727.943665	1663.117676	943.050110	23.001757
789.877014	734.779602	1653.384155	944.090332	22.785727
790.188538	735.522644	1638.226440	929.601257	21.499701
790.500061	731.584534	1620.393677	920.239197	21.225554
790.811462	730.247070	1611.625977	916.746887	21.160004
791.122925	728.240967	1592.010132	914.889465	21.608608
791.434204	728.315247	1569.793579	907.310547	21.271528
791.745483	726.903564	1551.069336	897.576904	20.708618
792.056702	722.445313	1524.394531	888.809265	20.744949
792.367920	719.621826	1508.196655	885.837158	21.077940
792.678955	715.683777	1482.636597	881.676086	21.643093
792.990112	719.175964	1477.360962	888.066162	22.275593
793.301086	722.891174	1467.627319	890.146667	22.458355
793.612122	728.092468	1473.125854	892.747253	22.100323
793.922974	728.686829	1456.853516	881.304504	20.959167
794.233826	727.869446	1450.463501	881.155945	21.213364
794.544556	727.423645	1448.234375	878.109558	20.905060
794.855286	723.931396	1452.395386	881.007385	21.562630
795.166016	734.110901	1461.905884	888.883484	21.265959
795.476624	726.086182	1464.209351	892.821472	22.589088
795.787292	724.451599	1462.500488	895.570740	23.185339
796.097778	714.866455	1467.032837	884.425293	22.542730
796.408264	725.268860	1476.543579	885.019714	21.263973
796.718689	732.624817	1500.840698	885.316895	19.876194
797.029053	734.705261	1506.487671	884.351074	19.389637
797.339355	726.977844	1506.413452	880.635925	19.714018
797.649658	726.754944	1506.339233	878.926941	19.519634
797.959839	724.005676	1505.001587	883.979492	20.483311
798.270020	725.343262	1503.292603	882.716370	20.229223
798.580078	729.652771	1497.720093	885.242676	20.257326
798.890137	726.606262	1492.295898	880.041443	20.038822
799.200195	725.714661	1473.497070	878.778320	20.469011
799.510071	717.690002	1444.742065	871.868164	21.205931
799.820007	718.581604	1426.537720	867.261414	21.001274
800.129883	720.885010	1422.376953	864.437805	20.463926
800.439575	722.742615	1420.222168	865.626648	20.485767
800.749329	721.999512	1420.667969	877.960938	22.322666
801.058960	720.662109	1411.603027	879.744202	23.023979
801.368591	725.566101	1401.720703	883.087830	23.296703
801.678162	725.566101	1387.380371	863.026123	20.770182
801.987671	722.816833	1381.287476	861.688660	21.090055
802.297119	715.238037	1379.950073	849.131531	20.143082
802.606506	716.278259	1368.878906	853.069519	20.960945
802.915894	721.107910	1360.334229	857.527649	21.341383
803.225159	716.501160	1365.758423	852.623718	20.965889
803.534424	715.163757	1371.999634	847.645508	20.169689
803.843628	716.501160	1364.792358	839.174988	18.922644
804.152771	722.371094	1357.733643	851.360596	20.301716
804.461792	727.943787	1359.219727	864.735046	21.669012
804.770874	721.628113	1366.575562	858.345032	21.198149
805.079773	720.587830	1370.290649	854.184082	20.562672
805.388733	721.330811	1372.519897	843.410217	18.747152
805.697571	726.532043	1377.423828	850.320374	19.018267
806.006470	730.470032	1381.807739	847.645508	17.989973
806.315125	725.863281	1382.179199	853.664063	19.472448
806.623901	724.674500	1390.946899	857.156189	19.884012
806.932495	714.049133	1389.163696	859.682434	21.571642
807.241150	719.993408	1392.209961	863.100403	21.288824
807.549622	717.838562	1390.129517	860.499817	21.220165
807.858154	725.788879	1380.544556	855.149963	19.757153
808.166565	721.850891	1369.547729	848.165527	19.502123
808.474915	722.742615	1355.950317	846.456543	19.537653
808.783264	726.754883	1352.606812	851.211914	19.886019
809.091492	726.977844	1346.068115	845.862122	19.203060
809.399719	730.841553	1334.476807	844.896240	18.894636
809.707825	725.789001	1322.588379	843.558838	19.733572
810.015930	726.309082	1314.192017	834.939697	18.478273
810.323975	715.832336	1316.124146	831.150208	19.210302
810.632080	712.934570	1308.991089	834.196594	20.344048
810.939880	714.717834	1301.709351	834.642517	20.430395
811.247864	719.101746	1302.303833	830.778748	19.148937
811.555664	724.451599	1301.114868	824.240051	17.304459
811.863464	725.566101	1295.913818	824.240051	17.300665
812.171143	728.909668	1281.722046	818.593079	16.223120
812.478882	730.247070	1279.344238	818.815979	16.129915
812.786438	729.504089	1278.155396	830.630127	18.431749
813.094055	729.355469	1272.136841	834.270996	19.329243
813.401489	725.417480	1271.542480	826.617859	18.530626
813.708984	720.067688	1266.341309	814.432129	17.274208
814.016357	724.451599	1266.118286	816.735535	17.037033
814.323730	724.005798	1264.037720	819.410461	17.666487
814.630981	724.748779	1270.279175	826.692139	18.687017
814.938232	719.547546	1273.920044	829.961426	19.916912
815.245361	716.352539	1267.975952	822.828308	19.302258
815.552490	722.371094	1261.065796	817.478516	17.655163
815.859619	723.039795	1260.545532	814.209229	16.961575
816.166565	735.151184	1261.511475	819.930481	16.106705
816.473572	727.349304	1267.752808	822.976868	17.695585
816.780457	725.194519	1266.935669	818.518799	17.226728
817.087341	718.878723	1265.821167	823.645691	19.155025
817.394043	717.615662	1272.434082	826.469177	19.619665
817.700806	712.860291	1275.777710	826.617737	20.208549
818.007507	714.346375	1284.396851	817.404297	18.078735
818.314209	709.739563	1287.963379	814.134949	18.054495
818.620667	714.494934	1298.737305	821.045105	18.237324
818.927246	715.535217	1304.681519	823.720032	18.362980
819.233704	722.519714	1319.839355	828.475403	17.738523
819.540161	725.268860	1351.417969	828.772644	16.530214
819.846497	721.405090	1401.126465	844.376160	18.091394
820.152832	724.748718	1445.633789	849.577332	17.316021
820.458984	726.903564	1488.432129	859.608215	17.426090
820.765259	722.296692	1542.301758	862.580261	17.107647
821.071350	722.073914	1629.978882	878.109558	17.186340
821.377502	715.758118	1776.429565	900.549011	17.422068
821.683472	719.919006	2043.547852	952.635193	17.581678
821.989441	714.717834	2474.949463	1023.594238	17.547485
822.295349	717.764343	3067.365234	1115.135254	16.912273
822.601196	722.073914	3710.751953	1212.471802	16.408522
822.907043	721.850891	4281.916992	1301.858032	16.292032
823.212769	727.646545	4648.898438	1362.043091	16.178419
823.518494	729.578430	4781.751465	1380.321655	16.059116
823.824097	737.603088	4709.529297	1360.557129	15.683928
824.129700	725.491760	4499.401367	1325.783569	15.906364
824.435242	716.724060	4227.898926	1274.737671	15.892505
824.740723	714.569275	3949.932373	1227.183838	15.844112
825.046082	717.467041	3678.430420	1175.394775	15.465498
825.351501	720.142029	3395.337158	1134.231079	15.478836
825.656799	720.810730	3091.141846	1092.398560	15.676621
825.962036	724.823059	2783.974365	1049.748779	15.779593
826.267212	728.389587	2546.205811	1014.380798	15.732680
826.572449	728.018066	2378.727295	991.941345	15.988478
826.877502	730.618652	2334.814453	986.071350	15.924035
827.182495	735.671204	2395.965576	998.479980	15.829046
827.487488	735.374023	2511.134766	1014.232117	15.703585
827.792419	731.435974	2605.276123	1024.485962	15.639008
828.097290	722.891113	2629.721924	1016.238281	15.384017
828.402100	727.869446	2590.415771	1005.984558	14.931983
828.706848	732.699158	2517.450684	999.000061	14.920896
829.011597	736.117004	2393.885010	983.916687	14.947789
829.316223	733.813660	2264.375732	964.449402	15.068696
829.620789	734.333801	2140.438477	942.530029	14.806595
829.925354	738.717590	2024.303345	933.539368	15.154321
830.229797	734.705322	1912.997681	920.164856	15.739687
830.534302	737.231628	1796.045288	901.291992	15.494734
830.838562	725.937561	1677.606812	879.224121	16.107126
831.142944	720.885010	1560.282837	859.236633	16.482246
831.447144	712.042969	1461.757324	843.335876	17.512390
831.751404	715.683838	1393.770508	827.732361	16.524218
832.055542	724.228699	1357.882324	813.540527	14.094740
832.359619	724.228699	1334.179688	809.007996	13.899363
832.663635	725.268860	1344.359253	811.980164	14.006243
832.967651	723.039734	1372.817017	819.261780	14.808466
833.271545	722.668274	1434.339844	825.057434	14.387136
833.575439	721.033508	1502.326782	840.289551	15.263928
833.879211	722.148132	1607.762329	861.391418	15.722793
834.183044	723.336975	1705.173218	884.350891	16.399263
834.486694	726.086182	1807.116577	895.645020	15.684928
834.790344	720.439209	1860.242798	907.533447	16.414604
835.093933	720.067688	1864.032349	903.075195	15.997655
835.397522	722.073914	1826.138062	894.456116	15.613421
835.700928	721.999512	1772.937378	874.840149	14.543261
836.004395	725.045959	1727.241211	870.976501	14.561089
836.307739	722.445313	1674.040405	855.744446	14.007968
836.611023	731.064453	1611.477173	854.704102	14.043374
836.914307	726.829163	1547.354126	842.815735	14.135654
837.217529	723.931458	1473.868652	840.660950	15.565236
837.520691	719.324707	1402.984009	822.308167	15.063564
837.823730	720.810730	1323.480103	806.556091	14.227595
838.126831	723.485657	1264.557983	796.228027	13.444112
838.429749	726.829285	1218.118774	790.358093	12.931033
838.732727	722.816895	1189.958130	784.933899	13.297264
839.035522	717.467102	1174.800293	783.819397	14.508524
839.338379	708.699402	1166.255493	777.949463	15.134769
839.641113	710.036804	1169.301880	779.286926	15.078465
839.943848	713.974854	1180.447266	785.156799	15.259626
840.246460	716.055359	1195.456421	787.534485	14.910089
840.549072	717.392761	1212.248901	796.153625	15.915912
840.851563	720.959290	1218.861938	795.930725	15.057448
841.154053	725.045898	1230.675903	802.543701	15.326979
841.456482	728.389587	1226.143555	803.361023	15.061946
841.758850	724.080017	1217.450073	796.005066	14.578317
842.061157	720.067627	1189.735107	797.714050	16.532211
842.363403	720.810608	1173.314331	787.385925	14.712656
842.665588	717.021240	1152.286621	781.441711	14.800275
842.967712	720.067688	1134.602539	778.766785	14.160232
843.269775	712.711731	1118.850342	780.475769	16.684954
843.571777	718.135803	1099.828979	781.738953	16.663424
843.873840	721.925232	1082.070557	774.308594	14.545062
844.175659	727.052063	1066.392578	775.646179	14.320164
844.477600	732.624817	1052.572266	774.531555	13.098006
844.779297	730.321472	1041.872681	773.788574	13.951832
845.081116	720.959290	1028.572510	773.862793	17.198059
845.382751	719.250427	1021.885315	773.342773	17.873796
845.684387	717.987244	1007.321960	775.869080	20.005148
845.985962	722.073792	991.421204	761.677246	14.703485
846.287537	720.216309	982.133301	759.448181	14.978743
846.588989	722.668213	979.458435	753.132385	11.863447
846.890381	732.773438	972.696960	753.949707	8.826258
847.191711	732.030457	970.839355	752.017822	8.369607
847.493042	728.463867	973.439941	755.807312	11.161679
847.794250	726.011902	977.080811	763.832031	15.063645
848.095459	723.485596	973.811462	764.500793	16.384722
848.396606	724.080017	967.495789	765.763855	17.124542
848.697693	719.101746	963.632019	765.020813	18.778479
848.998657	720.067688	960.214050	759.002258	16.212851
849.299622	730.172852	962.220215	751.126221	9.029781
849.600464	732.401917	963.037598	748.599854	7.023170
849.901367	725.714661	952.337952	749.417175	10.458993
850.202087	709.888184	944.313293	751.497742	17.749617
850.502808	710.408386	940.598145	754.395508	19.109070
850.803467	713.974854	947.136780	757.070496	18.483139
851.104065	722.668213	953.303955	763.609070	17.751307
851.404663	719.473206	949.960266	756.253113	15.957472
851.705139	721.999512	953.303955	755.584290	14.519729
852.005615	719.027405	953.749756	754.172607	14.973096
852.306030	722.148132	958.950928	762.643127	17.100725
852.606384	727.497864	953.155273	761.825867	15.212442
852.906616	728.761047	946.245178	758.184998	13.529240
853.206909	724.897400	941.564148	756.996094	14.814776
853.506958	723.857117	942.009949	759.596741	16.382837
853.807129	724.228699	937.625977	759.745361	16.643446
854.107178	731.807556	942.901550	753.949707	10.489238
854.407166	732.847839	938.666260	754.246887	10.397052
854.707092	735.151123	938.963440	752.017883	8.275634
855.007019	732.476257	937.848938	756.030273	11.468914
855.306763	726.457703	936.214294	755.881653	14.027664
855.606567	724.377197	936.585754	755.287292	14.565905
855.906250	729.429749	926.480652	760.339844	15.686351
856.205933	735.596924	926.034851	762.494568	14.124101
856.505493	736.934387	928.561096	761.825745	12.989503
856.805054	736.414307	936.808777	756.327393	9.936944
857.104492	736.191345	940.152344	754.321228	8.888897
857.403931	732.699158	940.523865	755.287109	10.868752
857.703308	719.473206	930.641602	750.754700	14.813530
858.002563	712.488770	933.093567	754.841309	19.198376
858.301819	714.197754	926.257751	751.646301	17.659410
858.601013	717.615723	926.777832	753.578186	17.193584
858.900208	725.566101	925.960449	746.668152	10.530262
859.199219	731.658875	925.366028	745.479248	7.134674
859.498291	737.454529	929.527039	746.370850	4.642164
859.797302	724.748779	928.338196	750.531799	12.664224
860.096191	720.513489	939.334961	746.073669	11.680838
860.395020	713.900574	943.050110	737.751770	10.408573
860.693787	719.770447	935.842773	729.875671	4.676779
860.992554	710.408386	923.880066	729.206848	8.806068
861.291260	715.386536	922.914063	734.259521	9.094209
861.589844	717.690002	930.492920	733.144958	7.262568
861.888428	724.154297	932.796326	737.008728	6.160998
862.186890	727.572266	931.830383	745.924988	8.985064
862.485413	728.538147	931.830383	750.011658	10.562878
862.783813	732.476257	928.858398	757.441895	12.712784
863.082153	730.098572	929.304138	751.497742	10.742255
863.380371	725.120300	925.514648	756.921814	15.869467
863.678589	728.092346	925.068909	753.949707	13.127126
863.976746	726.606262	915.781067	756.030212	15.553842
864.274902	724.154297	920.684998	755.138489	15.765574
864.572937	716.724060	930.567200	753.206726	17.060480
864.870911	725.863281	940.375244	751.572083	11.984787
865.168884	728.166687	935.174072	752.463684	11.737261
865.466736	730.098572	930.492981	750.383118	10.122312
865.764587	718.507324	927.892395	750.011658	15.046123
866.062317	720.736389	931.830383	748.451355	13.129207
866.360107	717.764343	938.666260	750.383240	14.766235
866.657715	717.912903	940.226563	748.154114	13.602948
866.955322	717.615723	943.495911	745.553528	12.368418
867.252808	716.946960	935.322693	740.649597	10.854062
867.550293	717.244141	938.294739	743.324402	11.798322
867.847717	715.981018	935.768494	742.432800	12.035164
868.145081	718.878906	936.660156	748.228333	13.476563
868.442383	720.364929	928.338196	753.949707	16.148603
868.739624	721.033630	930.195801	752.760803	15.168695
869.036804	716.278259	927.075012	760.859863	21.149094
869.333984	712.191589	926.183411	747.485352	16.493042
869.631042	710.928467	918.381653	745.181946	16.511425
869.928101	709.368103	920.090637	736.414307	12.834984
870.224976	714.569275	924.325867	737.454529	10.910386
870.521851	724.823059	950.703308	748.971436	10.690787
870.818726	728.686829	948.251282	751.646301	10.456826
871.115479	725.268860	953.601074	756.253174	13.569839
871.412231	720.810730	936.288574	756.550293	16.586189
871.708862	720.587830	939.632263	756.773254	16.519672
872.005493	721.627991	940.821106	760.636963	17.796623
872.302063	719.696106	933.910950	752.315002	15.227188
872.598572	721.107910	936.585876	746.890930	11.965502
872.895020	728.612488	927.372314	740.946777	6.205625
873.191406	734.259521	930.864563	743.844543	4.875268
873.487671	733.888000	933.910950	748.525635	7.317977
873.783997	726.309082	944.981995	754.395508	12.844035
874.080200	719.696106	948.920105	745.776367	11.377631
874.376343	718.507324	947.285461	744.736145	11.464741
874.672424	721.925293	937.551758	740.129395	8.442425
874.968445	721.033630	934.951172	743.770264	10.628691
875.264465	724.228577	942.232727	742.729980	8.486721
875.560364	724.823059	953.526855	749.120056	10.623784
875.856201	717.095520	953.303894	746.370850	12.393858
876.152039	715.609558	952.560852	740.575256	10.536215
876.447754	709.962463	954.864258	732.847839	9.344715
876.743469	724.451477	957.241943	749.788757	10.884157
877.039063	722.519714	951.966492	754.172546	13.795283
877.334595	730.395752	942.529968	753.652527	10.963236
877.630127	718.804504	945.279236	744.364685	11.286107
877.925537	720.959290	946.988220	751.869324	13.675256
878.221008	710.779785	954.418457	751.794922	16.834412
878.516296	721.330811	953.155273	749.863037	12.307686
878.811646	721.107910	963.483398	742.209900	8.706322
879.106812	725.788879	981.093201	747.262512	8.410995
879.401978	719.324524	998.108459	743.175842	8.555485
879.697083	717.392761	1019.433350	742.284180	8.241084
879.992126	720.216248	1031.024536	751.274719	9.992806
880.287109	717.690002	1071.965454	757.070374	11.115749
880.582031	714.123474	1138.466309	770.444885	13.272620
880.876892	705.652893	1249.920288	771.113586	12.027304
881.171753	713.157532	1431.441895	796.896729	11.658223
881.466492	719.250305	1685.780273	823.051270	10.739550
881.761230	726.309082	2018.953613	851.360535	9.674079
882.055786	719.547546	2341.501709	870.530701	9.308720
882.350403	717.912903	2597.548828	892.821472	9.305449
882.644958	714.420654	2729.881836	911.248535	9.765898
882.939453	711.820068	2766.884766	911.917297	9.736785
883.233826	707.138977	2722.005859	901.589172	9.650771
883.528137	709.888184	2644.656738	883.385071	8.967320
883.822449	719.027405	2564.261475	878.629639	8.649430
884.116577	724.971680	2476.212402	876.697754	8.663918
884.410828	720.216309	2372.262939	874.988770	9.368528
884.704956	718.135803	2225.292236	863.546204	9.647996
884.999023	722.593933	2037.454956	841.106873	9.013343
885.292969	733.516418	1823.314453	823.794250	8.283904
885.586914	738.717590	1618.684692	801.132019	7.092814
885.880798	731.213074	1465.918457	792.066956	8.282760
886.174622	732.253357	1359.739746	781.144470	7.791582
886.468384	730.470032	1278.155396	773.788574	7.909385
886.762085	731.435974	1222.354126	763.609131	6.553670
887.055664	718.804504	1172.571289	760.488342	9.186181
887.349304	718.284424	1143.147339	757.962097	9.338936
887.642822	722.296814	1108.968140	758.259277	9.300525
887.936340	725.640381	1094.553345	753.801086	7.633428
888.229736	716.649719	1069.959106	756.327393	11.230291
888.523071	715.237976	1050.491821	749.194336	10.128551
888.816284	718.358704	1036.522949	751.646301	10.462394
889.109619	724.600159	1028.201050	753.578125	9.544757
889.402710	724.451477	1021.736633	760.414063	12.097000
889.695862	718.581604	999.520203	759.299500	14.493522
889.988892	714.717834	979.755676	757.664856	16.204109
890.281921	715.312317	962.517456	753.652466	15.509446
>>>>>End Processed Spectral Data<<<<<
