Jaz Data File
++++++++++++++++++++++++++++++++++++
Date: Fri Jun 04 16:58:11 2021
User: jaz
Dark Spectrum Present: Yes
Reference Spectrum Present: Yes
Processed Spectrum Present: Yes
Spectrometers: JAZA3586
Integration Time (usec): 24100 (JAZA3586)
Spectra Averaged: 10 (JAZA3586)
Boxcar Smoothing: 1 (JAZA3586)
Correct for Electrical Dark: No (JAZA3586)
Strobe/Lamp Enabled: Yes (JAZA3586)
Correct for Detector Non-linearity: No (JAZA3586)
Correct for Stray Light: No (JAZA3586)
Number of Pixels in Processed Spectrum: 2048
>>>>>Begin Processed Spectral Data<<<<<
W	D	R	S	P
191.335022	0.000000	0.000000	0.000000	0.000000
191.713211	231.750168	230.487076	228.109329	288.248077
192.091385	464.689209	467.364166	460.825439	-144.442291
192.469528	703.795410	704.909973	698.742737	-453.332245
192.847641	708.996582	712.340149	710.408203	42.219017
193.225739	713.974854	721.850891	712.340149	-20.755419
193.603790	717.392822	729.429871	711.671448	-47.531376
193.981842	725.045959	740.055176	717.987122	-47.030022
194.359863	737.974609	736.934387	726.086182	1142.873901
194.737854	747.708252	733.293640	737.528809	70.618919
195.115829	752.315125	732.699219	745.033386	37.121601
195.493774	749.788757	734.259521	752.537903	-17.703032
195.871704	748.377014	739.906494	752.835144	-52.631123
196.249603	748.005554	740.203674	750.011719	-25.713861
196.627457	749.714417	744.290344	744.290344	100.000000
197.005310	746.816711	745.924988	739.014832	874.921265
197.383133	747.931213	747.782532	741.020996	4647.660156
197.760910	747.039551	745.850769	749.491516	-206.258667
198.138687	748.674255	741.764099	752.909485	-61.289925
198.516449	749.268616	737.603088	747.262512	17.196852
198.894180	746.965149	734.482422	743.770264	25.594450
199.271866	744.884766	737.900391	738.866272	86.170830
199.649536	743.250183	736.934387	735.448425	123.527710
200.027191	745.627747	734.482422	729.578430	144.000443
200.404816	744.884766	732.179016	730.024231	116.959137
200.782410	740.872375	747.708313	739.237793	-23.911608
201.159988	739.312073	758.333557	739.237793	-0.390505
201.537537	734.556702	767.621399	745.627747	33.482975
201.915070	731.213074	765.095032	744.438965	39.035202
202.292557	724.005676	764.723572	749.342957	62.226398
202.670029	717.987305	765.466614	743.027161	52.738461
203.047485	717.021301	764.426331	738.048889	44.357292
203.424911	717.169922	765.243713	733.962219	34.930252
203.802292	721.628113	761.157043	729.206848	19.172628
204.179688	721.256531	755.510071	725.343079	11.930293
204.557037	730.915833	760.414063	718.804504	-41.057812
204.934357	729.875671	756.847473	725.045959	-17.906523
205.311661	731.584656	763.609131	728.686768	-9.048980
205.688934	719.770447	756.104492	735.745544	43.967297
206.066177	718.210144	767.027039	733.442139	31.202301
206.443390	713.083191	763.311829	733.219238	40.088779
206.820587	712.414490	766.506836	726.011902	25.137405
207.197769	702.606445	753.206726	729.429871	53.010429
207.574921	699.634338	752.092102	733.813660	65.155884
207.952042	708.327820	747.039551	743.398743	90.595078
208.329147	725.120300	753.801086	742.804382	61.658291
208.706223	742.061218	765.318054	744.067444	8.626390
209.083267	738.271790	769.256042	739.014893	2.398325
209.460297	734.853943	770.221985	739.386414	12.815159
209.837280	722.891174	754.692688	728.835449	18.691799
210.214264	717.764343	755.064209	728.835388	29.681192
210.591217	715.906738	754.841309	733.070618	44.083904
210.968124	721.107971	762.345886	741.021057	48.288296
211.345016	727.126465	763.386169	743.621643	45.491760
211.721893	730.395813	762.866028	738.123230	23.798479
212.098724	733.293640	761.751465	733.070618	-0.783695
212.475555	730.098572	760.488342	734.482422	14.425414
212.852356	726.457764	758.927917	737.974609	35.469021
213.229126	720.439270	756.327332	732.327576	33.126072
213.605865	718.730225	755.658691	730.618652	32.193127
213.982590	713.677734	755.212891	723.114075	22.718924
214.359283	703.349609	758.482178	726.011902	41.105091
214.735931	709.219482	760.859863	723.485596	27.625887
215.112579	717.095642	763.014648	725.045898	17.313650
215.489197	729.504150	757.441895	729.801270	1.063504
215.865799	719.398926	755.658691	735.819824	45.286831
216.242355	716.649719	748.377014	737.380188	65.339539
216.618896	712.414490	747.485413	738.049011	73.093376
216.995407	712.637390	749.343018	731.584656	51.619511
217.371902	708.030579	760.934143	733.293518	47.752811
217.748367	712.860352	761.677246	724.674377	24.200691
218.124802	720.067688	753.726807	723.262695	9.492249
218.501236	725.937561	750.160339	723.857117	-8.588793
218.877609	718.432922	755.064270	728.018066	26.166506
219.253983	714.866455	758.779358	731.435974	37.732689
219.630295	714.940735	752.537903	729.206848	37.944649
220.006592	717.095520	750.754700	729.727051	37.527744
220.382889	718.804504	749.194336	724.228699	17.848715
220.759140	718.804443	749.120056	717.021240	-5.882128
221.135391	717.838562	749.565857	715.980957	-5.854911
221.511581	716.352539	755.584412	720.290527	10.037727
221.887772	714.643555	763.237549	722.445313	16.054983
222.263931	712.117371	765.318054	718.507324	12.011037
222.640060	713.603333	763.460449	716.872620	6.557313
223.016159	716.352539	762.123047	717.838623	3.246816
223.392212	728.166687	756.104492	729.504150	4.787289
223.768265	733.590759	757.070374	726.903503	-28.481115
224.144302	737.083008	764.500732	727.646545	-34.417381
224.520294	731.807434	773.491394	722.445374	-22.459623
224.896286	724.154297	774.531555	730.172852	11.946967
225.272217	719.250305	768.810242	733.888000	29.535339
225.648148	726.160461	761.528564	733.145020	19.748184
226.024048	731.064453	761.082703	734.185242	10.396304
226.399902	727.349304	765.986633	731.658875	11.153903
226.775772	717.987244	770.444885	733.665039	29.886581
227.151581	712.340149	774.382996	727.720886	24.790508
227.527374	722.593933	763.757629	729.281250	16.245667
227.903137	726.309082	763.534729	727.795166	3.992097
228.278870	730.321350	758.853699	738.717590	29.427092
228.654572	725.714661	757.887695	743.621643	55.658356
229.030273	726.011902	751.869202	748.228333	85.919373
229.405930	724.600159	751.794922	739.906433	56.283905
229.781555	717.838623	758.482239	737.380188	48.080280
230.157181	715.683838	760.934265	728.240967	27.750299
230.532761	711.745789	758.630798	733.516418	46.434093
230.908325	714.420654	756.996094	731.287354	39.616032
231.283859	719.844727	756.104492	731.361755	31.762558
231.659332	719.993347	760.562683	713.751953	-15.384511
232.034821	723.336975	754.246887	712.340149	-35.577023
232.410263	723.262695	752.686584	712.934570	-35.101154
232.785690	731.436035	751.572021	726.383301	-25.093056
233.161087	722.593994	756.401672	732.401855	29.010752
233.536469	711.745789	762.494446	733.665039	43.191784
233.911804	709.591003	764.426453	730.321472	37.804867
234.287140	719.324646	765.020813	719.844727	1.138127
234.662430	719.473206	764.575012	723.559875	9.060989
235.037704	719.324707	756.698914	729.578430	27.435293
235.412933	715.683777	756.624573	735.225403	47.731426
235.788162	717.541321	749.565918	734.185242	51.972305
236.163345	715.312317	757.887756	728.092468	30.017662
236.538513	708.550781	757.739075	730.841614	45.317352
236.913635	710.556946	759.596680	726.680664	32.878887
237.288742	709.888184	755.658630	727.275085	37.987179
237.663834	714.272034	758.407898	724.674500	23.569191
238.038879	710.408264	758.036377	723.559875	27.613127
238.413910	712.265869	758.185059	719.101807	14.886887
238.788910	713.083191	757.813477	717.987122	10.963334
239.163879	715.609558	762.568848	720.884949	11.233966
239.538834	711.522766	772.302551	729.801270	30.073326
239.913757	714.049133	779.435547	734.482422	31.250053
240.288651	719.547546	785.751282	733.516418	21.099825
240.663528	728.018066	783.967957	736.414307	15.006715
241.038361	719.919128	778.841125	732.327637	21.059212
241.413177	719.547546	769.330383	733.888000	28.806021
241.787979	716.129639	769.553284	735.819824	36.856686
242.162735	723.559875	775.720398	744.884766	40.883198
242.537476	715.535156	791.472595	746.370789	40.606628
242.912170	713.529053	799.274353	743.770203	35.268581
243.286865	709.739563	791.621155	732.253235	27.495401
243.661514	720.067627	781.664612	726.680603	10.735876
244.036148	723.708496	778.098145	725.194580	2.732292
244.410751	735.522644	779.361267	726.903503	-19.661066
244.785339	730.841553	774.605896	733.813660	6.791161
245.159882	726.680664	777.057861	733.293640	13.126924
245.534378	718.284424	779.881348	735.522644	27.985521
245.908890	720.290527	791.249695	732.476257	17.172876
246.283356	725.491760	786.865784	723.634216	-3.026596
246.657791	728.092285	798.011230	723.634277	-6.375966
247.032196	725.268860	804.326965	726.086243	1.033901
247.406586	724.897278	802.246399	729.429749	5.859757
247.780960	718.953125	801.280457	729.801270	13.176845
248.155289	713.974792	809.750977	729.281250	15.981486
248.529602	708.253479	819.484680	736.265625	25.183712
248.903870	720.885010	811.608643	733.739441	14.168779
249.278122	721.776672	802.692322	730.544434	10.835680
249.652344	723.485657	791.695496	727.646545	6.100130
250.026550	714.420715	798.977234	729.132629	17.398912
250.400711	718.210144	790.581055	729.652771	15.811086
250.774857	720.885010	795.559265	734.705322	18.507465
251.148987	720.513428	790.209473	727.720886	10.341273
251.523071	725.268860	802.989502	730.395752	6.596564
251.897125	726.606262	804.549866	722.148132	-5.719687
252.271164	726.457703	817.478577	724.302917	-2.367353
252.645187	715.535217	809.230957	719.175964	3.885712
253.019165	706.767517	813.094727	721.925110	14.255610
253.393112	711.745789	808.636536	727.497864	16.257565
253.767044	718.953125	809.825378	730.024231	12.183153
254.140930	723.114075	807.373352	731.064453	9.435612
254.514801	716.352539	796.227966	733.293640	21.209402
254.888657	714.792175	799.348694	742.804382	33.128384
255.262466	719.993408	802.989563	744.810486	29.901480
255.636276	719.398987	809.453857	741.243958	24.257401
256.010010	724.897278	819.559082	729.281250	4.631195
256.383759	723.336975	817.181335	727.943665	4.908861
256.757446	732.401917	832.339111	730.692871	-1.710119
257.131134	731.138733	826.320557	732.401855	1.327063
257.504791	722.222473	834.939697	731.436035	8.174049
257.878418	715.832458	836.945801	729.578430	11.349676
258.252014	711.448547	849.280090	728.984070	12.722430
258.625580	718.730225	855.075684	728.463867	7.138956
258.999115	718.284424	861.317139	730.098572	8.259752
259.372650	718.507324	866.964172	744.810547	17.717756
259.746124	718.507324	891.558350	744.067444	14.770279
260.119598	715.535156	914.443542	745.107727	14.867433
260.493042	714.123474	934.208008	737.603210	10.668509
260.866425	711.076965	933.465027	734.928223	10.725062
261.239838	716.129639	921.130859	726.606384	5.110577
261.613159	719.696228	905.452942	726.977844	3.919975
261.986511	724.302917	895.942322	726.754883	1.428556
262.359802	720.439209	886.728699	726.680664	3.753367
262.733063	719.919006	877.589417	727.795105	4.995293
263.106293	710.705505	875.806152	725.788879	9.135866
263.479523	710.705566	876.177673	734.185242	14.189507
263.852692	715.832458	882.121887	739.832214	14.432521
264.225861	721.999573	877.960938	743.918884	14.054321
264.598969	722.073792	878.332458	744.364685	14.265381
264.972076	712.785950	875.806152	730.767273	11.030120
265.345154	714.643555	880.041443	736.562927	13.252510
265.718201	715.386536	886.059998	730.321472	8.750591
266.091217	719.101746	898.394226	732.179016	7.293820
266.464203	719.027405	909.911133	722.148132	1.634884
266.837158	720.959290	918.678772	727.200684	3.156692
267.210114	721.330811	930.047119	729.429749	3.880357
267.583038	722.371094	933.167786	734.036560	5.533989
267.955902	723.114075	934.876892	733.887939	5.087704
268.328766	719.250305	925.589050	738.791931	9.470653
268.701569	713.826172	931.607605	734.928223	9.689554
269.074371	717.318420	934.208069	727.869446	4.864697
269.447144	720.290588	953.378235	723.114075	1.211341
269.819885	725.789001	954.567078	728.686768	1.266628
270.192596	725.417480	978.566833	736.711426	4.461376
270.565277	728.538147	986.071289	731.510315	1.154091
270.937927	733.590759	1010.814148	725.120300	-3.055463
271.310577	725.863281	1025.451782	726.160461	0.099196
271.683136	723.411316	1054.801392	726.531982	0.941690
272.055725	712.711731	1071.148071	733.145020	5.700675
272.428284	717.244202	1079.915649	729.875671	3.482896
272.800812	713.603333	1073.154175	728.761047	4.215736
273.173279	713.826172	1068.621704	718.061523	1.193744
273.545776	714.494934	1064.980835	729.281189	4.218787
273.918152	716.055237	1064.163452	733.665039	5.058715
274.290558	716.352539	1056.659058	745.924988	8.689945
274.662964	715.015137	1049.154419	736.191345	6.337539
275.035278	721.999512	1049.674561	744.959045	7.006800
275.407593	723.337097	1056.881958	742.878662	5.858752
275.779907	723.188477	1070.702271	746.668030	6.756438
276.152161	720.290588	1076.497803	740.500977	5.673773
276.524384	725.937561	1088.683472	743.101563	4.731687
276.896606	727.126465	1102.429321	740.129395	3.464650
277.268799	723.411316	1116.918335	739.609375	4.116333
277.640930	712.860291	1125.463257	732.179016	4.682158
278.013031	711.671387	1130.590210	723.188416	2.749227
278.385162	710.036804	1136.757324	726.754883	3.917805
278.757233	708.402161	1138.837891	728.166687	4.591749
279.129272	709.516663	1138.317749	732.401917	5.337033
279.501282	710.556946	1136.831665	719.621826	2.126535
279.873230	713.231873	1147.531250	720.885010	1.762180
280.245178	710.854187	1163.060547	727.869446	3.762720
280.617126	720.810730	1195.753784	733.962341	2.769092
280.988983	728.612488	1225.400513	732.253235	0.732857
281.360870	729.429871	1246.279541	729.281189	-0.028767
281.732697	717.095520	1260.174194	728.538086	2.106981
282.104492	715.609558	1279.938599	734.556702	3.357464
282.476288	721.925293	1306.539063	740.500916	3.177418
282.848053	721.999573	1327.938232	736.488586	2.391168
283.219757	718.804504	1330.687500	732.922058	2.307231
283.591461	708.699402	1322.885620	726.086243	2.830874
283.963135	710.259766	1312.111694	735.894104	4.259243
284.334747	712.637390	1313.151978	733.442200	3.464497
284.706360	716.946960	1336.334351	736.414307	3.143000
285.077942	720.439209	1372.817017	725.714661	0.808650
285.449524	719.696228	1415.689819	727.943787	1.185005
285.821014	720.439148	1436.494507	724.451477	0.560338
286.192535	721.776611	1461.757324	725.937561	0.562305
286.563995	716.278137	1475.429077	720.067688	0.499183
286.935425	716.278137	1499.577515	721.256531	0.635567
287.306824	714.272034	1509.534180	718.655945	0.551254
287.678223	721.330811	1499.429077	730.321472	1.155466
288.049561	719.176025	1473.422974	725.566101	0.847213
288.420898	719.027405	1444.519165	733.293640	1.966423
288.792145	724.377136	1444.593628	722.891113	-0.206330
289.163452	729.504089	1457.373535	731.436035	0.265425
289.534668	728.983948	1481.967773	730.321472	0.177630
289.905914	722.073792	1509.756958	735.225403	1.669658
290.277039	721.107910	1545.199341	732.104736	1.334418
290.648193	726.754883	1577.223755	731.064453	0.506729
291.019318	729.355469	1602.040894	733.219238	0.442745
291.390381	728.538269	1614.077759	735.002502	0.729977
291.761475	723.262695	1609.619751	738.420410	1.710114
292.132507	724.154297	1597.137085	738.346130	1.625672
292.503510	722.965515	1580.344604	737.008606	1.637909
292.874481	730.618652	1574.251587	739.683594	1.074512
293.245422	724.005676	1578.486938	733.888000	1.156529
293.616364	722.445374	1605.310181	733.962219	1.304486
293.987213	711.002747	1643.799194	729.727051	2.007330
294.358093	721.107910	1689.718140	735.374023	1.472844
294.728943	721.850891	1737.197632	737.603210	1.551423
295.099731	729.949951	1782.373657	736.117004	0.585986
295.470490	722.816895	1808.602539	729.429871	0.609050
295.841248	721.479431	1826.880859	733.590759	1.095650
296.211975	712.191589	1846.125366	735.968506	2.096852
296.582642	713.454773	1891.078613	746.965271	2.845603
296.953308	708.327820	1955.870483	740.500916	2.578917
297.323883	710.705566	2002.383911	740.798096	2.329723
297.694519	707.138977	2029.430176	734.482422	2.067884
298.065063	708.847961	2017.096069	733.070618	1.851534
298.435608	715.312317	2000.377930	737.603088	1.734602
298.806122	729.504150	1950.817993	743.324402	1.131589
299.176575	737.603088	1900.737915	742.878601	0.453560
299.547028	736.637207	1858.831177	738.197510	0.139040
299.917450	725.789001	1840.478516	738.569092	1.146516
300.287872	727.423645	1834.236938	745.033386	1.591031
300.658234	723.262695	1829.333008	741.466797	1.645836
301.028564	724.748779	1830.076172	733.813660	0.820108
301.398865	721.850891	1829.407349	733.516418	1.053267
301.769135	725.491760	1826.435181	740.723877	1.383551
302.139374	723.411316	1837.877930	739.683594	1.460096
302.509583	719.473206	1846.348267	731.287354	1.048399
302.879791	721.702332	1837.654907	731.064453	0.838935
303.249939	719.101746	1816.701538	733.665039	1.326831
303.620087	718.804504	1795.450806	738.049011	1.787449
303.990173	711.820068	1799.686157	737.231628	2.335909
304.360260	716.575500	1806.299194	739.089111	2.065993
304.730286	717.764343	1815.141235	731.435974	1.245846
305.100281	719.324707	1814.546509	729.801270	0.956570
305.470276	715.312256	1821.902710	731.807434	1.490631
305.840179	709.516785	1836.688965	735.596924	2.313767
306.210144	710.482666	1848.503296	736.785828	2.311308
306.579987	714.940857	1857.716797	730.395752	1.352399
306.949890	723.559875	1866.187134	736.042725	1.092469
307.319702	727.795166	1883.945679	735.002502	0.623391
307.689484	725.566101	1911.660278	741.243958	1.321805
308.059265	718.358704	1950.297729	735.671326	1.405315
308.429016	710.705505	1994.805054	730.172852	1.516031
308.798737	707.956299	2037.603516	732.030457	1.810567
309.168396	713.751953	2069.033691	733.962219	1.491223
309.538055	718.804504	2103.881592	737.380188	1.341130
309.907684	712.934570	2123.869141	732.699158	1.400815
310.277313	706.693176	2158.642822	722.445313	1.084895
310.646851	699.634460	2176.252441	723.634216	1.625319
311.016388	706.544617	2189.552490	725.268860	1.262586
311.385895	709.962585	2191.781738	738.717590	1.940521
311.755371	711.374268	2193.639404	737.751709	1.779536
312.124817	714.049133	2208.722900	737.677429	1.580833
312.494232	717.318542	2197.354492	730.841553	0.913695
312.863617	720.736389	2195.719971	731.658875	0.740516
313.232971	716.724060	2169.490967	728.909668	0.838786
313.602295	715.683777	2162.803711	735.076843	1.340115
313.971619	715.980957	2159.979980	741.392517	1.759804
314.340820	715.163635	2174.692139	742.061279	1.842899
314.710083	719.101746	2200.326416	740.723816	1.459743
315.079285	717.541321	2236.883545	734.779602	1.134588
315.448486	718.581604	2265.564209	740.055176	1.388094
315.817596	716.501160	2266.530029	741.169617	1.591484
316.186707	716.724121	2231.682373	742.432800	1.696989
316.555786	716.724060	2196.982910	735.076843	1.239836
316.924866	711.820068	2163.695313	733.739319	1.509720
317.293884	716.352539	2145.713867	731.807556	1.081253
317.662872	716.278137	2137.466553	737.305908	1.479591
318.031830	719.844727	2150.097900	743.027283	1.620871
318.400757	717.987122	2167.781982	739.906555	1.511899
318.769684	722.742493	2176.921143	732.847717	0.694909
319.138550	723.485535	2190.369873	725.789001	0.157031
319.507416	722.296692	2205.453369	726.606262	0.290567
319.876190	722.742493	2226.035156	733.962219	0.746343
320.244995	724.748718	2237.403564	732.624817	0.520680
320.613770	724.154297	2217.638916	732.922058	0.587067
320.982483	724.823059	2204.413086	731.584534	0.456983
321.351166	725.714661	2166.667236	736.934326	0.778628
321.719818	720.364929	2159.534424	742.284180	1.523049
322.088440	715.683777	2157.825195	742.730042	1.875424
322.457062	705.429993	2177.961182	741.318298	2.437185
322.825623	714.643555	2211.917725	735.745544	1.409360
323.194183	719.398926	2252.709961	737.231628	1.163019
323.562653	722.742493	2309.328369	737.454529	0.927276
323.931183	720.587830	2376.275391	732.847656	0.740467
324.299591	714.569336	2445.451172	736.637207	1.274950
324.668060	719.844788	2502.218506	739.163513	1.083876
325.036407	720.513489	2542.862305	748.376953	1.528986
325.404755	723.857117	2558.391357	745.999268	1.206963
325.773102	720.364929	2563.815186	749.417236	1.575975
326.141388	717.764343	2565.524170	750.457520	1.769341
326.509674	719.621887	2564.632568	744.141785	1.328984
326.877899	725.045898	2583.728516	743.101563	0.971423
327.246124	729.875671	2601.561279	740.798096	0.583561
327.614288	730.395813	2613.301025	734.482422	0.217037
327.982422	725.714661	2600.149414	725.417419	-0.015858
328.350525	726.234863	2584.025635	728.018066	0.095985
328.718628	724.302917	2566.415771	735.745544	0.621169
329.086700	726.383484	2572.137207	737.380188	0.595784
329.454712	722.891174	2569.387939	731.510254	0.466780
329.822693	721.479492	2588.855225	734.333801	0.688362
330.190674	725.343079	2595.245361	739.163513	0.739099
330.558563	725.714600	2609.065674	740.129395	0.765380
330.926483	723.485596	2630.093506	737.454529	0.732659
331.294312	725.714661	2651.715576	726.680664	0.050156
331.662231	721.553711	2693.919678	729.058411	0.380492
332.029999	721.033630	2737.683838	731.658936	0.526879
332.397766	716.278259	2787.987061	743.844543	1.330606
332.765503	718.210144	2833.608643	748.525635	1.433087
333.133240	721.479431	2875.515381	751.646301	1.400481
333.500916	723.039856	2929.236328	745.256348	1.007004
333.868561	722.742676	2968.839844	743.918884	0.942800
334.236176	723.857117	2996.926025	741.466858	0.774712
334.603790	715.163757	3004.133545	738.271790	1.009539
334.971344	717.912903	2992.096436	744.141785	1.153332
335.338867	716.129578	2988.975586	745.033386	1.271701
335.706360	713.231750	2990.090088	750.383118	1.631694
336.073853	715.609558	2992.393555	741.243958	1.125904
336.441284	714.940735	2990.981689	741.838379	1.181773
336.808655	715.535156	2985.483398	737.157288	0.952538
337.176086	713.974854	2968.170654	740.798157	1.189928
337.543396	707.659119	2907.614014	731.138733	1.067277
337.910706	716.203918	2831.528076	738.494812	1.053781
338.277954	711.225647	2833.608398	737.603210	1.242828
338.645264	721.479492	2911.626221	740.278076	0.858325
339.012421	720.662109	3064.318359	741.689758	0.897216
339.379669	723.039795	3175.252197	744.141785	0.860529
339.746796	720.587830	3257.431396	750.234619	1.168649
340.113953	719.101746	3306.768311	747.113953	1.082528
340.481018	715.386536	3343.250977	741.689758	1.000935
340.848114	712.191589	3358.854492	743.101501	1.167882
341.215118	714.940735	3355.436279	738.866211	0.906098
341.582153	721.776611	3363.089600	739.906494	0.686397
341.949066	725.491760	3385.900391	735.374023	0.371457
342.316010	723.634216	3414.135742	741.987000	0.682132
342.682922	718.061523	3433.305908	745.999329	1.028924
343.049835	715.981018	3449.057861	741.466858	0.932496
343.416656	709.368103	3486.358154	738.494812	1.048859
343.783478	710.928406	3544.611328	737.305908	0.930856
344.150269	714.866455	3654.207764	744.364746	1.003568
344.516998	716.278137	3776.435547	737.008728	0.677435
344.883728	713.677673	3878.304688	736.265625	0.713763
345.250427	705.355774	3951.344482	736.191406	0.949961
345.617065	706.024475	3984.854736	738.494812	0.990302
345.983704	716.649719	4004.990967	735.448303	0.571674
346.350281	716.575500	3975.864502	735.894226	0.592728
346.716827	722.222473	3930.317139	736.191406	0.435428
347.083405	715.163757	3876.819092	732.922058	0.561677
347.449860	725.937683	3839.221436	735.894104	0.319804
347.816376	725.045959	3794.862549	741.986877	0.551854
348.182770	719.919128	3760.460693	751.869141	1.050800
348.549194	716.575439	3748.200439	747.410950	1.017128
348.915558	716.798340	3765.810547	747.931152	1.021079
349.281921	720.216309	3792.336182	742.284180	0.718327
349.648193	715.832458	3822.428955	744.959045	0.937572
350.014526	708.699402	3845.240234	743.993164	1.125245
350.380737	703.126648	3902.304688	745.181946	1.314566
350.746948	704.389832	3950.899170	747.485352	1.327442
351.113159	713.603333	4015.690674	743.770203	0.913570
351.479309	726.532043	4044.891602	742.804260	0.490369
351.845428	727.497864	4077.881836	737.008606	0.283870
352.211517	725.863281	4109.683594	734.631042	0.259108
352.577576	724.971680	4151.441406	738.346191	0.390329
352.943604	724.228699	4211.998535	733.813660	0.274816
353.309601	724.823059	4272.628906	740.798157	0.450281
353.675537	721.330811	4368.628418	743.398682	0.605047
354.041473	717.021240	4484.169434	744.736145	0.735700
354.407379	714.866455	4581.580078	749.194336	0.887779
354.773254	709.591003	4677.355957	741.243958	0.797753
355.139038	714.420654	4736.352539	739.832214	0.631825
355.504913	718.804504	4845.428711	736.117004	0.419532
355.870636	726.457703	4933.031738	735.596924	0.217260
356.236389	725.417480	5049.018066	740.723816	0.354018
356.602081	723.857117	5165.524902	740.054993	0.364680
356.967804	720.587830	5316.953613	748.748535	0.612673
357.333405	718.804504	5465.039063	743.027161	0.510355
357.699036	717.467041	5620.183594	742.655762	0.513771
358.064606	715.015137	5757.271973	732.996399	0.356611
358.430176	721.628113	5856.837891	734.259521	0.245976
358.795654	720.290527	5906.546875	737.974670	0.340981
359.161163	720.587830	5874.818848	742.581482	0.426711
359.526581	721.850891	5857.803223	746.891052	0.487547
359.892029	726.011902	5894.360840	741.615417	0.301905
360.257416	727.126465	6017.926270	739.757813	0.238742
360.622772	721.256531	6233.552734	738.791931	0.318114
360.988098	716.798340	6466.863281	738.643372	0.379909
361.353394	723.336975	6759.467285	741.095398	0.294202
361.718658	727.052185	7029.928223	749.045837	0.348946
362.083893	726.457703	7252.168457	752.909485	0.405347
362.449097	718.581604	7397.727051	753.355408	0.520633
362.814209	713.974792	7414.371094	747.856873	0.505673
363.179382	710.779785	7242.657715	744.141785	0.510757
363.544434	715.312256	6888.084473	738.643372	0.377968
363.909546	713.751953	6462.701660	737.900330	0.420049
364.274536	726.309082	6141.045410	738.271790	0.220929
364.639587	729.058350	5928.093750	744.364685	0.294407
365.004517	726.309082	5806.386230	748.971436	0.446103
365.369507	724.600098	5741.147949	752.909485	0.564320
365.734344	721.850891	5707.414551	750.234619	0.569318
366.099274	730.915833	5686.535645	756.401672	0.514282
366.464081	720.290588	5649.681641	754.544128	0.694884
366.828918	717.467102	5651.762207	752.835144	0.716780
367.193665	713.083191	5651.613770	741.541199	0.576244
367.558411	720.587830	5687.204590	740.798157	0.406923
367.923126	724.674500	5660.455566	747.485352	0.462153
368.287781	732.922058	5647.601563	754.692688	0.442971
368.652435	731.956116	5591.948730	754.915710	0.472420
369.017059	725.417480	5574.264160	754.767029	0.605289
369.381653	716.129639	5539.342285	747.782532	0.656262
369.746185	712.934570	5536.741699	752.760803	0.825618
370.110687	713.008972	5545.880859	751.720520	0.801005
370.475220	716.724060	5601.013184	755.955872	0.803225
370.839661	718.358704	5672.046875	755.584290	0.751472
371.204041	723.114075	5751.996582	752.612244	0.586575
371.568451	723.782776	5808.688965	746.593750	0.448602
371.932770	718.804504	5855.128906	743.918884	0.488956
372.297150	721.850891	5889.232910	743.547363	0.419874
372.661377	717.021301	5922.892578	750.234558	0.637996
373.025696	721.776550	5951.648438	749.491516	0.529936
373.389862	719.993347	5960.044434	752.166443	0.613984
373.754059	720.810608	5948.898926	751.051941	0.578440
374.118225	724.377258	5930.100098	740.352356	0.306876
374.482361	728.166687	5965.988281	746.593750	0.351808
374.846436	725.566101	6032.563965	746.667969	0.397623
375.210510	715.906677	6144.537598	753.652527	0.695311
375.574524	705.950195	6255.917969	758.482178	0.946528
375.938538	708.030579	6415.593750	761.751465	0.941223
376.302460	712.042969	6574.007813	768.810303	0.968401
376.666412	723.782776	6759.838379	763.906250	0.664730
377.030304	731.807556	6908.221191	765.466614	0.544961
377.394196	737.380188	7053.186035	772.525391	0.556464
377.757996	730.544434	7153.717285	777.206482	0.726464
378.121796	723.262695	7210.410156	780.475769	0.881945
378.485565	718.210144	7233.072754	774.457275	0.863366
378.849304	713.157471	7161.222168	769.479004	0.873464
379.212982	722.445313	7046.499512	774.011475	0.815397
379.576630	723.336914	6840.085938	786.865906	1.038607
379.940277	730.247131	6690.736816	797.119629	1.121930
380.303864	722.668274	6579.505859	800.686218	1.332083
380.667450	723.336975	6564.570801	798.902893	1.293664
381.030945	724.525818	6583.295410	806.853210	1.405199
381.394501	722.816895	6633.747559	813.540527	1.534845
381.757935	719.993408	6671.567871	832.339111	1.887664
382.121399	718.953125	6691.257813	842.890137	2.075196
382.484741	717.912903	6711.839355	853.738281	2.266050
382.848145	719.993347	6733.238281	857.007568	2.278540
383.211487	719.027405	6806.128906	867.632813	2.441316
383.574768	716.055359	6894.326172	883.682312	2.713169
383.938019	715.683777	7005.408691	904.041260	2.994685
384.301270	713.751953	7089.742676	918.604553	3.212875
384.664459	714.123535	7169.097656	935.025452	3.422197
385.027649	715.683838	7213.828125	954.046936	3.668172
385.390778	721.033630	7267.994629	978.195313	3.927955
385.753876	732.476257	7300.391113	1008.139343	4.197117
386.116943	734.779602	7362.805176	1034.070923	4.515543
386.479980	730.618652	7402.854980	1061.860229	4.964476
386.842987	717.318542	7467.795410	1089.203613	5.509019
387.205994	717.764343	7523.447754	1120.039185	5.910866
387.568909	717.467102	7561.787598	1148.422974	6.296547
387.931793	730.172852	7616.029297	1174.726074	6.456034
388.294678	729.949890	7664.771484	1199.840332	6.775811
388.657471	729.652649	7712.548340	1222.948486	7.064345
389.020294	723.411316	7691.371582	1260.694214	7.710763
389.383057	716.946960	7688.102051	1299.703247	8.359537
389.745819	716.575378	7675.322266	1350.674805	9.112265
390.108521	711.745789	7687.210938	1391.987183	9.751914
390.471191	712.191589	7767.903809	1445.187866	10.388693
390.833801	709.516663	7892.658203	1501.806519	11.029852
391.196442	719.993347	8083.244141	1562.289063	11.439182
391.558960	723.708496	8242.029297	1632.282227	12.084796
391.921509	725.194580	8421.172852	1685.631470	12.479724
392.284027	724.377258	8620.675781	1750.423462	12.994015
392.646484	721.256531	8737.851563	1803.847168	13.504369
393.008911	727.275085	8759.696289	1867.301758	14.192814
393.371307	719.250305	8684.427734	1909.431274	14.942303
393.733673	725.566101	8617.852539	1942.124512	15.414523
394.096008	716.649719	8560.268555	1973.777466	16.027393
394.458344	723.559875	8574.756836	2019.993774	16.512564
394.820587	717.690002	8591.624023	2059.151367	17.036737
395.182831	723.114075	8674.545898	2108.636963	17.424824
395.545013	725.343201	8628.626953	2144.227783	17.953102
395.907196	721.405090	8538.719727	2173.503174	18.575409
396.269287	714.940735	8378.449219	2183.682617	19.165400
396.631409	705.875793	8263.577148	2200.921143	19.781748
396.993469	711.745789	8141.349121	2233.837158	20.486845
397.355530	719.398926	8053.152344	2269.279297	21.133522
397.717499	728.092285	8025.957031	2293.279053	21.447187
398.079468	733.887939	8032.198730	2316.981689	21.691236
398.441376	728.018066	8052.111816	2353.984375	22.200239
398.803284	725.343201	8032.421875	2410.305908	23.059320
399.165131	723.708496	8076.557129	2464.323975	23.672668
399.526978	725.640320	8089.560059	2503.630127	24.144609
399.888763	724.302917	8111.330566	2534.243164	24.501602
400.250519	723.708496	8095.429688	2575.481201	25.119951
400.612244	724.971680	8135.775879	2605.647705	25.377489
400.973938	729.801331	8145.138672	2637.672119	25.728712
401.335602	723.411316	8163.714355	2662.563477	26.062811
401.697205	722.593933	8170.773438	2721.114258	26.832331
402.058807	716.055359	8242.475586	2773.423096	27.335274
402.420349	714.272034	8352.963867	2826.624023	27.653322
402.781860	716.872620	8461.891602	2872.617188	27.833948
403.143341	716.129639	8591.030273	2928.047119	28.088196
403.504822	715.535156	8717.493164	2996.851563	28.509478
403.866241	709.367981	8914.618164	3072.343018	28.798332
404.227631	710.036804	9094.058594	3142.559326	29.013790
404.588959	718.358704	9291.851563	3212.180664	29.087584
404.950287	718.284424	9400.111328	3273.703857	29.434120
405.311554	715.460938	9515.875977	3327.276123	29.678318
405.672821	718.432922	9563.131836	3364.501709	29.917002
406.034027	722.222473	9556.147461	3378.024658	30.063673
406.395203	724.674500	9462.377930	3374.680908	30.328409
406.756348	722.296692	9361.770508	3367.250977	30.614763
407.117493	723.708496	9310.725586	3363.312500	30.739473
407.478516	731.287354	9301.585938	3391.473633	31.039598
407.839600	720.885010	9290.441406	3408.711670	31.364828
408.200592	718.284363	9303.666992	3446.606201	31.778685
408.561554	708.253601	9285.983398	3455.522461	32.027924
408.922485	709.665283	9316.669922	3496.017578	32.373077
409.283417	709.665283	9306.639648	3518.828125	32.676178
409.644257	718.878845	9382.130859	3566.902344	32.874763
410.005096	727.349304	9516.766602	3619.360107	32.903328
410.365906	721.702332	9664.332031	3675.458252	33.030060
410.726715	718.953125	9790.944336	3730.145264	33.192184
411.087433	725.343079	9859.377930	3771.754639	33.352310
411.448120	734.036621	9939.030273	3807.048096	33.384178
411.808807	733.293640	9942.151367	3812.323975	33.435532
412.169434	726.309082	9857.147461	3797.834961	33.639038
412.530029	724.971680	9772.740234	3792.411133	33.902718
412.890564	722.593994	9736.108398	3803.407471	34.179935
413.251099	720.364929	9761.222656	3823.023438	34.318188
413.611572	721.033630	9826.980469	3862.255127	34.496372
413.972076	707.733398	9886.942383	3901.932861	34.798199
414.332489	708.922302	9927.735352	3940.718994	35.056534
414.692871	704.687012	10056.130859	3989.461670	35.125858
415.053223	715.237976	10167.881836	4042.513672	35.199421
415.413574	713.231873	10401.934570	4119.491699	35.157024
415.773834	718.507324	10537.091797	4187.998535	35.335964
416.134094	721.999512	10716.532227	4273.149902	35.530930
416.494263	721.553711	10835.416992	4349.384277	35.869881
416.854462	717.912903	11094.436523	4454.522461	36.010227
417.214630	708.699402	11394.620117	4562.410156	36.063438
417.574738	708.773621	11744.065430	4692.587891	36.100670
417.934784	711.374207	12035.554688	4808.203125	36.177708
418.294861	717.912903	12409.372070	4936.226563	36.080299
418.654846	717.318420	12828.959961	5064.398926	35.891754
419.014832	714.197754	13301.450195	5229.871094	35.874973
419.374756	721.182190	13768.590820	5409.164063	35.930370
419.734680	722.073914	14268.278320	5626.648438	36.206264
420.094543	726.531982	14747.010742	5828.677246	36.390667
420.454376	722.668274	15195.278320	6011.610840	36.544495
420.814148	726.383362	15637.601563	6172.327637	36.522465
421.173920	716.724060	16116.928711	6340.474121	36.517372
421.533691	720.662109	16609.257813	6508.546875	36.427917
421.893341	717.541321	17000.240234	6661.089844	36.502232
422.253021	722.073792	17223.445313	6755.008301	36.560204
422.612640	721.776611	17283.927734	6809.249512	36.755329
422.972260	720.810730	17212.447266	6802.042480	36.874641
423.331757	722.148132	17126.775391	6774.773438	36.895844
423.691315	722.073914	17133.390625	6767.640137	36.837791
424.050781	722.816895	17249.005859	6812.147949	36.846554
424.410248	721.925232	17380.000000	6871.886719	36.918800
424.769653	715.460876	17502.748047	6943.886719	37.102039
425.128998	713.603271	17556.544922	6989.210938	37.259571
425.488373	714.123352	17462.179688	6991.217285	37.479534
425.847656	715.758118	17216.462891	6916.988770	37.581608
426.206940	721.850891	16952.314453	6837.634277	37.680889
426.566193	718.507324	16649.755859	6703.591797	37.568207
426.925385	715.312256	16353.434570	6611.232910	37.702232
427.284576	712.785950	15913.191406	6444.795410	37.709583
427.643677	717.244141	15553.789063	6338.244629	37.886181
428.002777	718.061523	15200.627930	6203.533691	37.876381
428.361847	717.987122	14856.085938	6100.625000	38.071865
428.720856	718.284424	14535.172852	6006.260254	38.271828
429.079865	722.742615	14282.840820	5923.710449	38.354942
429.438812	723.708496	14129.479492	5882.769531	38.483879
429.797760	727.720886	14022.706055	5829.271484	38.371994
430.156616	724.971680	13865.184570	5772.949707	38.416256
430.515503	717.541443	13771.414063	5721.606934	38.333954
430.874268	715.758118	13713.161133	5718.560547	38.490784
431.233093	715.312256	13744.963867	5756.455078	38.689774
431.591827	717.689941	13807.377930	5782.832031	38.695667
431.950562	717.392761	13872.391602	5801.333496	38.646458
432.309204	721.850891	13946.621094	5819.017578	38.542572
432.667877	722.965515	14066.026367	5866.571777	38.548923
433.026459	718.507324	14193.752930	5935.747559	38.717216
433.385010	717.169861	14320.364258	6010.570313	38.912922
433.743561	715.683777	14476.028320	6082.197754	38.999851
434.102051	718.953125	14642.317383	6141.193848	38.943466
434.460510	716.575378	14810.092773	6202.270996	38.923538
434.818939	723.931396	14865.077148	6235.929688	38.978439
435.177338	724.525879	14866.414063	6253.539063	39.096710
435.535675	725.417480	14802.140625	6238.010254	39.161053
435.894012	718.804504	14755.777344	6213.564941	39.144909
436.252289	719.324646	14782.749023	6221.292969	39.122536
436.610535	717.541321	14796.198242	6236.004395	39.197365
436.968719	717.392761	14907.578125	6297.304199	39.322330
437.326935	719.324646	15001.421875	6344.708984	39.387661
437.685028	719.027405	15138.510742	6396.126465	39.371029
438.043152	719.398926	15249.148438	6434.318359	39.332539
438.401215	712.191589	15450.804688	6510.850098	39.343311
438.759277	715.163757	15670.739258	6617.623047	39.466618
439.117249	719.250305	16068.928711	6789.336426	39.545361
439.475250	721.405090	16383.229492	6912.679688	39.530991
439.833130	722.965393	16786.396484	7046.053223	39.363247
440.191071	716.203857	17035.164063	7133.655762	39.325130
440.548889	717.764343	17339.134766	7264.428223	39.387028
440.906708	715.758118	17644.890625	7415.708984	39.576454
441.264496	726.606262	17870.103516	7518.989746	39.620754
441.622223	732.550537	18043.525391	7599.088379	39.665810
441.979950	736.637207	18073.689453	7625.985840	39.737717
442.337616	731.584534	18071.015625	7658.307129	39.947807
442.695251	726.160461	17908.589844	7602.654785	40.020500
443.052887	726.234802	17718.449219	7527.088379	40.023350
443.410461	724.377258	17514.859375	7451.447754	40.064781
443.768005	719.621826	17381.115234	7388.811035	40.027561
444.125458	711.820068	17314.837891	7353.071777	40.000271
444.482941	709.888184	17371.679688	7369.789063	39.971100
444.840393	719.398926	17504.607422	7445.875488	40.073833
445.197754	721.256531	17770.460938	7572.042480	40.182438
445.555084	720.662109	18035.126953	7692.635254	40.266754
445.912415	712.563049	18414.369141	7839.382813	40.260410
446.269714	719.027405	18710.169922	7949.722656	40.190308
446.626953	725.714661	19033.162109	8086.439941	40.206181
446.984161	720.290527	19343.154297	8221.596680	40.280090
447.341309	717.169861	19577.205078	8317.074219	40.296341
447.698456	716.426819	19755.830078	8383.055664	40.267174
448.055542	724.302979	19804.869141	8431.128906	40.390972
448.412598	720.067688	19771.732422	8414.857422	40.389069
448.769653	716.055359	19616.585938	8354.152344	40.412075
449.126617	716.426819	19345.826172	8231.999023	40.342537
449.483582	721.107910	19072.394531	8142.389160	40.440113
449.840515	723.708496	18748.732422	8029.746094	40.532749
450.197388	727.200684	18481.169922	7948.310547	40.673214
450.554230	728.761047	18263.980469	7875.345215	40.755604
450.911041	721.850891	18099.326172	7793.612793	40.694992
451.267822	713.974854	17962.755859	7739.371094	40.729813
451.624573	708.104919	17785.990234	7667.446777	40.750607
451.981262	717.467041	17658.636719	7640.251465	40.863674
452.337921	720.067627	17508.248047	7556.884277	40.723988
452.694580	725.343201	17427.705078	7545.738281	40.834915
453.051147	720.959290	17428.001953	7548.784668	40.867947
453.407715	719.770508	17347.902344	7536.895996	40.997540
453.764221	717.244141	17350.279297	7550.419434	41.081951
454.120728	719.176086	17095.199219	7451.299316	41.109631
454.477142	725.714661	17043.781250	7444.389160	41.173225
454.833557	732.476257	16860.998047	7362.433594	41.107037
455.189911	733.888000	16746.794922	7333.083984	41.211727
455.546265	731.138855	16554.349609	7270.149902	41.325439
455.902557	725.640381	16431.453125	7232.552246	41.429962
456.258820	721.702332	16419.191406	7232.181152	41.474651
456.615051	724.674500	16481.755859	7251.351563	41.420597
456.971252	722.148132	16470.683594	7246.744141	41.429859
457.327393	720.587708	16649.751953	7313.468262	41.388741
457.683502	715.906738	16893.615234	7415.634277	41.413326
458.039612	715.163635	17359.271484	7612.610840	41.440777
458.395630	724.674500	17832.056641	7815.679688	41.449970
458.751648	725.343201	18313.466797	8007.752441	41.405266
459.107605	726.160461	18933.373047	8243.664063	41.288601
459.463562	715.980957	19578.914063	8506.249023	41.299347
459.819458	718.507324	20188.197266	8748.476563	41.243439
460.175323	714.569153	20708.685547	8987.210938	41.375378
460.531158	723.262634	21203.023438	9192.956055	41.356407
460.886932	721.553711	21506.548828	9333.165039	41.431866
461.242676	727.126465	21627.367188	9361.622070	41.312904
461.598419	726.234863	21398.365234	9272.237305	41.340691
461.954102	727.646545	20939.250000	9106.245117	41.454399
462.309723	729.949951	20299.353516	8872.488281	41.608513
462.665344	724.154297	19616.810547	8624.985352	41.819588
463.020905	724.228577	19101.521484	8427.711914	41.918488
463.376373	714.717957	18661.126953	8253.621094	42.007866
463.731873	722.073914	18329.292969	8086.514160	41.826256
464.087341	718.061523	18063.437500	7958.341309	41.741848
464.442749	727.126465	17929.693359	7912.125000	41.767014
464.798126	721.850891	17851.750000	7903.580566	41.925114
465.153503	730.247070	17911.638672	7951.729004	42.030834
465.508820	729.578369	17990.919922	7968.744141	41.938606
465.864105	729.058289	18159.585938	8011.319824	41.778782
466.219330	728.909668	18449.218750	8102.935059	41.613415
466.574524	726.606262	18664.845703	8210.004883	41.717571
466.929657	721.999512	18820.583984	8304.888672	41.897694
467.284790	715.163635	18923.416016	8376.368164	42.075455
467.639893	719.770325	19049.062500	8428.974609	42.059475
467.994934	723.931335	19205.099609	8497.407227	42.061607
468.349945	726.234802	19257.482422	8528.836914	42.105106
468.704926	719.621826	19236.751953	8517.691406	42.112732
469.059875	721.107910	19028.185547	8418.573242	42.046391
469.414764	725.491699	18776.521484	8334.387695	42.152145
469.769653	728.984070	18574.119141	8257.856445	42.190056
470.124451	727.869446	18489.263672	8238.537109	42.286472
470.479248	725.566101	18367.853516	8163.343262	42.158806
470.834015	716.575439	18265.615234	8131.764160	42.254101
471.188721	715.832336	18331.521484	8158.438965	42.249874
471.543365	712.637390	18439.556641	8232.370117	42.419849
471.898010	714.420715	18596.929688	8296.938477	42.401863
472.252625	712.340149	18742.638672	8361.731445	42.425205
472.607178	712.934570	19037.916016	8458.399414	42.267246
472.961700	712.414490	19267.365234	8558.559570	42.285992
473.316193	716.426758	19568.140625	8687.251953	42.281700
473.670654	714.643555	19707.535156	8753.827148	42.327332
474.025055	725.120300	19939.880859	8824.711914	42.152969
474.379456	722.296692	20045.462891	8892.401367	42.281395
474.733795	726.234863	20154.912109	8957.044922	42.364235
475.088104	722.965515	20241.845703	9039.520508	42.607742
475.442383	722.296814	20262.501953	9042.194336	42.578354
475.796570	717.838562	20389.857422	9073.773438	42.476242
476.150787	720.216248	20590.250000	9152.608398	42.437737
476.504944	719.101746	20877.505859	9254.329102	42.340790
476.859070	724.674500	21174.416016	9380.272461	42.326195
477.213135	720.959290	21424.445313	9484.890625	42.330704
477.567200	725.343201	21871.525391	9689.074219	42.389362
477.921173	722.519714	22263.474609	9850.979492	42.377228
478.275146	723.857117	22774.970703	10057.541992	42.327499
478.629089	723.559875	23043.501953	10164.091797	42.296402
478.983002	724.674500	23492.439453	10351.260742	42.281647
479.336823	727.423645	23849.390625	10501.351563	42.271179
479.690643	726.680664	24328.642578	10695.875977	42.238842
480.044403	726.754883	24786.273438	10932.679688	42.419487
480.398163	728.166687	25468.447266	11217.258789	42.396816
480.751862	731.584656	26357.775391	11599.026367	42.407555
481.105499	729.504089	27484.130859	12036.075195	42.260246
481.459137	719.621887	28937.271484	12648.403320	42.274185
481.812744	704.835632	30762.291016	13443.665039	42.381596
482.166290	695.027588	33048.066406	14428.250977	42.448017
482.519806	695.696350	35777.128906	15598.000000	42.479176
482.873291	711.894348	38943.839844	16967.619141	42.518696
483.226715	713.677673	42492.238281	18549.376953	42.691032
483.580139	710.705566	45999.105469	20151.416016	42.926472
483.933502	703.498108	49325.191406	21808.740234	43.407051
484.286804	704.761292	51985.156250	23306.312500	44.074448
484.640106	715.312317	53994.375000	24689.162109	44.996758
484.993347	716.947021	55089.519531	25535.617188	45.645569
485.346558	718.953125	55306.410156	25862.771484	46.061531
485.699738	714.717957	54642.890625	25506.416016	45.971699
486.052887	717.838623	53351.957031	24755.734375	45.669800
486.405975	722.668274	51792.488281	23776.130859	45.141068
486.759064	726.383362	50172.765625	22809.748047	44.661236
487.112061	728.092285	48879.750000	22030.458984	44.240154
487.464996	722.816833	48139.917969	21517.771484	43.855392
487.817963	720.959290	48048.968750	21348.361328	43.583923
488.170868	712.563049	48146.230469	21319.828125	43.444386
488.523743	716.129578	48238.886719	21387.072266	43.496937
488.876587	711.968567	47979.722656	21319.011719	43.596409
489.229401	720.884949	47494.894531	21148.634766	43.673294
489.582153	722.371094	46603.187500	20789.900391	43.738388
489.934845	723.039795	45557.152344	20324.693359	43.720402
490.287537	717.467102	44477.312500	19797.291016	43.601215
490.640198	719.250305	43648.394531	19372.205078	43.450562
490.992798	726.457703	43073.957031	19081.013672	43.342716
491.345337	726.680664	42903.503906	19037.916016	43.415394
491.697876	726.383362	43012.359375	19085.248047	43.415966
492.050354	721.850891	43422.214844	19231.625000	43.348045
492.402832	722.148132	43659.015625	19319.005859	43.312096
492.755219	717.615723	43507.960938	19283.265625	43.387478
493.107605	715.015137	42725.996094	19009.013672	43.545753
493.459930	724.080078	41458.835938	18490.900391	43.615871
493.812225	724.154297	39694.144531	17727.513672	43.631927
494.164490	720.810730	37727.351563	16858.246094	43.606983
494.516724	711.002686	35707.433594	15972.038086	43.607407
494.868896	716.278320	33879.511719	15152.480469	43.530743
495.221039	724.674500	32440.716797	14507.161133	43.455883
495.573120	719.993408	31324.986328	13990.088867	43.359253
495.925201	718.061523	30721.427734	13732.851563	43.377766
496.277222	714.643555	30370.125000	13590.933594	43.419598
496.629211	717.244141	30299.458984	13538.625000	43.341518
496.981140	714.940735	30308.154297	13480.668945	43.137352
497.333069	716.352539	30398.429688	13495.528320	43.053509
497.684967	724.748779	30480.982422	13545.385742	43.085548
498.036804	723.114075	30526.529297	13621.695313	43.278870
498.388580	727.349304	30456.833984	13582.760742	43.241283
498.740326	724.971680	30315.880859	13534.463867	43.288605
499.092072	728.240967	29990.289063	13382.664063	43.245171
499.443756	721.850891	29621.150391	13245.872070	43.336765
499.795410	720.216309	29238.197266	13082.034180	43.347454
500.147003	718.284424	28881.837891	12936.624023	43.383518
500.498566	715.015137	28535.736328	12774.718750	43.347919
500.850098	709.962463	28125.140625	12602.930664	43.380962
501.201599	707.733398	27787.064453	12457.593750	43.390511
501.553009	716.278320	27452.107422	12347.105469	43.502773
501.904449	718.655945	27254.087891	12246.871094	43.444611
502.255859	718.358704	27041.953125	12156.445313	43.451843
502.607178	713.677551	26957.916016	12134.674805	43.518112
502.958405	711.448547	26838.958984	12104.433594	43.605324
503.309692	716.129639	26785.537109	12088.383789	43.622986
503.660919	719.176086	26786.724609	12067.132813	43.532890
504.012115	728.092346	26825.734375	12091.208008	43.540771
504.363251	724.971680	26928.271484	12111.195313	43.453396
504.714294	723.634216	26979.689453	12130.290039	43.443909
505.065369	717.095642	27057.857422	12132.445313	43.337204
505.416443	719.547546	27091.068359	12164.023438	43.397099
505.767395	718.730164	27116.851563	12198.871094	43.488476
506.118317	719.993347	27069.369141	12205.559570	43.589520
506.469238	716.352539	27089.134766	12214.104492	43.597038
506.820160	714.197754	27066.994141	12199.020508	43.581036
507.170929	720.810730	27116.333984	12212.469727	43.536396
507.521729	723.634216	27141.298828	12251.106445	43.635471
507.872498	724.822998	27225.259766	12298.214844	43.672455
508.223236	714.049133	27367.177734	12382.473633	43.778816
508.573883	719.696106	27543.275391	12434.932617	43.675140
508.924500	724.005676	27766.109375	12531.301758	43.662640
509.275116	732.624817	27994.218750	12604.340820	43.547401
509.625702	727.646545	28241.796875	12735.338867	43.641880
509.976196	726.531982	28505.791016	12855.114258	43.660564
510.326660	726.086182	28775.810547	12992.871094	43.732285
510.677124	727.200684	28998.718750	13091.172852	43.732964
511.027557	726.531982	29241.837891	13174.913086	43.655083
511.377869	718.953125	29425.365234	13238.070313	43.610874
511.728180	715.832336	29602.130859	13294.019531	43.543785
512.078430	713.603333	29719.156250	13353.909180	43.578918
512.428650	714.494934	29836.478516	13426.206055	43.649879
512.778931	717.318420	29939.240234	13496.643555	43.731979
513.129028	721.925293	29973.865234	13538.996094	43.816139
513.479126	724.525879	30036.281250	13547.317383	43.746239
513.829285	727.720886	29989.023438	13507.714844	43.675411
514.179382	723.188416	29958.263672	13448.718750	43.528294
514.529297	725.343079	29836.109375	13401.386719	43.544178
514.879272	712.860352	29840.343750	13407.776367	43.583977
515.229187	713.454773	29757.943359	13390.167969	43.645847
515.579163	712.191589	29796.505859	13434.004883	43.741150
515.928955	717.021240	29839.156250	13447.602539	43.714451
516.278748	716.203918	30043.265625	13546.500000	43.748997
516.628540	714.272034	30336.687500	13666.127930	43.723156
516.978333	712.711731	30742.306641	13859.909180	43.780800
517.327942	712.340149	31271.490234	14077.319336	43.734787
517.677612	711.968689	31867.771484	14317.911133	43.670654
518.027222	710.779846	32504.320313	14586.589844	43.643486
518.376831	713.826172	33246.675781	14922.958008	43.676258
518.726379	714.866516	33939.921875	15201.371094	43.601147
519.075867	721.479431	34470.964844	15476.290039	43.718624
519.425293	720.587830	34812.089844	15628.015625	43.727692
519.774658	725.045898	34991.082031	15758.790039	43.873604
520.124084	725.268860	35069.394531	15766.590820	43.795910
520.473389	724.674377	34824.347656	15706.926758	43.936646
520.822693	720.141907	34426.386719	15565.083008	44.042107
521.171997	726.383362	33926.847656	15355.401367	44.062691
521.521240	722.148132	33491.132813	15154.709961	44.043358
521.870361	722.073914	33091.238281	14969.992188	44.016949
522.219482	710.928406	32745.429688	14844.272461	44.119129
522.568604	717.318542	32470.437500	14725.312500	44.115334
522.917664	714.049133	32310.240234	14642.390625	44.082344
523.266724	721.033691	32394.423828	14631.839844	43.919537
523.615662	721.107910	32661.693359	14738.167969	43.884796
523.964600	727.200745	33072.214844	14930.090820	43.910599
524.313538	733.962219	33625.917969	15167.786133	43.882534
524.662354	732.253418	34301.925781	15452.959961	43.851208
525.011169	732.996338	35192.816406	15803.520508	43.733612
525.359985	724.005676	36236.988281	16257.062500	43.739090
525.708740	725.045898	37490.699219	16807.648438	43.743553
526.057434	726.011902	38903.269531	17430.750000	43.755730
526.406067	727.572266	40454.488281	18160.699219	43.882408
526.754700	723.857117	42167.238281	18921.560547	43.909790
527.103333	725.714661	44103.046875	19826.044922	44.032974
527.451782	719.770508	46256.562500	20858.779297	44.225792
527.800293	719.473328	48438.167969	21940.406250	44.470901
528.148743	714.346375	50503.406250	23091.056641	44.943027
528.497131	713.008972	52298.488281	24133.820313	45.401943
528.845642	717.021240	53800.519531	25170.640625	46.066326
529.193909	709.591003	54985.281250	26075.869141	46.735981
529.542175	715.980957	55786.035156	26766.812500	47.304897
529.890503	718.804504	56085.253906	27079.031250	47.610470
530.238770	725.937561	55833.812500	26945.435547	47.578495
530.586914	725.566101	55044.050781	26467.445313	47.390644
530.934998	728.092346	53805.796875	25647.740234	46.949371
531.283142	728.909668	52237.332031	24682.101563	46.503445
531.631226	730.841553	50423.753906	23525.281250	45.870602
531.979248	721.107910	48612.628906	22506.146484	45.488300
532.327148	719.547546	47023.441406	21583.529297	45.058807
532.675110	714.792175	45940.332031	20970.679688	44.788601
533.023071	717.392822	45422.292969	20618.931641	44.517582
533.370850	716.426819	45284.832031	20500.937500	44.391335
533.718689	717.467102	45485.597656	20558.521484	44.319599
534.066467	719.696106	45714.300781	20667.597656	44.333988
534.414246	717.467102	45870.488281	20735.808594	44.334446
534.761963	717.244141	45707.765625	20738.037109	44.500023
535.109619	718.358704	45300.292969	20610.980469	44.620365
535.457153	716.352539	44562.832031	20343.341797	44.762974
535.804749	713.306152	43701.964844	19945.748047	44.738407
536.152344	714.494934	42860.261719	19495.474609	44.561962
536.499817	719.993408	41971.675781	19054.041016	44.444359
536.847229	722.519592	41067.707031	18649.314453	44.433540
537.194641	717.318420	40214.343750	18248.970703	44.387276
537.542114	714.494934	39630.699219	17951.388672	44.292336
537.889404	721.479431	39154.562500	17708.568359	44.199135
538.236694	723.188416	38688.312500	17539.527344	44.294178
538.583984	729.281250	38272.511719	17380.890625	44.353161
538.931213	725.491760	38038.609375	17279.320313	44.364635
539.278381	729.504150	37927.457031	17215.197266	44.318817
539.625488	723.188416	37974.859375	17210.294922	44.258705
539.972595	724.451599	38247.250000	17317.810547	44.222076
540.319641	721.256531	38922.734375	17560.779297	44.080818
540.666687	718.358704	39924.562500	17946.708984	43.942917
541.013611	714.494934	41226.640625	18496.544922	43.893135
541.360596	716.649719	42587.273438	19139.488281	43.999435
541.707458	722.891174	44017.968750	19830.503906	44.133453
542.054260	722.371033	45207.261719	20412.740234	44.263050
542.401062	719.919128	46204.406250	20907.001953	44.382343
542.747864	721.628113	46628.824219	21213.724609	44.638092
543.094666	726.754883	46562.691406	21272.052734	44.823555
543.441284	724.005676	45912.027344	21027.521484	44.931187
543.787903	719.993408	44954.707031	20554.806641	44.839924
544.134460	713.529053	43706.199219	19940.250000	44.720924
544.481079	711.671448	42255.582031	19295.970703	44.734112
544.827637	709.888184	40646.039063	18554.205078	44.682114
545.174072	713.306091	39026.609375	17824.404297	44.660980
545.520508	714.792175	37640.199219	17173.587891	44.573090
545.866943	716.352539	36511.464844	16628.951172	44.454666
546.213318	714.272034	35676.750000	16248.964844	44.432472
546.559631	715.981018	34937.957031	15904.645508	44.382778
546.905823	717.764343	34331.796875	15647.187500	44.414257
547.252136	716.055359	33821.183594	15379.993164	44.295063
547.598389	718.432922	33373.214844	15157.531250	44.217411
547.944458	715.906677	32975.843750	15009.520508	44.307632
548.290588	725.565979	32491.314453	14792.929688	44.284691
548.636658	725.714661	31895.259766	14529.229492	44.285263
548.982727	729.652649	31157.283203	14218.122070	44.329674
549.328735	720.439148	30419.384766	13931.239258	44.482388
549.674622	724.005676	29666.849609	13621.471680	44.561848
550.020569	714.420654	28964.166016	13318.540039	44.616753
550.366455	717.615723	28204.125000	12971.620117	44.581882
550.712280	712.414551	27559.177734	12670.843750	44.543282
551.058044	719.919128	27041.062500	12408.627930	44.408062
551.403748	719.473328	26659.966797	12230.375977	44.374260
551.749512	717.244141	26367.732422	12102.651367	44.386707
552.095154	722.519714	26185.244141	12016.608398	44.355381
552.440735	731.138855	26124.615234	11965.487305	44.241081
552.786316	729.875671	26134.572266	11946.391602	44.151344
553.131897	726.234680	26174.250000	11928.410156	44.019840
553.477417	714.792175	26172.466797	11954.416992	44.150242
553.822815	714.346375	26154.037109	11941.041992	44.130627
554.168213	715.832336	26072.228516	11939.257813	44.262699
554.513672	719.770508	25970.955078	11889.475586	44.234383
554.859009	725.714661	25778.437500	11826.541992	44.309864
555.204285	724.748779	25621.734375	11724.152344	44.179657
555.549500	717.615662	25383.740234	11606.010742	44.143112
555.894714	712.860291	25163.062500	11503.546875	44.133320
556.239990	710.854065	24770.966797	11358.210938	44.253143
556.585022	724.080017	24475.539063	11240.441406	44.276695
556.930115	721.033630	24144.296875	11117.543945	44.385406
557.275146	727.126465	23927.109375	11029.125000	44.405197
557.620178	714.866516	23706.804688	10953.335938	44.530697
557.965149	715.312256	23555.968750	10887.577148	44.535782
558.310059	714.272034	23387.822266	10817.212891	44.558262
558.654968	723.114075	23228.664063	10736.372070	44.492393
558.999756	730.247131	23125.162109	10683.467773	44.444111
559.344604	724.674500	23091.578125	10652.707031	44.387154
559.689331	719.027405	23065.869141	10616.150391	44.288689
560.033997	711.597168	22970.537109	10587.097656	44.366444
560.378723	711.522888	22944.976563	10568.967773	44.336098
560.723389	717.987122	22947.802734	10578.180664	44.355713
561.067932	725.566101	23043.130859	10574.688477	44.131706
561.412476	725.789001	23012.296875	10566.887695	44.157204
561.757019	723.782898	22966.228516	10561.983398	44.231647
562.101501	722.296692	22967.789063	10563.989258	44.241287
562.445862	720.885010	22956.570313	10543.109375	44.173248
562.790222	717.987122	22950.103516	10555.964844	44.251194
563.134644	719.844727	22901.212891	10547.047852	44.303867
563.478943	720.141907	22927.369141	10582.342773	44.409874
563.823181	711.448547	22964.296875	10572.311523	44.312817
564.167358	709.813904	22989.931641	10588.583984	44.338951
564.511536	721.776611	23039.490234	10605.450195	44.286232
564.855774	731.213074	23037.929688	10601.363281	44.247437
565.199768	729.578369	23140.171875	10636.211914	44.205139
565.543823	719.473206	23285.431641	10665.635742	44.075954
565.887817	718.210144	23590.890625	10761.040039	43.907536
566.231812	718.284424	23835.791016	10849.534180	43.825012
566.575745	718.284485	24025.562500	10957.497070	43.931400
566.919617	720.364929	24171.195313	11069.692383	44.132030
567.263428	715.312256	24288.962891	11116.726563	44.123051
567.607239	716.798340	24437.494141	11161.903320	44.033726
567.950989	717.764343	24480.146484	11156.406250	43.929272
568.294678	719.993408	24484.679688	11154.622070	43.908131
568.638367	722.073792	24344.025391	11115.018555	43.996975
568.981995	718.507324	24137.384766	11032.914063	44.043129
569.325623	715.089355	23886.169922	10958.536133	44.207897
569.669128	707.064758	23709.179688	10892.482422	44.280354
570.012573	717.169861	23608.646484	10849.683594	44.263260
570.356140	720.884949	23621.947266	10835.714844	44.167515
570.699524	728.538147	23613.552734	10789.944336	43.965042
571.042908	721.256531	23741.947266	10832.666992	43.923138
571.386230	717.021301	23833.267578	10876.060547	43.947617
571.729492	715.535156	23987.072266	10938.995117	43.931175
572.072815	717.987122	24096.000000	10990.190430	43.939590
572.416016	725.194580	24221.421875	11037.668945	43.889919
572.759094	725.863281	24365.494141	11116.281250	43.953384
573.102234	721.702393	24454.212891	11128.245117	43.849316
573.445374	722.891174	24482.968750	11126.609375	43.786549
573.788391	719.919128	24460.234375	11104.765625	43.743511
574.131409	718.804504	24429.398438	11107.811523	43.815887
574.474365	713.231750	24412.828125	11108.256836	43.861614
574.817261	715.832520	24280.123047	11054.239258	43.873192
575.160156	719.324707	24082.181641	10937.062500	43.734970
575.502930	716.724060	23862.914063	10818.402344	43.642944
575.845703	715.609436	23659.400391	10733.696289	43.663609
576.188477	714.197754	23430.695313	10653.598633	43.754105
576.531250	724.080078	23128.580078	10554.478516	43.876892
576.873901	723.262695	22859.009766	10431.209961	43.856426
577.216431	720.587830	22594.046875	10354.158203	44.042282
577.559082	714.346375	22339.039063	10253.180664	44.110840
577.901611	717.392822	22031.275391	10137.491211	44.197010
578.244080	718.210144	21675.365234	9972.762695	44.159397
578.586487	722.742615	21352.744141	9811.897461	44.057945
578.928955	743.175781	21031.087891	9658.983398	43.946404
579.271301	741.541199	20736.328125	9502.425781	43.815845
579.613647	730.618652	20382.500000	9345.573242	43.837814
579.955872	711.077087	20063.666016	9198.602539	43.857311
580.298157	708.030701	19785.550781	9100.523438	43.991531
580.640320	716.798340	19539.460938	8995.978516	43.985168
580.982483	712.934570	19302.734375	8923.681641	44.168022
581.324524	716.055359	19058.130859	8820.327148	44.184048
581.666626	719.101746	18901.943359	8762.965820	44.238762
582.008728	709.962463	18816.642578	8700.179688	44.128563
582.350647	705.281433	18773.919922	8666.000977	44.058216
582.692566	699.634460	18666.998047	8604.700195	43.996807
583.034424	708.996582	18552.943359	8585.307617	44.139957
583.376343	711.225586	18431.755859	8527.946289	44.111095
583.718201	711.968689	18360.277344	8511.673828	44.195198
584.059937	715.312256	18276.908203	8447.773438	44.030514
584.401611	715.609558	18189.156250	8417.606445	44.078041
584.743347	720.141907	18112.179688	8377.929688	44.030422
585.085022	718.135742	18037.208984	8349.842773	44.065331
585.426514	722.148132	17968.701172	8293.076172	43.898212
585.768127	720.067688	17918.771484	8241.286133	43.731312
586.109619	719.324646	17840.380859	8198.637695	43.684879
586.451172	719.027405	17785.841797	8181.919434	43.727505
586.792542	717.541321	17730.412109	8178.648926	43.855663
587.133850	714.123535	17681.445313	8165.199707	43.914272
587.475220	716.649719	17677.062500	8159.552734	43.883972
587.816589	724.154297	17658.265625	8141.052246	43.798565
588.157776	724.971680	17713.322266	8141.720703	43.657848
588.498962	724.823059	17751.142578	8143.429688	43.571404
588.840210	723.411316	17846.175781	8165.794434	43.464848
589.181335	727.200745	17911.042969	8176.494141	43.350571
589.522400	726.903564	17964.392578	8218.624023	43.461788
589.863403	722.891174	17970.855469	8237.422852	43.567642
590.204407	723.336975	17989.208984	8262.313477	43.664040
590.545410	723.634216	18028.513672	8289.731445	43.722336
590.886353	718.284424	18038.173828	8305.260742	43.804996
591.227112	715.981018	17982.001953	8284.902344	43.837090
591.567932	716.129700	17917.804688	8231.553711	43.690067
591.908752	726.234802	17840.380859	8167.354980	43.479351
592.249512	726.234802	17833.767578	8139.193848	43.331547
592.590149	719.324646	17742.001953	8108.656250	43.408749
592.930786	716.129639	17678.251953	8091.863281	43.483551
593.271423	714.123352	17577.125000	8060.210938	43.563343
593.612000	718.878723	17515.826172	8015.332031	43.439163
593.952576	711.671448	17512.630859	8005.301270	43.411987
594.292969	714.494934	17557.732422	8026.774902	43.413742
594.633484	711.745789	17620.740234	8046.613281	43.378498
594.973877	723.931396	17717.929688	8092.978027	43.362644
595.314209	722.148132	17844.912109	8128.271484	43.253086
595.654480	728.686768	18069.677734	8214.239258	43.166813
595.994812	722.742493	18242.060547	8283.266602	43.155354
596.335022	720.513489	18444.462891	8367.303711	43.143826
596.675171	714.792175	18583.259766	8427.637695	43.164562
597.015320	721.628113	18790.341797	8498.374023	43.039845
597.355408	729.875671	18904.839844	8544.589844	42.997135
597.695496	734.185242	19025.134766	8571.636719	42.848797
598.035461	724.674377	18966.509766	8546.522461	42.878624
598.375366	719.844727	18942.214844	8550.534180	42.972946
598.715271	720.736389	18792.642578	8527.648438	43.199162
599.055176	725.268860	18621.673828	8467.241211	43.259930
599.395081	728.018066	18327.732422	8350.510742	43.310318
599.734802	722.222412	17998.050781	8223.973633	43.423393
600.074524	714.792175	17685.681641	8077.076660	43.381844
600.414246	712.117188	17337.052734	7917.103516	43.338432
600.753906	717.838562	17031.224609	7769.687012	43.227375
601.093506	722.370911	16723.091797	7645.527344	43.267776
601.433044	720.587708	16555.833984	7559.039063	43.185001
601.772583	719.101746	16416.146484	7490.753906	43.139664
602.112122	715.906738	16406.335938	7450.854004	42.923920
602.451538	721.553711	16408.937500	7442.160156	42.840836
602.790894	724.080017	16506.275391	7455.980957	42.655033
603.130310	728.463867	16674.125000	7529.317871	42.650185
603.469604	715.089355	16910.853516	7624.871094	42.664131
603.808838	710.705566	17200.189453	7749.328125	42.685524
604.148010	705.950195	17500.074219	7877.574219	42.703171
604.487305	716.501160	17769.125000	7972.904785	42.553005
604.826416	716.352539	17997.679688	8075.145020	42.582333
605.165527	716.352539	18172.068359	8144.841309	42.556198
605.504456	714.197754	18294.519531	8206.735352	42.618885
605.843445	717.021301	18344.970703	8249.608398	42.730930
606.182434	723.114075	18304.847656	8247.007813	42.793808
606.521423	720.662109	18188.861328	8201.385742	42.824814
606.860229	725.417480	18008.972656	8123.739746	42.805561
607.199036	721.405090	17779.005859	8004.855469	42.699146
607.537903	720.364929	17542.873047	7906.775879	42.719025
607.876648	716.798340	17279.171875	7770.579590	42.589195
608.215271	714.346375	16991.472656	7672.721191	42.749409
608.553955	718.210144	16772.427734	7576.945313	42.722328
608.892578	713.974854	16583.031250	7493.800781	42.723560
609.231140	713.231873	16503.673828	7446.470215	42.641228
609.569641	711.745789	16416.591797	7400.476563	42.590237
609.908081	710.333984	16442.820313	7408.353027	42.574448
610.246521	717.392761	16428.554688	7388.439453	42.460556
610.584961	716.872620	16453.966797	7394.681152	42.433556
610.923340	719.621887	16370.820313	7384.130371	42.581459
611.261597	711.745789	16274.672852	7367.040527	42.763775
611.599854	715.015137	16125.472656	7316.439941	42.837307
611.938110	715.758118	15982.737305	7225.048340	42.636398
612.276245	723.188416	15775.135742	7140.268066	42.632885
612.614319	716.575439	15468.265625	7022.350098	42.746113
612.952393	713.008972	15147.129883	6908.146973	42.920094
613.290466	710.556946	14845.088867	6780.866699	42.946659
613.628479	716.352539	14573.214844	6656.409668	42.867260
613.966370	721.776611	14324.300781	6538.639160	42.763107
614.304260	716.203918	14128.735352	6430.603516	42.604931
614.642151	710.333984	13960.367188	6339.433594	42.483665
614.979980	709.293762	13801.432617	6250.047363	42.321224
615.317749	713.677673	13634.252930	6186.370605	42.356419
615.655396	713.603333	13540.629883	6161.404297	42.471268
615.993164	706.841797	13489.659180	6162.296387	42.678028
616.330811	714.569336	13438.242188	6148.921875	42.710564
616.668396	722.296692	13433.040039	6128.637207	42.533630
617.005859	735.894226	13388.905273	6107.386719	42.452290
617.343445	728.018066	13402.054688	6107.460938	42.444588
617.680908	730.024231	13384.372070	6096.538574	42.408463
618.018311	723.559998	13429.324219	6102.779785	42.336845
618.355652	726.011902	13456.223633	6108.351563	42.280048
618.692993	726.234863	13430.217773	6106.346191	42.349800
619.030273	726.234863	13398.563477	6091.263184	42.336563
619.367554	724.897400	13355.541992	6077.591309	42.378628
619.704712	721.256531	13351.752930	6066.966309	42.323833
620.041870	716.501160	13327.530273	6077.665527	42.511711
620.379028	720.439148	13296.250000	6046.310059	42.350121
620.716064	716.501160	13251.000000	6020.601074	42.316013
621.053040	715.906677	13186.652344	5963.239746	42.077137
621.389954	714.271973	13120.745117	5954.248535	42.235828
621.726929	713.751953	13059.817383	5936.193359	42.300453
622.063843	709.219421	13017.316406	5916.428223	42.307182
622.400635	699.708679	13004.834961	5880.020020	42.098808
622.737427	701.492004	12953.120117	5854.608887	42.060669
623.074219	714.792175	12885.131836	5834.472656	42.066868
623.410889	724.600159	12809.565430	5806.014160	42.047405
623.747559	731.064453	12778.656250	5784.243652	41.943478
624.084167	726.680603	12763.200195	5767.005859	41.875271
624.420715	719.250427	12761.789063	5764.256348	41.893208
624.757324	714.940735	12776.203125	5773.990234	41.944607
625.093750	715.460876	12847.682617	5787.661621	41.807682
625.430176	724.897400	12907.348633	5823.401855	41.851219
625.766602	719.250305	12953.491211	5842.423340	41.875690
626.102905	712.117371	13035.296875	5876.305176	41.906296
626.439209	705.430115	13125.799805	5898.224609	41.808693
626.775452	711.671448	13263.555664	5924.602051	41.531063
627.111694	720.513489	13339.493164	5958.781250	41.511024
627.447876	721.182190	13394.328125	6005.294434	41.695351
627.783997	725.714661	13411.789063	6034.495605	41.847309
628.120056	723.708496	13447.307617	6059.238281	41.934120
628.456055	724.971680	13449.089844	6027.287598	41.671383
628.792053	718.953125	13431.851563	6014.953613	41.658482
629.128052	717.690002	13339.418945	5959.895020	41.533180
629.463928	720.885010	13256.868164	5925.642090	41.518536
629.799744	723.188416	13144.002930	5878.757324	41.507496
630.135559	729.206848	13013.229492	5832.169434	41.541462
630.471375	724.823059	12866.036133	5761.136230	41.481136
630.807068	723.485596	12701.307617	5675.613281	41.344143
631.142700	714.420654	12556.342773	5617.954590	41.408264
631.478333	719.473328	12417.026367	5571.589355	41.479755
631.813965	720.067688	12320.801758	5542.686035	41.571663
632.149475	718.953125	12221.609375	5481.237793	41.401608
632.484924	712.340149	12128.877930	5437.398926	41.387840
632.820435	711.448486	12030.799805	5402.848145	41.445831
633.155884	717.095520	11936.286133	5383.900879	41.596630
633.491150	719.770508	11861.909180	5361.536621	41.659561
633.826477	719.324646	11824.906250	5330.180176	41.518360
634.161804	725.120300	11769.106445	5296.372070	41.391323
634.497009	720.736328	11732.325195	5273.709961	41.347107
634.832153	721.479431	11640.859375	5233.958496	41.325413
635.167297	710.185364	11608.612305	5204.831543	41.241238
635.502380	719.547607	11553.999023	5167.754395	41.056137
635.837463	717.021301	11491.659180	5118.269043	40.848217
636.172424	717.318542	11395.808594	5084.238281	40.894543
636.507324	712.934631	11283.983398	5045.749512	40.987560
636.842224	717.615723	11161.829102	5012.684082	41.123905
637.177124	718.953125	11046.511719	4970.555176	41.167542
637.511963	719.324646	10933.348633	4906.505859	40.994431
637.846741	717.021301	10837.274414	4845.726563	40.796463
638.181396	720.810730	10715.641602	4785.095215	40.663864
638.516113	719.919128	10598.168945	4751.956055	40.817318
638.850769	716.501160	10493.625000	4733.231934	41.082947
639.185303	716.798340	10385.366211	4707.003418	41.269863
639.519836	716.798340	10309.502930	4670.966309	41.220573
639.854370	724.823059	10254.963867	4632.552246	41.003899
640.188843	722.816895	10206.593750	4579.425293	40.665321
640.523254	724.005676	10135.633789	4543.017090	40.577587
640.857605	714.569275	10009.246094	4497.320801	40.698044
641.191895	715.163757	9918.893555	4457.940918	40.665874
641.526184	715.906738	9848.677734	4423.018066	40.591309
641.860413	722.519714	9838.200195	4405.333984	40.400867
642.194580	718.061523	9795.848633	4389.804688	40.447559
642.528748	709.962463	9714.784180	4366.622559	40.607803
642.862793	709.442383	9636.915039	4333.409180	40.593422
643.196838	716.129578	9569.522461	4303.836426	40.523525
643.530823	722.222473	9535.639648	4289.272949	40.472958
643.864746	721.107910	9463.491211	4290.164551	40.824757
644.198669	719.770447	9430.352539	4277.979004	40.849262
644.532532	717.615723	9375.666016	4265.421875	40.976963
644.866333	715.758118	9354.563477	4226.709961	40.641636
645.200073	712.265930	9342.155273	4213.038574	40.565670
645.533813	714.420715	9347.876953	4183.094238	40.177116
645.867554	717.541321	9342.823242	4181.534180	40.160923
646.201172	722.668152	9316.149414	4161.249512	40.013832
646.534729	719.473145	9311.319336	4166.822266	40.123501
646.868225	713.380371	9335.765625	4172.320313	40.115814
647.201782	706.470276	9335.617188	4186.735352	40.331512
647.535217	717.690002	9360.508789	4184.209473	40.108669
647.868591	722.519714	9335.170898	4182.277344	40.170643
648.201965	728.315247	9329.821289	4185.695313	40.195057
648.535278	718.210144	9294.526367	4170.314453	40.251595
648.868591	716.649719	9292.075195	4162.884277	40.187328
649.201782	714.717773	9275.579102	4121.497559	39.794827
649.534912	720.513489	9246.230469	4127.293457	39.958870
649.868103	724.525879	9197.561523	4110.426270	39.960892
650.201172	723.188416	9168.881836	4114.661621	40.156242
650.534180	717.912903	9138.417969	4089.918701	40.045174
650.867188	718.358704	9122.071289	4056.482422	39.722012
651.200134	727.200745	9105.649414	4052.321533	39.686596
651.533020	729.132568	9070.355469	4033.522705	39.615177
651.865845	717.467041	9024.660156	4020.000000	39.755100
652.198608	711.522766	8977.998047	3993.771240	39.705536
652.531433	710.779785	8957.639648	3954.242432	39.329670
652.864136	713.529053	8928.735352	3942.279541	39.302124
653.196777	834.493896	9023.916992	4049.201172	39.254383
653.529358	837.837463	8986.914063	4069.114258	39.652061
653.861938	842.518555	8939.434570	4053.064697	39.651470
654.194519	717.392761	8739.784180	3902.750732	39.705841
654.526978	712.117249	8681.083984	3873.846436	39.675522
654.859375	708.476379	8625.133789	3832.237305	39.458080
655.191833	710.705566	8585.752930	3814.107422	39.408039
655.524170	709.442383	8528.985352	3782.156982	39.295322
655.856445	709.962463	8474.077148	3770.045654	39.413162
656.188660	714.420654	8459.215820	3758.677002	39.307125
656.520874	716.129639	8410.250977	3733.562744	39.217384
656.853088	719.993347	8432.987305	3740.919189	39.166706
657.185181	714.420654	8421.172852	3731.928711	39.154083
657.517212	716.203918	8487.674805	3736.758545	38.867222
657.849243	711.671570	8502.311523	3735.272217	38.810680
658.181274	710.482605	8567.772461	3768.708252	38.922142
658.513123	708.253601	8626.026367	3791.890625	38.945763
658.844971	711.002747	8735.473633	3818.342529	38.723301
659.176819	719.993347	8824.488281	3834.020264	38.423454
659.508667	716.203918	8891.137695	3860.546143	38.463215
659.840393	716.798340	8950.059570	3882.762939	38.453346
660.172058	713.454773	8971.680664	3894.502930	38.519753
660.503662	720.142029	9018.268555	3913.004150	38.476902
660.835266	723.262695	9026.145508	3915.678955	38.449493
661.166931	718.655945	9003.632813	3896.434814	38.355919
661.498413	721.925232	8933.564453	3875.333008	38.401680
661.829773	720.067688	8812.451172	3847.989502	38.652664
662.161194	727.497986	8705.009766	3805.785400	38.587063
662.492615	723.708557	8575.722656	3739.135986	38.403236
662.823975	732.624817	8426.523438	3676.350342	38.260521
663.155212	724.600098	8280.444336	3619.211182	38.309566
663.486450	725.788879	8118.018066	3566.827881	38.432781
663.817627	712.488770	8006.267090	3509.466064	38.347439
664.148743	717.095520	7878.763184	3463.472656	38.348293
664.479858	713.380371	7792.274902	3424.389648	38.297070
664.810913	715.832336	7698.876465	3380.031006	38.152397
665.141907	715.163757	7629.255371	3344.365479	38.026711
665.472778	717.912903	7537.342285	3328.241943	38.277824
665.803711	727.943787	7496.253418	3330.916748	38.458241
666.134583	725.789063	7470.990234	3310.483398	38.319012
666.465454	726.680664	7473.070313	3283.808838	37.903652
666.796143	720.364929	7431.832520	3253.493408	37.743286
667.126831	718.581604	7406.124512	3246.360352	37.798317
667.457458	723.931396	7360.947754	3238.781250	37.891270
667.788147	719.696106	7328.700684	3227.338623	37.942818
668.118774	717.764343	7298.087402	3230.459229	38.184975
668.449219	708.773682	7302.025391	3234.991943	38.315208
668.779663	711.448547	7297.492676	3233.431396	38.292835
669.110107	709.516663	7287.908203	3219.239502	38.151012
669.440552	704.984192	7263.313965	3190.930420	37.905174
669.770874	707.733398	7258.113281	3171.611572	37.614281
670.101135	711.597168	7235.079590	3155.116455	37.457283
670.431396	724.228577	7216.578125	3150.583984	37.372532
670.761597	720.885010	7157.729980	3141.741943	37.609371
671.091797	725.937500	7116.863281	3132.231201	37.651722
671.421875	719.993347	7071.761719	3111.278076	37.647541
671.751892	721.850891	7053.037109	3093.073486	37.453056
672.081909	717.318420	7017.743652	3082.671143	37.542747
672.411865	711.448547	6968.926270	3074.720703	37.767170
672.741821	711.968689	6928.060059	3057.037109	37.725769
673.071716	711.374268	6889.423340	3025.532471	37.457752
673.401550	716.798340	6852.345703	2995.440186	37.138363
673.731262	709.962463	6807.169434	2982.585693	37.273186
674.060974	711.745789	6763.404785	2965.570313	37.243084
674.390625	714.272034	6733.980957	2943.873779	37.038364
674.720276	722.816895	6675.653809	2925.446533	37.001343
675.049927	722.593933	6628.174316	2907.391357	36.995472
675.379395	717.689941	6595.927246	2892.679443	37.000710
675.708923	714.940735	6578.168457	2873.286377	36.811562
676.038330	715.312256	6549.413574	2864.295654	36.834866
676.367737	715.535156	6501.488281	2853.893311	36.957752
676.697083	713.157532	6474.070313	2842.970703	36.970066
677.026428	714.346375	6473.921875	2829.670654	36.727085
677.355652	719.176086	6472.510254	2822.463135	36.557709
677.684875	715.683838	6492.349121	2816.964844	36.375332
678.013977	716.946960	6462.851074	2807.156982	36.377388
678.343079	713.454773	6471.915527	2805.447510	36.329025
678.672180	714.271973	6458.169922	2799.503662	36.303425
679.001221	713.008850	6489.748535	2798.240479	36.097034
679.330139	708.847961	6516.497559	2805.745117	36.105782
679.659058	711.448547	6554.392090	2811.986572	35.950001
679.987976	717.764343	6609.599121	2827.812744	35.813091
680.316772	726.086121	6660.570313	2839.775635	35.617069
680.645630	733.665039	6702.774902	2858.277100	35.593449
680.974304	721.553711	6744.903809	2873.806396	35.731823
681.302979	722.148132	6786.884766	2877.298584	35.535763
681.631653	714.940735	6816.753906	2880.344971	35.487885
681.960266	726.903503	6817.126465	2887.180664	35.471230
682.288757	729.504089	6814.376953	2894.165283	35.574467
682.617249	732.179016	6811.479004	2893.645264	35.554527
682.945679	727.423645	6788.593750	2882.276611	35.551765
683.274109	721.851013	6745.646973	2865.484375	35.586086
683.602478	717.690002	6675.951172	2842.004883	35.653271
683.930725	718.730225	6604.694824	2817.039063	35.649361
684.259033	716.352539	6522.515625	2785.757568	35.641525
684.587280	719.176086	6449.029785	2742.364990	35.309612
684.915344	713.306152	6369.897949	2702.687256	35.169254
685.243469	720.810730	6290.914063	2673.412109	35.055027
685.571533	722.371094	6215.496582	2661.597900	35.302795
685.899536	726.532043	6146.097656	2645.474365	35.407681
686.227539	726.011902	6110.655762	2627.121338	35.306129
686.555420	726.011902	6097.801270	2617.016113	35.202499
686.883301	722.296814	6106.568848	2608.174316	35.025673
687.211121	714.643555	6103.521973	2610.774658	35.186005
687.538940	713.454773	6098.544434	2605.796631	35.140392
687.866638	711.299988	6085.986816	2598.589355	35.114403
688.194336	716.872742	6074.916504	2588.706787	34.935024
688.521973	722.073914	6063.696777	2570.874268	34.611210
688.849609	731.584656	6061.615723	2561.214844	34.326817
689.177063	725.194580	6040.959473	2540.930176	34.157562
689.504578	725.343201	5990.656250	2531.196533	34.297169
689.832031	721.925293	5913.084473	2504.670410	34.341946
690.159485	722.816895	5825.333496	2484.980225	34.535179
690.486816	722.891174	5738.250488	2452.286865	34.481991
690.814087	725.491882	5678.734375	2426.429688	34.339882
691.141296	730.321472	5609.855469	2391.433105	34.042419
691.468506	731.807434	5546.251953	2360.077148	33.820515
691.795715	726.977844	5465.262207	2344.845459	34.144588
692.122803	725.045959	5383.157715	2327.161133	34.394093
692.449829	716.946960	5324.606934	2311.186279	34.599758
692.776855	720.290588	5258.552246	2268.313477	34.110481
693.103821	717.467041	5209.066895	2241.936035	33.940449
693.430664	724.600098	5149.104492	2212.214844	33.622177
693.757568	724.525696	5097.018066	2192.747559	33.578606
694.084351	727.497864	5042.851563	2171.199951	33.455013
694.411133	721.107910	5009.192383	2169.787842	33.783848
694.737854	717.021301	4977.390625	2159.905518	33.867588
695.064575	716.055359	4962.381348	2151.361084	33.801117
695.391174	717.467102	4932.140137	2129.738770	33.508453
695.717773	712.786072	4925.230469	2118.816406	33.378014
696.044250	711.151367	4913.862305	2106.927979	33.211338
696.370789	711.745789	4944.549316	2111.088867	33.059483
696.697205	716.946960	4965.353516	2128.401367	33.223145
697.023621	723.857117	5022.863770	2143.039063	33.011856
697.349915	721.182190	5062.764160	2162.655029	33.201557
697.676208	719.250305	5146.652344	2180.635986	33.007751
698.002380	714.049133	5237.004395	2213.329346	33.148247
698.328674	713.231750	5344.817871	2237.849365	32.917831
698.654724	718.730225	5427.145020	2266.976074	32.882526
698.980896	723.114014	5529.533691	2295.136719	32.706730
699.306946	730.024231	5626.201660	2305.241943	32.172401
699.632935	729.949951	5707.414063	2322.034180	31.985851
699.958862	733.070618	5731.265625	2319.210938	31.734264
700.284729	728.315247	5709.644043	2334.294189	32.239975
700.610596	721.627930	5635.787109	2313.192383	32.387321
700.936340	718.061462	5555.688965	2293.056396	32.557175
701.262146	716.946838	5422.835938	2244.016357	32.450180
701.587830	718.507324	5306.477539	2207.905273	32.463112
701.913513	711.597168	5159.060547	2163.175049	32.638332
702.239075	713.083191	5042.776855	2110.568604	32.276772
702.564697	715.683838	4927.607422	2058.333984	31.877361
702.890137	719.770447	4798.840820	2007.956665	31.580389
703.215698	720.662109	4701.058594	1985.368774	31.773384
703.541016	721.107910	4582.397461	1948.960327	31.799025
703.866455	727.052063	4505.939941	1925.554810	31.715752
704.191711	725.194519	4428.812988	1887.289063	31.377274
704.517029	722.965515	4393.073730	1869.753540	31.246712
704.842163	716.501160	4342.399902	1856.007690	31.426874
705.167419	708.030579	4308.592285	1847.908691	31.658342
705.492493	700.303040	4269.508789	1834.831421	31.786575
705.817566	706.173035	4240.084473	1823.760254	31.624651
706.142578	716.501160	4201.224121	1820.788086	31.689373
706.467590	725.194580	4176.035645	1815.586914	31.597872
706.792480	715.089355	4152.333496	1808.899780	31.822308
707.117371	708.847961	4141.336426	1803.401367	31.888044
707.442200	717.095520	4140.370605	1798.943237	31.602709
707.766907	726.680603	4153.744629	1785.865845	30.906494
708.091675	730.395752	4149.955566	1779.995972	30.694016
708.416321	725.120300	4153.894043	1779.475952	30.750227
708.741028	724.228577	4153.299316	1787.203491	30.998919
709.065552	724.674500	4172.766602	1781.779297	30.657671
709.390137	723.262695	4182.797363	1779.104492	30.519764
709.714600	721.702393	4220.022949	1787.649048	30.470240
710.039063	721.479431	4259.552246	1803.401245	30.579412
710.363403	721.850891	4311.415039	1814.992554	30.453323
710.687744	719.993347	4344.405762	1803.772949	29.902214
711.012085	717.615662	4386.609375	1810.237305	29.779871
711.336304	723.336975	4416.999512	1826.806641	29.874676
711.660461	726.977844	4440.776367	1842.930298	30.048813
711.984619	730.692932	4464.553223	1839.512329	29.696325
712.308716	719.101746	4472.354980	1824.503296	29.451826
712.632751	713.974792	4479.190918	1835.648804	29.790430
712.956726	710.408386	4450.361816	1827.921265	29.880398
713.280701	721.925293	4407.637207	1818.633423	29.755667
713.604553	724.897278	4354.064941	1793.964844	29.457653
713.928467	734.853821	4300.418457	1777.915527	29.253761
714.252258	731.510254	4250.115234	1762.980591	29.314753
714.575989	728.166687	4205.385254	1747.599976	29.317493
714.899719	726.457703	4153.894043	1731.922241	29.335762
715.223267	718.358704	4111.243652	1715.798340	29.397980
715.546936	722.445313	4072.754883	1702.052368	29.239300
715.870422	715.906677	4046.526123	1703.166992	29.641943
716.193970	719.473206	4015.987549	1695.291016	29.601503
716.517395	715.089355	3987.306885	1684.739868	29.632826
716.840820	716.278259	3956.100342	1666.981445	29.344303
717.164124	715.683838	3933.066162	1653.235474	29.140200
717.487488	717.095520	3908.768799	1639.935425	28.913984
717.810730	714.940735	3889.821533	1634.288452	28.956921
718.133972	713.900574	3849.103760	1614.003784	28.709566
718.457092	714.494934	3797.835205	1580.121704	28.074318
718.780212	717.690002	3731.780029	1551.217896	27.654379
719.103210	719.844727	3678.505127	1543.193359	27.828426
719.426208	717.615662	3621.440430	1539.849609	28.315550
719.749207	710.928406	3579.979492	1522.908569	28.301350
720.072083	705.652893	3544.091064	1499.057251	27.952145
720.394958	704.538391	3510.729248	1478.847046	27.592871
720.717773	709.739563	3459.683350	1465.175415	27.470955
721.040527	715.906738	3421.639893	1457.745117	27.417278
721.363281	719.696106	3382.705811	1446.302368	27.285152
721.685913	714.346375	3352.835938	1437.906250	27.423262
722.008545	710.631165	3319.177002	1429.510132	27.558609
722.331055	707.807678	3288.341064	1427.355347	27.883678
722.653503	714.420654	3284.403076	1420.965210	27.492193
722.976013	725.194519	3272.737549	1410.785767	26.911861
723.298401	730.024231	3263.375732	1403.578491	26.587477
723.620789	731.361633	3236.477783	1403.132446	26.815954
723.943115	722.148132	3213.369873	1402.835327	27.323429
724.265381	723.634094	3210.026123	1407.887817	27.519945
724.587585	722.891113	3219.833984	1405.881836	27.353077
724.909790	722.668274	3236.775146	1402.538086	27.042200
725.231873	719.993347	3243.759766	1385.819946	26.382259
725.553894	719.324646	3228.081787	1373.188599	26.063263
725.875916	740.946716	3248.291992	1407.516479	26.584682
726.197937	742.209900	3249.778076	1422.599976	27.133463
726.519775	741.466797	3263.301025	1429.510132	27.283447
726.841675	721.999512	3247.251953	1393.473267	26.590361
727.163513	710.333984	3264.341797	1389.758179	26.602276
727.485291	713.826233	3300.155273	1389.460938	26.123308
727.806946	712.340149	3336.043701	1394.736328	26.008890
728.128662	720.736389	3359.225830	1394.364868	25.530838
728.450256	719.696106	3366.061768	1395.553711	25.539085
728.771790	720.439148	3356.996826	1395.627930	25.608725
729.093323	720.959290	3355.213623	1390.278198	25.408287
729.414795	724.525818	3347.634766	1392.581543	25.468090
729.736145	720.885010	3361.157959	1401.795044	25.789381
730.057495	716.203918	3354.767822	1401.200684	25.960968
730.378845	711.002747	3367.696533	1400.160522	25.940430
730.700134	710.779846	3367.028076	1395.107910	25.762955
731.021301	709.516785	3378.173096	1403.652710	26.010691
731.342468	706.024414	3359.449219	1397.782837	26.070398
731.663574	715.089355	3351.944336	1393.696167	25.735462
731.984680	724.525818	3346.074219	1385.448608	25.211163
732.305664	725.863281	3356.848389	1384.259766	25.024714
732.626648	712.785950	3380.179443	1375.789063	24.855841
732.947571	709.739563	3390.656250	1378.166626	24.932779
733.268433	707.213318	3383.820313	1379.504272	25.117283
733.589233	719.844727	3359.968994	1377.572632	24.912764
733.909973	719.324646	3335.003174	1364.569580	24.668358
734.230713	725.343079	3323.783936	1351.566528	24.099968
734.551331	719.770508	3283.808594	1347.405518	24.478380
734.871948	719.101746	3245.096924	1338.340454	24.514645
735.192505	714.049133	3199.103516	1331.430542	24.843779
735.513062	709.739563	3152.441406	1317.238647	24.869965
735.833435	711.225647	3111.575195	1310.031250	24.946600
736.153931	710.854187	3066.621826	1300.594727	25.033901
736.474304	707.064636	3047.005859	1290.638306	24.939672
736.794617	705.727234	3020.256836	1274.068726	24.555378
737.114807	711.671387	3007.774170	1265.003906	24.098770
737.434998	723.411316	2992.096436	1256.384766	23.492615
737.755188	724.897278	2975.972656	1252.372437	23.432140
738.075256	718.507324	2978.424561	1249.920532	23.514719
738.395325	719.621887	2991.575928	1253.486938	23.498056
738.715271	715.089355	3013.123779	1261.734497	23.787508
739.035278	721.479431	3024.195068	1266.489868	23.668161
739.355164	719.696106	3024.715088	1265.375366	23.673525
739.675049	728.909668	3024.269531	1259.579712	23.119253
739.994873	721.702332	3018.696533	1253.784180	23.164267
740.314636	714.569275	2997.000244	1249.697632	23.445545
740.634277	704.389709	2993.062500	1239.889526	23.397831
740.953979	707.287598	2976.343994	1236.397217	23.318487
741.273499	712.265869	2955.910889	1228.001099	22.986490
741.593140	711.894348	2918.239502	1231.121704	23.533369
741.912598	709.962463	2874.103516	1226.366333	23.861839
742.232117	711.522888	2832.865479	1224.583130	24.185638
742.551453	719.919128	2800.841064	1206.899048	23.402124
742.870850	729.058350	2769.336670	1187.431763	22.466219
743.190063	723.634216	2739.912842	1167.815918	22.029779
743.509338	720.959290	2709.374512	1159.716797	22.065687
743.828552	718.804504	2686.117432	1150.280396	21.932245
744.147705	719.176025	2666.576172	1141.587036	21.691023
744.466797	720.587708	2638.266602	1141.215454	21.934212
744.785828	721.553711	2620.656982	1137.946167	21.925741
745.104858	732.401855	2606.910889	1137.574707	21.614878
745.423706	732.847717	2599.480957	1134.008057	21.491117
745.742615	731.064453	2582.985596	1127.097900	21.385006
746.061401	724.525818	2576.892822	1123.531372	21.540308
746.380249	715.758118	2561.289063	1108.225220	21.265810
746.698975	717.021240	2550.738037	1110.974365	21.483858
747.017639	717.392822	2531.939453	1107.482056	21.497890
747.336304	724.525818	2514.626953	1111.940308	21.642046
747.654907	717.541321	2506.750977	1101.760742	21.474253
747.973389	710.854065	2507.270996	1104.138428	21.892710
748.291931	710.185364	2525.697998	1101.463501	21.551937
748.610352	720.885010	2534.317139	1100.794800	20.949766
748.928711	730.024231	2545.314209	1094.627686	20.085135
749.247070	729.578430	2540.930420	1092.695923	20.046764
749.565308	715.758118	2533.797119	1091.804199	20.684158
749.883545	710.482666	2520.868408	1087.940430	20.849577
750.201782	708.847961	2501.698242	1090.466675	21.285587
750.519836	716.649719	2493.450684	1086.900269	20.838043
750.837952	717.838562	2474.428955	1083.630859	20.823996
751.155884	710.928406	2468.484863	1080.733032	21.040840
751.473877	703.423828	2453.252686	1081.550415	21.609346
751.791809	705.429993	2444.410889	1082.813477	21.701416
752.109619	714.866455	2443.742432	1078.949829	21.058964
752.427490	724.228577	2435.940674	1070.702271	20.241352
752.745300	729.206848	2444.708252	1071.296631	19.941095
753.062988	725.045959	2425.983643	1063.717773	19.910889
753.380615	720.364929	2425.909424	1066.169678	20.275330
753.698303	716.278259	2410.157471	1060.225464	20.305298
754.015808	722.073914	2407.631104	1062.751831	20.211592
754.333374	718.953125	2399.086182	1060.299805	20.316647
754.650757	715.163635	2397.897461	1062.083130	20.616421
754.968262	715.832336	2408.522461	1055.470093	20.064968
755.285583	724.377258	2414.541260	1051.383423	19.347599
755.602905	727.423645	2410.751709	1034.813965	18.260868
755.920105	722.371033	2388.906738	1036.077026	18.823839
756.237305	718.135742	2379.990479	1037.340210	19.207724
756.554443	712.934570	2373.006104	1046.553711	20.096672
756.871582	717.689941	2366.170166	1039.718018	19.534845
757.188599	710.705566	2367.879150	1039.346436	19.831409
757.505615	707.510559	2374.863525	1040.683960	19.982176
757.822510	709.145203	2390.244141	1053.761230	20.499451
758.139465	720.885010	2391.061768	1048.114258	19.592491
758.456238	728.761047	2398.046143	1038.677734	18.565832
758.773010	720.290588	2424.646484	1032.733521	18.332024
759.089783	718.581604	2436.832031	1043.730347	18.923244
759.406433	718.210144	2455.333252	1048.411377	19.008511
759.723145	719.993347	2462.912109	1045.662231	18.685259
760.039673	717.169861	2471.308594	1042.392944	18.540329
760.356201	720.141907	2465.735596	1041.649902	18.418261
760.672668	719.027405	2453.995850	1046.182251	18.856529
760.989136	711.374268	2453.550293	1044.027466	19.094122
761.305481	706.024475	2457.488525	1042.244263	19.196499
761.621826	710.334045	2468.336670	1040.312378	18.770069
761.938049	721.033630	2479.853271	1046.033569	18.478298
762.254333	718.432922	2500.732422	1050.194702	18.614254
762.570496	722.891113	2536.175049	1054.058350	18.263397
762.886597	717.169922	2614.341309	1058.962402	18.015900
763.202637	724.377258	2742.216064	1083.556519	17.800196
763.518677	717.169861	2898.400391	1116.249756	18.296091
763.834656	724.748779	3045.668701	1140.621094	17.918427
764.150574	720.959290	3164.181641	1155.778809	17.796968
764.466370	719.993408	3228.899170	1154.589966	17.322155
764.782288	715.981018	3261.740967	1158.156494	17.369095
765.097961	715.758118	3220.502686	1145.079224	17.140314
765.413696	719.250305	3165.072510	1133.710815	16.945652
765.729309	719.547546	3077.767334	1126.280640	17.247463
766.044861	725.120300	2975.675049	1113.946411	17.276901
766.360474	720.810730	2841.781982	1093.513184	17.572254
766.675903	711.671448	2682.699707	1063.049072	17.827122
766.991394	708.699402	2573.623291	1046.776733	18.128212
767.306763	710.482605	2480.001953	1028.572632	17.976070
767.622131	718.730225	2431.259033	1012.226074	17.138155
767.937378	717.318542	2362.677979	1002.418030	17.327490
768.252625	721.033630	2322.703125	990.901062	16.849134
768.567810	726.606262	2265.861572	984.585266	16.759987
768.882996	721.999512	2230.864990	969.130371	16.378588
769.197998	718.581604	2184.499756	964.895203	16.802683
769.513062	708.104919	2158.568359	955.607239	17.063673
769.828064	710.036804	2121.788330	957.093323	17.500000
770.142944	708.253479	2093.330322	953.972656	17.740471
770.457825	716.649719	2069.330566	955.161438	17.632519
770.772705	716.129639	2039.015137	937.031555	16.698490
771.087402	715.460938	2017.541870	929.378418	16.428892
771.402100	709.591003	1988.860962	917.564270	16.257183
771.716736	712.860291	1974.669312	917.118469	16.187725
772.031372	719.547546	1962.409180	915.632507	15.776895
772.345947	720.439209	1947.474243	916.821289	16.004602
772.660461	718.804626	1946.062622	915.112305	15.995631
772.974854	718.656006	1934.396973	913.254700	16.006592
773.289246	717.169922	1922.731445	908.276428	15.852074
773.603638	714.717957	1908.242188	906.864685	16.099106
773.917908	713.008972	1884.242554	906.790344	16.545065
774.232178	716.872620	1872.651367	903.966858	16.187719
774.546265	721.776672	1858.088013	903.075256	15.955010
774.860474	721.702332	1851.995239	893.044373	15.159082
775.174561	726.383484	1830.818970	884.871094	14.350101
775.488586	722.891174	1821.531250	881.601746	14.446093
775.802551	719.027527	1817.221680	889.180664	15.493904
776.116516	713.231750	1811.277466	892.227112	16.301268
776.430359	712.711670	1799.389038	898.840088	17.128214
776.744202	715.683838	1785.643066	889.403625	16.236113
777.057922	716.872620	1768.553345	893.936096	16.836239
777.371704	711.671448	1754.138672	890.146667	17.120462
777.685303	715.609558	1742.473267	887.397400	16.729370
777.998962	716.426758	1750.943726	882.196106	16.023840
778.312500	726.829285	1748.788940	870.382019	14.046810
778.626038	720.885010	1747.897095	872.388245	14.751845
778.939453	717.615723	1745.890991	873.948669	15.203414
779.252869	717.244141	1750.572144	883.756592	16.114191
779.566223	718.433044	1745.965332	884.276672	16.139994
779.879578	715.089355	1740.764160	881.230225	16.198202
780.192749	716.426819	1722.634277	872.685364	15.529456
780.505920	715.535156	1724.343262	866.518311	14.966489
780.819031	717.912903	1715.501099	867.484192	14.993290
781.132141	721.256531	1722.634277	873.502747	15.203674
781.445190	726.457703	1711.117310	874.617371	15.046790
781.758118	723.336975	1708.739624	869.713379	14.854476
782.071045	711.820068	1683.922485	859.013855	15.141798
782.383911	700.748962	1670.102173	856.413269	16.058575
782.696838	703.275208	1651.452148	850.023132	15.476851
783.009583	713.528992	1649.297485	847.051086	14.268710
783.322266	719.250305	1628.641235	848.685730	14.233199
783.634888	725.566101	1625.074829	853.738281	14.249131
783.947510	723.559875	1621.285522	855.595764	14.707822
784.260132	733.665039	1621.359741	857.453430	13.944928
784.572571	726.011902	1611.403320	853.366760	14.384018
784.885010	726.011902	1593.496216	854.481262	14.809416
785.197449	717.690002	1584.282715	848.091248	15.047582
785.509766	724.451599	1581.161987	839.843689	13.469206
785.822083	730.172852	1580.344727	832.859192	12.078303
786.134277	733.219238	1586.214478	835.757019	12.020909
786.446533	726.011902	1581.310547	841.552551	13.508808
786.758606	721.405090	1577.372437	846.828064	14.652776
787.070740	717.392761	1579.898804	841.180969	14.352156
787.382690	724.005676	1587.403320	844.004578	13.898452
787.694641	721.033508	1602.784058	840.363770	13.533336
788.006653	725.863281	1618.536133	841.924133	13.001499
788.318481	725.194519	1643.798950	839.100647	12.399911
788.630310	727.572266	1665.495483	839.397766	11.922671
788.942017	724.451477	1688.677856	844.301758	12.429683
789.253784	725.714661	1694.473511	847.273926	12.547938
789.565430	720.216309	1697.519897	850.097412	13.289740
789.877014	721.776611	1685.928711	846.753845	12.962399
790.188538	717.021240	1678.126953	842.815735	13.088518
790.500061	719.770447	1660.517212	839.843567	12.763597
790.811462	709.962463	1640.529907	831.224548	13.030983
791.122925	715.386536	1615.341187	826.469238	12.343144
791.434204	710.556885	1592.530273	829.664246	13.504643
791.745483	722.668274	1582.053589	829.069824	12.381123
792.056702	727.126465	1564.295288	826.171936	11.831003
792.367920	733.665039	1549.508911	822.679688	10.910746
792.678955	725.120300	1527.218140	823.348450	12.246405
792.990112	721.033508	1518.078735	831.596130	13.871562
793.301086	713.974854	1512.952026	829.069824	14.405289
793.612122	720.290527	1512.357422	827.286438	13.508444
793.922974	708.699402	1498.091431	822.828369	14.457831
794.233826	711.894348	1486.871704	813.614807	13.125604
794.544556	712.340149	1474.537476	812.871765	13.189710
794.855286	721.999512	1473.720215	812.946045	12.098447
795.166016	728.538269	1487.763306	818.295898	11.822269
795.476624	732.253235	1491.329956	821.565186	11.765866
795.787292	733.442139	1509.831421	813.317566	10.288064
796.097778	727.497864	1518.375977	811.905823	10.672688
796.408264	723.336914	1544.679321	810.122559	10.566318
796.718689	717.318542	1553.372681	817.329895	11.962306
797.029053	720.513489	1560.728516	814.952209	11.239827
797.339355	720.959290	1547.428345	809.602478	10.725531
797.649658	718.581726	1541.335571	809.156677	11.008755
797.959839	717.615723	1527.515503	807.299072	11.073388
798.270020	719.176086	1512.134766	806.110291	10.963270
798.580078	733.293518	1491.775757	803.881165	9.306434
798.890137	729.132629	1475.800659	808.265076	10.598076
799.200195	729.058289	1470.673828	809.973938	10.910728
799.510071	721.182190	1458.636719	811.385742	12.231745
799.820007	726.234802	1450.760620	815.769592	12.357709
800.129883	721.405090	1441.324219	814.803650	12.973479
800.439575	718.507324	1439.243774	810.939941	12.824746
800.749329	707.882019	1431.664673	804.401306	13.335397
801.058960	708.996582	1429.807251	805.664368	13.410981
801.368591	713.826233	1427.949707	808.710754	13.286851
801.678162	723.485596	1425.869141	810.345459	12.366444
801.987671	718.061523	1418.513184	805.887207	12.538436
802.297119	704.909912	1414.352173	806.853210	14.369499
802.606506	706.618835	1405.361694	800.388855	13.419818
802.915894	707.436096	1403.727051	802.915222	13.712533
803.225159	716.723938	1384.036743	790.729553	11.090094
803.534424	716.055359	1383.145142	788.426086	10.848723
803.843628	717.912842	1373.560181	787.014404	10.539441
804.152771	723.114014	1384.408325	790.803772	10.235950
804.461792	721.182190	1389.906616	789.094910	10.155561
804.770874	723.634216	1396.816772	784.859619	9.094918
805.079773	717.169922	1398.897339	784.190918	9.831055
805.388733	718.061462	1399.566040	788.426208	10.324912
805.697571	720.439209	1409.596802	792.661438	10.479784
806.006470	727.349304	1420.370728	793.033020	9.477877
806.315125	720.513489	1426.686523	794.964844	10.542933
806.623901	715.535217	1425.274902	798.308533	11.662489
806.932495	712.488770	1413.980835	801.429199	12.678751
807.241150	717.987122	1408.482422	801.057617	12.030566
807.549622	726.160461	1406.550415	801.206238	11.029819
807.858154	730.247131	1410.339844	803.881165	10.827058
808.166565	729.429871	1409.894165	795.262024	9.674593
808.474915	720.439270	1392.135742	789.392090	10.265473
808.783264	718.210144	1379.875854	785.899902	10.230205
809.091492	713.306152	1368.358887	790.135071	11.728662
809.399719	714.792236	1360.780029	790.506653	11.720719
809.707825	714.569336	1360.928589	780.995911	10.277037
810.015930	718.878845	1350.303345	776.463440	9.119791
810.323975	721.107910	1346.588257	775.571838	8.707537
810.632080	719.993347	1329.647095	779.732849	9.798923
810.939880	715.460938	1319.319092	783.670837	11.295683
811.247864	712.860352	1312.186035	778.618225	10.971976
811.555664	707.584778	1310.625610	778.841064	11.816163
811.863464	714.643555	1304.087036	771.633728	9.668471
812.171143	718.878906	1301.486450	766.135315	8.111191
812.478882	723.039795	1296.285278	762.048767	6.804933
812.786438	724.377258	1288.929321	766.952698	7.541455
813.094055	724.525696	1282.390625	773.194153	8.724057
813.401489	717.987122	1280.087280	774.531555	10.059494
813.708984	722.371094	1282.613647	776.240540	9.615379
814.016357	724.525879	1280.384644	778.543945	9.717948
814.323730	727.943665	1282.539185	780.475769	9.472147
814.630981	719.324646	1278.452637	777.355042	10.378732
814.938232	709.367981	1282.539185	778.246582	12.017108
815.245361	715.237976	1278.675537	780.847229	11.644459
815.552490	710.111084	1279.344238	777.875183	11.904454
815.859619	719.324646	1278.526978	776.166199	10.164756
816.166565	717.169861	1284.099609	772.599609	9.777182
816.473572	715.683838	1291.752930	777.577942	10.744215
816.780457	714.569275	1289.820923	767.844299	9.261168
817.087341	710.111084	1285.362671	764.575012	9.467845
817.394043	724.080017	1292.347168	763.460449	6.929915
817.700806	723.708496	1305.127319	773.639893	8.587853
818.007507	722.519714	1323.628662	777.355042	9.122361
818.314209	715.386536	1320.285034	777.355042	10.244447
818.620667	715.832336	1324.148804	777.355042	10.113602
818.927246	726.086182	1331.133301	777.875183	8.559499
819.233704	728.092346	1357.362183	782.927734	8.714129
819.540161	732.179016	1381.064819	784.042297	7.992667
819.846497	722.965515	1415.764038	784.042297	8.815951
820.152832	718.953125	1467.255859	785.454102	8.886909
820.458984	708.104919	1529.521484	787.757507	9.696979
820.765259	703.869629	1608.282227	792.215637	9.768331
821.071350	709.962463	1701.383667	800.983337	9.180848
821.377502	715.015137	1874.880371	820.896423	9.128757
821.683472	722.371094	2179.150146	849.874512	8.752419
821.989441	717.615723	2698.526123	892.375671	8.822204
822.295349	712.117249	3419.188477	946.765320	8.667968
822.601196	704.761230	4226.858887	1005.687439	8.543948
822.907043	708.996582	4913.564941	1051.383667	8.143216
823.212769	719.547546	5311.307129	1080.584595	7.862716
823.518494	729.949951	5376.767578	1078.206787	7.494524
823.824097	724.377197	5150.292969	1054.355591	7.455595
824.129700	717.838562	4780.488281	1022.182556	7.491269
824.435242	718.284363	4381.185547	994.690491	7.546099
824.740723	722.445313	4044.000000	974.331543	7.583384
825.046082	723.559875	3720.708740	948.845703	7.516671
825.351501	719.621826	3379.659424	933.762268	8.050279
825.656799	705.578613	3046.337158	909.688171	8.719804
825.962036	706.395996	2747.343506	883.607971	8.682829
826.267212	708.327820	2538.329590	858.345032	8.197654
826.572449	717.912903	2416.696045	847.645447	7.636792
826.877502	715.312317	2428.658936	851.286316	7.936164
827.182495	709.888184	2534.466064	857.007507	8.063198
827.487488	714.792175	2682.254150	868.524475	7.813737
827.792419	712.711670	2785.683350	881.378845	8.136492
828.097290	711.671448	2812.135010	889.403564	8.461566
828.402100	705.727234	2742.959229	883.013489	8.702311
828.706848	713.306152	2613.152344	876.549255	8.592438
829.011597	720.662109	2439.135498	865.403809	8.422690
829.316223	718.284363	2281.019287	850.617615	8.468056
829.620789	716.946960	2128.327148	832.264832	8.170575
829.925354	713.083191	2016.798706	811.088440	7.517380
830.229797	716.055359	1893.307617	805.887390	7.630653
830.534302	711.671448	1780.664673	800.166016	8.278310
830.838562	711.002747	1644.096313	797.119568	9.229174
831.142944	716.724121	1537.471802	784.859680	8.301645
831.447144	711.671448	1452.692383	773.639954	8.362585
831.751404	714.940857	1403.949829	769.033203	7.850746
832.055542	713.380371	1375.937866	776.760742	9.566018
832.359619	719.844788	1371.182495	774.234375	8.350444
832.663635	719.176025	1372.817017	772.674011	8.184613
832.967651	722.593933	1410.785767	772.302551	7.223076
833.271545	720.884949	1474.314575	774.531555	7.120321
833.575439	713.008972	1583.985352	786.494324	8.437123
833.879211	705.875916	1701.903687	793.553040	8.802679
834.183044	711.002747	1831.190430	803.881165	8.291326
834.486694	712.711731	1921.839844	807.967773	7.878077
834.790344	719.770508	1964.043823	807.893555	7.082290
835.093933	717.021240	1939.449585	801.726379	6.929252
835.397522	721.107910	1887.066284	792.141296	6.092275
835.700928	714.123474	1820.045288	785.454102	6.449880
836.004395	707.138977	1749.903320	790.729553	8.016248
836.307739	712.934570	1681.619141	788.649109	7.816222
836.611023	721.628113	1608.579590	782.407715	6.852641
836.914307	729.801270	1540.592651	779.063965	6.075878
837.217529	726.160461	1473.942993	774.605774	6.478529
837.520691	715.312256	1398.600220	775.571777	8.819052
837.823730	715.683838	1332.396484	767.695740	8.433734
838.126831	713.529053	1268.050293	757.887756	7.999460
838.429749	717.392761	1226.143677	751.646423	6.732894
838.732727	713.603333	1189.066528	743.547363	6.297865
839.035522	716.724060	1175.246094	747.708252	6.757405
839.338379	716.278259	1171.456665	754.172607	8.325164
839.641113	715.832458	1184.682495	750.457458	7.385091
839.943848	712.042969	1198.057129	757.590576	9.371663
840.246460	716.129639	1236.546021	739.757874	4.540256
840.549072	714.792175	1254.824463	750.234558	6.563012
840.851563	715.015137	1269.759277	738.717590	4.272682
841.154053	710.185364	1258.242310	755.212891	8.215848
841.456482	713.231750	1246.725464	748.599915	6.629537
841.758850	717.392761	1235.654175	752.612305	6.795710
842.061157	719.844727	1206.453247	743.027283	4.764108
842.363403	717.615723	1183.939453	748.674255	6.660294
842.665588	717.541321	1151.469360	751.349121	7.791108
842.967712	724.748718	1139.655151	755.361511	7.378240
843.269775	731.064453	1122.788452	758.556458	7.018208
843.571777	724.823059	1099.308838	752.686523	7.440460
843.873840	717.689941	1080.435913	752.166504	9.504327
844.175659	710.259766	1064.683716	747.782654	10.587007
844.477600	714.643555	1056.287476	750.531738	10.504558
844.779297	718.061523	1045.662231	744.438965	8.051704
845.081116	721.925232	1041.501343	737.528809	4.882586
845.382751	722.965515	1032.064819	732.030457	2.932695
845.684387	714.197754	1010.071289	731.658936	5.901569
845.985962	718.655945	987.706055	736.562927	6.655631
846.287537	714.049133	984.213867	734.556702	7.590765
846.588989	714.272034	990.083679	739.089172	8.997857
846.890381	712.117371	997.588379	746.073669	11.894833
847.191711	717.838562	992.090027	754.395508	13.329718
847.493042	725.268860	982.356262	748.897156	9.190763
847.794250	728.463867	979.012695	740.872375	4.952531
848.095459	729.578430	975.520325	739.237793	3.927498
848.396606	730.841553	980.795959	747.633972	6.718193
848.697693	723.485596	979.161316	745.107666	8.456834
848.998657	720.810730	973.960144	746.296570	10.067509
849.299622	717.467102	961.774414	741.169617	9.701926
849.600464	718.730164	953.303894	743.770203	10.674699
849.901367	715.980957	958.282227	736.785828	8.586365
850.202087	716.055359	966.083984	740.649475	9.836520
850.502808	716.649719	954.269836	740.426575	10.006247
850.803467	716.724121	942.158508	740.055115	10.349350
851.104065	720.810730	936.883057	735.596924	6.843169
851.404663	725.120300	947.136780	728.463867	1.505999
851.705139	721.479492	944.536133	731.361633	4.430328
852.005615	717.318542	949.440125	732.253235	6.433996
852.306030	710.185364	952.189392	733.516418	9.640771
852.606384	716.798340	954.121277	729.578369	5.385080
852.906616	710.928406	946.096619	724.897400	5.940001
853.206909	709.219482	939.632324	722.668213	5.836797
853.506958	715.163757	945.279297	725.491699	4.488155
853.807129	721.107910	946.245117	720.662109	-0.198013
854.107178	723.708496	940.672424	723.708496	0.000000
854.407166	717.615723	936.585754	728.612488	5.022041
854.707092	713.157532	933.465149	732.624817	8.836411
855.007019	706.024414	934.356689	732.773438	11.714955
855.306763	705.281433	932.573425	726.309082	9.251381
855.606567	709.219421	927.669434	734.036621	11.360585
855.906250	714.643555	928.040955	730.618652	7.486079
856.205933	719.250305	930.270020	730.247253	5.211337
856.505493	718.581604	931.904724	731.138855	5.886493
856.805054	719.993347	940.895325	739.014893	8.610853
857.104492	716.203918	937.774658	738.346130	9.993293
857.403931	723.857117	940.226746	732.179016	3.846149
857.703308	724.154297	933.465149	725.268860	0.532492
858.002563	719.993347	934.802551	724.080078	1.902493
858.301819	711.894348	932.127686	722.222473	4.689628
858.601013	715.163757	938.220520	722.816895	3.431027
858.900208	712.860291	942.009949	724.377197	5.025932
859.199219	713.083252	942.975830	731.287354	7.918525
859.498291	706.247375	939.334961	733.219238	11.571557
859.797302	708.476379	933.093567	739.163513	13.661970
860.096191	707.436218	935.174072	737.008728	12.985329
860.395020	708.625061	929.229797	734.482422	11.721127
860.693787	709.442383	926.703552	735.819824	12.140891
860.992554	706.470215	917.415710	738.271790	15.075730
861.291260	706.841797	918.010071	736.117004	13.863450
861.589844	706.470215	926.554993	731.435974	11.343701
861.888428	713.231873	931.756165	730.470032	7.888441
862.186890	715.386536	931.681824	738.643372	10.752355
862.485413	716.129578	925.440369	736.637207	9.797693
862.783813	714.643555	923.508545	735.225403	9.854140
863.082153	719.250305	922.171082	730.618652	5.602357
863.380371	722.519592	920.833679	726.160461	1.835910
863.678589	718.210144	916.375488	719.844727	0.824858
863.976746	711.968689	924.251465	726.531982	6.860327
864.274902	709.219482	924.548645	734.482361	11.732214
864.572937	716.203918	937.477356	740.649414	11.047641
864.870911	722.816833	933.316406	730.767273	3.776938
865.168884	726.383484	932.127625	730.172852	1.841786
865.466736	719.919128	925.068848	728.389587	4.128916
865.764587	715.386536	919.719055	731.584656	7.927333
866.062317	714.643555	916.078308	731.436035	8.336436
866.360107	721.479431	916.078308	727.052185	2.863713
866.657715	727.572266	915.781067	727.200745	-0.197398
866.955322	721.999512	924.697327	729.281250	3.592411
867.252808	723.411316	927.372253	734.556641	5.464441
867.550293	721.107910	933.316467	733.813660	5.987388
867.847717	727.795166	931.161804	734.259521	3.178671
868.145081	718.433044	929.824280	729.949890	5.448119
868.442383	710.482605	922.914063	735.299744	11.682422
868.739624	709.739563	919.719055	732.253235	10.721843
869.036804	715.683838	919.050293	741.021057	12.458898
869.333984	716.055359	931.458923	738.420410	10.382860
869.631042	712.786072	933.836609	735.225403	10.151222
869.928101	708.402100	936.660156	731.881775	10.286461
870.224976	710.333984	925.514648	723.559875	6.146412
870.521851	707.956299	928.189514	725.417480	7.928496
870.818726	713.751953	925.440430	723.114075	4.422594
871.115479	719.324707	927.372314	732.327637	6.249978
871.412231	728.686829	924.548767	740.872375	6.221498
871.708862	729.727051	939.186340	735.225403	2.625022
872.005493	729.206848	940.003723	730.841553	0.775488
872.302063	727.126465	949.663086	730.767273	1.636049
872.598572	723.782776	948.548584	732.253357	3.768625
872.895020	722.742615	955.161438	732.624817	4.251894
873.191406	720.216309	954.492737	724.079895	1.649157
873.487671	726.829163	948.548523	724.971619	-0.837791
873.783997	731.956055	957.390564	732.104675	0.065926
874.080200	732.847839	953.749695	729.206970	-1.648184
874.376343	728.835449	949.588684	730.692932	0.841430
874.672424	719.324646	947.211121	728.686768	4.108239
874.968445	719.176025	952.560852	728.315247	3.915945
875.264465	719.398926	950.777649	730.544373	4.816971
875.560364	718.284363	948.251282	728.612488	4.491135
875.856201	716.203918	942.307129	730.024231	6.112391
876.152039	715.237976	947.656921	730.915833	6.745516
876.447754	719.101807	940.226624	733.219238	6.384372
876.743469	716.649719	942.009949	735.671204	8.440479
877.039063	714.643555	944.090332	730.470032	6.897668
877.334595	712.042969	947.805481	727.943787	6.744421
877.630127	720.364929	954.567078	741.095398	8.851528
877.925537	715.758118	956.276062	744.959167	12.140903
878.221008	709.739563	962.740417	737.083008	10.807650
878.516296	703.572449	967.792969	724.674377	7.986484
878.811646	703.126648	969.873352	728.018066	9.331481
879.106812	709.962463	982.281982	728.463867	6.794006
879.401978	708.104980	992.758606	720.885010	4.489677
879.697083	706.618835	1011.482971	716.724121	3.314685
879.992126	714.123474	1031.321777	718.730225	1.452325
880.287109	718.804504	1068.324585	727.126465	2.380968
880.582031	723.485535	1127.172363	731.658875	2.024673
880.876892	723.857117	1245.982300	739.683594	3.031165
881.171753	725.789063	1456.704712	748.971436	3.171689
881.466492	728.835449	1768.330444	752.612305	2.287347
881.761230	724.823059	2140.661377	769.701904	3.169772
882.055786	723.262695	2499.469482	773.119812	2.806943
882.350403	725.937561	2761.980469	786.048523	2.952343
882.644958	723.708496	2859.688721	789.243591	3.068151
882.939453	723.857117	2834.054443	796.079346	3.422534
883.233826	719.621826	2734.339844	798.011230	3.890837
883.528137	715.089355	2619.616455	790.283691	3.948189
883.822449	709.813904	2497.908936	783.819336	4.138786
884.116577	713.157532	2376.869873	774.605896	3.693449
884.410828	716.203918	2248.697754	767.472839	3.345457
884.704956	719.547546	2088.426758	761.677246	3.077678
884.999023	715.980957	1902.001343	756.030273	3.376781
885.292969	721.256531	1717.730347	753.503906	3.236149
885.586914	719.324646	1547.428345	750.457520	3.759538
885.880798	721.033630	1418.067383	745.107727	3.453792
886.174622	717.169922	1320.953735	743.324402	4.331762
886.468384	716.649719	1256.979126	743.027161	4.881733
886.762085	714.420654	1215.741089	736.414307	4.387145
887.055664	720.290527	1175.691895	736.934387	3.654767
887.349304	721.107910	1143.072998	731.956116	2.570878
887.642822	723.708496	1109.933960	743.770264	5.194315
887.936340	718.804504	1087.866089	735.596924	4.550032
888.229736	719.250305	1064.015015	737.380188	5.258625
888.523071	719.176025	1043.656006	728.538147	2.885269
888.816284	725.789001	1029.464111	741.912659	5.309509
889.109619	722.371033	1011.928711	742.284180	6.877092
889.402710	719.621826	994.690430	736.860107	6.266902
889.695862	709.516785	976.857849	720.142029	3.974415
889.988892	713.083252	972.251160	717.987244	1.892206
890.281921	716.649780	969.204712	730.692993	5.560459
>>>>>End Processed Spectral Data<<<<<
