Jaz Data File
++++++++++++++++++++++++++++++++++++
Date: Fri Jun 04 16:57:45 2021
User: jaz
Dark Spectrum Present: Yes
Reference Spectrum Present: Yes
Processed Spectrum Present: Yes
Spectrometers: JAZA3586
Integration Time (usec): 24100 (JAZA3586)
Spectra Averaged: 10 (JAZA3586)
Boxcar Smoothing: 1 (JAZA3586)
Correct for Electrical Dark: No (JAZA3586)
Strobe/Lamp Enabled: Yes (JAZA3586)
Correct for Detector Non-linearity: No (JAZA3586)
Correct for Stray Light: No (JAZA3586)
Number of Pixels in Processed Spectrum: 2048
>>>>>Begin Processed Spectral Data<<<<<
W	D	R	S	P
191.335022	0.000000	0.000000	0.000000	0.000000
191.713211	231.750168	230.487076	231.527283	17.645992
192.091385	464.689209	467.364166	462.831635	-69.443146
192.469528	703.795410	704.909973	693.541565	-919.987976
192.847641	708.996582	712.340149	701.863525	-213.336746
193.225739	713.974854	721.850891	718.953125	63.207817
193.603790	717.392822	729.429871	729.875671	103.703575
193.981842	725.045959	740.055176	728.389587	22.277164
194.359863	737.974609	736.934387	722.445374	1492.876831
194.737854	747.708252	733.293640	722.296692	176.290283
195.115829	752.315125	732.699219	724.897278	139.773544
195.493774	749.788757	734.259521	727.126465	145.933075
195.871704	748.377014	739.906494	729.875671	218.420395
196.249603	748.005554	740.203674	740.500916	96.190132
196.627457	749.714417	744.290344	738.346130	209.589508
197.005310	746.816711	745.924988	742.730042	458.288849
197.383133	747.931213	747.782532	735.151123	8595.607422
197.760910	747.039551	745.850769	739.163391	662.540405
198.138687	748.674255	741.764099	733.293518	222.581619
198.516449	749.268616	737.603088	736.117004	112.739105
198.894180	746.965149	734.482422	735.448425	92.261276
199.271866	744.884766	737.900391	732.922058	171.278137
199.649536	743.250183	736.934387	735.151062	128.235947
200.027191	745.627747	734.482422	728.761047	151.334305
200.404816	744.884766	732.179016	729.578430	120.467789
200.782410	740.872375	747.708313	728.761047	-177.171432
201.159988	739.312073	758.333557	737.825989	-7.812660
201.537537	734.556702	767.621399	739.163513	13.932719
201.915070	731.213074	765.095032	738.197510	20.614027
202.292557	724.005676	764.723572	740.723816	41.058456
202.670029	717.987305	765.466614	752.017822	71.674416
203.047485	717.021301	764.426331	753.801086	77.586250
203.424911	717.169922	765.243713	748.822754	65.842178
203.802292	721.628113	761.157043	748.674255	68.421135
204.179688	721.256531	755.510071	746.445129	73.535751
204.557037	730.915833	760.414063	751.497742	69.773369
204.934357	729.875671	756.847473	744.587585	54.545536
205.311661	731.584656	763.609131	746.816650	47.563602
205.688934	719.770447	756.104492	737.380188	48.466228
206.066177	718.210144	767.027039	731.658875	27.549335
206.443390	713.083191	763.311829	729.578430	32.840309
206.820587	712.414490	766.506836	725.937561	24.999971
207.197769	702.606445	753.206726	734.556641	63.142326
207.574921	699.634338	752.092102	738.123230	73.371201
207.952042	708.327820	747.039551	743.027161	89.635208
208.329147	725.120300	753.801086	735.374084	35.751404
208.706223	742.061218	765.318054	731.287415	-46.325321
209.083267	738.271790	769.256042	737.008606	-4.076857
209.460297	734.853943	770.221985	734.110840	-2.101058
209.837280	722.891174	754.692688	731.510254	27.102734
210.214264	717.764343	755.064209	730.767273	34.860527
210.591217	715.906738	754.841309	738.643372	58.397030
210.968124	721.107971	762.345886	737.677429	40.180153
211.345016	727.126465	763.386169	737.974609	29.917906
211.721893	730.395813	762.866028	730.990173	1.830479
212.098724	733.293640	761.751465	734.853943	5.482860
212.475555	730.098572	760.488342	728.983887	-3.667961
212.852356	726.457764	758.927917	732.996277	20.136995
213.229126	720.439270	756.327332	734.185120	38.302013
213.605865	718.730225	755.658691	737.083008	49.698200
213.982590	713.677734	755.212891	738.494690	59.749275
214.359283	703.349609	758.482178	729.727051	47.843666
214.735931	709.219482	760.859863	723.336914	27.337969
215.112579	717.095642	763.014648	720.290588	6.957786
215.489197	729.504150	757.441895	724.525879	-17.819160
215.865799	719.398926	755.658691	727.423645	22.131195
216.242355	716.649719	748.377014	726.903503	32.318497
216.618896	712.414490	747.485413	730.990173	52.966053
216.995407	712.637390	749.343018	730.024231	47.368324
217.371902	708.030579	760.934143	724.748779	31.601274
217.748367	712.860352	761.677246	716.129639	6.697040
218.124802	720.067688	753.726807	724.674377	13.686304
218.501236	725.937561	750.160339	726.754883	3.374187
218.877609	718.432922	755.064270	730.247131	32.251637
219.253983	714.866455	758.779358	722.296692	16.920395
219.630295	714.940735	752.537903	726.532043	30.830271
220.006592	717.095520	750.754700	725.566101	25.165739
220.382889	718.804504	749.194336	726.977844	26.894983
220.759140	718.804443	749.120056	721.702332	9.559062
221.135391	717.838562	749.565857	723.039795	16.393559
221.511581	716.352539	755.584412	723.114075	17.234802
221.887772	714.643555	763.237549	729.801270	31.192568
222.263931	712.117371	765.318054	730.321472	34.217796
222.640060	713.603333	763.460449	731.510254	35.916481
223.016159	716.352539	762.123047	732.847717	36.038879
223.392212	728.166687	756.104492	734.853943	23.936224
223.768265	733.590759	757.070374	730.692932	-12.341886
224.144302	737.083008	764.500732	727.720886	-34.146236
224.520294	731.807434	773.491394	725.863281	-14.260048
224.896286	724.154297	774.531555	727.869446	7.374655
225.272217	719.250305	768.810242	732.327637	26.386902
225.648148	726.160461	761.528564	733.219238	19.958031
226.024048	731.064453	761.082703	734.259521	10.643753
226.399902	727.349304	765.986633	727.795166	1.153966
226.775772	717.987244	770.444885	728.761169	20.538334
227.151581	712.340149	774.382996	737.974670	41.317448
227.527374	722.593933	763.757629	740.575256	43.682480
227.903137	726.309082	763.534729	736.042786	26.147842
228.278870	730.321350	758.853699	729.950012	-1.301463
228.654572	725.714661	757.887695	733.367859	23.787617
229.030273	726.011902	751.869202	730.395752	16.954014
229.405930	724.600159	751.794922	726.903503	8.469810
229.781555	717.838623	758.482239	725.417480	18.647104
230.157181	715.683838	760.934265	728.538147	28.407045
230.532761	711.745789	758.630798	726.011902	30.427877
230.908325	714.420654	756.996094	724.228577	23.036573
231.283859	719.844727	756.104492	724.451477	12.704855
231.659332	719.993347	760.562683	727.349365	18.131966
232.034821	723.336975	754.246887	732.996277	31.249851
232.410263	723.262695	752.686584	737.082947	46.969494
232.785690	731.436035	751.572021	743.621582	60.516266
233.161087	722.593994	756.401672	734.036621	33.846237
233.536469	711.745789	762.494446	725.863281	27.818455
233.911804	709.591003	764.426453	716.278259	12.195133
234.287140	719.324646	765.020813	721.033630	3.739886
234.662430	719.473206	764.575012	724.080017	10.214251
235.037704	719.324707	756.698914	731.956055	33.796967
235.412933	715.683777	756.624573	721.107849	13.248575
235.788162	717.541321	749.565918	727.275085	30.394651
236.163345	715.312317	757.887756	725.566101	24.083801
236.538513	708.550781	757.739075	737.974609	59.818764
236.913635	710.556946	759.596680	734.408142	48.636471
237.288742	709.888184	755.658630	731.287354	46.753246
237.663834	714.272034	758.407898	728.463867	32.154877
238.038879	710.408264	758.036377	732.030457	45.397961
238.413910	712.265869	758.185059	731.956055	42.880081
238.788910	713.083191	757.813477	731.584656	41.362278
239.163879	715.609558	762.568848	732.550537	36.075886
239.538834	711.522766	772.302551	733.442139	36.063591
239.913757	714.049133	779.435547	737.825989	36.363602
240.288651	719.547546	785.751282	739.089111	29.517315
240.663528	728.018066	783.967957	735.596924	13.545795
241.038361	719.919128	778.841125	736.785706	28.625263
241.413177	719.547546	769.330383	737.231628	35.522446
241.787979	716.129639	769.553284	736.265625	37.691151
242.162735	723.559875	775.720398	732.996338	18.091196
242.537476	715.535156	791.472595	731.510254	21.037182
242.912170	713.529053	799.274353	742.581360	33.882099
243.286865	709.739563	791.621155	744.067383	41.923733
243.661514	720.067627	781.664612	741.021057	34.016975
244.036148	723.708496	778.098145	733.293518	17.622879
244.410751	735.522644	779.361267	728.018066	-17.118643
244.785339	730.841553	774.605896	729.281250	-3.565237
245.159882	726.680664	777.057861	738.420471	23.303812
245.534378	718.284424	779.881348	742.135559	38.721310
245.908890	720.290527	791.249695	733.442200	18.534142
246.283356	725.491760	786.865784	726.234802	1.210678
246.657791	728.092285	798.011230	721.479431	-9.457886
247.032196	725.268860	804.326965	733.070618	9.868384
247.406586	724.897278	802.246399	727.052063	2.785791
247.780960	718.953125	801.280457	728.612488	11.732875
248.155289	713.974792	809.750977	724.748718	11.249065
248.529602	708.253479	819.484680	734.259460	23.380114
248.903870	720.885010	811.608643	732.847717	13.185878
249.278122	721.776672	802.692322	732.179016	12.855787
249.652344	723.485657	791.695496	730.098572	9.694958
250.026550	714.420715	798.977234	729.355469	17.662451
250.400711	718.210144	790.581055	730.544373	17.043076
250.774857	720.885010	795.559265	733.813660	17.313396
251.148987	720.513428	790.209473	740.203796	28.251774
251.523071	725.268860	802.989502	738.048889	16.443546
251.897125	726.606262	804.549866	729.429871	3.622630
252.271164	726.457703	817.478577	724.674500	-1.959114
252.645187	715.535217	809.230957	720.736511	5.551260
253.019165	706.767517	813.094727	722.816895	15.094328
253.393112	711.745789	808.636536	726.234802	14.953971
253.767044	718.953125	809.825378	722.816833	4.251802
254.140930	723.114075	807.373352	721.702332	-1.675475
254.514801	716.352539	796.227966	723.188293	8.558020
254.888657	714.792175	799.348694	724.823059	11.862934
255.262466	719.993408	802.989563	728.909668	10.742979
255.636276	719.398987	809.453857	723.857117	4.950459
256.010010	724.897278	819.559082	731.138855	6.593554
256.383759	723.336975	817.181335	729.429871	6.492554
256.757446	732.401917	832.339111	738.494690	6.096602
257.131134	731.138733	826.320557	736.934387	6.089035
257.504791	722.222473	834.939697	733.516418	10.019715
257.878418	715.832458	836.945801	725.566101	8.036804
258.252014	711.448547	849.280090	727.646545	11.752026
258.625580	718.730225	855.075684	737.900391	14.059996
258.999115	718.284424	861.317139	744.513245	18.337637
259.372650	718.507324	866.964172	746.519470	18.868881
259.746124	718.507324	891.558350	733.739441	8.802095
260.119598	715.535156	914.443542	725.640381	5.080341
260.493042	714.123474	934.208008	723.336975	4.186347
260.866425	711.076965	933.465027	726.680664	7.016428
261.239838	716.129639	921.130859	736.191345	9.786140
261.613159	719.696228	905.452942	731.807556	6.519995
261.986511	724.302917	895.942322	734.556641	5.973991
262.359802	720.439209	886.728699	720.810608	0.223345
262.733063	719.919006	877.589417	720.513489	0.377041
263.106293	710.705505	875.806152	724.748718	8.505850
263.479523	710.705566	876.177673	737.008728	15.895828
263.852692	715.832458	882.121887	740.798157	15.013401
264.225861	721.999573	877.960938	737.751709	10.100024
264.598969	722.073792	878.332458	729.058289	4.469830
264.972076	712.785950	875.806152	726.829163	8.614400
265.345154	714.643555	880.041443	721.702332	4.267755
265.718201	715.386536	886.059998	721.627991	3.656957
266.091217	719.101746	898.394226	726.160461	3.936984
266.464203	719.027405	909.911133	730.841553	6.189186
266.837158	720.959290	918.678772	732.624817	5.900039
267.210114	721.330811	930.047119	731.956055	5.090759
267.583038	722.371094	933.167786	730.618652	3.912565
267.955902	723.114075	934.876892	729.949951	3.228081
268.328766	719.250305	925.589050	728.909668	4.681313
268.701569	713.826172	931.607605	730.098572	7.471895
269.074371	717.318420	934.208069	729.949951	5.823944
269.447144	720.290588	953.378235	730.395752	4.335349
269.819885	725.789001	954.567078	728.018066	0.974335
270.192596	725.417480	978.566833	730.767273	2.113295
270.565277	728.538147	986.071289	727.349304	-0.461627
270.937927	733.590759	1010.814148	729.504150	-1.474121
271.310577	725.863281	1025.451782	727.349304	0.496021
271.683136	723.411316	1054.801392	730.470032	2.130032
272.055725	712.711731	1071.148071	727.869446	4.228844
272.428284	717.244202	1079.915649	732.773438	4.281902
272.800812	713.603333	1073.154175	734.705261	5.868969
273.173279	713.826172	1068.621704	737.528809	6.680647
273.545776	714.494934	1064.980835	733.739319	5.490773
273.918152	716.055237	1064.163452	732.624817	4.759893
274.290558	716.352539	1056.659058	735.225403	5.545843
274.662964	715.015137	1049.154419	739.980774	7.471626
275.035278	721.999512	1049.674561	744.736084	6.938756
275.407593	723.337097	1056.881958	748.302734	7.484941
275.779907	723.188477	1070.702271	744.141785	6.029490
276.152161	720.290588	1076.497803	743.695984	6.570724
276.524384	725.937561	1088.683472	732.773438	1.884481
276.896606	727.126465	1102.429321	727.349304	0.059376
277.268799	723.411316	1116.918335	724.154297	0.188810
277.640930	712.860291	1125.463257	728.686707	3.835749
278.013031	711.671387	1130.590210	736.934326	6.030509
278.385162	710.036804	1136.757324	740.352295	7.104296
278.757233	708.402161	1138.837891	742.284180	7.871563
279.129272	709.516663	1138.317749	741.912781	7.555046
279.501282	710.556946	1136.831665	732.179016	5.072332
279.873230	713.231873	1147.531250	727.275085	3.233533
280.245178	710.854187	1163.060547	723.485535	2.793271
280.617126	720.810730	1195.753784	721.405090	0.125143
280.988983	728.612488	1225.400513	719.621887	-1.809746
281.360870	729.429871	1246.279541	727.869446	-0.301911
281.732697	717.095520	1260.174194	735.299744	3.352042
282.104492	715.609558	1279.938599	739.237793	4.186961
282.476288	721.925293	1306.539063	735.819824	2.376703
282.848053	721.999573	1327.938232	740.278015	3.016550
283.219757	718.804504	1330.687500	741.020996	3.630840
283.591461	708.699402	1322.885620	739.237793	4.972171
283.963135	710.259766	1312.111694	728.240967	2.987645
284.334747	712.637390	1313.151978	723.262695	1.769367
284.706360	716.946960	1336.334351	718.507324	0.251920
285.077942	720.439209	1372.817017	730.915833	1.605914
285.449524	719.696228	1415.689819	743.918884	3.480299
285.821014	720.439148	1436.494507	742.729980	3.113004
286.192535	721.776611	1461.757324	733.442200	1.576472
286.563995	716.278137	1475.429077	720.736328	0.587260
286.935425	716.278137	1499.577515	726.011902	1.242662
287.306824	714.272034	1509.534180	722.965515	1.093159
287.678223	721.330811	1499.429077	728.686768	0.945376
288.049561	719.176025	1473.422974	731.510254	1.635304
288.420898	719.027405	1444.519165	737.082947	2.488731
288.792145	724.377136	1444.593628	737.751709	1.857021
289.163452	729.504089	1457.373535	733.962219	0.612490
289.534668	728.983948	1481.967773	735.151184	0.819040
289.905914	722.073792	1509.756958	733.888000	1.499868
290.277039	721.107910	1545.199341	735.299744	1.722119
290.648193	726.754883	1577.223755	739.757874	1.528920
291.019318	729.355469	1602.040894	739.014832	1.106855
291.390381	728.538269	1614.077759	733.516418	0.562160
291.761475	723.262695	1609.619751	727.720886	0.502979
292.132507	724.154297	1597.137085	731.287354	0.817090
292.503510	722.965515	1580.344604	736.340027	1.559930
292.874481	730.618652	1574.251587	738.494812	0.933600
293.245422	724.005676	1578.486938	741.392517	2.034783
293.616364	722.445374	1605.310181	742.729980	2.297589
293.987213	711.002747	1643.799194	744.141785	3.552655
294.358093	721.107910	1689.718140	741.912659	2.147897
294.728943	721.850891	1737.197632	742.507080	2.034398
295.099731	729.949951	1782.373657	739.312073	0.889577
295.470490	722.816895	1808.602539	733.442139	0.978577
295.841248	721.479431	1826.880859	729.132568	0.692340
296.211975	712.191589	1846.125366	732.104675	1.756106
296.582642	713.454773	1891.078613	724.674500	0.952743
296.953308	708.327820	1955.870483	730.692932	1.792733
297.323883	710.705566	2002.383911	733.962219	1.800499
297.694519	707.138977	2029.430176	748.377014	3.118680
298.065063	708.847961	2017.096069	746.890930	2.907932
298.435608	715.312317	2000.377930	739.237793	1.861810
298.806122	729.504150	1950.817993	735.002502	0.450200
299.176575	737.603088	1900.737915	729.578430	-0.689916
299.547028	736.637207	1858.831177	721.479431	-1.350727
299.917450	725.789001	1840.478516	716.055359	-0.873216
300.287872	727.423645	1834.236938	720.662109	-0.610901
300.658234	723.262695	1829.333008	733.293640	0.906899
301.028564	724.748779	1830.076172	742.209900	1.579724
301.398865	721.850891	1829.407349	741.318298	1.757690
301.769135	725.491760	1826.435181	737.677429	1.106839
302.139374	723.411316	1837.877930	735.151123	1.053401
302.509583	719.473206	1846.348267	735.448242	1.417641
302.879791	721.702332	1837.654907	736.860046	1.358276
303.249939	719.101746	1816.701538	729.578430	0.954509
303.620087	718.804504	1795.450806	730.024231	1.042100
303.990173	711.820068	1799.686157	729.429871	1.618747
304.360260	716.575500	1806.299194	738.569031	2.018267
304.730286	717.764343	1815.141235	739.386414	1.970341
305.100281	719.324707	1814.546509	740.798157	1.960649
305.470276	715.312256	1821.902710	736.562805	1.920363
305.840179	709.516785	1836.688965	737.380188	2.471974
306.210144	710.482666	1848.503296	731.658875	1.860793
306.579987	714.940857	1857.716797	734.705322	1.729514
306.949890	723.559875	1866.187134	734.333801	0.942908
307.319702	727.795166	1883.945679	737.008606	0.796907
307.689484	725.566101	1911.660278	732.104675	0.551269
308.059265	718.358704	1950.297729	731.064453	1.031362
308.429016	710.705505	1994.805054	737.008606	2.048369
308.798737	707.956299	2037.603516	740.129395	2.419672
309.168396	713.751953	2069.033691	741.318176	2.033985
309.538055	718.804504	2103.881592	740.946777	1.598631
309.907684	712.934570	2123.869141	742.061279	2.064356
310.277313	706.693176	2158.642822	734.185242	1.893458
310.646851	699.634460	2176.252441	732.327637	2.214058
311.016388	706.544617	2189.552490	723.411316	1.137330
311.385895	709.962585	2191.781738	730.395752	1.378924
311.755371	711.374268	2193.639404	730.841553	1.313347
312.124817	714.049133	2208.722900	738.420410	1.630541
312.494232	717.318542	2197.354492	737.825989	1.385605
312.863617	720.736389	2195.719971	731.584656	0.735484
313.232971	716.724060	2169.490967	734.408142	1.217269
313.602295	715.683777	2162.803711	735.448425	1.365792
313.971619	715.980957	2159.979980	740.055176	1.667191
314.340820	715.163635	2174.692139	730.841614	1.074181
314.710083	719.101746	2200.326416	728.984070	0.667173
315.079285	717.541321	2236.883545	734.408142	1.110140
315.448486	718.581604	2265.564209	739.609314	1.359272
315.817596	716.501160	2266.530029	737.157288	1.332629
316.186707	716.724121	2231.682373	731.510254	0.976009
316.555786	716.724060	2196.982910	735.968445	1.300069
316.924866	711.820068	2163.695313	736.562927	1.704200
317.293884	716.352539	2145.713867	740.278015	1.673858
317.662872	716.278137	2137.466553	735.671204	1.364567
318.031830	719.844727	2150.097900	743.770203	1.672814
318.400757	717.987122	2167.781982	744.438965	1.824523
318.769684	722.742493	2176.921143	749.342957	1.829243
319.138550	723.485535	2190.369873	739.163513	1.068794
319.507416	722.296692	2205.453369	736.562927	0.961883
319.876190	722.742493	2226.035156	732.550537	0.652437
320.244995	724.748718	2237.403564	736.340027	0.766289
320.613770	724.154297	2217.638916	733.144958	0.601992
320.982483	724.823059	2204.413086	726.754883	0.130565
321.351166	725.714661	2166.667236	725.640381	-0.005155
321.719818	720.364929	2159.534424	727.052185	0.464661
322.088440	715.683777	2157.825195	736.637146	1.452935
322.457062	705.429993	2177.961182	736.117004	2.083963
322.825623	714.643555	2211.917725	740.352295	1.717036
323.194183	719.398926	2252.709961	740.500916	1.376237
323.562653	722.742493	2309.328369	745.925049	1.461160
323.931183	720.587830	2376.275391	745.702148	1.516851
324.299591	714.569336	2445.451172	746.519470	1.845888
324.668060	719.844788	2502.218506	744.290344	1.371517
325.036407	720.513489	2542.862305	750.085938	1.622766
325.404755	723.857117	2558.391357	748.005554	1.316325
325.773102	720.364929	2563.815186	754.469788	1.850056
326.141388	717.764343	2565.524170	743.844543	1.411450
326.509674	719.621887	2564.632568	742.358459	1.232327
326.877899	725.045898	2583.728516	735.225403	0.547673
327.246124	729.875671	2601.561279	739.906433	0.535921
327.614288	730.395813	2613.301025	745.033386	0.777393
327.982422	725.714661	2600.149414	748.079773	1.193166
328.350525	726.234863	2584.025635	747.708313	1.155859
328.718628	724.302917	2566.415771	745.776428	1.165700
329.086700	726.383484	2572.137207	748.154114	1.179498
329.454712	722.891174	2569.387939	744.438965	1.166955
329.822693	721.479492	2588.855225	746.296570	1.328982
330.190674	725.343079	2595.245361	741.466858	0.862279
330.558563	725.714600	2609.065674	743.547363	0.946863
330.926483	723.485596	2630.093506	739.609314	0.845676
331.294312	725.714661	2651.715576	736.934387	0.582540
331.662231	721.553711	2693.919678	735.225403	0.693162
332.029999	721.033630	2737.683838	742.358459	1.057438
332.397766	716.278259	2787.987061	741.466858	1.215837
332.765503	718.210144	2833.608643	743.621582	1.201260
333.133240	721.479431	2875.515381	738.866211	0.807172
333.500916	723.039856	2929.236328	746.445129	1.060888
333.868561	722.742676	2968.839844	743.324402	0.916333
334.236176	723.857117	2996.926025	743.844543	0.879315
334.603790	715.163757	3004.133545	739.237793	1.051741
334.971344	717.912903	2992.096436	739.980774	0.970365
335.338867	716.129578	2988.975586	740.723816	1.082090
335.706360	713.231750	2990.090088	749.417236	1.589273
336.073853	715.609558	2992.393555	750.308838	1.524048
336.441284	714.940735	2990.981689	750.977539	1.583311
336.808655	715.535156	2985.483398	739.460693	1.054012
337.176086	713.974854	2968.170654	740.426575	1.173444
337.543396	707.659119	2907.614014	737.083008	1.337477
337.910706	716.203918	2831.528076	737.008728	0.983528
338.277954	711.225647	2833.608398	736.488586	1.190310
338.645264	721.479492	2911.626221	736.711487	0.695478
339.012421	720.662109	3064.318359	741.169617	0.875022
339.379669	723.039795	3175.252197	738.420410	0.627214
339.746796	720.587830	3257.431396	738.569031	0.708802
340.113953	719.101746	3306.768311	738.717590	0.758052
340.481018	715.386536	3343.250977	738.569092	0.882182
340.848114	712.191589	3358.854492	736.637207	0.923639
341.215118	714.940735	3355.436279	732.847717	0.678167
341.582153	721.776611	3363.089600	733.070618	0.427591
341.949066	725.491760	3385.900391	727.274963	0.067027
342.316010	723.634216	3414.135742	731.881836	0.306546
342.682922	718.061523	3433.305908	738.569092	0.755275
343.049835	715.981018	3449.057861	746.147949	1.103772
343.416656	709.368103	3486.358154	750.160339	1.468937
343.783478	710.928406	3544.611328	747.411072	1.287465
344.150269	714.866455	3654.207764	748.228333	1.135012
344.516998	716.278137	3776.435547	746.073547	0.973656
344.883728	713.677673	3878.304688	747.188171	1.058908
345.250427	705.355774	3951.344482	747.856934	1.309344
345.617065	706.024475	3984.854736	745.850769	1.214649
345.983704	716.649719	4004.990967	740.872375	0.736622
346.350281	716.575500	3975.864502	740.203796	0.724952
346.716827	722.222473	3930.317139	732.699036	0.326566
347.083405	715.163757	3876.819092	733.367859	0.575778
347.449860	725.937683	3839.221436	732.847656	0.221951
347.816376	725.045959	3794.862549	743.324402	0.595425
348.182770	719.919128	3760.460693	741.838379	0.720900
348.549194	716.575439	3748.200439	738.643372	0.727924
348.915558	716.798340	3765.810547	740.426575	0.774947
349.281921	720.216309	3792.336182	750.457520	0.984376
349.648193	715.832458	3822.428955	750.680359	1.121739
350.014526	708.699402	3845.240234	747.188171	1.227109
350.380737	703.126648	3902.304688	743.695984	1.268118
350.746948	704.389832	3950.899170	748.079834	1.345753
351.113159	713.603333	4015.690674	734.705322	0.639050
351.479309	726.532043	4044.891602	726.754944	0.006717
351.845428	727.497864	4077.881836	726.903564	-0.017738
352.211517	725.863281	4109.683594	733.962341	0.239347
352.577576	724.971680	4151.441406	739.460693	0.422855
352.943604	724.228699	4211.998535	743.621582	0.556025
353.309601	724.823059	4272.628906	749.342957	0.691128
353.675537	721.330811	4368.628418	748.377014	0.741541
354.041473	717.021240	4484.169434	741.615479	0.652861
354.407379	714.866455	4581.580078	741.541199	0.689856
354.773254	709.591003	4677.355957	746.296570	0.925094
355.139038	714.420654	4736.352539	747.559753	0.823960
355.504913	718.804504	4845.428711	750.680359	0.772444
355.870636	726.457703	4933.031738	751.126221	0.586428
356.236389	725.417480	5049.018066	751.126221	0.594614
356.602081	723.857117	5165.524902	742.878662	0.428252
356.967804	720.587830	5316.953613	735.299805	0.320078
357.333405	718.804504	5465.039063	733.367859	0.306840
357.699036	717.467041	5620.183594	743.844543	0.538018
358.064606	715.015137	5757.271973	746.445129	0.623332
358.430176	721.628113	5856.837891	749.565857	0.544043
358.795654	720.290527	5906.546875	742.209900	0.422643
359.161163	720.587830	5874.818848	747.931152	0.530502
359.526581	721.850891	5857.803223	747.411133	0.497673
359.892029	726.011902	5894.360840	753.206726	0.526180
360.257416	727.126465	6017.926270	740.352295	0.249978
360.622772	721.256531	6233.552734	740.055176	0.341031
360.988098	716.798340	6466.863281	732.253235	0.268778
361.353394	723.336975	6759.467285	741.169617	0.295432
361.718658	727.052185	7029.928223	733.070618	0.095487
362.083893	726.457703	7252.168457	742.952881	0.252772
362.449097	718.581604	7397.727051	741.764099	0.347088
362.814209	713.974792	7414.371094	752.537903	0.575535
363.179382	710.779785	7242.657715	745.999329	0.539195
363.544434	715.312256	6888.084473	748.674133	0.540468
363.909546	713.751953	6462.701660	748.376953	0.602284
364.274536	726.309082	6141.045410	743.621643	0.319730
364.639587	729.058350	5928.093750	740.203796	0.214375
365.004517	726.309082	5806.386230	742.655701	0.321779
365.369507	724.600098	5741.147949	750.606140	0.518405
365.734344	721.850891	5707.414551	751.497742	0.594654
366.099274	730.915833	5686.535645	752.835144	0.442312
366.464081	720.290588	5649.681641	752.760803	0.658706
366.828918	717.467102	5651.762207	753.801086	0.736356
367.193665	713.083191	5651.613770	751.126160	0.770330
367.558411	720.587830	5687.204590	753.726746	0.667233
367.923126	724.674500	5660.455566	756.996094	0.654842
368.287781	732.922058	5647.601563	756.030212	0.470186
368.652435	731.956116	5591.948730	751.869202	0.409735
369.017059	725.417480	5574.264160	749.045715	0.487296
369.381653	716.129639	5539.342285	749.714355	0.696314
369.746185	712.934570	5536.741699	756.475891	0.902634
370.110687	713.008972	5545.880859	760.191101	0.976275
370.475220	716.724060	5601.013184	752.017822	0.722598
370.839661	718.358704	5672.046875	747.485352	0.587979
371.204041	723.114075	5751.996582	744.067444	0.416661
371.568451	723.782776	5808.688965	759.596680	0.704318
371.932770	718.804504	5855.128906	763.386169	0.867968
372.297150	721.850891	5889.232910	765.838135	0.851248
372.661377	717.021301	5922.892578	759.225159	0.810697
373.025696	721.776550	5951.648438	756.401672	0.662064
373.389862	719.993347	5960.044434	756.178772	0.690555
373.754059	720.810608	5948.898926	751.720520	0.591228
374.118225	724.377258	5930.100098	750.383240	0.499565
374.482361	728.166687	5965.988281	749.788757	0.412807
374.846436	725.566101	6032.563965	752.240723	0.502631
375.210510	715.906677	6144.537598	749.714539	0.622770
375.574524	705.950195	6255.917969	751.572083	0.822021
375.938538	708.030579	6415.593750	755.955872	0.839680
376.302460	712.042969	6574.007813	760.934265	0.834043
376.666412	723.782776	6759.838379	766.283997	0.704122
377.030304	731.807556	6908.221191	768.290100	0.590675
377.394196	737.380188	7053.186035	771.856689	0.545877
377.757996	730.544434	7153.717285	762.494568	0.497420
378.121796	723.262695	7210.410156	753.281006	0.462735
378.485565	718.210144	7233.072754	751.200500	0.506386
378.849304	713.157471	7161.222168	758.259277	0.699463
379.212982	722.445313	7046.499512	771.187988	0.770750
379.576630	723.336914	6840.085938	779.881348	0.924420
379.940277	730.247131	6690.736816	791.026794	1.019709
380.303864	722.668274	6579.505859	796.822327	1.266111
380.667450	723.336975	6564.570801	800.760437	1.325464
381.030945	724.525818	6583.295410	802.543640	1.331642
381.394501	722.816895	6633.747559	809.676758	1.469479
381.757935	719.993408	6671.567871	818.815918	1.660443
382.121399	718.953125	6691.257813	824.462891	1.766651
382.484741	717.912903	6711.839355	826.246277	1.807386
382.848145	719.993347	6733.238281	837.837402	1.959741
383.211487	719.027405	6806.128906	854.704163	2.228922
383.574768	716.055359	6894.326172	869.044617	2.476247
383.938019	715.683777	7005.408691	888.214783	2.743061
384.301270	713.751953	7089.742676	906.195984	3.018261
384.664459	714.123535	7169.097656	933.465027	3.398023
385.027649	715.683838	7213.828125	943.124451	3.500086
385.390778	721.033630	7267.994629	958.802246	3.631740
385.753876	732.476257	7300.391113	970.542175	3.624680
386.116943	734.779602	7362.805176	994.541992	3.919152
386.479980	730.618652	7402.854980	1017.501465	4.299650
386.842987	717.318542	7467.795410	1046.405273	4.875014
387.205994	717.764343	7523.447754	1073.005615	5.219774
387.568909	717.467102	7561.787598	1093.735962	5.497534
387.931793	730.172852	7616.029297	1117.215698	5.620838
388.294678	729.949890	7664.771484	1145.153442	5.987227
388.657471	729.652649	7712.548340	1188.174805	6.566361
389.020294	723.411316	7691.371582	1222.354126	7.160529
389.383057	716.946960	7688.102051	1257.647949	7.756261
389.745819	716.575378	7675.322266	1296.731079	8.337071
390.108521	711.745789	7687.210938	1334.179688	8.923188
390.471191	712.191589	7767.903809	1386.117188	9.551489
390.833801	709.516663	7892.658203	1428.692749	10.011999
391.196442	719.993347	8083.244141	1489.100708	10.445214
391.558960	723.708496	8242.029297	1545.645142	10.932449
391.921509	725.194580	8421.172852	1612.740601	11.532595
392.284027	724.377258	8620.675781	1673.668823	12.021982
392.646484	721.256531	8737.851563	1732.590820	12.615509
393.008911	727.275085	8759.696289	1777.841187	13.079072
393.371307	719.250305	8684.427734	1830.893188	13.956285
393.733673	725.566101	8617.852539	1867.598999	14.470242
394.096008	716.649719	8560.268555	1897.617188	15.056412
394.458344	723.559875	8574.756836	1941.530151	15.513179
394.820587	717.690002	8591.624023	2002.086914	16.312010
395.182831	723.114075	8674.545898	2056.253662	16.766033
395.545013	725.343201	8628.626953	2085.603271	17.211327
395.907196	721.405090	8538.719727	2094.370850	17.563139
396.269287	714.940735	8378.449219	2126.023682	18.413015
396.631409	705.875793	8263.577148	2156.190430	19.189892
396.993469	711.745789	8141.349121	2181.379150	19.780777
397.355530	719.398926	8053.152344	2208.945557	20.310837
397.717499	728.092285	8025.957031	2241.415771	20.736525
398.079468	733.887939	8032.198730	2294.690674	21.385809
398.441376	728.018066	8052.111816	2338.455322	21.988213
398.803284	725.343201	8032.421875	2382.516846	22.679016
399.165131	723.708496	8076.557129	2425.909424	23.150225
399.526978	725.640320	8089.560059	2459.865967	23.550304
399.888763	724.302917	8111.330566	2512.695068	24.209900
400.250519	723.708496	8095.429688	2541.153076	24.654278
400.612244	724.971680	8135.775879	2584.248535	25.088732
400.973938	729.801331	8145.138672	2600.966797	25.233721
401.335602	723.411316	8163.714355	2639.529785	25.753229
401.697205	722.593933	8170.773438	2680.247803	26.283655
402.058807	716.055359	8242.475586	2747.194580	26.986788
402.420349	714.272034	8352.963867	2812.283447	27.465586
402.781860	716.872620	8461.891602	2876.629883	27.885759
403.143341	716.129639	8591.030273	2945.062500	28.304268
403.504822	715.535156	8717.493164	3022.114502	28.825188
403.866241	709.367981	8914.618164	3112.243408	29.284611
404.227631	710.036804	9094.058594	3174.880859	29.399303
404.588959	718.358704	9291.851563	3236.775146	29.374451
404.950287	718.284424	9400.111328	3298.594727	29.720821
405.311554	715.460938	9515.875977	3356.848389	30.014351
405.672821	718.432922	9563.131836	3400.315430	30.321918
406.034027	722.222473	9556.147461	3417.553955	30.511145
406.395203	724.674500	9462.377930	3431.894287	30.983196
406.756348	722.296692	9361.770508	3447.869141	31.547899
407.117493	723.708496	9310.725586	3462.729492	31.897232
407.478516	731.287354	9301.585938	3476.624268	32.033154
407.839600	720.885010	9290.441406	3493.788330	32.357605
408.200592	718.284363	9303.666992	3517.342041	32.602596
408.561554	708.253601	9285.983398	3538.147217	32.991173
408.922485	709.665283	9316.669922	3579.979492	33.348583
409.283417	709.665283	9306.639648	3616.387695	33.810993
409.644257	718.878845	9382.130859	3675.904297	34.132973
410.005096	727.349304	9516.766602	3734.083252	34.208569
410.365906	721.702332	9664.332031	3783.865967	34.242317
410.726715	718.953125	9790.944336	3845.239990	34.460869
411.087433	725.343079	9859.377930	3883.431641	34.574955
411.448120	734.036621	9939.030273	3941.239258	34.841984
411.808807	733.293640	9942.151367	3958.774658	35.025852
412.169434	726.309082	9857.147461	3954.093750	35.350368
412.530029	724.971680	9772.740234	3961.152344	35.767723
412.890564	722.593994	9736.108398	3970.960205	36.038841
413.251099	720.364929	9761.222656	4000.532471	36.281597
413.611572	721.033630	9826.980469	4032.557373	36.366604
413.972076	707.733398	9886.942383	4071.789063	36.648643
414.332489	708.922302	9927.735352	4111.244141	36.906288
414.692871	704.687012	10056.130859	4179.379395	37.156750
415.053223	715.237976	10167.881836	4255.539551	37.453030
415.413574	713.231873	10401.934570	4349.309570	37.529045
415.773834	718.507324	10537.091797	4406.225586	37.558556
416.134094	721.999512	10716.532227	4464.033203	37.440804
416.494263	721.553711	10835.416992	4545.469238	37.808655
416.854462	717.912903	11094.436523	4655.511230	37.947182
417.214630	708.699402	11394.620117	4789.330566	38.186985
417.574738	708.773621	11744.065430	4914.902344	38.115250
417.934784	711.374207	12035.554688	5058.900879	38.391537
418.294861	717.912903	12409.372070	5216.942871	38.481339
418.654846	717.318420	12828.959961	5372.829590	38.438316
419.014832	714.197754	13301.450195	5549.521484	38.414452
419.374756	721.182190	13768.590820	5743.154297	38.490189
419.734680	722.073914	14268.278320	5958.632324	38.657017
420.094543	726.531982	14747.010742	6155.534668	38.721951
420.454376	722.668274	15195.278320	6329.997559	38.744423
420.814148	726.383362	15637.601563	6544.806641	39.020443
421.173920	716.724060	16116.928711	6753.597168	39.199951
421.533691	720.662109	16609.257813	6968.927246	39.325470
421.893341	717.541321	17000.240234	7133.729980	39.404945
422.253021	722.073792	17223.445313	7230.843750	39.443813
422.612640	721.776611	17283.927734	7274.087891	39.561962
422.972260	720.810730	17212.447266	7252.911621	39.608566
423.331757	722.148132	17126.775391	7242.955078	39.749805
423.691315	722.073914	17133.390625	7259.078613	39.832302
424.050781	722.816895	17249.005859	7333.232910	39.999638
424.410248	721.925232	17380.000000	7390.668457	40.033096
424.769653	715.460876	17502.748047	7450.631348	40.120659
425.128998	713.603271	17556.544922	7474.779785	40.142494
425.488373	714.123352	17462.179688	7462.593750	40.294048
425.847656	715.758118	17216.462891	7400.104980	40.509460
426.206940	721.850891	16952.314453	7321.046875	40.659317
426.566193	718.507324	16649.755859	7202.162598	40.697723
426.925385	715.312256	16353.434570	7090.337402	40.765926
427.284576	712.785950	15913.191406	6910.747559	40.774975
427.643677	717.244141	15553.789063	6806.649902	41.043289
428.002777	718.061523	15200.627930	6681.523438	41.176830
428.361847	717.987122	14856.085938	6569.548828	41.388603
428.720856	718.284424	14535.172852	6436.993652	41.389267
429.079865	722.742615	14282.840820	6356.300781	41.545113
429.438812	723.708496	14129.479492	6307.706543	41.653687
429.797760	727.720886	14022.706055	6281.478027	41.773323
430.156616	724.971680	13865.184570	6221.218262	41.827682
430.515503	717.541443	13771.414063	6182.580566	41.865269
430.874268	715.758118	13713.161133	6178.196777	42.027153
431.233093	715.312256	13744.963867	6184.140625	41.972176
431.591827	717.689941	13807.377930	6224.486816	42.069736
431.950562	717.392761	13872.391602	6233.923828	41.934868
432.309204	721.850891	13946.621094	6294.777832	42.140064
432.667877	722.965515	14066.026367	6342.183594	42.113415
433.026459	718.507324	14193.752930	6411.284668	42.246185
433.385010	717.169861	14320.364258	6452.819824	42.163994
433.743561	715.683777	14476.028320	6524.447754	42.213799
434.102051	718.953125	14642.317383	6584.855957	42.129925
434.460510	716.575378	14810.092773	6647.493652	42.082600
434.818939	723.931396	14865.077148	6687.096191	42.168896
435.177338	724.525879	14866.414063	6716.668457	42.371586
435.535675	725.417480	14802.140625	6703.739746	42.469563
435.894012	718.804504	14755.777344	6680.482910	42.471252
436.252289	719.324646	14782.749023	6701.287598	42.535606
436.610535	717.541321	14796.198242	6713.993652	42.592499
436.968719	717.392761	14907.578125	6790.302734	42.796551
437.326935	719.324646	15001.421875	6826.117188	42.758373
437.685028	719.027405	15138.510742	6894.921387	42.830204
438.043152	719.398926	15249.148438	6931.181152	42.752163
438.401215	712.191589	15450.804688	7044.417969	42.963516
438.759277	715.163757	15670.739258	7147.104004	43.006973
439.117249	719.250305	16068.928711	7311.015625	42.943993
439.475250	721.405090	16383.229492	7408.724609	42.698215
439.833130	722.965393	16786.396484	7582.146973	42.700603
440.191071	716.203857	17035.164063	7696.572754	42.774597
440.548889	717.764343	17339.134766	7864.199707	42.995464
440.906708	715.758118	17644.890625	8010.725098	43.091202
441.264496	726.606262	17870.103516	8110.884766	43.073345
441.622223	732.550537	18043.525391	8177.757813	43.008595
441.979950	736.637207	18073.689453	8193.360352	43.010326
442.337616	731.584534	18071.015625	8219.070313	43.181843
442.695251	726.160461	17908.589844	8178.648926	43.372726
443.052887	726.234802	17718.449219	8111.404785	43.462078
443.410461	724.377258	17514.859375	8031.083984	43.516953
443.768005	719.621826	17381.115234	7958.787598	43.448479
444.125458	711.820068	17314.837891	7928.100098	43.463669
444.482941	709.888184	17371.679688	7942.886230	43.410686
444.840393	719.398926	17504.607422	8004.111816	43.399597
445.197754	721.256531	17770.460938	8107.615723	43.323776
445.555084	720.662109	18035.126953	8238.909180	43.421768
445.912415	712.563049	18414.369141	8420.207031	43.541569
446.269714	719.027405	18710.169922	8546.522461	43.507492
446.626953	725.714661	19033.162109	8681.159180	43.454689
446.984161	720.290527	19343.154297	8808.215820	43.430084
447.341309	717.169861	19577.205078	8938.022461	43.588745
447.698456	716.426819	19755.830078	9030.159180	43.665932
448.055542	724.302979	19804.869141	9078.901367	43.785904
448.412598	720.067688	19771.732422	9065.749023	43.805527
448.769653	716.055359	19616.585938	9007.198242	43.867245
449.126617	716.426819	19345.826172	8869.292969	43.763443
449.483582	721.107910	19072.394531	8763.708984	43.825813
449.840515	723.708496	18748.732422	8622.311523	43.820210
450.197388	727.200684	18481.169922	8520.961914	43.898697
450.554230	728.761047	18263.980469	8411.142578	43.811153
450.911041	721.850891	18099.326172	8348.208008	43.886452
451.267822	713.974854	17962.755859	8297.161133	43.963608
451.624573	708.104919	17785.990234	8236.159180	44.080719
451.981262	717.467041	17658.636719	8191.057129	44.114956
452.337921	720.067627	17508.248047	8136.147949	44.174416
452.694580	725.343201	17427.705078	8111.255859	44.220768
453.051147	720.959290	17428.001953	8106.798340	44.207935
453.407715	719.770508	17347.902344	8073.139160	44.222454
453.764221	717.244141	17350.279297	8085.474121	44.298771
454.120728	719.176086	17095.199219	8006.787109	44.501713
454.477142	725.714661	17043.781250	7979.518066	44.452591
454.833557	732.476257	16860.998047	7895.481934	44.412045
455.189911	733.888000	16746.794922	7827.197266	44.297447
455.546265	731.138855	16554.349609	7743.457520	44.316662
455.902557	725.640381	16431.453125	7687.582031	44.327164
456.258820	721.702332	16419.191406	7692.114746	44.404633
456.615051	724.674500	16481.755859	7730.455566	44.461163
456.971252	722.148132	16470.683594	7730.529785	44.501801
457.327393	720.587708	16649.751953	7814.566406	44.534531
457.683502	715.906738	16893.615234	7919.481934	44.527782
458.039612	715.163635	17359.271484	8092.904785	44.326447
458.395630	724.674500	17832.056641	8263.280273	44.066391
458.751648	725.343201	18313.466797	8471.476563	44.041843
459.107605	726.160461	18933.373047	8799.374023	44.340744
459.463562	715.980957	19578.914063	9083.210938	44.358055
459.819458	718.507324	20188.197266	9382.130859	44.498005
460.175323	714.569153	20708.685547	9595.899414	44.419716
460.531158	723.262634	21203.023438	9820.813477	44.422150
460.886932	721.553711	21506.548828	9940.367188	44.353214
461.242676	727.126465	21627.367188	10012.291992	44.426121
461.598419	726.234863	21398.365234	9932.194336	44.533188
461.954102	727.646545	20939.250000	9749.112305	44.635082
462.309723	729.949951	20299.353516	9497.893555	44.804344
462.665344	724.154297	19616.810547	9218.516602	44.961185
463.020905	724.228577	19101.521484	8990.332031	44.979984
463.376373	714.717957	18661.126953	8788.972656	44.990925
463.731873	722.073914	18329.292969	8653.443359	45.046124
464.087341	718.061523	18063.437500	8534.484375	45.063442
464.442749	727.126465	17929.693359	8468.057617	44.998699
464.798126	721.850891	17851.750000	8443.761719	45.078556
465.153503	730.247070	17911.638672	8461.891602	45.000111
465.508820	729.578369	17990.919922	8483.141602	44.918659
465.864105	729.058289	18159.585938	8522.596680	44.712006
466.219330	728.909668	18449.218750	8658.941406	44.751091
466.574524	726.606262	18664.845703	8757.838867	44.771572
466.929657	721.999512	18820.583984	8851.163086	44.916019
467.284790	715.163635	18923.416016	8906.889648	44.989086
467.639893	719.770325	19049.062500	8984.684570	45.091286
467.994934	723.931335	19205.099609	9062.702148	45.120365
468.349945	726.234802	19257.482422	9100.374023	45.189293
468.704926	719.621826	19236.751953	9092.202148	45.215321
469.059875	721.107910	19028.185547	9020.795898	45.335949
469.414764	725.491699	18776.521484	8922.196289	45.408520
469.769653	728.984070	18574.119141	8843.807617	45.473591
470.124451	727.869446	18489.263672	8783.101563	45.352474
470.479248	725.566101	18367.853516	8715.485352	45.288456
470.834015	716.575439	18265.615234	8678.186523	45.367790
471.188721	715.832336	18331.521484	8689.628906	45.265308
471.543365	712.637390	18439.556641	8737.331055	45.268406
471.898010	714.420715	18596.929688	8800.860352	45.219826
472.252625	712.340149	18742.638672	8879.770508	45.298363
472.607178	712.934570	19037.916016	9010.096680	45.277878
472.961700	712.414490	19267.365234	9104.907227	45.230480
473.316193	716.426758	19568.140625	9242.738281	45.228306
473.670654	714.643555	19707.535156	9308.718750	45.248905
474.025055	725.120300	19939.880859	9416.606445	45.233387
474.379456	722.296692	20045.462891	9518.772461	45.522953
474.733795	726.234863	20154.912109	9603.998047	45.694122
475.088104	722.965515	20241.845703	9656.083984	45.766548
475.442383	722.296814	20262.501953	9605.855469	45.462975
475.796570	717.838562	20389.857422	9636.542969	45.337002
476.150787	720.216248	20590.250000	9712.925781	45.257648
476.504944	719.101746	20877.505859	9850.088867	45.296181
476.859070	724.674500	21174.416016	9993.864258	45.326683
477.213135	720.959290	21424.445313	10096.997070	45.287243
477.567200	725.343201	21871.525391	10290.035156	45.231297
477.921173	722.519714	22263.474609	10478.764648	45.291611
478.275146	723.857117	22774.970703	10714.377930	45.306194
478.629089	723.559875	23043.501953	10860.234375	45.415329
478.983002	724.674500	23492.439453	11011.440430	45.181271
479.336823	727.423645	23849.390625	11194.448242	45.268745
479.690643	726.680664	24328.642578	11408.215820	45.256981
480.044403	726.754883	24786.273438	11664.784180	45.462376
480.398163	728.166687	25468.447266	11959.765625	45.398022
480.751862	731.584656	26357.775391	12381.878906	45.462448
481.105499	729.504089	27484.130859	12859.125000	45.336536
481.459137	719.621887	28937.271484	13512.247070	45.335545
481.812744	704.835632	30762.291016	14299.559570	45.229122
482.166290	695.027588	33048.066406	15310.967773	45.176407
482.519806	695.696350	35777.128906	16534.212891	45.147861
482.873291	711.894348	38943.839844	18001.914063	45.224010
483.226715	713.677673	42492.238281	19704.189453	45.455158
483.580139	710.705566	45999.105469	21425.189453	45.739052
483.933502	703.498108	49325.191406	23213.505859	46.296227
484.286804	704.761292	51985.156250	24860.203125	47.104633
484.640106	715.312317	53994.375000	26335.335938	48.086475
484.993347	716.947021	55089.519531	27289.681641	48.871578
485.346558	718.953125	55306.410156	27593.429688	49.231964
485.699738	714.717957	54642.890625	27211.812500	49.134048
486.052887	717.838623	53351.957031	26338.531250	48.676971
486.405975	722.668274	51792.488281	25306.318359	48.137333
486.759064	726.383362	50172.765625	24280.271484	47.635212
487.112061	728.092285	48879.750000	23459.451172	47.207844
487.464996	722.816833	48139.917969	22914.291016	46.800571
487.817963	720.959290	48048.968750	22743.320313	46.531349
488.170868	712.563049	48146.230469	22780.248047	46.523254
488.523743	716.129578	48238.886719	22837.759766	46.549553
488.876587	711.968567	47979.722656	22805.513672	46.741264
489.229401	720.884949	47494.894531	22594.937500	46.765404
489.582153	722.371094	46603.187500	22237.466797	46.893444
489.934845	723.039795	45557.152344	21677.076172	46.736816
490.287537	717.467102	44477.312500	21099.744141	46.577583
490.640198	719.250305	43648.394531	20638.845703	46.401100
490.992798	726.457703	43073.957031	20332.345703	46.297630
491.345337	726.680664	42903.503906	20223.343750	46.226013
491.697876	726.383362	43012.359375	20259.232422	46.192265
492.050354	721.850891	43422.214844	20445.656250	46.191189
492.402832	722.148132	43659.015625	20595.972656	46.286152
492.755219	717.615723	43507.960938	20569.595703	46.393600
493.107605	715.015137	42725.996094	20279.443359	46.569794
493.459930	724.080078	41458.835938	19731.384766	46.661144
493.812225	724.154297	39694.144531	18916.654297	46.683357
494.164490	720.810730	37727.351563	17994.410156	46.677155
494.516724	711.002686	35707.433594	17038.505859	46.654766
494.868896	716.278320	33879.511719	16171.541992	46.603607
495.221039	724.674500	32440.716797	15486.991211	46.545265
495.573120	719.993408	31324.986328	14940.866211	46.465862
495.925201	718.061523	30721.427734	14652.645508	46.443401
496.277222	714.643555	30370.125000	14481.675781	46.423229
496.629211	717.244141	30299.458984	14434.121094	46.368660
496.981140	714.940735	30308.154297	14415.916992	46.297699
497.333069	716.352539	30398.429688	14412.499023	46.142815
497.684967	724.748779	30480.982422	14454.480469	46.140690
498.036804	723.114075	30526.529297	14459.012695	46.088337
498.388580	727.349304	30456.833984	14459.532227	46.190449
498.740326	724.971680	30315.880859	14386.418945	46.167717
499.092072	728.240967	29990.289063	14251.113281	46.213005
499.443756	721.850891	29621.150391	14111.200195	46.331055
499.795410	720.216309	29238.197266	13959.624023	46.424774
500.147003	718.284424	28881.837891	13815.921875	46.505630
500.498566	715.015137	28535.736328	13618.946289	46.382450
500.850098	709.962463	28125.140625	13445.747070	46.455231
501.201599	707.733398	27787.064453	13298.776367	46.496876
501.553009	716.278320	27452.107422	13190.664063	46.657936
501.904449	718.655945	27254.087891	13084.411133	46.600918
502.255859	718.358704	27041.953125	12965.750000	46.526291
502.607178	713.677551	26957.916016	12873.614258	46.333736
502.958405	711.448547	26838.958984	12827.546875	46.372955
503.309692	716.129639	26785.537109	12810.977539	46.394791
503.660919	719.176086	26786.724609	12822.272461	46.429745
504.012115	728.092346	26825.734375	12833.714844	46.385883
504.363251	724.971680	26928.271484	12891.225586	46.430233
504.714294	723.634216	26979.689453	12926.073242	46.474766
505.065369	717.095642	27057.857422	12971.026367	46.520790
505.416443	719.547546	27091.068359	12976.375000	46.477512
505.767395	718.730164	27116.851563	12979.941406	46.447285
506.118317	719.993347	27069.369141	12934.097656	46.354439
506.469238	716.352539	27089.134766	12943.608398	46.363163
506.820160	714.197754	27066.994141	12954.085938	46.446259
507.170929	720.810730	27116.333984	13002.083008	46.527863
507.521729	723.634216	27141.298828	13040.945313	46.625286
507.872498	724.822998	27225.259766	13072.003906	46.592365
508.223236	714.049133	27367.177734	13128.101563	46.576344
508.573883	719.696106	27543.275391	13216.002930	46.587021
508.924500	724.005676	27766.109375	13332.508789	46.625450
509.275116	732.624817	27994.218750	13415.430664	46.522614
509.625702	727.646545	28241.796875	13514.252930	46.472839
509.976196	726.531982	28505.791016	13613.372070	46.390148
510.326660	726.086182	28775.810547	13765.618164	46.487202
510.677124	727.200684	28998.718750	13886.137695	46.544857
511.027557	726.531982	29241.837891	13991.054688	46.517200
511.377869	718.953125	29425.365234	14095.746094	46.598625
511.728180	715.832336	29602.130859	14161.429688	46.546627
512.078430	713.603333	29719.156250	14227.632813	46.591179
512.428650	714.494934	29836.478516	14268.203125	46.541157
512.778931	717.318420	29939.240234	14312.709961	46.524632
513.129028	721.925293	29973.865234	14347.929688	46.581539
513.479126	724.525879	30036.281250	14379.953125	46.586864
513.829285	727.720886	29989.023438	14382.035156	46.663383
514.179382	723.188416	29958.263672	14355.583008	46.630268
514.529297	725.343079	29836.109375	14313.972656	46.679054
514.879272	712.860352	29840.343750	14337.601563	46.776237
515.229187	713.454773	29757.943359	14276.971680	46.699108
515.579163	712.191589	29796.505859	14286.258789	46.671436
515.928955	717.021240	29839.156250	14272.214844	46.546017
516.278748	716.203918	30043.265625	14385.004883	46.608147
516.628540	714.272034	30336.687500	14503.518555	46.550037
516.978333	712.711731	30742.306641	14673.969727	46.491661
517.327942	712.340149	31271.490234	14929.200195	46.522434
517.677612	711.968689	31867.771484	15205.235352	46.518677
518.027222	710.779846	32504.320313	15491.077148	46.488365
518.376831	713.826172	33246.675781	15811.247070	46.406696
518.726379	714.866516	33939.921875	16136.620117	46.416039
519.075867	721.479431	34470.964844	16440.294922	46.574978
519.425293	720.587830	34812.089844	16666.173828	46.772903
519.774658	725.045898	34991.082031	16752.886719	46.774715
520.124084	725.268860	35069.394531	16747.314453	46.651489
520.473389	724.674377	34824.347656	16626.349609	46.632927
520.822693	720.141907	34426.386719	16465.259766	46.712761
521.171997	726.383362	33926.847656	16269.993164	46.817444
521.521240	722.148132	33491.132813	16056.596680	46.795616
521.870361	722.073914	33091.238281	15903.606445	46.901218
522.219482	710.928406	32745.429688	15735.905273	46.902481
522.568604	717.318542	32470.437500	15589.083008	46.835602
522.917664	714.049133	32310.240234	15471.164063	46.705360
523.266724	721.033691	32394.423828	15478.668945	46.593163
523.615662	721.107910	32661.693359	15618.729492	46.641666
523.964600	727.200745	33072.214844	15847.433594	46.746719
524.313538	733.962219	33625.917969	16126.291992	46.796638
524.662354	732.253418	34301.925781	16443.490234	46.801876
525.011169	732.996338	35192.816406	16845.763672	46.758129
525.359985	724.005676	36236.988281	17339.654297	46.787529
525.708740	725.045898	37490.699219	17896.701172	46.705704
526.057434	726.011902	38903.269531	18522.703125	46.615952
526.406067	727.572266	40454.488281	19253.841797	46.634052
526.754700	723.857117	42167.238281	20111.146484	46.780178
527.103333	725.714661	44103.046875	21072.623047	46.906776
527.451782	719.770508	46256.562500	22146.521484	47.053707
527.800293	719.473328	48438.167969	23310.546875	47.342186
528.148743	714.346375	50503.406250	24543.898438	47.861023
528.497131	713.008972	52298.488281	25720.109375	48.477013
528.845642	717.021240	53800.519531	26794.083984	49.124611
529.193909	709.591003	54985.281250	27747.833984	49.816486
529.542175	715.980957	55786.035156	28453.929688	50.368481
529.890503	718.804504	56085.253906	28786.880859	50.695099
530.238770	725.937561	55833.812500	28647.412109	50.666943
530.586914	725.566101	55044.050781	28116.076172	50.425762
530.934998	728.092346	53805.796875	27238.484375	49.946381
531.283142	728.909668	52237.332031	26199.734375	49.449825
531.631226	730.841553	50423.753906	25010.517578	48.859432
531.979248	721.107910	48612.628906	23915.593750	48.431301
532.327148	719.547546	47023.441406	22911.837891	47.927483
532.675110	714.792175	45940.332031	22247.052734	47.610840
533.023071	717.392822	45422.292969	21910.384766	47.406422
533.370850	716.426819	45284.832031	21818.029297	47.346546
533.718689	717.467102	45485.597656	21916.552734	47.353077
534.066467	719.696106	45714.300781	22024.218750	47.349060
534.414246	717.467102	45870.488281	22107.884766	47.373173
534.761963	717.244141	45707.765625	22064.046875	47.447330
535.109619	718.358704	45300.292969	21923.318359	47.564018
535.457153	716.352539	44562.832031	21605.822266	47.642292
535.804749	713.306152	43701.964844	21202.654297	47.662216
536.152344	714.494934	42860.261719	20746.435547	47.530140
536.499817	719.993408	41971.675781	20272.457031	47.397976
536.847229	722.519592	41067.707031	19812.523438	47.316681
537.194641	717.318420	40214.343750	19354.373047	47.185974
537.542114	714.494934	39630.699219	19030.634766	47.065590
537.889404	721.479431	39154.562500	18754.748047	46.921215
538.236694	723.188416	38688.312500	18577.611328	47.028488
538.583984	729.281250	38272.511719	18444.164063	47.185291
538.931213	725.491760	38038.609375	18344.154297	47.218414
539.278381	729.504150	37927.457031	18256.251953	47.117508
539.625488	723.188416	37974.859375	18236.041016	47.012260
539.972595	724.451599	38247.250000	18389.998047	47.079506
540.319641	721.256531	38922.734375	18678.142578	47.005741
540.666687	718.358704	39924.562500	19113.779297	46.919666
541.013611	714.494934	41226.640625	19649.875000	46.740009
541.360596	716.649719	42587.273438	20319.861328	46.818531
541.707458	722.891174	44017.968750	21038.294922	46.923126
542.054260	722.371033	45207.261719	21675.291016	47.101208
542.401062	719.919128	46204.406250	22181.369141	47.184105
542.747864	721.628113	46628.824219	22509.562500	47.460823
543.094666	726.754883	46562.691406	22574.353516	47.664776
543.441284	724.005676	45912.027344	22317.044922	47.784870
543.787903	719.993408	44954.707031	21841.732422	47.749237
544.134460	713.529053	43706.199219	21213.056641	47.681446
544.481079	711.671448	42255.582031	20525.904297	47.694675
544.827637	709.888184	40646.039063	19723.656250	47.610413
545.174072	713.306091	39026.609375	18920.146484	47.520931
545.520508	714.792175	37640.199219	18180.462891	47.299873
545.866943	716.352539	36511.464844	17599.937500	47.167294
546.213318	714.272034	35676.750000	17171.955078	47.072418
546.559631	715.981018	34937.957031	16871.474609	47.207951
546.905823	717.764343	34331.796875	16556.728516	47.120098
547.252136	716.055359	33821.183594	16299.788086	47.073467
547.598389	718.432922	33373.214844	16035.640625	46.906479
547.944458	715.906677	32975.843750	15861.846680	46.949688
548.290588	725.565979	32491.314453	15621.254883	46.892296
548.636658	725.714661	31895.259766	15370.335938	46.983749
548.982727	729.652649	31157.283203	15034.784180	47.013622
549.328735	720.439148	30419.384766	14741.808594	47.211674
549.674622	724.005676	29666.849609	14365.911133	47.133949
550.020569	714.420654	28964.166016	14067.808594	47.269054
550.366455	717.615723	28204.125000	13693.620117	47.208626
550.712280	712.414551	27559.177734	13426.723633	47.358814
551.058044	719.919128	27041.062500	13115.395508	47.093231
551.403748	719.473328	26659.966797	12917.304688	47.022354
551.749512	717.244141	26367.732422	12750.049805	46.910629
552.095154	722.519714	26185.244141	12643.722656	46.818253
552.440735	731.138855	26124.615234	12605.976563	46.763340
552.786316	729.875671	26134.572266	12614.075195	46.779533
553.131897	726.234680	26174.250000	12664.229492	46.911301
553.477417	714.792175	26172.466797	12658.210938	46.914810
553.822815	714.346375	26154.037109	12642.237305	46.886932
554.168213	715.832336	26072.228516	12608.651367	46.902641
554.513672	719.770508	25970.955078	12570.682617	46.932106
554.859009	725.714661	25778.437500	12461.234375	46.843288
555.204285	724.748779	25621.734375	12369.840820	46.773098
555.549500	717.615662	25383.740234	12260.989258	46.798489
555.894714	712.860291	25163.062500	12179.553711	46.898151
556.239990	710.854065	24770.966797	12045.660156	47.110359
556.585022	724.080017	24475.539063	11925.809570	47.162281
556.930115	721.033630	24144.296875	11782.924805	47.226089
557.275146	727.126465	23927.109375	11673.922852	47.184505
557.620178	714.866516	23706.804688	11575.770508	47.237881
557.965149	715.312256	23555.968750	11495.746094	47.198441
558.310059	714.272034	23387.822266	11390.012695	47.084553
558.654968	723.114075	23228.664063	11324.848633	47.107197
558.999756	730.247131	23125.162109	11269.567383	47.061222
559.344604	724.674500	23091.578125	11259.461914	47.099888
559.689331	719.027405	23065.869141	11200.762695	46.904774
560.033997	711.597168	22970.537109	11168.887695	46.980186
560.378723	711.522888	22944.976563	11141.989258	46.913391
560.723389	717.987122	22947.802734	11149.643555	46.926418
561.067932	725.566101	23043.130859	11155.440430	46.733925
561.412476	725.789001	23012.296875	11170.151367	46.864059
561.757019	723.782898	22966.228516	11173.420898	46.980614
562.101501	722.296692	22967.789063	11172.157227	46.975182
562.445862	720.885010	22956.570313	11157.965820	46.938427
562.790222	717.987122	22950.103516	11145.110352	46.901169
563.134644	719.844727	22901.212891	11152.987305	47.035614
563.478943	720.141907	22927.369141	11160.416992	47.012962
563.823181	711.448547	22964.296875	11156.182617	46.936619
564.167358	709.813904	22989.931641	11161.531250	46.910515
564.511536	721.776611	23039.490234	11174.682617	46.836815
564.855774	731.213074	23037.929688	11204.627930	46.951843
565.199768	729.578369	23140.171875	11264.812500	47.010063
565.543823	719.473206	23285.431641	11309.394531	46.928741
565.887817	718.210144	23590.890625	11388.601563	46.651253
566.231812	718.284424	23835.791016	11458.965820	46.461246
566.575745	718.284485	24025.562500	11561.280273	46.521935
566.919617	720.364929	24171.195313	11648.066406	46.598354
567.263428	715.312256	24288.962891	11704.461914	46.616241
567.607239	716.798340	24437.494141	11761.823242	46.562824
567.950989	717.764343	24480.146484	11767.469727	46.500828
568.294678	719.993408	24484.679688	11789.910156	46.581375
568.638367	722.073792	24344.025391	11734.925781	46.621262
568.981995	718.507324	24137.384766	11690.864258	46.852619
569.325623	715.089355	23886.169922	11602.890625	46.988750
569.669128	707.064758	23709.179688	11530.222656	47.052883
570.012573	717.169861	23608.646484	11453.541992	46.901176
570.356140	720.884949	23621.947266	11408.959961	46.670650
570.699524	728.538147	23613.552734	11383.993164	46.560841
571.042908	721.256531	23741.947266	11417.430664	46.463303
571.386230	717.021301	23833.267578	11428.723633	46.338417
571.729492	715.535156	23987.072266	11476.426758	46.240570
572.072815	717.987122	24096.000000	11532.526367	46.259445
572.416016	725.194580	24221.421875	11614.109375	46.343250
572.759094	725.863281	24365.494141	11697.700195	46.412895
573.102234	721.702393	24454.212891	11745.476563	46.450100
573.445374	722.891174	24482.968750	11775.867188	46.519104
573.788391	719.919128	24460.234375	11765.835938	46.528099
574.131409	718.804504	24429.398438	11732.102539	46.448849
574.474365	713.231750	24412.828125	11723.706055	46.458492
574.817261	715.832520	24280.123047	11660.252930	46.444935
575.160156	719.324707	24082.181641	11587.956055	46.520981
575.502930	716.724060	23862.914063	11460.897461	46.418758
575.845703	715.609436	23659.400391	11370.100586	46.437363
576.188477	714.197754	23430.695313	11235.984375	46.317822
576.531250	724.080078	23128.580078	11110.336914	46.357906
576.873901	723.262695	22859.009766	10975.700195	46.316204
577.216431	720.587830	22594.046875	10868.035156	46.391598
577.559082	714.346375	22339.039063	10749.002930	46.403694
577.901611	717.392822	22031.275391	10610.131836	46.414532
578.244080	718.210144	21675.365234	10471.780273	46.540527
578.586487	722.742615	21352.744141	10334.096680	46.589207
578.928955	743.175781	21031.087891	10214.766602	46.685883
579.271301	741.541199	20736.328125	10061.777344	46.613331
579.613647	730.618652	20382.500000	9891.549805	46.616055
579.955872	711.077087	20063.666016	9717.534180	46.538769
580.298157	708.030701	19785.550781	9586.091797	46.536770
580.640320	716.798340	19539.460938	9464.383789	46.473690
580.982483	712.934570	19302.734375	9371.727539	46.578190
581.324524	716.055359	19058.130859	9263.171875	46.598412
581.666626	719.101746	18901.943359	9193.698242	46.607658
582.008728	709.962463	18816.642578	9124.819336	46.473770
582.350647	705.281433	18773.919922	9068.126953	46.283760
582.692566	699.634460	18666.998047	9003.112305	46.214226
583.034424	708.996582	18552.943359	8946.047852	46.161594
583.376343	711.225586	18431.755859	8917.664063	46.310341
583.718201	711.968689	18360.277344	8897.082031	46.379025
584.059937	715.312256	18276.908203	8870.852539	46.439629
584.401611	715.609558	18189.156250	8829.465820	46.435085
584.743347	720.141907	18112.179688	8765.863281	46.260948
585.085022	718.135742	18037.208984	8728.711914	46.252911
585.426514	722.148132	17968.701172	8690.892578	46.204853
585.768127	720.067688	17918.771484	8666.967773	46.206390
586.109619	719.324646	17840.380859	8617.704102	46.132545
586.451172	719.027405	17785.841797	8595.785156	46.152477
586.792542	717.541321	17730.412109	8583.079102	46.232864
587.133850	714.123535	17681.445313	8579.735352	46.357414
587.475220	716.649719	17677.062500	8561.606445	46.254517
587.816589	724.154297	17658.265625	8548.602539	46.205250
588.157776	724.971680	17713.322266	8571.932617	46.190243
588.498962	724.823059	17751.142578	8580.180664	46.136555
588.840210	723.411316	17846.175781	8614.508789	46.085419
589.181335	727.200745	17911.042969	8627.808594	45.976959
589.522400	726.903564	17964.392578	8659.089844	46.017067
589.863403	722.891174	17970.855469	8660.576172	46.020996
590.204407	723.336975	17989.208984	8643.040039	45.869122
590.545410	723.634216	18028.513672	8651.289063	45.811676
590.886353	718.284424	18038.173828	8662.062500	45.865067
591.227112	715.981018	17982.001953	8667.189453	46.051189
591.567932	716.129700	17917.804688	8643.041992	46.082207
591.908752	726.234802	17840.380859	8594.745117	45.976643
592.249512	726.234802	17833.767578	8579.141602	45.903210
592.590149	719.324646	17742.001953	8545.035156	45.972263
592.930786	716.129639	17678.251953	8512.416992	45.962921
593.271423	714.123352	17577.125000	8458.472656	45.925091
593.612000	718.878723	17515.826172	8415.674805	45.822586
593.952576	711.671448	17512.630859	8409.581055	45.818275
594.292969	714.494934	17557.732422	8414.114258	45.713413
594.633484	711.745789	17620.740234	8424.739258	45.614738
594.973877	723.931396	17717.929688	8455.128906	45.493694
595.314209	722.148132	17844.912109	8502.460938	45.438419
595.654480	728.686768	18069.677734	8590.360352	45.335785
595.994812	722.742493	18242.060547	8695.053711	45.505829
596.335022	720.513489	18444.462891	8791.423828	45.536747
596.675171	714.792175	18583.259766	8864.686523	45.610485
597.015320	721.628113	18790.341797	8921.230469	45.380116
597.355408	729.875671	18904.839844	8953.551758	45.247272
597.695496	734.185242	19025.134766	9007.346680	45.230900
598.035461	724.674377	18966.509766	8994.715820	45.335575
598.375366	719.844727	18942.214844	8997.540039	45.426006
598.715271	720.736389	18792.642578	8954.295898	45.559994
599.055176	725.268860	18621.673828	8876.797852	45.548416
599.395081	728.018066	18327.732422	8757.541992	45.623035
599.734802	722.222412	17998.050781	8605.741211	45.633232
600.074524	714.792175	17685.681641	8448.071289	45.567909
600.414246	712.117188	17337.052734	8279.775391	45.519924
600.753906	717.838562	17031.224609	8114.079590	45.338482
601.093506	722.370911	16723.091797	7987.394043	45.404346
601.433044	720.587708	16555.833984	7879.283203	45.207352
601.772583	719.101746	16416.146484	7838.937012	45.357807
602.112122	715.906738	16406.335938	7798.739746	45.141102
602.451538	721.553711	16408.937500	7830.244141	45.314697
602.790894	724.080017	16506.275391	7852.014160	45.164402
603.130310	728.463867	16674.125000	7946.527344	45.266632
603.469604	715.089355	16910.853516	8013.103027	45.061253
603.808838	710.705566	17200.189453	8127.008301	44.975952
604.148010	705.950195	17500.074219	8246.264648	44.898525
604.487305	716.501160	17769.125000	8380.677734	44.944267
604.826416	716.352539	17997.679688	8479.649414	44.923035
605.165527	716.352539	18172.068359	8532.404297	44.776463
605.504456	714.197754	18294.519531	8582.112305	44.754097
605.843445	717.021301	18344.970703	8612.428711	44.789143
606.182434	723.114075	18304.847656	8642.372070	45.042530
606.521423	720.662109	18188.861328	8605.370117	45.137497
606.860229	725.417480	18008.972656	8514.274414	45.065132
607.199036	721.405090	17779.005859	8404.826172	45.043968
607.537903	720.364929	17542.873047	8298.202148	45.045826
607.876648	716.798340	17279.171875	8180.877441	45.066483
608.215271	714.346375	16991.472656	8046.315918	45.044621
608.553955	718.210144	16772.427734	7917.251953	44.842060
608.892578	713.974854	16583.031250	7824.744629	44.809025
609.231140	713.231873	16503.673828	7765.005859	44.658497
609.569641	711.745789	16416.591797	7718.937500	44.618023
609.908081	710.333984	16442.820313	7711.284668	44.499962
610.246521	717.392761	16428.554688	7730.975098	44.640762
610.584961	716.872620	16453.966797	7747.173340	44.673439
610.923340	719.621887	16370.820313	7729.712402	44.789478
611.261597	711.745789	16274.672852	7687.062500	44.820084
611.599854	715.015137	16125.472656	7623.236328	44.828140
611.938110	715.758118	15982.737305	7568.920410	44.888790
612.276245	723.188416	15775.135742	7465.491699	44.793560
612.614319	716.575439	15468.265625	7333.976074	44.858589
612.952393	713.008972	15147.129883	7192.057129	44.887032
613.290466	710.556946	14845.088867	7068.641113	44.982628
613.628479	716.352539	14573.214844	6958.302246	45.045910
613.966370	721.776611	14324.300781	6831.392578	44.915310
614.304260	716.203918	14128.735352	6709.460938	44.684010
614.642151	710.333984	13960.367188	6621.783691	44.614601
614.979980	709.293762	13801.432617	6555.802734	44.656635
615.317749	713.677673	13634.252930	6505.128906	44.823479
615.655396	713.603333	13540.629883	6463.148438	44.823677
615.993164	706.841797	13489.659180	6433.130371	44.796764
616.330811	714.569336	13438.242188	6391.892090	44.620155
616.668396	722.296692	13433.040039	6380.969238	44.518818
617.005859	735.894226	13388.905273	6378.962891	44.598625
617.343445	728.018066	13402.054688	6383.197754	44.620193
617.680908	730.024231	13384.372070	6375.322266	44.611526
618.018311	723.559998	13429.324219	6375.842285	44.485966
618.355652	726.011902	13456.223633	6387.433594	44.472332
618.692993	726.234863	13430.217773	6389.067871	44.575260
619.030273	726.234863	13398.563477	6379.037109	44.607449
619.367554	724.897400	13355.541992	6372.646973	44.714657
619.704712	721.256531	13351.752930	6374.356934	44.757549
620.041870	716.501160	13327.530273	6358.604004	44.739433
620.379028	720.439148	13296.250000	6320.858887	44.533272
620.716064	716.501160	13251.000000	6273.898926	44.336819
621.053040	715.906677	13186.652344	6241.502441	44.308460
621.389954	714.271973	13120.745117	6229.168457	44.451767
621.726929	713.751953	13059.817383	6204.203125	44.471264
622.063843	709.219421	13017.316406	6179.906250	44.447872
622.400635	699.708679	13004.834961	6134.655762	44.168156
622.737427	701.492004	12953.120117	6112.587402	44.166336
623.074219	714.792175	12885.131836	6069.269043	43.996117
623.410889	724.600159	12809.565430	6048.984375	44.057922
623.747559	731.064453	12778.656250	6037.690918	44.047195
624.084167	726.680603	12763.200195	6055.671875	44.273521
624.420715	719.250427	12761.789063	6070.085938	44.432785
624.757324	714.940735	12776.203125	6052.402344	44.252926
625.093750	715.460876	12847.682617	6047.572754	43.950005
625.430176	724.897400	12907.348633	6042.296875	43.648026
625.766602	719.250305	12953.491211	6061.318848	43.664894
626.102905	712.117371	13035.296875	6092.674316	43.662083
626.439209	705.430115	13125.799805	6141.268066	43.765507
626.775452	711.671448	13263.555664	6191.125000	43.654434
627.111694	720.513489	13339.493164	6224.486816	43.616627
627.447876	721.182190	13394.328125	6239.199219	43.541023
627.783997	725.714661	13411.789063	6263.645020	43.653618
628.120056	723.708496	13447.307617	6282.814941	43.691303
628.456055	724.971680	13449.089844	6276.276855	43.628212
628.792053	718.953125	13431.851563	6256.958496	43.562099
629.128052	717.690002	13339.418945	6206.357422	43.485863
629.463928	720.885010	13256.868164	6188.970703	43.619122
629.799744	723.188416	13144.002930	6122.618652	43.470821
630.135559	729.206848	13013.229492	6077.888184	43.541771
630.471375	724.823059	12866.036133	6001.579590	43.461525
630.807068	723.485596	12701.307617	5938.050781	43.535172
631.142700	714.420654	12556.342773	5875.933594	43.586781
631.478333	719.473328	12417.026367	5819.834473	43.601952
631.813965	720.067688	12320.801758	5776.145020	43.584114
632.149475	718.953125	12221.609375	5717.594238	43.456406
632.484924	712.340149	12128.877930	5666.994141	43.398918
632.820435	711.448486	12030.799805	5639.501953	43.536537
633.155884	717.095520	11936.286133	5604.728516	43.564934
633.491150	719.770508	11861.909180	5575.898926	43.583450
633.826477	719.324646	11824.906250	5533.471191	43.348888
634.161804	725.120300	11769.106445	5507.688965	43.304733
634.497009	720.736328	11732.325195	5485.472656	43.270199
634.832153	721.479431	11640.859375	5446.760742	43.274265
635.167297	710.185364	11608.612305	5410.872559	43.131794
635.502380	719.547607	11553.999023	5379.517090	43.010666
635.837463	717.021301	11491.659180	5349.795410	42.997028
636.172424	717.318542	11395.808594	5310.712402	43.015388
636.507324	712.934631	11283.983398	5260.854980	43.022415
636.842224	717.615723	11161.829102	5209.884277	43.012035
637.177124	718.953125	11046.511719	5158.912109	42.991371
637.511963	719.324646	10933.348633	5116.484863	43.050220
637.846741	717.021301	10837.274414	5067.891113	42.991707
638.181396	720.810730	10715.641602	5022.641113	43.040554
638.516113	719.919128	10598.168945	4973.155762	43.056583
638.850769	716.501160	10493.625000	4929.985840	43.095341
639.185303	716.798340	10385.366211	4882.432129	43.084286
639.519836	716.798340	10309.502930	4845.800781	43.043152
639.854370	724.823059	10254.963867	4813.256348	42.900032
640.188843	722.816895	10206.593750	4775.658691	42.734467
640.523254	724.005676	10135.633789	4722.606934	42.485756
640.857605	714.569275	10009.246094	4670.520508	42.561470
641.191895	715.163757	9918.893555	4636.192871	42.602612
641.526184	715.906738	9848.677734	4613.976563	42.682220
641.860413	722.519714	9838.200195	4606.100098	42.603294
642.194580	718.061523	9795.848633	4595.400879	42.712383
642.528748	709.962463	9714.784180	4559.214844	42.746571
642.862793	709.442383	9636.915039	4519.611816	42.679150
643.196838	716.129578	9569.522461	4487.884277	42.602364
643.530823	722.222473	9535.639648	4460.466797	42.415382
643.864746	721.107910	9463.491211	4452.812988	42.685219
644.198669	719.770447	9430.352539	4428.813965	42.580891
644.532532	717.615723	9375.666016	4417.445313	42.732822
644.866333	715.758118	9354.563477	4379.253418	42.407429
645.200073	712.265930	9342.155273	4365.507813	42.332428
645.533813	714.420715	9347.876953	4357.111328	42.192730
645.867554	717.541321	9342.823242	4360.529785	42.236168
646.201172	722.668152	9316.149414	4340.765137	42.102806
646.534729	719.473145	9311.319336	4336.009766	42.092663
646.868225	713.380371	9335.765625	4324.789551	41.884109
647.201782	706.470276	9335.617188	4335.712402	42.057949
647.535217	717.690002	9360.508789	4335.489746	41.859028
647.868591	722.519714	9335.170898	4341.136230	42.015129
648.201965	728.315247	9329.821289	4318.102539	41.734406
648.535278	718.210144	9294.526367	4298.783691	41.749550
648.868591	716.649719	9292.075195	4286.300781	41.626518
649.201782	714.717773	9275.579102	4286.227051	41.719040
649.534912	720.513489	9246.230469	4285.187012	41.810837
649.868103	724.525879	9197.561523	4268.097168	41.821747
650.201172	723.188416	9168.881836	4260.963379	41.888508
650.534180	717.912903	9138.417969	4242.388184	41.855865
650.867188	718.358704	9122.071289	4220.394531	41.672485
651.200134	727.200745	9105.649414	4199.812988	41.446964
651.533020	729.132568	9070.355469	4170.909180	41.262257
651.865845	717.467041	9024.660156	4174.104004	41.610165
652.198608	711.522766	8977.998047	4149.212402	41.585918
652.531433	710.779785	8957.639648	4136.878418	41.544285
652.864136	713.529053	8928.735352	4098.983887	41.209614
653.196777	834.493896	9023.916992	4141.856445	40.385784
653.529358	837.837463	8986.914063	4116.816406	40.237431
653.861938	842.518555	8939.434570	4085.386475	40.050655
654.194519	717.392761	8739.784180	4003.430664	40.960827
654.526978	712.117249	8681.083984	3985.969727	41.082523
654.859375	708.476379	8625.133789	3968.211182	41.175648
655.191833	710.705566	8585.752930	3936.855469	40.966736
655.524170	709.442383	8528.985352	3918.428467	41.038025
655.856445	709.962463	8474.077148	3897.474609	41.054420
656.188660	714.420654	8459.215820	3894.056641	41.055134
656.520874	716.129639	8410.250977	3872.434814	41.022297
656.853088	719.993347	8432.987305	3880.162109	40.972008
657.185181	714.420654	8421.172852	3872.657959	40.980133
657.517212	716.203918	8487.674805	3865.004639	40.517437
657.849243	711.671570	8502.311523	3864.187500	40.465427
658.181274	710.482605	8567.772461	3881.797119	40.361427
658.513123	708.253601	8626.026367	3899.629639	40.306484
658.844971	711.002747	8735.473633	3930.167969	40.116856
659.176819	719.993347	8824.488281	3957.288330	39.944435
659.508667	716.203918	8891.137695	4001.275635	40.184692
659.840393	716.798340	8950.059570	4018.959717	40.107571
660.172058	713.454773	8971.680664	4028.247803	40.139290
660.503662	720.142029	9018.268555	4031.739990	39.907776
660.835266	723.262695	9026.145508	4037.758545	39.919819
661.166931	718.655945	9003.632813	4029.659424	39.963943
661.498413	721.925232	8933.564453	4016.507813	40.120884
661.829773	720.067688	8812.451172	3972.297852	40.188782
662.161194	727.497986	8705.009766	3914.564697	39.950634
662.492615	723.708557	8575.722656	3858.614502	39.924866
662.823975	732.624817	8426.523438	3809.574951	39.992081
663.155212	724.600098	8280.444336	3748.349609	40.018684
663.486450	725.788879	8118.018066	3687.867188	40.070164
663.817627	712.488770	8006.267090	3617.502686	39.828655
664.148743	717.095520	7878.763184	3573.440674	39.883801
664.479858	713.380371	7792.274902	3525.664063	39.727726
664.810913	715.832336	7698.876465	3501.144287	39.886787
665.141907	715.163757	7629.255371	3465.776367	39.782703
665.472778	717.912903	7537.342285	3440.216064	39.919811
665.803711	727.943787	7496.253418	3422.680420	39.814026
666.134583	725.789063	7470.990234	3403.287354	39.694862
666.465454	726.680664	7473.070313	3377.356201	39.290283
666.796143	720.364929	7431.832520	3350.086914	39.182514
667.126831	718.581604	7406.124512	3346.148682	39.290470
667.457458	723.931396	7360.947754	3351.201172	39.585102
667.788147	719.696106	7328.700684	3348.600830	39.777622
668.118774	717.764343	7298.087402	3316.947998	39.499329
668.449219	708.773682	7302.025391	3296.217529	39.243820
668.779663	711.448547	7297.492676	3284.254639	39.064514
669.110107	709.516663	7287.908203	3298.446533	39.355061
669.440552	704.984192	7263.313965	3294.656982	39.486774
669.770874	707.733398	7258.113281	3277.938721	39.237499
670.101135	711.597168	7235.079590	3259.363281	39.055309
670.431396	724.228577	7216.578125	3245.096924	38.828293
670.761597	720.885010	7157.729980	3228.156006	38.951862
671.091797	725.937500	7116.863281	3203.784424	38.771332
671.421875	719.993347	7071.761719	3189.518555	38.879330
671.751892	721.850891	7053.037109	3163.215576	38.560940
672.081909	717.318420	7017.743652	3150.138428	38.613586
672.411865	711.448547	6968.926270	3121.457275	38.514061
672.741821	711.968689	6928.060059	3114.398438	38.648560
673.071716	711.374268	6889.423340	3091.290283	38.522129
673.401550	716.798340	6852.345703	3069.965576	38.353012
673.731262	709.962463	6807.169434	3049.011963	38.362640
674.060974	711.745789	6763.404785	3039.650146	38.467209
674.390625	714.272034	6733.980957	3038.015625	38.602261
674.720276	722.816895	6675.653809	3021.074219	38.607765
675.049927	722.593933	6628.174316	3001.904297	38.595871
675.379395	717.689941	6595.927246	2970.251221	38.320354
675.708923	714.940735	6578.168457	2947.291748	38.073757
676.038330	715.312256	6549.413574	2924.183594	37.861378
676.367737	715.535156	6501.488281	2911.923584	37.960701
676.697083	713.157532	6474.070313	2894.833984	37.870327
677.026428	714.346375	6473.921875	2885.843506	37.702381
677.355652	719.176086	6472.510254	2880.642334	37.568935
677.684875	715.683838	6492.349121	2881.608154	37.494373
678.013977	716.946960	6462.851074	2872.914795	37.521820
678.343079	713.454773	6471.915527	2859.762939	37.272251
678.672180	714.271973	6458.169922	2851.515625	37.208942
679.001221	713.008850	6489.748535	2866.524658	37.279087
679.330139	708.847961	6516.497559	2884.505859	37.461937
679.659058	711.448547	6554.392090	2890.747314	37.297962
679.987976	717.764343	6609.599121	2903.601563	37.099430
680.316772	726.086121	6660.570313	2907.911133	36.765198
680.645630	733.665039	6702.774902	2937.855469	36.926617
680.974304	721.553711	6744.903809	2939.489990	36.822304
681.302979	722.148132	6786.884766	2933.471436	36.461983
681.631653	714.940735	6816.753906	2921.360107	36.160065
681.960266	726.903503	6817.126465	2917.496338	35.969006
682.288757	729.504089	6814.376953	2932.802734	36.209442
682.617249	732.179016	6811.479004	2942.387695	36.356304
682.945679	727.423645	6788.593750	2939.638428	36.498150
683.274109	721.851013	6745.646973	2918.759033	36.470490
683.602478	717.690002	6675.951172	2887.180664	36.411472
683.930725	718.730225	6604.694824	2857.533936	36.337353
684.259033	716.352539	6522.515625	2826.995361	36.351765
684.587280	719.176086	6449.029785	2803.070068	36.369064
684.915344	713.306152	6369.897949	2775.429443	36.455227
685.243469	720.810730	6290.914063	2747.268799	36.380978
685.571533	722.371094	6215.496582	2706.105225	36.113029
685.899536	726.532043	6146.097656	2680.247803	36.049309
686.227539	726.011902	6110.655762	2654.316406	35.811176
686.555420	726.011902	6097.801270	2642.873291	35.683849
686.883301	722.296814	6106.568848	2642.947754	35.671505
687.211121	714.643555	6103.521973	2640.792969	35.743050
687.538940	713.454773	6098.544434	2647.777588	35.919971
687.866638	711.299988	6085.986816	2634.105713	35.775211
688.194336	716.872742	6074.916504	2627.790039	35.664455
688.521973	722.073914	6063.696777	2620.136963	35.533451
688.849609	731.584656	6061.615723	2611.592041	35.271976
689.177063	725.194580	6040.959473	2603.567383	35.335892
689.504578	725.343201	5990.656250	2582.019531	35.262409
689.832031	721.925293	5913.084473	2568.347900	35.568600
690.159485	722.816895	5825.333496	2541.450195	35.641888
690.486816	722.891174	5738.250488	2513.586670	35.704231
690.814087	725.491882	5678.734375	2472.868896	35.277435
691.141296	730.321472	5609.855469	2440.101318	35.039814
691.468506	731.807434	5546.251953	2411.420654	34.886959
691.795715	726.977844	5465.262207	2385.488770	35.002354
692.122803	725.045959	5383.157715	2357.996826	35.056068
692.449829	716.946960	5324.606934	2328.052734	34.965809
692.776855	720.290588	5258.552246	2301.601074	34.843971
693.103821	717.467041	5209.066895	2276.635254	34.712982
693.430664	724.600098	5149.104492	2249.366211	34.461849
693.757568	724.525696	5097.018066	2224.623535	34.307617
694.084351	727.497864	5042.851563	2211.917725	34.398571
694.411133	721.107910	5009.192383	2209.317139	34.705688
694.737854	717.021301	4977.390625	2197.800049	34.757053
695.064575	716.055359	4962.381348	2176.921143	34.403049
695.391174	717.467102	4932.140137	2163.323730	34.305313
695.717773	712.786072	4925.230469	2156.339111	34.268772
696.044250	711.151367	4913.862305	2166.444336	34.627483
696.370789	711.745789	4944.549316	2149.948975	33.977554
696.697205	716.946960	4965.353516	2149.280273	33.714600
697.023621	723.857117	5022.863770	2144.970703	33.056786
697.349915	721.182190	5062.764160	2161.540283	33.175884
697.676208	719.250305	5146.652344	2186.654785	33.143696
698.002380	714.049133	5237.004395	2212.735107	33.135109
698.328674	713.231750	5344.817871	2260.957520	33.416756
698.654724	718.730225	5427.145020	2281.910889	33.199722
698.980896	723.114014	5529.533691	2316.833252	33.158134
699.306946	730.024231	5626.201660	2322.257324	32.519924
699.632935	729.949951	5707.414063	2333.254150	32.211266
699.958862	733.070618	5731.265625	2332.288330	31.995907
700.284729	728.315247	5709.644043	2329.390381	32.141529
700.610596	721.627930	5635.787109	2320.102539	32.527939
700.936340	718.061462	5555.688965	2291.273193	32.520313
701.262146	716.946838	5422.835938	2248.771729	32.551231
701.587830	718.507324	5306.477539	2210.282959	32.514938
701.913513	711.597168	5159.060547	2168.896484	32.766979
702.239075	713.083191	5042.776855	2138.729492	32.927185
702.564697	715.683838	4927.607422	2096.674072	32.787636
702.890137	719.770447	4798.840820	2060.191406	32.860943
703.215698	720.662109	4701.058594	2026.978149	32.818741
703.541016	721.107910	4582.397461	1995.919556	33.015179
703.866455	727.052063	4505.939941	1959.288452	32.608437
704.191711	725.194519	4428.812988	1928.750000	32.496746
704.517029	722.965515	4393.073730	1906.533569	32.248863
704.842163	716.501160	4342.399902	1890.484009	32.377708
705.167419	708.030579	4308.592285	1863.735229	32.097897
705.492493	700.303040	4269.508789	1858.459595	32.448578
705.817566	706.173035	4240.084473	1847.908569	32.307987
706.142578	716.501160	4201.224121	1840.849731	32.265079
706.467590	725.194580	4176.035645	1813.803711	31.546198
706.792480	715.089355	4152.333496	1799.760376	31.556416
707.117371	708.847961	4141.336426	1795.673828	31.662914
707.442200	717.095520	4140.370605	1796.862671	31.541931
707.766907	726.680603	4153.744629	1793.964844	31.142815
708.091675	730.395752	4149.955566	1790.101074	30.989525
708.416321	725.120300	4153.894043	1787.797852	30.992931
708.741028	724.228577	4153.299316	1790.026855	31.081259
709.065552	724.674500	4172.766602	1792.181641	30.959356
709.390137	723.262695	4182.797363	1785.420044	30.702318
709.714600	721.702393	4220.022949	1791.364258	30.576439
710.039063	721.479431	4259.552246	1797.234253	30.405109
710.363403	721.850891	4311.415039	1821.828491	30.643763
710.687744	719.993347	4344.405762	1832.676636	30.699690
711.012085	717.615662	4386.609375	1840.552734	30.606131
711.336304	723.336975	4416.999512	1850.880859	30.526447
711.660461	726.977844	4440.776367	1844.713745	30.096836
711.984619	730.692932	4464.553223	1839.438110	29.694338
712.308716	719.101746	4472.354980	1831.265015	29.631983
712.632751	713.974792	4479.190918	1831.190552	29.672024
712.956726	710.408386	4450.361816	1837.506348	30.136683
713.280701	721.925293	4407.637207	1823.834595	29.896784
713.604553	724.897278	4354.064941	1810.311523	29.908077
713.928467	734.853821	4300.418457	1791.067017	29.622604
714.252258	731.510254	4250.115234	1766.250000	29.407671
714.575989	728.166687	4205.385254	1742.101563	29.159367
714.899719	726.457703	4153.894043	1722.337280	29.056108
715.223267	718.358704	4111.243652	1710.225952	29.233742
715.546936	722.445313	4072.754883	1704.281616	29.305838
715.870422	715.906677	4046.526123	1691.352905	29.287231
716.193970	719.473206	4015.987549	1687.637695	29.369339
716.517395	715.089355	3987.306885	1678.869995	29.453440
716.840820	716.278259	3956.100342	1671.216797	29.475031
717.164124	715.683838	3933.066162	1654.647095	29.184074
717.487488	717.095520	3908.768799	1652.343872	29.302759
717.810730	714.940735	3889.821533	1628.567017	28.776711
718.133972	713.900574	3849.103760	1619.353516	28.880199
718.457092	714.494934	3797.835205	1595.502319	28.573147
718.780212	717.690002	3731.780029	1597.211304	29.180326
719.103210	719.844727	3678.505127	1571.205444	28.775209
719.426208	717.615662	3621.440430	1553.744263	28.794044
719.749207	710.928406	3579.979492	1530.115845	28.552557
720.072083	705.652893	3544.091064	1510.797363	28.365757
720.394958	704.538391	3510.729248	1502.921265	28.450768
720.717773	709.739563	3459.683350	1480.853149	28.041067
721.040527	715.906738	3421.639893	1470.822632	27.900604
721.363281	719.696106	3382.705811	1454.847290	27.606026
721.685913	714.346375	3352.835938	1442.141602	27.583784
722.008545	710.631165	3319.177002	1437.831909	27.877628
722.331055	707.807678	3288.341064	1420.593750	27.621656
722.653503	714.420654	3284.403076	1413.163452	27.188622
722.976013	725.194519	3272.737549	1407.962280	26.801031
723.298401	730.024231	3263.375732	1419.479126	27.215130
723.620789	731.361633	3236.477783	1422.228394	27.578232
723.943115	722.148132	3213.369873	1405.658813	27.436768
724.265381	723.634094	3210.026123	1389.535156	26.781820
724.587585	722.891113	3219.833984	1384.928345	26.513912
724.909790	722.668274	3236.775146	1395.702271	26.770302
725.231873	719.993347	3243.759766	1390.946899	26.585407
725.553894	719.324646	3228.081787	1390.352539	26.747423
725.875916	740.946716	3248.291992	1430.104492	27.485556
726.197937	742.209900	3249.778076	1436.048706	27.669788
726.519775	741.466797	3263.301025	1427.652466	27.209785
726.841675	721.999512	3247.251953	1383.070923	26.178429
727.163513	710.333984	3264.341797	1378.464233	26.160070
727.485291	713.826233	3300.155273	1382.848022	25.867620
727.806946	712.340149	3336.043701	1388.866577	25.785170
728.128662	720.736389	3359.225830	1392.878906	25.474520
728.450256	719.696106	3366.061768	1394.884888	25.513813
728.771790	720.439148	3356.996826	1385.894409	25.239550
729.093323	720.959290	3355.213623	1390.426758	25.413927
729.414795	724.525818	3347.634766	1392.878906	25.479425
729.736145	720.885010	3361.157959	1393.399048	25.471384
730.057495	716.203918	3354.767822	1381.213257	25.203457
730.378845	711.002747	3367.696533	1376.532227	25.051041
730.700134	710.779846	3367.028076	1380.841797	25.225878
731.021301	709.516785	3378.173096	1388.494995	25.442699
731.342468	706.024414	3359.449219	1385.671387	25.613953
731.663574	715.089355	3351.944336	1380.247437	25.225433
731.984680	724.525818	3346.074219	1379.355835	24.978750
732.305664	725.863281	3356.848389	1387.083130	25.132025
732.626648	712.785950	3380.179443	1390.278198	25.399036
732.947571	709.739563	3390.656250	1388.643555	25.323576
733.268433	707.213318	3383.820313	1388.494995	25.453184
733.589233	719.844727	3359.968994	1385.671387	25.219521
733.909973	719.324646	3335.003174	1378.018188	25.182512
734.230713	725.343079	3323.783936	1359.442505	24.403072
734.551331	719.770508	3283.808594	1334.105347	23.959661
734.871948	719.101746	3245.096924	1317.461548	23.688082
735.192505	714.049133	3199.103516	1303.715576	23.728512
735.513062	709.739563	3152.441406	1289.598022	23.738405
735.833435	711.225647	3111.575195	1282.762207	23.810555
736.153931	710.854187	3066.621826	1275.851929	23.983595
736.474304	707.064636	3047.005859	1281.647583	24.555445
736.794617	705.727234	3020.256836	1263.666382	24.105942
737.114807	711.671387	3007.774170	1252.520996	23.555113
737.434998	723.411316	2992.096436	1249.103027	23.171648
737.755188	724.897278	2975.972656	1250.143433	23.333120
738.075256	718.507324	2978.424561	1250.886353	23.557457
738.395325	719.621887	2991.575928	1245.239380	23.135040
738.715271	715.089355	3013.123779	1248.434326	23.208746
739.035278	721.479431	3024.195068	1243.158813	22.654964
739.355164	719.696106	3024.715088	1246.205200	22.841854
739.675049	728.909668	3024.269531	1248.731567	22.646641
739.994873	721.702332	3018.696533	1250.440552	23.018702
740.314636	714.569275	2997.000244	1245.908081	23.279512
740.634277	704.389709	2993.062500	1235.579956	23.209532
740.953979	707.287598	2976.343994	1232.310669	23.138388
741.273499	712.265869	2955.910889	1224.285889	22.820902
741.593140	711.894348	2918.239502	1211.877319	22.661140
741.912598	709.962463	2874.103516	1208.682373	23.044704
742.232117	711.522888	2832.865479	1193.375977	22.714535
742.551453	719.919128	2800.841064	1180.521606	22.134541
742.870850	729.058350	2769.336670	1166.701294	21.450159
743.190063	723.634216	2739.912842	1158.379395	21.561762
743.509338	720.959290	2709.374512	1152.435181	21.699486
743.828552	718.804504	2686.117432	1149.463013	21.890696
744.147705	719.176025	2666.576172	1142.850098	21.755882
744.466797	720.587708	2638.266602	1136.534302	21.690105
744.785828	721.553711	2620.656982	1128.286865	21.417116
745.104858	732.401855	2606.910889	1123.234253	20.849854
745.423706	732.847717	2599.480957	1122.639771	20.882090
745.742615	731.064453	2582.985596	1115.878296	20.779169
746.061401	724.525818	2576.892822	1109.413940	20.778179
746.380249	715.758118	2561.289063	1104.509888	21.064493
746.698975	717.021240	2550.738037	1103.395386	21.070547
747.017639	717.392822	2531.939453	1112.163086	21.755861
747.336304	724.525818	2514.626953	1115.655273	21.849573
747.654907	717.541321	2506.750977	1112.980347	22.101324
747.973389	710.854065	2507.270996	1107.482056	22.078838
748.291931	710.185364	2525.697998	1106.218872	21.813866
748.610352	720.885010	2534.317139	1108.002319	21.347218
748.928711	730.024231	2545.314209	1104.584229	20.633617
749.247070	729.578430	2540.930420	1103.023804	20.616940
749.565308	715.758118	2533.797119	1093.958984	20.802681
749.883545	710.482666	2520.868408	1090.541138	20.993231
750.201782	708.847961	2501.698242	1074.268799	20.382116
750.519836	716.649719	2493.450684	1075.829102	20.214947
750.837952	717.838562	2474.428955	1072.782715	20.206427
751.155884	710.928406	2468.484863	1077.240845	20.842144
751.473877	703.423828	2453.252686	1071.742432	21.048836
751.791809	705.429993	2444.410889	1063.866333	20.611860
752.109619	714.866455	2443.742432	1058.962280	19.902863
752.427490	724.228577	2435.940674	1053.315308	19.225588
752.745300	729.206848	2444.708252	1060.077026	19.287083
753.062988	725.045959	2425.983643	1052.497925	19.251261
753.380615	720.364929	2425.909424	1051.606323	19.421446
753.698303	716.278259	2410.157471	1041.798462	19.217440
754.015808	722.073914	2407.631104	1053.241089	19.647343
754.333374	718.953125	2399.086182	1050.863403	19.754999
754.650757	715.163635	2397.897461	1050.046021	19.901091
754.968262	715.832336	2408.522461	1041.724243	19.252897
755.285583	724.377258	2414.541260	1044.473511	18.938768
755.602905	727.423645	2410.751709	1044.027466	18.808207
755.920105	722.371033	2388.906738	1041.352661	19.140402
756.237305	718.135742	2379.990479	1043.135864	19.556471
756.554443	712.934570	2373.006104	1044.696289	19.984785
756.871582	717.689941	2366.170166	1043.878906	19.787254
757.188599	710.705566	2367.879150	1035.334106	19.589291
757.505615	707.510559	2374.863525	1030.504517	19.371660
757.822510	709.145203	2390.244141	1028.795532	19.014368
758.139465	720.885010	2391.061768	1025.674805	18.248955
758.456238	728.761047	2398.046143	1020.176453	17.457497
758.773010	720.290588	2424.646484	1025.823364	17.926582
759.089783	718.581604	2436.832031	1032.807739	18.287563
759.406433	718.210144	2455.333252	1040.089478	18.529449
759.723145	719.993347	2462.912109	1037.042969	18.190729
760.039673	717.169861	2471.308594	1034.516724	18.091322
760.356201	720.141907	2465.735596	1038.751953	18.252245
760.672668	719.027405	2453.995850	1036.671509	18.308350
760.989136	711.374268	2453.550293	1033.699463	18.501299
761.305481	706.024475	2457.488525	1022.628235	18.076519
761.621826	710.334045	2468.336670	1033.105103	18.360100
761.938049	721.033630	2479.853271	1033.848022	17.785473
762.254333	718.432922	2500.732422	1045.513550	18.351608
762.570496	722.891113	2536.175049	1043.135864	17.661037
762.886597	717.169922	2614.341309	1062.826172	18.219559
763.202637	724.377258	2742.216064	1080.881714	17.667637
763.518677	717.169861	2898.400391	1109.042358	17.965662
763.834656	724.748779	3045.668701	1125.463257	17.265329
764.150574	720.959290	3164.181641	1143.593140	17.298214
764.466370	719.993408	3228.899170	1146.416626	16.996382
764.782288	715.981018	3261.740967	1142.998779	16.773685
765.097961	715.758118	3220.502686	1140.323853	16.950460
765.413696	719.250305	3165.072510	1119.296265	16.356297
765.729309	719.547546	3077.767334	1110.008423	16.557442
766.044861	725.120300	2975.675049	1083.482300	15.923274
766.360474	720.810730	2841.781982	1073.525757	16.629883
766.675903	711.671448	2682.699707	1043.507446	16.835678
766.991394	708.699402	2573.623291	1027.086548	17.072393
767.306763	710.482605	2480.001953	1011.854492	17.031286
767.622131	718.730225	2431.259033	1006.504639	16.804062
767.937378	717.318542	2362.677979	992.610046	16.731390
768.252625	721.033630	2322.703125	981.018860	16.232140
768.567810	726.606262	2265.861572	970.987976	15.876619
768.882996	721.999512	2230.864990	965.266663	16.122520
769.197998	718.581604	2184.499756	965.043762	16.812819
769.513062	708.104919	2158.568359	955.384460	17.048313
769.828064	710.036804	2121.788330	952.189270	17.152628
770.142944	708.253479	2093.330322	941.786926	16.860685
770.457825	716.649719	2069.330566	936.288574	16.237299
770.772705	716.129639	2039.015137	929.378418	16.119972
771.087402	715.460938	2017.541870	926.183411	16.183516
771.402100	709.591003	1988.860962	920.536438	16.489515
771.716736	712.860291	1974.669312	912.288879	15.804974
772.031372	719.547546	1962.409180	899.880188	14.509471
772.345947	720.439209	1947.474243	906.493164	15.162889
772.660461	718.804626	1946.062622	910.356934	15.608152
772.974854	718.656006	1934.396973	911.025635	15.823241
773.289246	717.169922	1922.731445	905.155701	15.593213
773.603638	714.717957	1908.242188	893.936035	15.015873
773.917908	713.008972	1884.242554	889.849426	15.098649
774.232178	716.872620	1872.651367	881.007385	14.201226
774.546265	721.776672	1858.088013	884.648254	14.333360
774.860474	721.702332	1851.995239	885.093994	14.455691
775.174561	726.383484	1830.818970	883.756531	14.249184
775.488586	722.891174	1821.531250	880.635742	14.358166
775.802551	719.027527	1817.221680	881.378723	14.783470
776.116516	713.231750	1811.277466	877.366455	14.947894
776.430359	712.711670	1799.389038	879.149719	15.316234
776.744202	715.683838	1785.643066	878.035217	15.173604
777.057922	716.872620	1768.553345	877.812317	15.303096
777.371704	711.671448	1754.138672	871.496582	15.331429
777.685303	715.609558	1742.473267	871.868103	15.217067
777.998962	716.426758	1750.943726	871.942383	15.032680
778.312500	726.829285	1748.788940	870.827881	14.090439
778.626038	720.885010	1747.897095	866.221191	14.151361
778.939453	717.615723	1745.890991	868.227295	14.647009
779.252869	717.244141	1750.572144	870.382080	14.819877
779.566223	718.433044	1745.965332	859.756836	13.753709
779.879578	715.089355	1740.764160	860.574158	14.184301
780.192749	716.426819	1722.634277	855.149963	13.786734
780.505920	715.535156	1724.343262	865.478027	14.863369
780.819031	717.912903	1715.501099	863.471863	14.591086
781.132141	721.256531	1722.634277	870.679199	14.921708
781.445190	726.457703	1711.117310	874.542969	15.039234
781.758118	723.336975	1708.739624	869.267578	14.809236
782.071045	711.820068	1683.922485	852.995300	14.522671
782.383911	700.748962	1670.102173	838.209045	14.180598
782.696838	703.275208	1651.452148	836.500000	14.050626
783.009583	713.528992	1649.297485	841.403992	13.665239
783.322266	719.250305	1628.641235	846.753845	14.020762
783.634888	725.566101	1625.074829	847.794006	13.588296
783.947510	723.559875	1621.285522	845.193420	13.549078
784.260132	733.665039	1621.359741	850.914734	13.208336
784.572571	726.011902	1611.403320	851.137695	14.132257
784.885010	726.011902	1593.496216	852.400818	14.569591
785.197449	717.690002	1584.282715	843.261536	14.490259
785.509766	724.451599	1581.161987	839.472107	13.425833
785.822083	730.172852	1580.344727	836.722900	12.532765
786.134277	733.219238	1586.214478	828.772461	11.202082
786.446533	726.011902	1581.310547	827.509460	11.866915
786.758606	721.405090	1577.372437	823.571472	11.935781
787.070740	717.392761	1579.898804	831.298828	13.206408
787.382690	724.005676	1587.403320	832.041809	12.512906
787.694641	721.033508	1602.784058	836.945801	13.145701
788.006653	725.863281	1618.536133	832.190491	11.911106
788.318481	725.194519	1643.798950	834.270996	11.874151
788.630310	727.572266	1665.495483	834.419617	11.391908
788.942017	724.451477	1688.677856	834.345215	11.397089
789.253784	725.714661	1694.473511	834.048035	11.182697
789.565430	720.216309	1697.519897	838.208984	12.073288
789.877014	721.776611	1685.928711	844.004578	12.677249
790.188538	717.021240	1678.126953	845.119141	13.328180
790.500061	719.770447	1660.517212	840.586670	12.842587
790.811462	709.962463	1640.529907	833.676453	13.294468
791.122925	715.386536	1615.341187	829.218445	12.648627
791.434204	710.556885	1592.530273	830.555847	13.605735
791.745483	722.668274	1582.053589	831.744629	12.692369
792.056702	727.126465	1564.295288	822.308289	11.369490
792.367920	733.665039	1549.508911	815.472412	10.027332
792.678955	725.120300	1527.218140	812.202942	10.856860
792.990112	721.033508	1518.078735	814.729309	11.755393
793.301086	713.974854	1512.952026	811.757141	12.238433
793.612122	720.290527	1512.357422	808.339294	11.116329
793.922974	708.699402	1498.091431	806.778992	12.424700
794.233826	711.894348	1486.871704	804.401184	11.936715
794.544556	712.340149	1474.537476	804.104004	12.039383
794.855286	721.999512	1473.720215	813.317627	12.147879
795.166016	728.538269	1487.763306	815.992493	11.518880
795.476624	732.253235	1491.329956	816.884094	11.149184
795.787292	733.442139	1509.831421	812.797424	10.221069
796.097778	727.497864	1518.375977	818.147217	11.461862
796.408264	723.336914	1544.679321	818.593079	11.597619
796.718689	717.318542	1553.372681	816.289734	11.837893
797.029053	720.513489	1560.728516	807.819153	10.390872
797.339355	720.959290	1547.428345	805.441406	10.222054
797.649658	718.581726	1541.335571	802.320801	10.177901
797.959839	717.615723	1527.515503	808.710754	11.247692
798.270020	719.176086	1512.134766	809.751160	11.422421
798.580078	733.293518	1491.775757	813.763489	10.609342
798.890137	729.132629	1475.800659	814.283508	11.404115
799.200195	729.058289	1470.673828	814.060608	11.461777
799.510071	721.182190	1458.636719	809.528137	11.979850
799.820007	726.234802	1450.760620	804.104004	10.747609
800.129883	721.405090	1441.324219	802.766602	11.301479
800.439575	718.507324	1439.243774	799.125793	11.185569
800.749329	707.882019	1431.664673	792.810059	11.733914
801.058960	708.996582	1429.807251	790.878174	11.359653
801.368591	713.826233	1427.949707	789.094910	10.540009
801.678162	723.485596	1425.869141	791.992676	9.753514
801.987671	718.061523	1418.513184	793.255859	10.735122
802.297119	704.909912	1414.352173	797.639709	13.070803
802.606506	706.618835	1405.361694	790.135193	11.952374
802.915894	707.436096	1403.727051	780.847229	10.543169
803.225159	716.723938	1384.036743	780.029968	9.486710
803.534424	716.055359	1383.145142	786.345703	10.536864
803.843628	717.912842	1373.560181	791.101074	11.162744
804.152771	723.114014	1384.408325	794.296143	10.764062
804.461792	721.182190	1389.906616	792.958679	10.733343
804.770874	723.634216	1396.816772	796.970947	10.894033
805.079773	717.169922	1398.897339	796.153625	11.585819
805.388733	718.061462	1399.566040	798.457031	11.796776
805.697571	720.439209	1409.596802	799.943115	11.536389
806.006470	727.349304	1420.370728	799.571594	10.421365
806.315125	720.513489	1426.686523	796.079407	10.700766
806.623901	715.535217	1425.274902	790.506653	10.563230
806.932495	712.488770	1413.980835	786.048523	10.486185
807.241150	717.987122	1408.482422	782.184753	9.297331
807.549622	726.160461	1406.550415	781.738953	8.168623
807.858154	730.247131	1410.339844	787.906067	8.478099
808.166565	729.429871	1409.894165	794.073181	9.499883
808.474915	720.439270	1392.135742	797.862610	11.526537
808.783264	718.210144	1379.875854	802.395020	12.723173
809.091492	713.306152	1368.358887	800.537537	13.316696
809.399719	714.792236	1360.780029	802.617981	13.595573
809.707825	714.569336	1360.928589	788.426208	11.426598
810.015930	718.878845	1350.303345	781.367432	9.896446
810.323975	721.107910	1346.588257	769.033203	7.662158
810.632080	719.993347	1329.647095	765.541016	7.471072
810.939880	715.460938	1319.319092	767.992920	8.699391
811.247864	712.860352	1312.186035	771.930969	9.856180
811.555664	707.584778	1310.625610	779.435547	11.914743
811.863464	714.643555	1304.087036	780.327148	11.143324
812.171143	718.878906	1301.486450	770.816406	8.914663
812.478882	723.039795	1296.285278	766.581238	7.595602
812.786438	724.377258	1288.929321	768.587402	7.831013
813.094055	724.525696	1282.390625	778.766846	9.722990
813.401489	717.987122	1280.087280	781.070251	11.222756
813.708984	722.371094	1282.613647	781.070129	10.477432
814.016357	724.525879	1280.384644	784.562439	10.800686
814.323730	727.943665	1282.539185	780.921570	9.552530
814.630981	719.324646	1278.452637	779.435547	10.750831
814.938232	709.367981	1282.539185	776.017578	11.628218
815.245361	715.237976	1278.675537	777.280762	11.011475
815.552490	710.111084	1279.344238	778.469543	12.008868
815.859619	719.324646	1278.526978	775.051575	9.965432
816.166565	717.169861	1284.099609	772.599609	9.777182
816.473572	715.683838	1291.752930	768.735840	9.209312
816.780457	714.569275	1289.820923	771.782288	9.945737
817.087341	710.111084	1285.362671	775.794678	11.418238
817.394043	724.080017	1292.347168	773.417053	8.682014
817.700806	723.708496	1305.127319	768.364441	7.680512
818.007507	722.519714	1323.628662	764.872253	7.045734
818.314209	715.386536	1320.285034	768.438721	8.770428
818.620667	715.832336	1324.148804	774.754456	9.686096
818.927246	726.086182	1331.133301	780.921631	9.063004
819.233704	728.092346	1357.362183	787.831726	9.493444
819.540161	732.179016	1381.064819	788.723389	8.714071
819.846497	722.965515	1415.764038	786.940125	9.234230
820.152832	718.953125	1467.255859	787.311707	9.135151
820.458984	708.104919	1529.521484	781.887512	8.982360
820.765259	703.869629	1608.282227	789.020569	9.415054
821.071350	709.962463	1701.383667	793.850281	8.461370
821.377502	715.015137	1874.880371	812.277344	8.385647
821.683472	722.371094	2179.150146	837.020203	7.870041
821.989441	717.615723	2698.526123	874.840332	7.936987
822.295349	712.117249	3419.188477	928.486816	7.992755
822.601196	704.761230	4226.858887	979.235535	7.792922
822.907043	708.996582	4913.564941	1026.046265	7.540600
823.212769	719.547546	5311.307129	1051.532227	7.230010
823.518494	729.949951	5376.767578	1060.076904	7.104367
823.824097	724.377197	5150.292969	1044.844849	7.240708
824.129700	717.838562	4780.488281	1021.216553	7.467491
824.435242	718.284363	4381.185547	989.786560	7.412218
824.740723	722.445313	4044.000000	958.802307	7.115854
825.046082	723.559875	3720.708740	928.635437	6.842355
825.351501	719.621826	3379.659424	907.904968	7.078214
825.656799	705.578613	3046.337158	890.146667	7.884968
825.962036	706.395996	2747.343506	869.713379	8.002037
826.267212	708.327820	2538.329590	841.032532	7.251617
826.572449	717.912903	2416.696045	831.447449	6.683286
826.877502	715.312317	2428.658936	833.304993	6.886678
827.182495	709.888184	2534.466064	848.239807	7.582665
827.487488	714.792175	2682.254150	858.345032	7.296348
827.792419	712.711670	2785.683350	866.072571	7.398118
828.097290	711.671448	2812.135010	872.536865	7.658567
828.402100	705.727234	2742.959229	870.084900	8.067696
828.706848	713.306152	2613.152344	861.985840	7.825880
829.011597	720.662109	2439.135498	842.369873	7.082319
829.316223	718.284363	2281.019287	826.469177	6.922788
829.620789	716.946960	2128.327148	823.051270	7.517770
829.925354	713.083191	2016.798706	823.868652	8.497671
830.229797	716.055359	1893.307617	816.438293	8.526884
830.534302	711.671448	1780.664673	801.726379	8.424275
830.838562	711.002747	1644.096313	785.156921	7.947132
831.142944	716.724121	1537.471802	776.389160	7.269596
831.447144	711.671448	1452.692383	769.330383	7.781013
831.751404	714.940857	1403.949829	772.748291	8.389939
832.055542	713.380371	1375.937866	769.479004	8.466984
832.359619	719.844788	1371.182495	767.695740	7.346566
832.663635	719.176025	1372.817017	766.878418	7.297950
832.967651	722.593933	1410.785767	772.971191	7.320235
833.271545	720.884949	1474.314575	777.578064	7.524673
833.575439	713.008972	1583.985352	778.172424	7.481656
833.879211	705.875916	1701.903687	788.351868	8.280487
834.183044	711.002747	1831.190430	798.977234	7.853549
834.486694	712.711731	1921.839844	799.125793	7.146808
834.790344	719.770508	1964.043823	801.875000	6.598590
835.093933	717.021240	1939.449585	804.549805	7.160221
835.397522	721.107910	1887.066284	810.939941	7.704566
835.700928	714.123474	1820.045288	799.423035	7.712983
836.004395	707.138977	1749.903320	795.930725	8.515035
836.307739	712.934570	1681.619141	790.729553	8.030993
836.611023	721.628113	1608.579590	788.203308	7.506070
836.914307	729.801270	1540.592651	775.423157	5.626834
837.217529	726.160461	1473.942993	770.444885	5.922099
837.520691	715.312256	1398.600220	765.466614	7.340149
837.823730	715.683838	1332.396484	756.327393	6.590355
838.126831	713.529053	1268.050293	746.222229	5.895748
838.429749	717.392761	1226.143677	745.850769	5.593701
838.732727	713.603333	1189.066528	748.748535	7.391782
839.035522	716.724060	1175.246094	752.537903	7.810714
839.338379	716.278259	1171.456665	754.915710	8.488420
839.641113	715.832458	1184.682495	757.590637	8.906510
839.943848	712.042969	1198.057129	754.469910	8.729568
840.246460	716.129639	1236.546021	758.110657	8.066813
840.549072	714.792175	1254.824463	758.333557	8.062737
840.851563	715.015137	1269.759277	764.575012	8.933825
841.154053	710.185364	1258.242310	765.763855	10.141006
841.456482	713.231750	1246.725464	765.986816	9.888601
841.758850	717.392761	1235.654175	762.568848	8.716853
842.061157	719.844727	1206.453247	749.417297	6.077282
842.363403	717.615723	1183.939453	752.537903	7.488828
842.665588	717.541321	1151.469360	747.262451	6.849322
842.967712	724.748718	1139.655151	748.228455	5.659044
843.269775	731.064453	1122.788452	740.723816	2.465859
843.571777	724.823059	1099.308838	746.519348	5.793622
843.873840	717.689941	1080.435913	754.692688	10.200732
844.175659	710.259766	1064.683716	754.989929	12.620525
844.477600	714.643555	1056.287476	745.330566	8.982162
844.779297	718.061523	1045.662231	735.151123	5.216594
845.081116	721.925232	1041.501343	730.321472	2.627305
845.382751	722.965515	1032.064819	731.807556	2.860583
845.684387	714.197754	1010.071289	722.148193	2.687107
845.985962	718.655945	987.706055	722.816895	1.546533
846.287537	714.049133	984.213867	723.857117	3.630372
846.588989	714.272034	990.083679	736.414246	8.028019
846.890381	712.117371	997.588379	734.333801	7.782377
847.191711	717.838562	992.090027	737.677429	7.233824
847.493042	725.268860	982.356262	732.030334	2.630029
847.794250	728.463867	979.012695	743.027161	5.812557
848.095459	729.578430	975.520325	742.432800	5.226588
848.396606	730.841553	980.795959	744.587585	5.499416
848.697693	723.485596	979.161316	737.008728	5.289174
848.998657	720.810730	973.960144	741.095398	8.012923
849.299622	717.467102	961.774414	742.358459	10.188543
849.600464	718.730164	953.303894	739.386414	8.805866
849.901367	715.980957	958.282227	739.980774	9.904949
850.202087	716.055359	966.083984	734.928223	7.548281
850.502808	716.649719	954.269836	737.454529	8.755491
850.803467	716.724121	942.158508	727.572266	4.812107
851.104065	720.810730	936.883057	724.748779	1.822561
851.404663	725.120300	947.136780	724.823059	-0.133882
851.705139	721.479492	944.536133	723.708496	0.999300
852.005615	717.318542	949.440125	731.658875	6.177940
852.306030	710.185364	952.189392	732.624817	9.272346
852.606384	716.798340	954.121277	733.145020	6.887948
852.906616	710.928406	946.096619	737.305908	11.216440
853.206909	709.219482	939.632324	742.581360	14.479175
853.506958	715.163757	945.279297	743.547363	12.334502
853.807129	721.107910	946.245117	740.203674	8.481834
854.107178	723.708496	940.672424	735.522644	5.445213
854.407166	717.615723	936.585754	735.596863	8.211690
854.707092	713.157532	933.465149	735.894043	10.320347
855.007019	706.024414	934.356689	734.036560	12.268150
855.306763	705.281433	932.573425	735.819824	13.435753
855.606567	709.219421	927.669434	723.708496	6.632673
855.906250	714.643555	928.040955	724.154297	4.456822
856.205933	719.250305	930.270020	719.844727	0.281690
856.505493	718.581604	931.904724	724.228699	2.647202
856.805054	719.993347	940.895325	720.290527	0.134530
857.104492	716.203918	937.774658	717.615723	0.637180
857.403931	723.857117	940.226746	718.284424	-2.575543
857.703308	724.154297	933.465149	717.987122	-2.946419
858.002563	719.993347	934.802551	726.680603	3.113114
858.301819	711.894348	932.127686	730.172852	8.299608
858.601013	715.163757	938.220520	731.584656	7.361758
858.900208	712.860291	942.009949	723.411316	4.604425
859.199219	713.083252	942.975830	724.377258	4.912732
859.498291	706.247375	939.334961	727.572266	9.148874
859.797302	708.476379	933.093567	731.213135	10.122447
860.096191	707.436218	935.174072	728.463867	9.233269
860.395020	708.625061	929.229797	721.107910	5.658468
860.693787	709.442383	926.703552	722.519592	6.019120
860.992554	706.470215	917.415710	733.888000	12.997569
861.291260	706.841797	918.010071	738.420410	14.954242
861.589844	706.470215	926.554993	741.838379	16.070246
861.888428	713.231873	931.756165	734.705322	9.826573
862.186890	715.386536	931.681824	734.779602	8.966014
862.485413	716.129578	925.440369	733.813660	8.448720
862.783813	714.643555	923.508545	734.259460	9.391667
863.082153	719.250305	922.171082	731.956055	6.261434
863.380371	722.519592	920.833679	732.327637	4.945713
863.678589	718.210144	916.375488	727.126465	4.499435
863.976746	711.968689	924.251465	728.241028	7.665407
864.274902	709.219482	924.548645	731.733215	10.455497
864.572937	716.203918	937.477356	741.169617	11.282736
864.870911	722.816833	933.316406	746.668030	11.330757
865.168884	726.383484	932.127625	740.500977	6.861674
865.466736	719.919128	925.068848	736.042786	7.859458
865.764587	715.386536	919.719055	732.327637	8.290947
866.062317	714.643555	916.078308	734.333801	9.775000
866.360107	721.479431	916.078308	733.293518	6.070994
866.657715	727.572266	915.781067	730.990173	1.816019
866.955322	721.999512	924.697327	727.200684	2.565973
867.252808	723.411316	927.372253	727.497986	2.003653
867.550293	721.107910	933.316467	731.361633	4.831908
867.847717	727.795166	931.161804	727.572266	-0.109605
868.145081	718.433044	929.824280	720.959290	1.195057
868.442383	710.482605	922.914063	714.569275	1.923759
868.739624	709.739563	919.719055	723.634216	6.617148
869.036804	715.683838	919.050293	725.194580	4.676652
869.333984	716.055359	931.458923	730.692932	6.795418
869.631042	712.786072	933.836609	729.652649	7.630190
869.928101	708.402100	936.660156	728.909668	8.984379
870.224976	710.333984	925.514648	730.321350	9.288644
870.521851	707.956299	928.189514	736.562805	12.989188
870.818726	713.751953	925.440430	736.785828	10.881024
871.115479	719.324707	927.372314	731.881775	6.035670
871.412231	728.686829	924.548767	725.268860	-1.745091
871.708862	729.727051	939.186340	730.915833	0.567548
872.005493	729.206848	940.003723	741.095398	5.639813
872.302063	727.126465	949.663086	737.157288	4.507493
872.598572	723.782776	948.548584	735.819824	5.355373
872.895020	722.742615	955.161438	733.293518	4.539608
873.191406	720.216309	954.492737	733.962219	5.867390
873.487671	726.829163	948.548523	733.888000	3.183681
873.783997	731.956055	957.390564	731.807434	-0.065926
874.080200	732.847839	953.749695	733.442139	0.269033
874.376343	728.835449	949.588684	731.510315	1.211699
874.672424	719.324646	947.211121	729.504089	4.466892
874.968445	719.176025	952.560852	735.076843	6.813133
875.264465	719.398926	950.777649	740.723816	9.216444
875.560364	718.284363	948.251282	740.798157	9.790014
875.856201	716.203918	942.307129	735.076843	8.347040
876.152039	715.237976	947.656921	727.497986	5.274961
876.447754	719.101807	940.226624	726.754883	3.460976
876.743469	716.649719	942.009949	731.064453	6.396308
877.039063	714.643555	944.090332	736.785828	9.650288
877.334595	712.042969	947.805481	737.380188	10.746924
877.630127	720.364929	954.567078	730.321472	4.251260
877.925537	715.758118	956.276062	731.584656	6.580190
878.221008	709.739563	962.740417	734.408020	9.750345
878.516296	703.572449	967.792969	741.466797	14.341940
878.811646	703.126648	969.873352	739.163391	13.509724
879.106812	709.962463	982.281982	735.299622	9.304202
879.401978	708.104980	992.758606	730.692932	7.935241
879.697083	706.618835	1011.482971	729.652649	7.555436
879.992126	714.123474	1031.321777	730.618652	5.200273
880.287109	718.804504	1068.324585	731.658875	3.677720
880.582031	723.485535	1127.172363	736.265625	3.165843
880.876892	723.857117	1245.982300	737.974609	2.703852
881.171753	725.789063	1456.704712	754.321228	3.903620
881.466492	728.835449	1768.330444	766.135437	3.588280
881.761230	724.823059	2140.661377	774.754456	3.526631
882.055786	723.262695	2499.469482	779.881409	3.187619
882.350403	725.937561	2761.980469	779.955750	2.653097
882.644958	723.708496	2859.688721	792.215576	3.207290
882.939453	723.857117	2834.054443	794.519043	3.348593
883.233826	719.621826	2734.339844	800.017395	3.990413
883.528137	715.089355	2619.616455	799.497314	4.431964
883.822449	709.813904	2497.908936	791.621277	4.575113
884.116577	713.157532	2376.869873	783.150696	4.207047
884.410828	716.203918	2248.697754	767.324219	3.335759
884.704956	719.547546	2088.426758	758.705078	2.860554
884.999023	715.980957	1902.001343	749.268738	2.806679
885.292969	721.256531	1717.730347	747.188171	2.602340
885.586914	719.324646	1547.428345	744.959167	3.095569
885.880798	721.033630	1418.067383	744.216064	3.325870
886.174622	717.169922	1320.953735	745.776367	4.737862
886.468384	716.649719	1256.979126	739.460693	4.221679
886.762085	714.420654	1215.741089	731.584656	3.423759
887.055664	720.290527	1175.691895	727.349304	1.550012
887.349304	721.107910	1143.072998	730.618652	2.253917
887.642822	723.708496	1109.933960	737.454590	3.559085
887.936340	718.804504	1087.866089	737.751770	5.133904
888.229736	719.250305	1064.015015	735.522644	4.719839
888.523071	719.176025	1043.656006	731.138733	3.686732
888.816284	725.789001	1029.464111	728.389587	0.856371
889.109619	722.371033	1011.928711	726.532043	1.437023
889.402710	719.621826	994.690430	731.658936	4.376039
889.695862	709.516785	976.857849	728.835388	7.226202
889.988892	713.083252	972.251160	735.151123	8.514894
890.281921	716.649780	969.204712	743.398682	10.591320
>>>>>End Processed Spectral Data<<<<<
