Jaz Data File
++++++++++++++++++++++++++++++++++++
Date: Fri Jun 04 16:58:10 2021
User: jaz
Dark Spectrum Present: Yes
Reference Spectrum Present: Yes
Processed Spectrum Present: Yes
Spectrometers: JAZA3586
Integration Time (usec): 24100 (JAZA3586)
Spectra Averaged: 10 (JAZA3586)
Boxcar Smoothing: 1 (JAZA3586)
Correct for Electrical Dark: No (JAZA3586)
Strobe/Lamp Enabled: Yes (JAZA3586)
Correct for Detector Non-linearity: No (JAZA3586)
Correct for Stray Light: No (JAZA3586)
Number of Pixels in Processed Spectrum: 2048
>>>>>Begin Processed Spectral Data<<<<<
W	D	R	S	P
191.335022	0.000000	0.000000	0.000000	0.000000
191.713211	231.750168	230.487076	230.858536	70.591217
192.091385	464.689209	467.364166	468.478638	141.663147
192.469528	703.795410	704.909973	700.823242	-266.666656
192.847641	708.996582	712.340149	705.727234	-97.780251
193.225739	713.974854	721.850891	706.693176	-92.453560
193.603790	717.392822	729.429871	724.080017	55.555103
193.981842	725.045959	740.055176	731.881775	45.544121
194.359863	737.974609	736.934387	736.117004	178.577713
194.737854	747.708252	733.293640	727.497986	140.206802
195.115829	752.315125	732.699219	724.823059	140.151901
195.493774	749.788757	734.259521	727.646667	142.583252
195.871704	748.377014	739.906494	731.064514	204.385330
196.249603	748.005554	740.203674	735.076843	165.712769
196.627457	749.714417	744.290344	733.516418	298.631683
197.005310	746.816711	745.924988	735.299622	1291.553711
197.383133	747.931213	747.782532	735.894104	8095.895020
197.760910	747.039551	745.850769	739.980774	593.782410
198.138687	748.674255	741.764099	742.061340	95.698486
198.516449	749.268616	737.603088	743.101563	52.865620
198.894180	746.965149	734.482422	743.844543	24.999390
199.271866	744.884766	737.900391	742.507019	34.043800
199.649536	743.250183	736.934387	743.695862	-7.056572
200.027191	745.627747	734.482422	737.900208	69.334358
200.404816	744.884766	732.179016	733.516418	89.474037
200.782410	740.872375	747.708313	729.801270	-161.954468
201.159988	739.312073	758.333557	733.145020	-32.421513
201.537537	734.556702	767.621399	738.494812	11.910317
201.915070	731.213074	765.095032	741.392578	30.044025
202.292557	724.005676	764.723572	745.776367	53.467133
202.670029	717.987305	765.466614	741.243958	48.982712
203.047485	717.021301	764.426331	748.005554	65.360687
203.424911	717.169922	765.243713	743.547363	54.868652
203.802292	721.628113	761.157043	748.822815	68.796959
204.179688	721.256531	755.510071	738.048889	49.023716
204.557037	730.915833	760.414063	740.203796	31.486513
204.934357	729.875671	756.847473	735.448303	20.660955
205.311661	731.584656	763.609131	731.361633	-0.696413
205.688934	719.770447	756.104492	727.795166	22.085951
206.066177	718.210144	767.027039	730.098450	24.352852
206.443390	713.083191	763.311829	735.894104	45.414158
206.820587	712.414490	766.506836	734.408020	40.659229
207.197769	702.606445	753.206726	733.293518	60.646053
207.574921	699.634338	752.092102	726.309082	50.849945
207.952042	708.327820	747.039551	722.965515	37.812038
208.329147	725.120300	753.801086	721.256531	-13.471630
208.706223	742.061218	765.318054	732.847717	-39.616314
209.083267	738.271790	769.256042	731.138733	-23.021555
209.460297	734.853943	770.221985	736.785828	5.462233
209.837280	722.891174	754.692688	719.473328	-10.747434
210.214264	717.764343	755.064209	720.810730	8.167286
210.591217	715.906738	754.841309	717.690002	4.580156
210.968124	721.107971	762.345886	723.559875	5.945752
211.345016	727.126465	763.386169	726.754883	-1.024780
211.721893	730.395813	762.866028	727.943787	-7.551617
212.098724	733.293640	761.751465	733.070618	-0.783695
212.475555	730.098572	760.488342	729.949890	-0.489249
212.852356	726.457764	758.927917	728.315247	5.720585
213.229126	720.439270	756.327332	726.606262	17.183966
213.605865	718.730225	755.658691	724.600098	15.895252
213.982590	713.677734	755.212891	721.405090	18.604374
214.359283	703.349609	758.482178	722.296814	34.366627
214.735931	709.219482	760.859863	721.850891	24.460333
215.112579	717.095642	763.014648	715.089355	-4.369185
215.489197	729.504150	757.441895	718.358704	-39.893867
215.865799	719.398926	755.658691	716.946960	-6.762220
216.242355	716.649719	748.377014	716.129578	-1.639414
216.618896	712.414490	747.485413	708.402100	-11.440788
216.995407	712.637390	749.343018	716.798340	11.335999
217.371902	708.030579	760.934143	725.788879	33.567307
217.748367	712.860352	761.677246	723.262695	21.308901
218.124802	720.067688	753.726807	720.439148	1.103594
218.501236	725.937561	750.160339	714.940735	-45.398697
218.877609	718.432922	755.064270	718.507324	0.203110
219.253983	714.866455	758.779358	717.838562	6.768186
219.630295	714.940735	752.537903	721.182129	16.600702
220.006592	717.095520	750.754700	730.395813	39.514606
220.382889	718.804504	749.194336	732.550537	45.232342
220.759140	718.804443	749.120056	731.807556	42.892464
221.135391	717.838562	749.565857	728.240967	32.786926
221.511581	716.352539	755.584412	723.411316	17.992455
221.887772	714.643555	763.237549	722.891113	16.972383
222.263931	712.117371	765.318054	724.377197	23.044491
222.640060	713.603333	763.460449	729.132568	31.147480
223.016159	716.352539	762.123047	727.126465	23.539013
223.392212	728.166687	756.104492	726.680603	-5.319258
223.768265	733.590759	757.070374	726.234802	-31.329123
224.144302	737.083008	764.500732	729.058289	-29.268364
224.520294	731.807434	773.491394	723.262695	-20.498865
224.896286	724.154297	774.531555	723.634216	-1.032372
225.272217	719.250305	768.810242	724.005676	9.595192
225.648148	726.160461	761.528564	726.309082	0.420211
226.024048	731.064453	761.082703	727.052063	-13.366503
226.399902	727.349304	765.986633	722.296692	-13.077023
226.775772	717.987244	770.444885	719.621826	3.116005
227.151581	712.340149	774.382996	716.129639	6.107859
227.527374	722.593933	763.757629	716.946960	-13.718332
227.903137	726.309082	763.534729	721.479431	-12.973988
228.278870	730.321350	758.853699	721.405090	-31.249653
228.654572	725.714661	757.887695	725.714661	0.000000
229.030273	726.011902	751.869202	722.222473	-14.655160
229.405930	724.600159	751.794922	727.200745	9.562819
229.781555	717.838623	758.482239	720.587830	6.764178
230.157181	715.683838	760.934265	717.912903	4.926064
230.532761	711.745789	758.630798	711.151367	-1.267828
230.908325	714.420654	756.996094	715.683777	2.966787
231.283859	719.844727	756.104492	717.169861	-7.376953
231.659332	719.993347	760.562683	718.135742	-4.578840
232.034821	723.336975	754.246887	727.943787	14.903995
232.410263	723.262695	752.686584	725.863281	8.838348
232.785690	731.436035	751.572021	727.349304	-20.295658
233.161087	722.593994	756.401672	726.903503	12.747131
233.536469	711.745789	762.494446	733.813660	43.484642
233.911804	709.591003	764.426453	732.847717	42.411823
234.287140	719.324646	765.020813	728.612488	20.325211
234.662430	719.473206	764.575012	730.618652	24.711752
235.037704	719.324707	756.698914	733.442139	37.773193
235.412933	715.683777	756.624573	728.538147	31.397461
235.788162	717.541321	749.565918	722.222473	14.617365
236.163345	715.312317	757.887756	720.810730	12.914518
236.538513	708.550781	757.739075	719.027405	21.299019
236.913635	710.556946	759.596680	720.141907	19.545296
237.288742	709.888184	755.658630	724.600098	32.142822
237.663834	714.272034	758.407898	725.491699	25.420746
238.038879	710.408264	758.036377	726.829285	34.477581
238.413910	712.265869	758.185059	728.092285	34.465801
238.788910	713.083191	757.813477	732.624817	43.687683
239.163879	715.609558	762.568848	729.132568	28.797306
239.538834	711.522766	772.302551	720.736389	15.159025
239.913757	714.049133	779.435547	722.593994	13.068252
240.288651	719.547546	785.751282	726.383362	10.325422
240.663528	728.018066	783.967957	732.550537	8.100946
241.038361	719.919128	778.841125	724.377258	7.566155
241.413177	719.547546	769.330383	724.080078	9.104608
241.787979	716.129639	769.553284	719.473206	6.258590
242.162735	723.559875	775.720398	730.098572	12.535719
242.537476	715.535156	791.472595	728.686768	17.319008
242.912170	713.529053	799.274353	735.151123	25.216625
243.286865	709.739563	791.621155	735.151123	31.034521
243.661514	720.067627	781.664612	734.036560	22.677950
244.036148	723.708496	778.098145	725.640320	3.551822
244.410751	735.522644	779.361267	720.662048	-33.898411
244.785339	730.841553	774.605896	724.228577	-15.110420
245.159882	726.680664	777.057861	725.566101	-2.212435
245.534378	718.284424	779.881348	724.971680	10.856477
245.908890	720.290527	791.249695	722.445313	3.036655
246.283356	725.491760	786.865784	721.553711	-6.416476
246.657791	728.092285	798.011230	723.559875	-6.482377
247.032196	725.268860	804.326965	730.172852	6.203022
247.406586	724.897278	802.246399	732.550537	9.894436
247.780960	718.953125	801.280457	731.510254	15.252686
248.155289	713.974792	809.750977	734.705322	21.644764
248.529602	708.253479	819.484680	735.374023	24.382137
248.903870	720.885010	811.608643	727.200684	6.961443
249.278122	721.776672	802.692322	719.473206	-2.846751
249.652344	723.485657	791.695496	720.959290	-3.703816
250.026550	714.420715	798.977234	723.039795	10.193276
250.400711	718.210144	790.581055	722.742493	6.262666
250.774857	720.885010	795.559265	715.832336	-6.766285
251.148987	720.513428	790.209473	714.049133	-9.274981
251.523071	725.268860	802.989502	715.906738	-12.045862
251.897125	726.606262	804.549866	724.080017	-3.241119
252.271164	726.457703	817.478577	731.956055	6.040760
252.645187	715.535217	809.230957	730.395752	15.860416
253.019165	706.767517	813.094727	730.024231	21.872778
253.393112	711.745789	808.636536	729.875671	18.711676
253.767044	718.953125	809.825378	730.767273	13.000831
254.140930	723.114075	807.373352	736.488586	15.873043
254.514801	716.352539	796.227966	735.671204	24.185991
254.888657	714.792175	799.348694	739.757874	29.525457
255.262466	719.993408	802.989563	728.835388	10.653481
255.636276	719.398987	809.453857	728.761047	10.395951
256.010010	724.897278	819.559082	725.789001	0.942010
256.383759	723.336975	817.181335	735.596985	13.064195
256.757446	732.401917	832.339111	739.683594	7.286253
257.131134	731.138733	826.320557	738.940613	8.196817
257.504791	722.222473	834.939697	735.225403	11.535885
257.878418	715.832458	836.945801	730.692932	12.269890
258.252014	711.448547	849.280090	733.367920	15.903016
258.625580	718.730225	855.075684	737.083008	13.460502
258.999115	718.284424	861.317139	740.352356	15.428591
259.372650	718.507324	866.964172	734.482422	10.760769
259.746124	718.507324	891.558350	728.983948	6.054066
260.119598	715.535156	914.443542	732.476257	8.517037
260.493042	714.123474	934.208008	733.070618	8.609030
260.866425	711.076965	933.465027	733.813660	10.223883
261.239838	716.129639	921.130859	728.166687	5.871696
261.613159	719.696228	905.452942	734.333801	7.879970
261.986511	724.302917	895.942322	734.110840	5.714260
262.359802	720.439209	886.728699	739.386414	11.394109
262.733063	719.919006	877.589417	732.030457	7.681499
263.106293	710.705505	875.806152	728.463867	10.756083
263.479523	710.705566	876.177673	726.383484	9.474659
263.852692	715.832458	882.121887	737.157288	12.823923
264.225861	721.999573	877.960938	740.055115	11.576933
264.598969	722.073792	878.332458	743.993164	14.027620
264.972076	712.785950	875.806152	737.157288	14.949888
265.345154	714.643555	880.041443	733.888000	11.635242
265.718201	715.386536	886.059998	731.510254	9.447115
266.091217	719.101746	898.394226	732.922058	7.708250
266.464203	719.027405	909.911133	736.711487	9.264321
266.837158	720.959290	918.678772	728.909729	4.021070
267.210114	721.330811	930.047119	725.714661	2.100387
267.583038	722.371094	933.167786	728.240906	2.784585
267.955902	723.114075	934.876892	729.949890	3.228053
268.328766	719.250305	925.589050	733.888000	7.094012
268.701569	713.826172	931.607605	736.562805	10.440116
269.074371	717.318420	934.208069	736.191345	8.701626
269.447144	720.290588	953.378235	735.596924	6.566772
269.819885	725.789001	954.567078	734.631042	3.864899
270.192596	725.417480	978.566833	733.442139	3.169930
270.565277	728.538147	986.071289	735.002502	2.510106
270.937927	733.590759	1010.814148	727.349304	-2.251417
271.310577	725.863281	1025.451782	733.813660	2.653766
271.683136	723.411316	1054.801392	724.897400	0.448440
272.055725	712.711731	1071.148071	725.937683	3.689903
272.428284	717.244202	1079.915649	721.628113	1.208783
272.800812	713.603333	1073.154175	724.154297	2.934485
273.173279	713.826172	1068.621704	731.658875	5.026191
273.545776	714.494934	1064.980835	737.380188	6.529579
273.918152	716.055237	1064.163452	739.757996	6.809020
274.290558	716.352539	1056.659058	737.157410	6.113568
274.662964	715.015137	1049.154419	733.070618	5.403579
275.035278	721.999512	1049.674561	736.562805	4.444432
275.407593	723.337097	1056.881958	727.126465	1.136089
275.779907	723.188477	1070.702271	718.730225	-1.282899
276.152161	720.290588	1076.497803	710.705566	-2.690856
276.524384	725.937561	1088.683472	715.535156	-2.867684
276.896606	727.126465	1102.429321	726.457703	-0.178193
277.268799	723.411316	1116.918335	729.727051	1.604987
277.640930	712.860291	1125.463257	728.835388	3.871784
278.013031	711.671387	1130.590210	728.389648	3.990812
278.385162	710.036804	1136.757324	727.795227	4.161605
278.757233	708.402161	1138.837891	732.476257	5.592960
279.129272	709.516663	1138.317749	731.361633	5.094430
279.501282	710.556946	1136.831665	740.946777	7.129166
279.873230	713.231873	1147.531250	742.804260	6.809217
280.245178	710.854187	1163.060547	739.980774	6.440995
280.617126	720.810730	1195.753784	738.048889	3.629521
280.988983	728.612488	1225.400513	734.408020	1.166601
281.360870	729.429871	1246.279541	741.020996	2.242649
281.732697	717.095520	1260.174194	739.312073	4.090854
282.104492	715.609558	1279.938599	735.225403	3.475959
282.476288	721.925293	1306.539063	728.463867	1.118443
282.848053	721.999573	1327.938232	723.188416	0.196199
283.219757	718.804504	1330.687500	726.977783	1.335758
283.591461	708.699402	1322.885620	728.984070	3.302690
283.963135	710.259766	1312.111694	729.875671	3.259258
284.334747	712.637390	1313.151978	729.504150	2.808718
284.706360	716.946960	1336.334351	734.482422	2.831098
285.077942	720.439209	1372.817017	741.318298	3.200460
285.449524	719.696228	1415.689819	745.925049	3.768543
285.821014	720.439148	1436.494507	742.878601	3.133759
286.192535	721.776611	1461.757324	737.231628	2.088570
286.563995	716.278137	1475.429077	734.259460	2.368610
286.935425	716.278137	1499.577515	728.166687	1.517753
287.306824	714.272034	1509.534180	729.429749	1.906002
287.678223	721.330811	1499.429077	727.200745	0.754395
288.049561	719.176025	1473.422974	736.117004	2.246078
288.420898	719.027405	1444.519165	731.361633	1.700120
288.792145	724.377136	1444.593628	733.367859	1.248336
289.163452	729.504089	1457.373535	726.754883	-0.377706
289.534668	728.983948	1481.967773	733.219238	0.562468
289.905914	722.073792	1509.756958	737.157227	1.914911
290.277039	721.107910	1545.199341	736.562805	1.875386
290.648193	726.754883	1577.223755	733.813721	0.829994
291.019318	729.355469	1602.040894	729.652771	0.034068
291.390381	728.538269	1614.077759	734.036621	0.620904
291.761475	723.262695	1609.619751	736.711487	1.517311
292.132507	724.154297	1597.137085	735.522705	1.302249
292.503510	722.965515	1580.344604	733.293640	1.204616
292.874481	730.618652	1574.251587	726.160461	-0.528452
293.245422	724.005676	1578.486938	726.383362	0.278261
293.616364	722.445374	1605.310181	725.268860	0.319810
293.987213	711.002747	1643.799194	730.247131	2.063085
294.358093	721.107910	1689.718140	732.996338	1.227370
294.728943	721.850891	1737.197632	737.900330	1.580685
295.099731	729.949951	1782.373657	731.881836	0.183565
295.470490	722.816895	1808.602539	729.058289	0.574827
295.841248	721.479431	1826.880859	727.274963	0.524292
296.211975	712.191589	1846.125366	733.962219	1.919921
296.582642	713.454773	1891.078613	726.531982	1.110474
296.953308	708.327820	1955.870483	722.519714	1.137588
297.323883	710.705566	2002.383911	726.160461	1.196497
297.694519	707.138977	2029.430176	735.076843	2.112838
298.065063	708.847961	2017.096069	734.928162	1.993521
298.435608	715.312317	2000.377930	727.497864	0.948243
298.806122	729.504150	1950.817993	734.408020	0.401524
299.176575	737.603088	1900.737915	733.813660	-0.325794
299.547028	736.637207	1858.831177	739.386414	0.244985
299.917450	725.789001	1840.478516	734.556641	0.786554
300.287872	727.423645	1834.236938	739.312073	1.074113
300.658234	723.262695	1829.333008	739.089172	1.430874
301.028564	724.748779	1830.076172	737.825989	1.183107
301.398865	721.850891	1829.407349	735.819824	1.261239
301.769135	725.491760	1826.435181	733.219238	0.701896
302.139374	723.411316	1837.877930	734.631042	1.006735
302.509583	719.473206	1846.348267	735.819824	1.450615
302.879791	721.702332	1837.654907	726.680664	0.446106
303.249939	719.101746	1816.701538	726.383484	0.663424
303.620087	718.804504	1795.450806	725.789001	0.648727
303.990173	711.820068	1799.686157	731.361633	1.796321
304.360260	716.575500	1806.299194	731.658936	1.384152
304.730286	717.764343	1815.141235	735.374023	1.604707
305.100281	719.324707	1814.546509	737.231628	1.635004
305.470276	715.312256	1821.902710	735.448303	1.819648
305.840179	709.516785	1836.688965	730.767273	1.885292
306.210144	710.482666	1848.503296	735.374023	2.187250
306.579987	714.940857	1857.716797	732.030457	1.495446
306.949890	723.559875	1866.187134	737.380188	1.209521
307.319702	727.795166	1883.945679	738.866272	0.957583
307.689484	725.566101	1911.660278	738.569031	1.096281
308.059265	718.358704	1950.297729	734.408142	1.302779
308.429016	710.705505	1994.805054	731.064453	1.585465
308.798737	707.956299	2037.603516	735.745605	2.089976
309.168396	713.751953	2069.033691	735.225403	1.584427
309.538055	718.804504	2103.881592	739.832214	1.518162
309.907684	712.934570	2123.869141	743.918884	2.196013
310.277313	706.693176	2158.642822	745.999329	2.707129
310.646851	699.634460	2176.252441	743.027283	2.938663
311.016388	706.544617	2189.552490	737.083008	2.059220
311.385895	709.962585	2191.781738	741.763977	2.146105
311.755371	711.374268	2193.639404	745.033386	2.270789
312.124817	714.049133	2208.722900	745.553528	2.107777
312.494232	717.318542	2197.354492	736.785828	1.315325
312.863617	720.736389	2195.719971	730.990234	0.695184
313.232971	716.724060	2169.490967	730.098450	0.920615
313.602295	715.683777	2162.803711	731.138733	1.067980
313.971619	715.980957	2159.979980	727.795166	0.818159
314.340820	715.163635	2174.692139	733.219238	1.237085
314.710083	719.101746	2200.326416	742.358459	1.570100
315.079285	717.541321	2236.883545	747.782532	1.990415
315.448486	718.581604	2265.564209	743.993103	1.642649
315.817596	716.501160	2266.530029	736.934387	1.318248
316.186707	716.724121	2231.682373	733.293518	1.093720
316.555786	716.724060	2196.982910	733.665039	1.144461
316.924866	711.820068	2163.695313	735.596924	1.637665
317.293884	716.352539	2145.713867	737.677429	1.491917
317.662872	716.278137	2137.466553	734.110901	1.254778
318.031830	719.844727	2150.097900	736.042786	1.132531
318.400757	717.987122	2167.781982	734.779602	1.158266
318.769684	722.742493	2176.921143	735.596924	0.883965
319.138550	723.485535	2190.369873	736.117004	0.861109
319.507416	722.296692	2205.453369	734.036621	0.791550
319.876190	722.742493	2226.035156	739.683594	1.126933
320.244995	724.748718	2237.403564	732.624817	0.520680
320.613770	724.154297	2217.638916	739.312012	1.014923
320.982483	724.823059	2204.413086	731.807434	0.472048
321.351166	725.714661	2166.667236	735.225403	0.660032
321.719818	720.364929	2159.534424	732.922058	0.872526
322.088440	715.683777	2157.825195	730.990234	1.061370
322.457062	705.429993	2177.961182	725.863281	1.387630
322.825623	714.643555	2211.917725	728.092285	0.898214
323.194183	719.398926	2252.709961	729.206848	0.639656
323.562653	722.742493	2309.328369	735.076843	0.777415
323.931183	720.587830	2376.275391	728.241028	0.462237
324.299591	714.569336	2445.451172	728.835449	0.824211
324.668060	719.844788	2502.218506	725.491760	0.316823
325.036407	720.513489	2542.862305	734.631042	0.774690
325.404755	723.857117	2558.391357	736.042786	0.664238
325.773102	720.364929	2563.815186	737.305908	0.918982
326.141388	717.764343	2565.524170	735.596985	0.965095
326.509674	719.621887	2564.632568	745.404968	1.397449
326.877899	725.045898	2583.728516	748.674255	1.271242
327.246124	729.875671	2601.561279	743.472961	0.726473
327.614288	730.395813	2613.301025	737.380188	0.370936
327.982422	725.714661	2600.149414	737.157288	0.610457
328.350525	726.234863	2584.025635	739.460693	0.711912
328.718628	724.302917	2566.415771	737.380188	0.709906
329.086700	726.383484	2572.137207	729.578430	0.173097
329.454712	722.891174	2569.387939	724.748718	0.100598
329.822693	721.479492	2588.855225	724.674500	0.171096
330.190674	725.343079	2595.245361	733.293518	0.425179
330.558563	725.714600	2609.065674	742.135559	0.871901
330.926483	723.485596	2630.093506	743.472961	1.048321
331.294312	725.714661	2651.715576	736.191345	0.543961
331.662231	721.553711	2693.919678	730.247070	0.440758
332.029999	721.033630	2737.683838	729.949951	0.442135
332.397766	716.278259	2787.987061	736.785706	0.989881
332.765503	718.210144	2833.608643	737.603088	0.916751
333.133240	721.479431	2875.515381	736.637207	0.703692
333.500916	723.039856	2929.236328	741.689697	0.845339
333.868561	722.742676	2968.839844	743.695984	0.932876
334.236176	723.857117	2996.926025	745.776367	0.964302
334.603790	715.163757	3004.133545	734.631042	0.850482
334.971344	717.912903	2992.096436	739.683594	0.957297
335.338867	716.129578	2988.975586	737.305969	0.931713
335.706360	713.231750	2990.090088	745.776428	1.429368
336.073853	715.609558	2992.393555	743.547363	1.227073
336.441284	714.940735	2990.981689	756.401672	1.821625
336.808655	715.535156	2985.483398	757.070496	1.829792
337.176086	713.974854	2968.170654	752.983704	1.730500
337.543396	707.659119	2907.614014	745.330566	1.712374
337.910706	716.203918	2831.528076	742.581360	1.246969
338.277954	711.225647	2833.608398	739.089172	1.312842
338.645264	721.479492	2911.626221	732.030457	0.481747
339.012421	720.662109	3064.318359	723.857117	0.136326
339.379669	723.039795	3175.252197	730.098450	0.287848
339.746796	720.587830	3257.431396	734.556702	0.550640
340.113953	719.101746	3306.768311	738.940613	0.766670
340.481018	715.386536	3343.250977	736.414307	0.800185
340.848114	712.191589	3358.854492	738.420410	0.991015
341.215118	714.940735	3355.436279	741.318176	0.998958
341.582153	721.776611	3363.089600	737.825989	0.607629
341.949066	725.491760	3385.900391	729.429688	0.148020
342.316010	723.634216	3414.135742	734.928223	0.419773
342.682922	718.061523	3433.305908	740.203674	0.815475
343.049835	715.981018	3449.057861	750.606140	1.266892
343.416656	709.368103	3486.358154	748.302734	1.402044
343.783478	710.928406	3544.611328	750.308899	1.389728
344.150269	714.866455	3654.207764	745.627747	1.046537
344.516998	716.278137	3776.435547	741.763977	0.832828
344.883728	713.677673	3878.304688	739.163391	0.805331
345.250427	705.355774	3951.344482	739.089111	1.039232
345.617065	706.024475	3984.854736	738.717590	0.997097
345.983704	716.649719	4004.990967	743.175842	0.806672
346.350281	716.575500	3975.864502	741.689758	0.770544
346.716827	722.222473	3930.317139	741.912659	0.613766
347.083405	715.163757	3876.819092	736.637207	0.679184
347.449860	725.937683	3839.221436	736.042786	0.324580
347.816376	725.045959	3794.862549	732.327637	0.237202
348.182770	719.919128	3760.460693	731.881836	0.393440
348.549194	716.575439	3748.200439	738.866211	0.735275
348.915558	716.798340	3765.810547	745.553528	0.943098
349.281921	720.216309	3792.336182	748.971436	0.936003
349.648193	715.832458	3822.428955	744.736145	0.930397
350.014526	708.699402	3845.240234	740.500916	1.013904
350.380737	703.126648	3902.304688	738.048889	1.091600
350.746948	704.389832	3950.899170	738.717712	1.057378
351.113159	713.603333	4015.690674	734.556702	0.634549
351.479309	726.532043	4044.891602	734.036621	0.226153
351.845428	727.497864	4077.881836	732.179016	0.139720
352.211517	725.863281	4109.683594	736.934387	0.327178
352.577576	724.971680	4151.441406	738.271790	0.388158
352.943604	724.228699	4211.998535	741.764099	0.502768
353.309601	724.823059	4272.628906	742.432800	0.496356
353.675537	721.330811	4368.628418	746.222168	0.682460
354.041473	717.021240	4484.169434	748.822754	0.844180
354.407379	714.866455	4581.580078	744.959045	0.778247
354.773254	709.591003	4677.355957	743.027161	0.842695
355.139038	714.420654	4736.352539	739.237793	0.617045
355.504913	718.804504	4845.428711	743.027283	0.586988
355.870636	726.457703	4933.031738	743.770264	0.411560
356.236389	725.417480	5049.018066	737.083008	0.269810
356.602081	723.857117	5165.524902	737.305908	0.302787
356.967804	720.587830	5316.953613	729.949951	0.203685
357.333405	718.804504	5465.039063	735.374023	0.349109
357.699036	717.467041	5620.183594	729.132568	0.237940
358.064606	715.015137	5757.271973	735.894104	0.414080
358.430176	721.628113	5856.837891	735.002502	0.260445
358.795654	720.290527	5906.546875	745.850769	0.492846
359.161163	720.587830	5874.818848	738.717712	0.351748
359.526581	721.850891	5857.803223	733.070740	0.218457
359.892029	726.011902	5894.360840	721.256531	-0.092009
360.257416	727.126465	6017.926270	715.981018	-0.210657
360.622772	721.256531	6233.552734	724.971680	0.067397
360.988098	716.798340	6466.863281	733.516418	0.290746
361.353394	723.336975	6759.467285	736.934387	0.225267
361.718658	727.052185	7029.928223	742.804382	0.249921
362.083893	726.457703	7252.168457	741.243958	0.226585
362.449097	718.581604	7397.727051	751.869202	0.498381
362.814209	713.974792	7414.371094	750.680359	0.547812
363.179382	710.779785	7242.657715	741.764099	0.474355
363.544434	715.312256	6888.084473	739.609314	0.393617
363.909546	713.751953	6462.701660	731.956116	0.316652
364.274536	726.309082	6141.045410	743.918884	0.325220
364.639587	729.058350	5928.093750	749.342957	0.390161
365.004517	726.309082	5806.386230	752.760803	0.520695
365.369507	724.600098	5741.147949	755.435730	0.614678
365.734344	721.850891	5707.414551	748.005554	0.524608
366.099274	730.915833	5686.535645	743.695984	0.257892
366.464081	720.290588	5649.681641	739.460693	0.388894
366.828918	717.467102	5651.762207	743.844543	0.534574
367.193665	713.083191	5651.613770	755.807312	0.865118
367.558411	720.587830	5687.204590	758.110657	0.755501
367.923126	724.674500	5660.455566	750.680359	0.526884
368.287781	732.922058	5647.601563	742.581360	0.196540
368.652435	731.956116	5591.948730	735.819824	0.079500
369.017059	725.417480	5574.264160	745.330627	0.410678
369.381653	716.129639	5539.342285	740.203674	0.499129
369.746185	712.934570	5536.741699	742.284180	0.608432
370.110687	713.008972	5545.880859	728.166687	0.313638
370.475220	716.724060	5601.013184	731.956116	0.311858
370.839661	718.358704	5672.046875	732.253235	0.280489
371.204041	723.114075	5751.996582	746.742371	0.469852
371.568451	723.782776	5808.688965	743.027161	0.378461
371.932770	718.804504	5855.128906	750.011658	0.607578
372.297150	721.850891	5889.232910	752.389343	0.590985
372.661377	717.021301	5922.892578	762.122986	0.866362
373.025696	721.776550	5951.648438	754.395508	0.623705
373.389862	719.993347	5960.044434	745.479187	0.486366
373.754059	720.810608	5948.898926	744.513245	0.453371
374.118225	724.377258	5930.100098	759.373779	0.672270
374.482361	728.166687	5965.988281	764.946533	0.702197
374.846436	725.566101	6032.563965	763.460449	0.714045
375.210510	715.906677	6144.537598	754.989929	0.719947
375.574524	705.950195	6255.917969	746.370850	0.728304
375.938538	708.030579	6415.593750	750.308838	0.740741
376.302460	712.042969	6574.007813	753.355286	0.704752
376.666412	723.782776	6759.838379	765.392273	0.689349
377.030304	731.807556	6908.221191	764.723633	0.532932
377.394196	737.380188	7053.186035	763.831970	0.418819
377.757996	730.544434	7153.717285	767.770020	0.579551
378.121796	723.262695	7210.410156	767.101257	0.675776
378.485565	718.210144	7233.072754	768.736023	0.775548
378.849304	713.157471	7161.222168	765.763855	0.815848
379.212982	722.445313	7046.499512	779.212708	0.897642
379.576630	723.336914	6840.085938	784.785339	1.004593
379.940277	730.247131	6690.736816	795.187744	1.089518
380.303864	722.668274	6579.505859	795.039063	1.235663
380.667450	723.336975	6564.570801	799.423035	1.302568
381.030945	724.525818	6583.295410	805.367188	1.379835
381.394501	722.816895	6633.747559	815.398132	1.566272
381.757935	719.993408	6671.567871	825.354675	1.770309
382.121399	718.953125	6691.257813	831.224426	1.879866
382.484741	717.912903	6711.839355	841.924072	2.068947
382.848145	719.993347	6733.238281	855.744446	2.257535
383.211487	719.027405	6806.128906	868.673096	2.458406
383.574768	716.055359	6894.326172	882.344788	2.691520
383.938019	715.683777	7005.408691	904.487000	3.001772
384.301270	713.751953	7089.742676	926.332031	3.334071
384.664459	714.123535	7169.097656	938.740540	3.479751
385.027649	715.683838	7213.828125	953.229675	3.655595
385.390778	721.033630	7267.994629	971.805359	3.830353
385.753876	732.476257	7300.391113	987.854675	3.888272
386.116943	734.779602	7362.805176	1010.145508	4.154569
386.479980	730.618652	7402.854980	1028.275391	4.461124
386.842987	717.318542	7467.795410	1067.210083	5.183212
387.205994	717.764343	7523.447754	1091.952881	5.498177
387.568909	717.467102	7561.787598	1127.543823	5.991489
387.931793	730.172852	7616.029297	1163.209106	6.288778
388.294678	729.949890	7664.771484	1195.753784	6.716883
388.657471	729.652649	7712.548340	1231.047485	7.180328
389.020294	723.411316	7691.371582	1258.539551	7.679840
389.383057	716.946960	7688.102051	1304.830078	8.433081
389.745819	716.575378	7675.322266	1344.359253	9.021507
390.108521	711.745789	7687.210938	1392.210327	9.755114
390.471191	712.191589	7767.903809	1428.024048	10.145432
390.833801	709.516663	7892.658203	1489.100952	10.852971
391.196442	719.993347	8083.244141	1546.016724	11.218188
391.558960	723.708496	8242.029297	1620.690918	11.930622
391.921509	725.194580	8421.172852	1661.408813	12.164980
392.284027	724.377258	8620.675781	1715.501343	12.551756
392.646484	721.256531	8737.851563	1763.575195	13.002011
393.008911	727.275085	8759.696289	1814.472534	13.535115
393.371307	719.250305	8684.427734	1860.911743	14.333158
393.733673	725.566101	8617.852539	1899.623413	14.876010
394.096008	716.649719	8560.268555	1948.143066	15.700578
394.458344	723.559875	8574.756836	1995.696655	16.203093
394.820587	717.690002	8591.624023	2048.971924	16.907457
395.182831	723.114075	8674.545898	2101.578125	17.336050
395.545013	725.343201	8628.626953	2133.156982	17.813023
395.907196	721.405090	8538.719727	2158.197021	18.379612
396.269287	714.940735	8378.449219	2165.255859	18.924952
396.631409	705.875793	8263.577148	2189.255371	19.627392
396.993469	711.745789	8141.349121	2205.973389	20.111807
397.355530	719.398926	8053.152344	2240.301514	20.738392
397.717499	728.092285	8025.957031	2273.143066	21.171272
398.079468	733.887939	8032.198730	2315.421143	21.669853
398.441376	728.018066	8052.111816	2342.690430	22.046036
398.803284	725.343201	8032.421875	2372.782959	22.545805
399.165131	723.708496	8076.557129	2412.609375	22.969341
399.526978	725.640320	8089.560059	2447.903320	23.387856
399.888763	724.302917	8111.330566	2491.370361	23.921223
400.250519	723.708496	8095.429688	2522.651611	24.403297
400.612244	724.971680	8135.775879	2572.880371	24.935333
400.973938	729.801331	8145.138672	2602.007080	25.247749
401.335602	723.411316	8163.714355	2629.350342	25.616415
401.697205	722.593933	8170.773438	2661.300537	26.029266
402.058807	716.055359	8242.475586	2717.919189	26.597820
402.420349	714.272034	8352.963867	2783.379883	27.087202
402.781860	716.872620	8461.891602	2840.147217	27.414711
403.143341	716.129639	8591.030273	2889.558594	27.599447
403.504822	715.535156	8717.493164	2942.462158	27.829777
403.866241	709.367981	8914.618164	3032.962891	28.318394
404.227631	710.036804	9094.058594	3100.503906	28.512177
404.588959	718.358704	9291.851563	3182.311279	28.739191
404.950287	718.284424	9400.111328	3224.812256	28.870972
405.311554	715.460938	9515.875977	3289.455811	29.248562
405.672821	718.432922	9563.131836	3315.387451	29.361706
406.034027	722.222473	9556.147461	3326.161377	29.476580
406.395203	724.674500	9462.377930	3320.142578	29.704237
406.756348	722.296692	9361.770508	3313.604248	29.993814
407.117493	723.708496	9310.725586	3319.250977	30.226357
407.478516	731.287354	9301.585938	3330.768311	30.331276
407.839600	720.885010	9290.441406	3353.504639	30.720604
408.200592	718.284363	9303.666992	3374.383789	30.937460
408.561554	708.253601	9285.983398	3407.300049	31.465744
408.922485	709.665283	9316.669922	3443.634033	31.764462
409.283417	709.665283	9306.639648	3476.104248	32.179214
409.644257	718.878845	9382.130859	3510.506592	32.223785
410.005096	727.349304	9516.766602	3552.264648	32.139961
410.365906	721.702332	9664.332031	3616.684814	32.372829
410.726715	718.953125	9790.944336	3671.668701	32.547604
411.087433	725.343079	9859.377930	3715.209961	32.733253
411.448120	734.036621	9939.030273	3745.971436	32.720661
411.808807	733.293640	9942.151367	3750.875732	32.768257
412.169434	726.309082	9857.147461	3750.281250	33.118233
412.530029	724.971680	9772.740234	3745.377197	33.382877
412.890564	722.593994	9736.108398	3741.587891	33.494080
413.251099	720.364929	9761.222656	3753.550781	33.549759
413.611572	721.033630	9826.980469	3772.349365	33.509041
413.972076	707.733398	9886.942383	3821.166016	33.918312
414.332489	708.922302	9927.735352	3857.425781	34.153023
414.692871	704.687012	10056.130859	3925.041016	34.436974
415.053223	715.237976	10167.881836	3967.319580	34.403938
415.413574	713.231873	10401.934570	4039.244873	34.328773
415.773834	718.507324	10537.091797	4095.863281	34.397587
416.134094	721.999512	10716.532227	4177.893066	34.577839
416.494263	721.553711	10835.416992	4244.097168	34.828861
416.854462	717.912903	11094.436523	4345.743164	34.961906
417.214630	708.699402	11394.620117	4448.429688	34.996799
417.574738	708.773621	11744.065430	4573.777832	35.024033
417.934784	711.374207	12035.554688	4677.876465	35.026836
418.294861	717.912903	12409.372070	4821.131348	35.095863
418.654846	717.318420	12828.959961	4969.959961	35.112015
419.014832	714.197754	13301.450195	5132.237305	35.099319
419.374756	721.182190	13768.590820	5305.957520	35.139359
419.734680	722.073914	14268.278320	5515.416504	35.385136
420.094543	726.531982	14747.010742	5719.972168	35.615334
420.454376	722.668274	15195.278320	5882.472168	35.652199
420.814148	726.383362	15637.601563	6023.572754	35.524860
421.173920	716.724060	16116.928711	6202.196777	35.619476
421.533691	720.662109	16609.257813	6383.271973	35.639462
421.893341	717.541321	17000.240234	6532.397949	35.711872
422.253021	722.073792	17223.445313	6628.174316	35.791576
422.612640	721.776611	17283.927734	6679.071777	35.969334
422.972260	720.810730	17212.447266	6674.613281	36.101952
423.331757	722.148132	17126.775391	6660.718750	36.200584
423.691315	722.073914	17133.390625	6665.251465	36.213902
424.050781	722.816895	17249.005859	6736.210449	36.387054
424.410248	721.925232	17380.000000	6790.079590	36.427708
424.769653	715.460876	17502.748047	6843.949219	36.506721
425.128998	713.603271	17556.544922	6859.626953	36.490204
425.488373	714.123352	17462.179688	6830.277344	36.518589
425.847656	715.758118	17216.462891	6772.098145	36.703522
426.206940	721.850891	16952.314453	6695.566406	36.805573
426.566193	718.507324	16649.755859	6605.957520	36.955360
426.925385	715.312256	16353.434570	6495.097656	36.959587
427.284576	712.785950	15913.191406	6338.096191	37.007633
427.643677	717.244141	15553.789063	6201.898926	36.967197
428.002777	718.061523	15200.627930	6080.414063	37.026260
428.361847	717.987122	14856.085938	5961.975098	37.091183
428.720856	718.284424	14535.172852	5858.323730	37.201134
429.079865	722.742615	14282.840820	5781.866699	37.308903
429.438812	723.708496	14129.479492	5749.099121	37.486771
429.797760	727.720886	14022.706055	5727.328125	37.605213
430.156616	724.971680	13865.184570	5666.696777	37.607647
430.515503	717.541443	13771.414063	5630.585938	37.636681
430.874268	715.758118	13713.161133	5602.127441	37.594963
431.233093	715.312256	13744.963867	5635.489746	37.761391
431.591827	717.689941	13807.377930	5655.550781	37.723289
431.950562	717.392761	13872.391602	5700.430176	37.879421
432.309204	721.850891	13946.621094	5728.219238	37.855991
432.667877	722.965515	14066.026367	5791.005371	37.982590
433.026459	718.507324	14193.752930	5838.261719	37.993774
433.385010	717.169861	14320.364258	5894.880371	38.062462
433.743561	715.683777	14476.028320	5951.722656	38.051655
434.102051	718.953125	14642.317383	6011.312988	38.010639
434.460510	716.575378	14810.092773	6074.990723	38.020428
434.818939	723.931396	14865.077148	6114.965332	38.123035
435.177338	724.525879	14866.414063	6138.519531	38.283386
435.535675	725.417480	14802.140625	6131.312500	38.403080
435.894012	718.804504	14755.777344	6109.244629	38.401726
436.252289	719.324646	14782.749023	6124.476563	38.434109
436.610535	717.541321	14796.198242	6119.349121	38.368771
436.968719	717.392761	14907.578125	6189.342285	38.561508
437.326935	719.324646	15001.421875	6225.378906	38.552139
437.685028	719.027405	15138.510742	6297.824219	38.689297
438.043152	719.398926	15249.148438	6333.267090	38.637058
438.401215	712.191589	15450.804688	6416.856934	38.705578
438.759277	715.163757	15670.739258	6510.627441	38.751194
439.117249	719.250305	16068.928711	6651.356934	38.646454
439.475250	721.405090	16383.229492	6789.187988	38.742504
439.833130	722.965393	16786.396484	6936.158691	38.679119
440.191071	716.203857	17035.164063	7055.638184	38.847050
440.548889	717.764343	17339.134766	7159.587402	38.756268
440.906708	715.758118	17644.890625	7274.607910	38.742973
441.264496	726.606262	17870.103516	7348.390625	38.625629
441.622223	732.550537	18043.525391	7412.439453	38.587593
441.979950	736.637207	18073.689453	7456.872559	38.762272
442.337616	731.584534	18071.015625	7473.591309	38.882515
442.695251	726.160461	17908.589844	7438.445313	39.064816
443.052887	726.234802	17718.449219	7378.111816	39.146614
443.410461	724.377258	17514.859375	7321.195313	39.289032
443.768005	719.621826	17381.115234	7303.363281	39.514709
444.125458	711.820068	17314.837891	7259.970215	39.439518
444.482941	709.888184	17371.679688	7273.716309	39.394493
444.840393	719.398926	17504.607422	7290.285156	39.146885
445.197754	721.256531	17770.460938	7399.064941	39.167858
445.555084	720.662109	18035.126953	7500.710938	39.158291
445.912415	712.563049	18414.369141	7650.356934	39.192577
446.269714	719.027405	18710.169922	7781.947266	39.257763
446.626953	725.714661	19033.162109	7932.558594	39.365639
446.984161	720.290527	19343.154297	8063.628906	39.431843
447.341309	717.169861	19577.205078	8155.912598	39.441830
447.698456	716.426819	19755.830078	8223.825195	39.430851
448.055542	724.302979	19804.869141	8267.514648	39.533482
448.412598	720.067688	19771.732422	8248.270508	39.514671
448.769653	716.055359	19616.585938	8189.199707	39.539337
449.126617	716.426819	19345.826172	8089.187988	39.575951
449.483582	721.107910	19072.394531	8027.740234	39.815369
449.840515	723.708496	18748.732422	7915.840332	39.900818
450.197388	727.200684	18481.169922	7814.789063	39.921150
450.554230	728.761047	18263.980469	7715.074219	39.841606
450.911041	721.850891	18099.326172	7670.566895	39.986916
451.267822	713.974854	17962.755859	7601.837402	39.932457
451.624573	708.104919	17785.990234	7540.760254	40.008793
451.981262	717.467041	17658.636719	7478.494141	39.908859
452.337921	720.067627	17508.248047	7448.253418	40.076920
452.694580	725.343201	17427.705078	7411.101563	40.028820
453.051147	720.959290	17428.001953	7443.274902	40.236416
453.407715	719.770508	17347.902344	7406.940918	40.216003
453.764221	717.244141	17350.279297	7433.318359	40.377922
454.120728	719.176086	17095.199219	7321.864746	40.319241
454.477142	725.714661	17043.781250	7305.146484	40.319923
454.833557	732.476257	16860.998047	7207.884277	40.148804
455.189911	733.888000	16746.794922	7174.521973	40.221516
455.546265	731.138855	16554.349609	7093.160645	40.206898
455.902557	725.640381	16431.453125	7059.278809	40.326717
456.258820	721.702332	16419.191406	7051.699219	40.324902
456.615051	724.674500	16481.755859	7078.746094	40.325184
456.971252	722.148132	16470.683594	7088.479004	40.424908
457.327393	720.587708	16649.751953	7158.621094	40.416641
457.683502	715.906738	16893.615234	7272.973145	40.531490
458.039612	715.163635	17359.271484	7440.451660	40.406422
458.395630	724.674500	17832.056641	7625.614746	40.338963
458.751648	725.343201	18313.466797	7812.039551	40.292511
459.107605	726.160461	18933.373047	8076.186035	40.368755
459.463562	715.980957	19578.914063	8340.034180	40.418175
459.819458	718.507324	20188.197266	8598.162109	40.471394
460.175323	714.569153	20708.685547	8818.247070	40.530312
460.531158	723.262634	21203.023438	9019.012695	40.507065
460.886932	721.553711	21506.548828	9136.336914	40.484894
461.242676	727.126465	21627.367188	9206.776367	40.572025
461.598419	726.234863	21398.365234	9139.383789	40.698021
461.954102	727.646545	20939.250000	9004.895508	40.952957
462.309723	729.949951	20299.353516	8749.442383	40.979748
462.665344	724.154297	19616.810547	8462.335938	40.958675
463.020905	724.228577	19101.521484	8230.363281	40.844616
463.376373	714.717957	18661.126953	8050.848145	40.877987
463.731873	722.073914	18329.292969	7924.830566	40.907974
464.087341	718.061523	18063.437500	7797.921875	40.816994
464.442749	727.126465	17929.693359	7752.523438	40.839237
464.798126	721.850891	17851.750000	7730.900879	40.917053
465.153503	730.247070	17911.638672	7785.513672	41.063419
465.508820	729.578369	17990.919922	7814.342285	41.044106
465.864105	729.058289	18159.585938	7871.853027	40.978649
466.219330	728.909668	18449.218750	7980.186035	40.920712
466.574524	726.606262	18664.845703	8058.427246	40.872574
466.929657	721.999512	18820.583984	8148.036621	41.031040
467.284790	715.163635	18923.416016	8213.199219	41.179329
467.639893	719.770325	19049.062500	8283.118164	41.263718
467.994934	723.931335	19205.099609	8368.120117	41.362045
468.349945	726.234802	19257.482422	8395.241211	41.384186
468.704926	719.621826	19236.751953	8396.726563	41.459473
469.059875	721.107910	19028.185547	8296.938477	41.381977
469.414764	725.491699	18776.521484	8200.047852	41.407921
469.769653	728.984070	18574.119141	8108.730469	41.354389
470.124451	727.869446	18489.263672	8046.019043	41.202560
470.479248	725.566101	18367.853516	7991.628906	41.185493
470.834015	716.575439	18265.615234	7978.329590	41.379780
471.188721	715.832336	18331.521484	8040.892090	41.582588
471.543365	712.637390	18439.556641	8061.325684	41.454964
471.898010	714.420715	18596.929688	8093.201172	41.262554
472.252625	712.340149	18742.638672	8137.560059	41.181900
472.607178	712.934570	19037.916016	8272.196289	41.251133
472.961700	712.414490	19267.365234	8397.470703	41.417820
473.316193	716.426758	19568.140625	8531.883789	41.457539
473.670654	714.643555	19707.535156	8596.528320	41.499130
474.025055	725.120300	19939.880859	8672.688477	41.361790
474.379456	722.296692	20045.462891	8720.538086	41.391979
474.733795	726.234863	20154.912109	8781.392578	41.460144
475.088104	722.965515	20241.845703	8838.085938	41.575748
475.442383	722.296814	20262.501953	8868.030273	41.687042
475.796570	717.838562	20389.857422	8925.094727	41.720455
476.150787	720.216248	20590.250000	9016.487305	41.752682
476.504944	719.101746	20877.505859	9122.144531	41.685059
476.859070	724.674500	21174.416016	9243.926758	41.659458
477.213135	720.959290	21424.445313	9331.381836	41.589241
477.567200	725.343201	21871.525391	9505.399414	41.520767
477.921173	722.519714	22263.474609	9665.075195	41.514202
478.275146	723.857117	22774.970703	9861.903320	41.440292
478.629089	723.559875	23043.501953	9992.453125	41.527409
478.983002	724.674500	23492.439453	10167.584961	41.474911
479.336823	727.423645	23849.390625	10325.180664	41.509258
479.690643	726.680664	24328.642578	10501.352539	41.414661
480.044403	726.754883	24786.273438	10707.617188	41.484047
480.398163	728.166687	25468.447266	10969.906250	41.397018
480.751862	731.584656	26357.775391	11340.750000	41.399696
481.105499	729.504089	27484.130859	11795.409180	41.360718
481.459137	719.621887	28937.271484	12416.281250	41.451569
481.812744	704.835632	30762.291016	13196.683594	41.559898
482.166290	695.027588	33048.066406	14185.726563	41.698399
482.519806	695.696350	35777.128906	15341.877930	41.749096
482.873291	711.894348	38943.839844	16694.335938	41.803894
483.226715	713.677673	42492.238281	18207.212891	41.872036
483.580139	710.705566	45999.105469	19833.107422	42.223621
483.933502	703.498108	49325.191406	21462.117188	42.694153
484.286804	704.761292	51985.156250	22998.623047	43.474434
484.640106	715.312317	53994.375000	24258.796875	44.188999
484.993347	716.947021	55089.519531	25119.818359	44.880844
485.346558	718.953125	55306.410156	25371.109375	45.160843
485.699738	714.717957	54642.890625	25042.320313	45.111118
486.052887	717.838623	53351.957031	24246.091797	44.701527
486.405975	722.668274	51792.488281	23320.726563	44.249340
486.759064	726.383362	50172.765625	22367.646484	43.767132
487.112061	728.092285	48879.750000	21570.970703	43.285904
487.464996	722.816833	48139.917969	21072.623047	42.916599
487.817963	720.959290	48048.968750	20942.593750	42.726570
488.170868	712.563049	48146.230469	20963.695313	42.693584
488.523743	716.129578	48238.886719	20992.970703	42.667645
488.876587	711.968567	47979.722656	20945.789063	42.806816
489.229401	720.884949	47494.894531	20764.712891	42.852493
489.582153	722.371094	46603.187500	20397.210938	42.882496
489.934845	723.039795	45557.152344	19911.345703	42.798454
490.287537	717.467102	44477.312500	19394.347656	42.680408
490.640198	719.250305	43648.394531	18994.599609	42.570961
490.992798	726.457703	43073.957031	18662.021484	42.353302
491.345337	726.680664	42903.503906	18590.392578	42.354328
491.697876	726.383362	43012.359375	18644.486328	42.373631
492.050354	721.850891	43422.214844	18876.458984	42.516285
492.402832	722.148132	43659.015625	19010.425781	42.593414
492.755219	717.615723	43507.960938	18961.087891	42.634556
493.107605	715.015137	42725.996094	18634.304688	42.653824
493.459930	724.080078	41458.835938	18149.109375	42.776810
493.812225	724.154297	39694.144531	17425.548828	42.857063
494.164490	720.810730	37727.351563	16591.574219	42.886375
494.516724	711.002686	35707.433594	15681.885742	42.778316
494.868896	716.278320	33879.511719	14871.614258	42.683823
495.221039	724.674500	32440.716797	14236.401367	42.602184
495.573120	719.993408	31324.986328	13763.464844	42.618771
495.925201	718.061523	30721.427734	13507.416992	42.626400
496.277222	714.643555	30370.125000	13350.192383	42.607803
496.629211	717.244141	30299.458984	13288.745117	42.496822
496.981140	714.940735	30308.154297	13261.104492	42.395409
497.333069	716.352539	30398.429688	13307.468750	42.419930
497.684967	724.748779	30480.982422	13335.406250	42.379883
498.036804	723.114075	30526.529297	13365.127930	42.418003
498.388580	727.349304	30456.833984	13320.843750	42.360283
498.740326	724.971680	30315.880859	13253.823242	42.340202
499.092072	728.240967	29990.289063	13129.067383	42.378529
499.443756	721.850891	29621.150391	13012.932617	42.530727
499.795410	720.216309	29238.197266	12869.750977	42.603069
500.147003	718.284424	28881.837891	12722.187500	42.622120
500.498566	715.015137	28535.736328	12545.940430	42.525589
500.850098	709.962463	28125.140625	12390.796875	42.607178
501.201599	707.733398	27787.064453	12242.637695	42.596710
501.553009	716.278320	27452.107422	12100.941406	42.582047
501.904449	718.655945	27254.087891	12013.264648	42.564255
502.255859	718.358704	27041.953125	11906.565430	42.502583
502.607178	713.677551	26957.916016	11884.497070	42.564846
502.958405	711.448547	26838.958984	11831.148438	42.559357
503.309692	716.129639	26785.537109	11821.562500	42.599480
503.660919	719.176086	26786.724609	11812.274414	42.555202
504.012115	728.092346	26825.734375	11827.284180	42.529480
504.363251	724.971680	26928.271484	11884.274414	42.587395
504.714294	723.634216	26979.689453	11916.151367	42.628330
505.065369	717.095642	27057.857422	11979.308594	42.755836
505.416443	719.547546	27091.068359	11999.742188	42.774151
505.767395	718.730164	27116.851563	12019.504883	42.809010
506.118317	719.993347	27069.369141	11992.309570	42.780205
506.469238	716.352539	27089.134766	11978.416992	42.703362
506.820160	714.197754	27066.994141	11939.258789	42.595329
507.170929	720.810730	27116.333984	11952.855469	42.552841
507.521729	723.634216	27141.298828	11994.019531	42.662312
507.872498	724.822998	27225.259766	12047.963867	42.728127
508.223236	714.049133	27367.177734	12112.383789	42.765465
508.573883	719.696106	27543.275391	12177.027344	42.713654
508.924500	724.005676	27766.109375	12267.601563	42.687492
509.275116	732.624817	27994.218750	12356.170898	42.637074
509.625702	727.646545	28241.796875	12465.321289	42.660503
509.976196	726.531982	28505.791016	12600.627930	42.744465
510.326660	726.086182	28775.810547	12696.848633	42.676933
510.677124	727.200684	28998.718750	12808.526367	42.733208
511.027557	726.531982	29241.837891	12884.984375	42.638336
511.377869	718.953125	29425.365234	12976.524414	42.699768
511.728180	715.832336	29602.130859	13026.381836	42.617264
512.078430	713.603333	29719.156250	13078.170898	42.628277
512.428650	714.494934	29836.478516	13143.629883	42.679562
512.778931	717.318420	29939.240234	13179.148438	42.645485
513.129028	721.925293	29973.865234	13215.704102	42.710945
513.479126	724.525879	30036.281250	13254.936523	42.748753
513.829285	727.720886	29989.023438	13247.877930	42.787422
514.179382	723.188416	29958.263672	13232.942383	42.790222
514.529297	725.343079	29836.109375	13169.414063	42.747318
514.879272	712.860352	29840.343750	13196.906250	42.860020
515.229187	713.454773	29757.943359	13139.395508	42.782440
515.579163	712.191589	29796.505859	13176.250000	42.854916
515.928955	717.021240	29839.156250	13170.602539	42.763283
516.278748	716.203918	30043.265625	13279.160156	42.837418
516.628540	714.272034	30336.687500	13360.743164	42.692234
516.978333	712.711731	30742.306641	13556.976563	42.772018
517.327942	712.340149	31271.490234	13796.454102	42.815701
517.677612	711.968689	31867.771484	14057.480469	42.834755
518.027222	710.779846	32504.320313	14309.515625	42.772007
518.376831	713.826172	33246.675781	14611.704102	42.719521
518.726379	714.866516	33939.921875	14901.411133	42.698334
519.075867	721.479431	34470.964844	15126.027344	42.680794
519.425293	720.587830	34812.089844	15302.421875	42.772633
519.774658	725.045898	34991.082031	15440.179688	42.943790
520.124084	725.268860	35069.394531	15483.276367	42.970982
520.473389	724.674377	34824.347656	15382.446289	42.985081
520.822693	720.141907	34426.386719	15224.479492	43.031601
521.171997	726.383362	33926.847656	15036.938477	43.103477
521.521240	722.148132	33491.132813	14853.262695	43.123444
521.870361	722.073914	33091.238281	14661.190430	43.062946
522.219482	710.928406	32745.429688	14524.770508	43.121761
522.568604	717.318542	32470.437500	14420.078125	43.154060
522.917664	714.049133	32310.240234	14358.851563	43.184959
523.266724	721.033691	32394.423828	14378.838867	43.120754
523.615662	721.107910	32661.693359	14469.041992	43.042210
523.964600	727.200745	33072.214844	14625.747070	42.969669
524.313538	733.962219	33625.917969	14833.645508	42.866661
524.662354	732.253418	34301.925781	15135.242188	42.904762
525.011169	732.996338	35192.816406	15535.583008	42.956078
525.359985	724.005676	36236.988281	15984.596680	42.971863
525.708740	725.045898	37490.699219	16502.484375	42.913528
526.057434	726.011902	38903.269531	17080.115234	42.837292
526.406067	727.572266	40454.488281	17765.556641	42.887760
526.754700	723.857117	42167.238281	18509.107422	42.914570
527.103333	725.714661	44103.046875	19446.955078	43.159039
527.451782	719.770508	46256.562500	20447.367188	43.322327
527.800293	719.473328	48438.167969	21519.849609	43.589577
528.148743	714.346375	50503.406250	22571.455078	43.899422
528.497131	713.008972	52298.488281	23671.880859	44.506458
528.845642	717.021240	53800.519531	24665.976563	45.115631
529.193909	709.591003	54985.281250	25559.763672	45.785088
529.542175	715.980957	55786.035156	26171.572266	46.224018
529.890503	718.804504	56085.253906	26528.820313	46.616707
530.238770	725.937561	55833.812500	26425.837891	46.635624
530.586914	725.566101	55044.050781	25981.953125	46.496853
530.934998	728.092346	53805.796875	25162.837891	46.035801
531.283142	728.909668	52237.332031	24200.765625	45.568966
531.631226	730.841553	50423.753906	23106.140625	45.027142
531.979248	721.107910	48612.628906	22080.390625	44.599300
532.327148	719.547546	47023.441406	21187.941406	44.204475
532.675110	714.792175	45940.332031	20530.658203	43.815655
533.023071	717.392822	45422.292969	20189.757813	43.557564
533.370850	716.426819	45284.832031	20093.091797	43.476234
533.718689	717.467102	45485.597656	20191.468750	43.499699
534.066467	719.696106	45714.300781	20309.683594	43.538528
534.414246	717.467102	45870.488281	20339.181641	43.456043
534.761963	717.244141	45707.765625	20317.410156	43.565098
535.109619	718.358704	45300.292969	20202.462891	43.704033
535.457153	716.352539	44562.832031	19958.972656	43.886353
535.804749	713.306152	43701.964844	19606.630859	43.949554
536.152344	714.494934	42860.261719	19175.675781	43.803169
536.499817	719.993408	41971.675781	18737.882813	43.677948
536.847229	722.519592	41067.707031	18265.689453	43.482681
537.194641	717.318420	40214.343750	17873.222656	43.435944
537.542114	714.494934	39630.699219	17585.818359	43.352955
537.889404	721.479431	39154.562500	17380.744141	43.346161
538.236694	723.188416	38688.312500	17209.625000	43.425217
538.583984	729.281250	38272.511719	17059.681641	43.497589
538.931213	725.491760	38038.609375	16922.591797	43.408596
539.278381	729.504150	37927.457031	16834.099609	43.294308
539.625488	723.188416	37974.859375	16815.076172	43.197762
539.972595	724.451599	38247.250000	16906.023438	43.124641
540.319641	721.256531	38922.734375	17162.144531	43.037312
540.666687	718.358704	39924.562500	17537.001953	42.897911
541.013611	714.494934	41226.640625	18114.408203	42.949871
541.360596	716.649719	42587.273438	18708.607422	42.970356
541.707458	722.891174	44017.968750	19400.068359	43.139263
542.054260	722.371033	45207.261719	19995.232422	43.324512
542.401062	719.919128	46204.406250	20538.386719	43.571926
542.747864	721.628113	46628.824219	20816.947266	43.773788
543.094666	726.754883	46562.691406	20890.876953	43.991947
543.441284	724.005676	45912.027344	20636.392578	44.065628
543.787903	719.993408	44954.707031	20187.675781	44.009964
544.134460	713.529053	43706.199219	19594.517578	43.916759
544.481079	711.671448	42255.582031	18919.775391	43.828575
544.827637	709.888184	40646.039063	18214.345703	43.831104
545.174072	713.306091	39026.609375	17467.083984	43.728355
545.520508	714.792175	37640.199219	16858.916016	43.720913
545.866943	716.352539	36511.464844	16359.304688	43.701363
546.213318	714.272034	35676.750000	15958.515625	43.601727
546.559631	715.981018	34937.957031	15607.434570	43.514297
546.905823	717.764343	34331.796875	15315.722656	43.428169
547.252136	716.055359	33821.183594	15073.941406	43.370579
547.598389	718.432922	33373.214844	14874.885742	43.351852
547.944458	715.906677	32975.843750	14686.156250	43.305260
548.290588	725.565979	32491.314453	14492.671875	43.339466
548.636658	725.714661	31895.259766	14240.635742	43.359379
548.982727	729.652649	31157.283203	13948.997070	43.445198
549.328735	720.439148	30419.384766	13659.291992	43.566708
549.674622	724.005676	29666.849609	13338.156250	43.582970
550.020569	714.420654	28964.166016	13037.377930	43.621479
550.366455	717.615723	28204.125000	12683.250977	43.532753
550.712280	712.414551	27559.177734	12391.463867	43.502632
551.058044	719.919128	27041.062500	12130.885742	43.352856
551.403748	719.473328	26659.966797	11960.137695	43.332497
551.749512	717.244141	26367.732422	11837.612305	43.353436
552.095154	722.519714	26185.244141	11758.627930	43.342213
552.440735	731.138855	26124.615234	11725.266602	43.295086
552.786316	729.875671	26134.572266	11708.027344	43.213078
553.131897	726.234680	26174.250000	11723.334961	43.213982
553.477417	714.792175	26172.466797	11730.245117	43.269676
553.822815	714.346375	26154.037109	11769.773438	43.457394
554.168213	715.832336	26072.228516	11759.816406	43.555023
554.513672	719.770508	25970.955078	11737.824219	43.633812
554.859009	725.714661	25778.437500	11647.992188	43.597168
555.204285	724.748779	25621.734375	11568.116211	43.552929
555.549500	717.615662	25383.740234	11446.632813	43.496971
555.894714	712.860291	25163.062500	11334.733398	43.442883
556.239990	710.854065	24770.966797	11199.723633	43.594429
556.585022	724.080017	24475.539063	11078.164063	43.593464
556.930115	721.033630	24144.296875	10941.297852	43.632965
557.275146	727.126465	23927.109375	10834.526367	43.566414
557.620178	714.866516	23706.804688	10770.774414	43.736671
557.965149	715.312256	23555.968750	10701.598633	43.721539
558.310059	714.272034	23387.822266	10620.236328	43.689514
558.654968	723.114075	23228.664063	10537.834961	43.610222
558.999756	730.247131	23125.162109	10506.553711	43.654137
559.344604	724.674500	23091.578125	10483.222656	43.629406
559.689331	719.027405	23065.869141	10446.071289	43.527599
560.033997	711.597168	22970.537109	10404.312500	43.545269
560.378723	711.522888	22944.976563	10391.978516	43.540047
560.723389	717.987122	22947.802734	10394.875977	43.531124
561.067932	725.566101	23043.130859	10404.461914	43.368961
561.412476	725.789001	23012.296875	10377.861328	43.309040
561.757019	723.782898	22966.228516	10366.567383	43.353077
562.101501	722.296692	22967.789063	10350.815430	43.283009
562.445862	720.885010	22956.570313	10376.968750	43.426067
562.790222	717.987122	22950.103516	10400.746094	43.553020
563.134644	719.844727	22901.212891	10393.910156	43.613476
563.478943	720.141907	22927.369141	10365.749023	43.434544
563.823181	711.448547	22964.296875	10348.140625	43.305435
564.167358	709.813904	22989.931641	10374.887695	43.379818
564.511536	721.776611	23039.490234	10395.172852	43.344032
564.855774	731.213074	23037.929688	10375.112305	43.233162
565.199768	729.578369	23140.171875	10390.714844	43.109688
565.543823	719.473206	23285.431641	10428.609375	43.025585
565.887817	718.210144	23590.890625	10554.106445	43.002815
566.231812	718.284424	23835.791016	10654.192383	42.980019
566.575745	718.284485	24025.562500	10761.412109	43.090096
566.919617	720.364929	24171.195313	10821.894531	43.075359
567.263428	715.312256	24288.962891	10890.104492	43.161716
567.607239	716.798340	24437.494141	10960.839844	43.186092
567.950989	717.764343	24480.146484	10959.725586	43.101574
568.294678	719.993408	24484.679688	10956.827148	43.075825
568.638367	722.073792	24344.025391	10875.540039	42.983181
568.981995	718.507324	24137.384766	10834.079102	43.194096
569.325623	715.089355	23886.169922	10760.520508	43.353317
569.669128	707.064758	23709.179688	10720.395508	43.532219
570.012573	717.169861	23608.646484	10654.936523	43.412518
570.356140	720.884949	23621.947266	10631.530273	43.275921
570.699524	728.538147	23613.552734	10600.026367	43.135166
571.042908	721.256531	23741.947266	10642.229492	43.095894
571.386230	717.021301	23833.267578	10660.954102	43.017075
571.729492	715.535156	23987.072266	10737.188477	43.063995
572.072815	717.987122	24096.000000	10820.556641	43.213978
572.416016	725.194580	24221.421875	10906.895508	43.333347
572.759094	725.863281	24365.494141	10926.363281	43.149998
573.102234	721.702393	24454.212891	10909.942383	42.929470
573.445374	722.891174	24482.968750	10908.085938	42.866840
573.788391	719.919128	24460.234375	10930.526367	43.009571
574.131409	718.804504	24429.398438	10932.679688	43.077263
574.474365	713.231750	24412.828125	10887.131836	42.928581
574.817261	715.832520	24280.123047	10831.702148	42.928806
575.160156	719.324707	24082.181641	10762.303711	42.986946
575.502930	716.724060	23862.914063	10655.976563	42.941208
575.845703	715.609436	23659.400391	10576.620117	42.978996
576.188477	714.197754	23430.695313	10450.899414	42.861805
576.531250	724.080078	23128.580078	10370.802734	43.057076
576.873901	723.262695	22859.009766	10269.082031	43.124001
577.216431	720.587830	22594.046875	10176.500977	43.230076
577.559082	714.346375	22339.039063	10067.721680	43.253216
577.901611	717.392822	22031.275391	9903.215820	43.097839
578.244080	718.210144	21675.365234	9763.229492	43.159580
578.586487	722.742615	21352.744141	9618.487305	43.120426
578.928955	743.175781	21031.087891	9500.717773	43.166306
579.271301	741.541199	20736.328125	9382.650391	43.216812
579.613647	730.618652	20382.500000	9227.357422	43.236259
579.955872	711.077087	20063.666016	9063.668945	43.160072
580.298157	708.030701	19785.550781	8925.094727	43.071976
580.640320	716.798340	19539.460938	8838.308594	43.147511
580.982483	712.934570	19302.734375	8764.227539	43.310272
581.324524	716.055359	19058.130859	8673.504883	43.383583
581.666626	719.101746	18901.943359	8581.073242	43.238411
582.008728	709.962463	18816.642578	8515.834961	43.110458
582.350647	705.281433	18773.919922	8468.652344	42.966000
582.692566	699.634460	18666.998047	8421.990234	42.979908
583.034424	708.996582	18552.943359	8391.971680	43.056477
583.376343	711.225586	18431.755859	8353.112305	43.124477
583.718201	711.968689	18360.277344	8319.526367	43.106441
584.059937	715.312256	18276.908203	8270.190430	43.019314
584.401611	715.609558	18189.156250	8236.085938	43.039211
584.743347	720.141907	18112.179688	8199.973633	43.007221
585.085022	718.135742	18037.208984	8159.553223	42.966602
585.426514	722.148132	17968.701172	8130.574707	42.955986
585.768127	720.067688	17918.771484	8125.746094	43.059517
586.109619	719.324646	17840.380859	8094.910156	43.079033
586.451172	719.027405	17785.841797	8060.582031	43.016548
586.792542	717.541321	17730.412109	8039.628418	43.038513
587.133850	714.123535	17681.445313	8049.510254	43.232437
587.475220	716.649719	17677.062500	8044.606934	43.206245
587.816589	724.154297	17658.265625	8019.789551	43.082481
588.157776	724.971680	17713.322266	8022.464844	42.955864
588.498962	724.823059	17751.142578	8045.350098	42.995354
588.840210	723.411316	17846.175781	8082.204590	42.976669
589.181335	727.200745	17911.042969	8083.987793	42.812237
589.522400	726.903564	17964.392578	8089.857422	42.714775
589.863403	722.891174	17970.855469	8101.300293	42.778435
590.204407	723.336975	17989.208984	8095.578613	42.698349
590.545410	723.634216	18028.513672	8096.024902	42.602959
590.886353	718.284424	18038.173828	8076.408691	42.483669
591.227112	715.981018	17982.001953	8069.646973	42.590389
591.567932	716.129700	17917.804688	8065.932129	42.727245
591.908752	726.234802	17840.380859	8037.103027	42.718273
592.249512	726.234802	17833.767578	8046.613281	42.790379
592.590149	719.324646	17742.001953	7997.201660	42.754009
592.930786	716.129639	17678.251953	7967.703613	42.751572
593.271423	714.123352	17577.125000	7928.025879	42.779469
593.612000	718.878723	17515.826172	7887.902344	42.680515
593.952576	711.671448	17512.630859	7870.441406	42.609295
594.292969	714.494934	17557.732422	7854.614746	42.391609
594.633484	711.745789	17620.740234	7880.398438	42.395500
594.973877	723.931396	17717.929688	7940.509277	42.465454
595.314209	722.148132	17844.912109	7985.982422	42.422092
595.654480	728.686768	18069.677734	8062.662109	42.292713
595.994812	722.742493	18242.060547	8112.519531	42.180733
596.335022	720.513489	18444.462891	8193.733398	42.164528
596.675171	714.792175	18583.259766	8256.370117	42.206074
597.015320	721.628113	18790.341797	8334.833008	42.134739
597.355408	729.875671	18904.839844	8374.213867	42.059715
597.695496	734.185242	19025.134766	8412.405273	41.978249
598.035461	724.674377	18966.509766	8405.346680	42.104710
598.375366	719.844727	18942.214844	8405.124023	42.174969
598.715271	720.736389	18792.642578	8363.366211	42.290115
599.055176	725.268860	18621.673828	8263.651367	42.122330
599.395081	728.018066	18327.732422	8165.794434	42.260777
599.734802	722.222412	17998.050781	8044.161621	42.382568
600.074524	714.792175	17685.681641	7925.574219	42.489124
600.414246	712.117188	17337.052734	7767.012207	42.435623
600.753906	717.838562	17031.224609	7614.691406	42.277264
601.093506	722.370911	16723.091797	7494.470215	42.323711
601.433044	720.587708	16555.833984	7407.238281	42.226376
601.772583	719.101746	16416.146484	7348.835938	42.235558
602.112122	715.906738	16406.335938	7324.539063	42.118874
602.451538	721.553711	16408.937500	7328.403809	42.115692
602.790894	724.080017	16506.275391	7368.452637	42.100433
603.130310	728.463867	16674.125000	7419.423828	41.961006
603.469604	715.089355	16910.853516	7497.888184	41.880081
603.808838	710.705566	17200.189453	7592.251953	41.732937
604.148010	705.950195	17500.074219	7722.355957	41.778931
604.487305	716.501160	17769.125000	7832.250000	41.728180
604.826416	716.352539	17997.679688	7933.078613	41.760250
605.165527	716.352539	18172.068359	7988.731934	41.661884
605.504456	714.197754	18294.519531	8055.900879	41.760914
605.843445	717.021301	18344.970703	8084.804688	41.796032
606.182434	723.114075	18304.847656	8100.779785	41.962105
606.521423	720.662109	18188.861328	8046.687500	41.939213
606.860229	725.417480	18008.972656	7968.744629	41.908783
607.199036	721.405090	17779.005859	7872.076660	41.920731
607.537903	720.364929	17542.873047	7777.935059	41.953140
607.876648	716.798340	17279.171875	7680.152344	42.043213
608.215271	714.346375	16991.472656	7559.781250	42.055550
608.553955	718.210144	16772.427734	7459.027344	41.987827
608.892578	713.974854	16583.031250	7362.879395	41.898548
609.231140	713.231873	16503.673828	7307.747559	41.762703
609.569641	711.745789	16416.591797	7246.744629	41.611355
609.908081	710.333984	16442.820313	7238.719238	41.496208
610.246521	717.392761	16428.554688	7227.648438	41.437138
610.584961	716.872620	16453.966797	7232.923828	41.405685
610.923340	719.621887	16370.820313	7223.636719	41.556019
611.261597	711.745789	16274.672852	7193.470215	41.648495
611.599854	715.015137	16125.472656	7153.717285	41.781384
611.938110	715.758118	15982.737305	7104.900391	41.849419
612.276245	723.188416	15775.135742	7038.919434	41.959560
612.614319	716.575439	15468.265625	6930.808594	42.125568
612.952393	713.008972	15147.129883	6787.330566	42.083073
613.290466	710.556946	14845.088867	6652.545410	42.038803
613.628479	716.352539	14573.214844	6532.323730	41.971775
613.966370	721.776611	14324.300781	6433.203613	41.987991
614.304260	716.203918	14128.735352	6341.588379	41.941257
614.642151	710.333984	13960.367188	6264.833984	41.920650
614.979980	709.293762	13801.432617	6189.639160	41.859818
615.317749	713.677673	13634.252930	6122.916016	41.865307
615.655396	713.603333	13540.629883	6071.572754	41.770939
615.993164	706.841797	13489.659180	6041.851563	41.735790
616.330811	714.569336	13438.242188	6021.417969	41.708466
616.668396	722.296692	13433.040039	6011.833496	41.614693
617.005859	735.894226	13388.905273	6006.261230	41.653069
617.343445	728.018066	13402.054688	6009.381348	41.670727
617.680908	730.024231	13384.372070	6009.455566	41.720295
618.018311	723.559998	13429.324219	6006.482910	41.578945
618.355652	726.011902	13456.223633	5996.303223	41.399872
618.692993	726.234863	13430.217773	5996.452637	41.484768
619.030273	726.234863	13398.563477	5981.145996	41.467606
619.367554	724.897400	13355.541992	5973.567871	41.555050
619.704712	721.256531	13351.752930	5954.545410	41.433758
620.041870	716.501160	13327.530273	5949.121582	41.492416
620.379028	720.439148	13296.250000	5932.478027	41.444954
620.716064	716.501160	13251.000000	5914.050781	41.465954
621.053040	715.906677	13186.652344	5877.791016	41.391945
621.389954	714.271973	13120.745117	5851.190918	41.405151
621.726929	713.751953	13059.817383	5806.832031	41.252659
622.063843	709.219421	13017.316406	5790.560059	41.284538
622.400635	699.708679	13004.834961	5757.048828	41.099461
622.737427	701.492004	12953.120117	5742.856934	41.148529
623.074219	714.792175	12885.131836	5719.823730	41.124832
623.410889	724.600159	12809.565430	5696.195313	41.138683
623.747559	731.064453	12778.656250	5681.482910	41.090523
624.084167	726.680603	12763.200195	5666.325684	41.038815
624.420715	719.250427	12761.789063	5690.770996	41.282993
624.757324	714.940735	12776.203125	5686.907715	41.222607
625.093750	715.460876	12847.682617	5699.984375	41.085003
625.430176	724.897400	12907.348633	5701.322266	40.849125
625.766602	719.250305	12953.491211	5737.507813	41.018131
626.102905	712.117371	13035.296875	5769.681152	41.041061
626.439209	705.430115	13125.799805	5799.847656	41.016632
626.775452	711.671448	13263.555664	5827.414063	40.756771
627.111694	720.513489	13339.493164	5854.757813	40.686684
627.447876	721.182190	13394.328125	5877.196777	40.684570
627.783997	725.714661	13411.789063	5896.738281	40.761417
628.120056	723.708496	13447.307617	5922.446777	40.859020
628.456055	724.971680	13449.089844	5915.313965	40.791370
628.792053	718.953125	13431.851563	5905.283203	40.795811
629.128052	717.690002	13339.418945	5865.902344	40.788490
629.463928	720.885010	13256.868164	5834.992188	40.795422
629.799744	723.188416	13144.002930	5787.958984	40.776478
630.135559	729.206848	13013.229492	5737.953125	40.774479
630.471375	724.823059	12866.036133	5687.576660	40.875267
630.807068	723.485596	12701.307617	5617.880371	40.862141
631.142700	714.420654	12556.342773	5566.017090	40.969673
631.478333	719.473328	12417.026367	5503.825684	40.900455
631.813965	720.067688	12320.801758	5437.622559	40.666000
632.149475	718.953125	12221.609375	5358.266602	40.332539
632.484924	712.340149	12128.877930	5319.108887	40.351711
632.820435	711.448486	12030.799805	5307.442871	40.602982
633.155884	717.095520	11936.286133	5285.078125	40.715794
633.491150	719.770508	11861.909180	5262.787598	40.773296
633.826477	719.324646	11824.906250	5224.373047	40.565620
634.161804	725.120300	11769.106445	5210.106445	40.610214
634.497009	720.736328	11732.325195	5167.085449	40.378815
634.832153	721.479431	11640.859375	5146.057617	40.520416
635.167297	710.185364	11608.612305	5116.262207	40.428558
635.502380	719.547607	11553.999023	5088.547363	40.325069
635.837463	717.021301	11491.659180	5042.331543	40.143440
636.172424	717.318542	11395.808594	4994.257324	40.051907
636.507324	712.934631	11283.983398	4960.449219	40.180637
636.842224	717.615723	11161.829102	4918.914063	40.226089
637.177124	718.953125	11046.511719	4886.741211	40.355988
637.511963	719.324646	10933.348633	4837.032715	40.314255
637.846741	717.021301	10837.274414	4808.352051	40.427158
638.181396	720.810730	10715.641602	4752.476074	40.337502
638.516113	719.919128	10598.168945	4712.129883	40.414150
638.850769	716.501160	10493.625000	4661.604004	40.350342
639.185303	716.798340	10385.366211	4637.900879	40.555153
639.519836	716.798340	10309.502930	4602.459473	40.506416
639.854370	724.823059	10254.963867	4555.202637	40.192268
640.188843	722.816895	10206.593750	4507.203125	39.903786
640.523254	724.005676	10135.633789	4460.169434	39.697319
640.857605	714.569275	10009.246094	4422.795410	39.896236
641.191895	715.163757	9918.893555	4396.789063	40.001450
641.526184	715.906738	9848.677734	4367.067871	39.978676
641.860413	722.519714	9838.200195	4351.984863	39.815624
642.194580	718.061523	9795.848633	4325.904297	39.743637
642.528748	709.962463	9714.784180	4307.625488	39.952633
642.862793	709.442383	9636.915039	4292.468262	40.134830
643.196838	716.129578	9569.522461	4269.211426	40.132431
643.530823	722.222473	9535.639648	4252.196777	40.052280
643.864746	721.107910	9463.491211	4216.382324	39.980797
644.198669	719.770447	9430.352539	4197.806641	39.928860
644.532532	717.615723	9375.666016	4174.772461	39.929966
644.866333	715.758118	9354.563477	4164.146973	39.917427
645.200073	712.265930	9342.155273	4154.636719	39.888931
645.533813	714.420715	9347.876953	4150.847168	39.803604
645.867554	717.541321	9342.823242	4137.918457	39.655251
646.201172	722.668152	9316.149414	4118.005371	39.510612
646.534729	719.473145	9311.319336	4100.098145	39.346901
646.868225	713.380371	9335.765625	4100.247070	39.279930
647.201782	706.470276	9335.617188	4104.333496	39.376587
647.535217	717.690002	9360.508789	4110.203613	39.252399
647.868591	722.519714	9335.170898	4113.398926	39.370911
648.201965	728.315247	9329.821289	4114.958984	39.372684
648.535278	718.210144	9294.526367	4105.522461	39.496120
648.868591	716.649719	9292.075195	4086.649658	39.298340
649.201782	714.717773	9275.579102	4049.647217	38.955536
649.534912	720.513489	9246.230469	4028.842529	38.804115
649.868103	724.525879	9197.561523	4012.198486	38.801594
650.201172	723.188416	9168.881836	4011.677979	38.936882
650.534180	717.912903	9138.417969	4003.059326	39.013653
650.867188	718.358704	9122.071289	3999.864014	39.048279
651.200134	727.200745	9105.649414	3999.343750	39.054287
651.533020	729.132568	9070.355469	3989.461670	39.086945
651.865845	717.467041	9024.660156	3960.037842	39.033291
652.198608	711.522766	8977.998047	3922.069092	38.838154
652.531433	710.779785	8957.639648	3906.688232	38.753036
652.864136	713.529053	8928.735352	3902.155518	38.813713
653.196777	834.493896	9023.916992	4015.467529	38.842464
653.529358	837.837463	8986.914063	3990.353271	38.685558
653.861938	842.518555	8939.434570	3966.799561	38.586063
654.194519	717.392761	8739.784180	3815.890381	38.623116
654.526978	712.117249	8681.083984	3800.807373	38.758980
654.859375	708.476379	8625.133789	3780.596924	38.805779
655.191833	710.705566	8585.752930	3769.154053	38.837208
655.524170	709.442383	8528.985352	3750.207031	38.886730
655.856445	709.962463	8474.077148	3721.971680	38.793983
656.188660	714.420654	8459.215820	3706.368408	38.631725
656.520874	716.129639	8410.250977	3684.597656	38.580990
656.853088	719.993347	8432.987305	3679.396484	38.369057
657.185181	714.420654	8421.172852	3677.390381	38.446415
657.517212	716.203918	8487.674805	3680.733643	38.146317
657.849243	711.671570	8502.311523	3697.006104	38.319500
658.181274	710.482605	8567.772461	3714.170166	38.228035
658.513123	708.253601	8626.026367	3741.216064	38.305752
658.844971	711.002747	8735.473633	3760.163330	37.998276
659.176819	719.993347	8824.488281	3773.983643	37.682671
659.508667	716.203918	8891.137695	3796.423096	37.678829
659.840393	716.798340	8950.059570	3820.348633	37.695271
660.172058	713.454773	8971.680664	3853.190674	38.019497
660.503662	720.142029	9018.268555	3851.110107	37.731022
660.835266	723.262695	9026.145508	3860.992188	37.790844
661.166931	718.655945	9003.632813	3837.661133	37.646519
661.498413	721.925232	8933.564453	3833.500244	37.892250
661.829773	720.067688	8812.451172	3803.704834	38.105427
662.161194	727.497986	8705.009766	3761.649414	38.033806
662.492615	723.708557	8575.722656	3703.395752	37.948063
662.823975	732.624817	8426.523438	3640.461670	37.794064
663.155212	724.600098	8280.444336	3573.069336	37.698887
663.486450	725.788879	8118.018066	3512.215088	37.693993
663.817627	712.488770	8006.267090	3453.590576	37.581371
664.148743	717.095520	7878.763184	3420.599854	37.749649
664.479858	713.380371	7792.274902	3373.863525	37.583313
664.810913	715.832336	7698.876465	3330.248047	37.439487
665.141907	715.163757	7629.255371	3298.446533	37.362576
665.472778	717.912903	7537.342285	3281.654053	37.594662
665.803711	727.943787	7496.253418	3270.360107	37.563534
666.134583	725.789063	7470.990234	3250.743896	37.433350
666.465454	726.680664	7473.070313	3233.134033	37.152515
666.796143	720.364929	7431.832520	3213.518311	37.147663
667.126831	718.581604	7406.124512	3200.589600	37.113899
667.457458	723.931396	7360.947754	3186.769531	37.107609
667.788147	719.696106	7328.700684	3182.385498	37.262638
668.118774	717.764343	7298.087402	3168.714111	37.246647
668.449219	708.773682	7302.025391	3160.689209	37.188259
668.779663	711.448547	7297.492676	3146.719971	36.976242
669.110107	709.516663	7287.908203	3150.286865	37.102840
669.440552	704.984192	7263.313965	3138.843994	37.110973
669.770874	707.733398	7258.113281	3136.615234	37.080013
670.101135	711.597168	7235.079590	3107.636719	36.729454
670.431396	724.228577	7216.578125	3102.881592	36.637783
670.761597	720.885010	7157.729980	3085.420654	36.734390
671.091797	725.937500	7116.863281	3072.640381	36.719296
671.421875	719.993347	7071.761719	3049.532471	36.675442
671.751892	721.850891	7053.037109	3039.798584	36.611588
672.081909	717.318420	7017.743652	3026.201172	36.646461
672.411865	711.448547	6968.926270	3010.226318	36.736492
672.741821	711.968689	6928.060059	2975.749756	36.418079
673.071716	711.374268	6889.423340	2967.204834	36.513641
673.401550	716.798340	6852.345703	2952.864258	36.444439
673.731262	709.962463	6807.169434	2947.885986	36.704079
674.060974	711.745789	6763.404785	2911.403564	36.348011
674.390625	714.272034	6733.980957	2885.471924	36.068188
674.720276	722.816895	6675.653809	2864.964111	35.985317
675.049927	722.593933	6628.174316	2855.304932	36.113483
675.379395	717.689941	6595.927246	2848.692139	36.252403
675.708923	714.940735	6578.168457	2824.543701	35.980236
676.038330	715.312256	6549.413574	2807.974609	35.869488
676.367737	715.535156	6501.488281	2793.336670	35.911137
676.697083	713.157532	6474.070313	2795.194092	36.140743
677.026428	714.346375	6473.921875	2798.834961	36.191704
677.355652	719.176086	6472.510254	2785.534912	35.915852
677.684875	715.683838	6492.349121	2772.160156	35.599716
678.013977	716.946960	6462.851074	2758.860107	35.536846
678.343079	713.454773	6471.915527	2761.311768	35.562572
678.672180	714.271973	6458.169922	2761.683594	35.644985
679.001221	713.008850	6489.748535	2759.008545	35.417896
679.330139	708.847961	6516.497559	2759.974609	35.317673
679.659058	711.448547	6554.392090	2768.667969	35.208614
679.987976	717.764343	6609.599121	2788.209717	35.140926
680.316772	726.086121	6660.570313	2809.757568	35.111244
680.645630	733.665039	6702.774902	2821.051514	34.969810
680.974304	721.553711	6744.903809	2822.166016	34.874485
681.302979	722.148132	6786.884766	2833.162842	34.808018
681.631653	714.940735	6816.753906	2837.397705	34.784039
681.960266	726.903503	6817.126465	2847.800049	34.824612
682.288757	729.504089	6814.376953	2852.555664	34.890648
682.617249	732.179016	6811.479004	2839.181396	34.658638
682.945679	727.423645	6788.593750	2833.162842	34.741467
683.274109	721.851013	6745.646973	2803.293213	34.553661
683.602478	717.690002	6675.951172	2780.630859	34.623203
683.930725	718.730225	6604.694824	2744.965576	34.424862
684.259033	716.352539	6522.515625	2713.163818	34.391235
684.587280	719.176086	6449.029785	2696.668701	34.512096
684.915344	713.306152	6369.897949	2667.541992	34.547939
685.243469	720.810730	6290.914063	2643.245117	34.513439
685.571533	722.371094	6215.496582	2620.062500	34.546661
685.899536	726.532043	6146.097656	2608.545898	34.726288
686.227539	726.011902	6110.655762	2583.431396	34.494747
686.555420	726.011902	6097.801270	2561.809326	34.174782
686.883301	722.296814	6106.568848	2560.322998	34.136948
687.211121	714.643555	6103.521973	2571.245850	34.452480
687.538940	713.454773	6098.544434	2573.994873	34.549843
687.866638	711.299988	6085.986816	2560.620361	34.407963
688.194336	716.872742	6074.916504	2547.691650	34.169537
688.521973	722.073914	6063.696777	2540.781494	34.047844
688.849609	731.584656	6061.615723	2522.354492	33.597736
689.177063	725.194580	6040.959473	2499.915039	33.385986
689.504578	725.343201	5990.656250	2482.082520	33.364384
689.832031	721.925293	5913.084473	2470.342529	33.680672
690.159485	722.816895	5825.333496	2450.949707	33.868244
690.486816	722.891174	5738.250488	2428.733154	34.012360
690.814087	725.491882	5678.734375	2392.250244	33.649841
691.141296	730.321472	5609.855469	2357.105225	33.338913
691.468506	731.807434	5546.251953	2323.446045	33.059654
691.795715	726.977844	5465.262207	2290.307129	32.993576
692.122803	725.045959	5383.157715	2273.143311	33.234440
692.449829	716.946960	5324.606934	2254.567383	33.370960
692.776855	720.290588	5258.552246	2239.483887	33.475227
693.103821	717.467041	5209.066895	2219.719482	33.445824
693.430664	724.600098	5149.104492	2195.496826	33.244328
693.757568	724.525696	5097.018066	2178.407227	33.250641
694.084351	727.497864	5042.851563	2163.100830	33.267334
694.411133	721.107910	5009.192383	2154.481689	33.426903
694.737854	717.021301	4977.390625	2143.039063	33.471695
695.064575	716.055359	4962.381348	2128.550049	33.263924
695.391174	717.467102	4932.140137	2106.259277	32.951366
695.717773	712.786072	4925.230469	2087.906494	32.644238
696.044250	711.151367	4913.862305	2087.163574	32.741062
696.370789	711.745789	4944.549316	2079.213135	32.306419
696.697205	716.946960	4965.353516	2089.318115	32.303196
697.023621	723.857117	5022.863770	2098.977539	31.986931
697.349915	721.182190	5062.764160	2125.355225	32.342430
697.676208	719.250305	5146.652344	2148.612061	32.284439
698.002380	714.049133	5237.004395	2169.788330	32.185577
698.328674	713.231750	5344.817871	2192.153320	31.931213
698.654724	718.730225	5427.145020	2207.905273	31.627947
698.980896	723.114014	5529.533691	2237.403320	31.505556
699.306946	730.024231	5626.201660	2255.310303	31.152592
699.632935	729.949951	5707.414063	2269.799561	30.936430
699.958862	733.070618	5731.265625	2266.530273	30.680271
700.284729	728.315247	5709.644043	2270.171143	30.952705
700.610596	721.627930	5635.787109	2265.861328	31.424164
700.936340	718.061462	5555.688965	2242.827393	31.518877
701.262146	716.946838	5422.835938	2203.595459	31.591238
701.587830	718.507324	5306.477539	2173.280273	31.708422
701.913513	711.597168	5159.060547	2131.447510	31.924948
702.239075	713.083191	5042.776855	2091.027100	31.825434
702.564697	715.683838	4927.607422	2038.941040	31.416931
702.890137	719.770447	4798.840820	1998.445923	31.347229
703.215698	720.662109	4701.058594	1959.660034	31.127501
703.541016	721.107910	4582.397461	1920.874023	31.071644
703.866455	727.052063	4505.939941	1890.781372	30.795547
704.191711	725.194519	4428.812988	1880.899292	31.204750
704.517029	722.965515	4393.073730	1868.639038	31.216345
704.842163	716.501160	4342.399902	1857.047852	31.455557
705.167419	708.030579	4308.592285	1832.973755	31.243544
705.492493	700.303040	4269.508789	1818.633301	31.332750
705.817566	706.173035	4240.084473	1798.125610	30.899265
706.142578	716.501160	4201.224121	1789.506714	30.791706
706.467590	725.194580	4176.035645	1779.327148	30.547121
706.792480	715.089355	4152.333496	1774.274780	30.814960
707.117371	708.847961	4141.336426	1761.717407	30.673647
707.442200	717.095520	4140.370605	1759.488403	30.450161
707.766907	726.680603	4153.744629	1754.807251	30.000219
708.091675	730.395752	4149.955566	1751.538086	29.861807
708.416321	725.120300	4153.894043	1750.869263	29.915915
708.741028	724.228577	4153.299316	1755.476196	30.073673
709.065552	724.674500	4172.766602	1771.525513	30.360300
709.390137	723.262695	4182.797363	1774.943481	30.399487
709.714600	721.702393	4220.022949	1788.020630	30.480862
710.039063	721.479431	4259.552246	1781.407715	29.957785
710.363403	721.850891	4311.415039	1794.039185	29.869593
710.687744	719.993347	4344.405762	1790.695679	29.541407
711.012085	717.615662	4386.609375	1795.673828	29.382936
711.336304	723.336975	4416.999512	1804.590210	29.273199
711.660461	726.977844	4440.776367	1812.540649	29.230522
711.984619	730.692932	4464.553223	1827.549805	29.375950
712.308716	719.101746	4472.354980	1822.125854	29.388483
712.632751	713.974792	4479.190918	1813.729492	29.208275
712.956726	710.408386	4450.361816	1803.847168	29.236694
713.280701	721.925293	4407.637207	1787.054688	28.898878
713.604553	724.897278	4354.064941	1784.156860	29.187395
713.928467	734.853821	4300.418457	1761.197266	28.784880
714.252258	731.510254	4250.115234	1743.810547	28.769934
714.575989	728.166687	4205.385254	1718.176147	28.471304
714.899719	726.457703	4153.894043	1702.349609	28.472940
715.223267	718.358704	4111.243652	1690.981323	28.666536
715.546936	722.445313	4072.754883	1686.894653	28.786873
715.870422	715.906677	4046.526123	1677.829712	28.881207
716.193970	719.473206	4015.987549	1671.514038	28.880226
716.517395	715.089355	3987.306885	1656.356323	28.765415
716.840820	716.278259	3956.100342	1652.418091	28.894793
717.164124	715.683838	3933.066162	1637.260376	28.643675
717.487488	717.095520	3908.768799	1625.594727	28.464668
717.810730	714.940735	3889.821533	1603.675415	27.992693
718.133972	713.900574	3849.103760	1587.329102	27.858753
718.457092	714.494934	3797.835205	1573.211548	27.850204
718.780212	717.690002	3731.780029	1565.484009	28.127693
719.103210	719.844727	3678.505127	1548.914429	28.021793
719.426208	717.615662	3621.440430	1533.087891	28.082695
719.749207	710.928406	3579.979492	1515.329590	28.037186
720.072083	705.652893	3544.091064	1506.561890	28.216537
720.394958	704.538391	3510.729248	1496.085327	28.207167
720.717773	709.739563	3459.683350	1476.618042	27.887060
721.040527	715.906738	3421.639893	1454.401367	27.293697
721.363281	719.696106	3382.705811	1438.723633	27.000559
721.685913	714.346375	3352.835938	1431.961914	27.197968
722.008545	710.631165	3319.177002	1432.184937	27.661150
722.331055	707.807678	3288.341064	1421.039551	27.638931
722.653503	714.420654	3284.403076	1412.643188	27.168377
722.976013	725.194519	3272.737549	1400.680664	26.515202
723.298401	730.024231	3263.375732	1398.154297	26.373365
723.620789	731.361633	3236.477783	1398.005737	26.611305
723.943115	722.148132	3213.369873	1405.733276	27.439756
724.265381	723.634094	3210.026123	1399.789063	27.194221
724.587585	722.891113	3219.833984	1389.460938	26.695438
724.909790	722.668274	3236.775146	1378.241211	26.075777
725.231873	719.993347	3243.759766	1386.637329	26.414648
725.553894	719.324646	3228.081787	1400.086304	27.135416
725.875916	740.946716	3248.291992	1443.776001	28.030815
726.197937	742.209900	3249.778076	1426.017700	27.269760
726.519775	741.466797	3263.301025	1412.420410	26.605778
726.841675	721.999512	3247.251953	1370.439453	25.678223
727.163513	710.333984	3264.341797	1382.996582	26.337530
727.485291	713.826233	3300.155273	1388.420532	26.083080
727.806946	712.340149	3336.043701	1393.176147	25.949425
728.128662	720.736389	3359.225830	1400.829102	25.775835
728.450256	719.696106	3366.061768	1399.343262	25.682283
728.771790	720.439148	3356.996826	1393.398926	25.524183
729.093323	720.959290	3355.213623	1390.723999	25.425209
729.414795	724.525818	3347.634766	1394.067749	25.524748
729.736145	720.885010	3361.157959	1394.885132	25.527668
730.057495	716.203918	3354.767822	1384.111206	25.313288
730.378845	711.002747	3367.696533	1378.612671	25.129351
730.700134	710.779846	3367.028076	1378.612671	25.141958
731.021301	709.516785	3378.173096	1382.550781	25.219959
731.342468	706.024414	3359.449219	1385.894409	25.622358
731.663574	715.089355	3351.944336	1379.430176	25.194439
731.984680	724.525818	3346.074219	1383.888306	25.151644
732.305664	725.863281	3356.848389	1382.253540	24.948460
732.626648	712.785950	3380.179443	1383.962524	25.162262
732.947571	709.739563	3390.656250	1373.262817	24.749865
733.268433	707.213318	3383.820313	1365.758301	24.603724
733.589233	719.844727	3359.968994	1358.476563	24.189461
733.909973	719.324646	3335.003174	1351.789307	24.179756
734.230713	725.343079	3323.783936	1349.188721	24.008459
734.551331	719.770508	3283.808594	1338.340576	24.124840
734.871948	719.101746	3245.096924	1333.065063	24.305799
735.192505	714.049133	3199.103516	1316.198364	24.230827
735.513062	709.739563	3152.441406	1305.424438	24.386311
735.833435	711.225647	3111.575195	1291.084106	24.157249
736.153931	710.854187	3066.621826	1282.242065	24.254848
736.474304	707.064636	3047.005859	1271.765503	24.133123
736.794617	705.727234	3020.256836	1260.174194	23.955061
737.114807	711.671387	3007.774170	1257.276367	23.762218
737.434998	723.411316	2992.096436	1253.041016	23.345228
737.755188	724.897278	2975.972656	1253.041016	23.461842
738.075256	718.507324	2978.424561	1252.223755	23.616636
738.395325	719.621887	2991.575928	1254.675781	23.550383
738.715271	715.089355	3013.123779	1257.202026	23.590277
739.035278	721.479431	3024.195068	1256.161743	23.219643
739.355164	719.696106	3024.715088	1250.291870	23.019150
739.675049	728.909668	3024.269531	1243.158813	22.403856
739.994873	721.702332	3018.696533	1243.084595	22.698458
740.314636	714.569275	2997.000244	1241.672852	23.093956
740.634277	704.389709	2993.062500	1234.539795	23.164083
740.953979	707.287598	2976.343994	1219.084839	22.555510
741.273499	712.265869	2955.910889	1218.564697	22.565907
741.593140	711.894348	2918.239502	1221.239624	23.085476
741.912598	709.962463	2874.103516	1221.536743	23.638676
742.232117	711.522888	2832.865479	1199.543091	23.005253
742.551453	719.919128	2800.841064	1183.270874	22.266657
742.870850	729.058350	2769.336670	1170.342163	21.628609
743.190063	723.634216	2739.912842	1165.735474	21.926596
743.509338	720.959290	2709.374512	1160.979980	22.129215
743.828552	718.804504	2686.117432	1151.617920	22.000231
744.147705	719.176025	2666.576172	1151.320679	22.190851
744.466797	720.587708	2638.266602	1144.038940	22.081446
744.785828	721.553711	2620.656982	1132.001953	21.612740
745.104858	732.401855	2606.910889	1118.924683	20.619949
745.423706	732.847717	2599.480957	1117.661499	20.615393
745.742615	731.064453	2582.985596	1124.348755	21.236557
746.061401	724.525818	2576.892822	1133.413696	22.073805
746.380249	715.758118	2561.289063	1125.166138	22.183752
746.698975	717.021240	2550.738037	1119.370483	21.941732
747.017639	717.392822	2531.939453	1110.825684	21.682158
747.336304	724.525818	2514.626953	1106.070313	21.314131
747.654907	717.541321	2506.750977	1100.274780	21.391201
747.973389	710.854065	2507.270996	1105.773071	21.983706
748.291931	710.185364	2525.697998	1106.739014	21.842516
748.610352	720.885010	2534.317139	1107.853638	21.339020
748.928711	730.024231	2545.314209	1099.605957	20.359377
749.247070	729.578430	2540.930420	1092.398560	20.030348
749.565308	715.758118	2533.797119	1089.055054	20.532944
749.883545	710.482666	2520.868408	1084.968384	20.685410
750.201782	708.847961	2501.698242	1082.887817	20.862860
750.519836	716.649719	2493.450684	1090.541016	21.042948
750.837952	717.838562	2474.428955	1085.859985	20.950897
751.155884	710.928406	2468.484863	1081.030273	21.057753
751.473877	703.423828	2453.252686	1066.541382	20.751604
751.791809	705.429993	2444.410889	1055.916016	20.154678
752.109619	714.866455	2443.742432	1057.699219	19.829807
752.427490	724.228577	2435.940674	1052.869507	19.199545
752.745300	729.206848	2444.708252	1060.299927	19.300076
753.062988	725.045959	2425.983643	1057.179199	19.526478
753.380615	720.364929	2425.909424	1059.408203	19.878889
753.698303	716.278259	2410.157471	1053.166748	19.888578
754.015808	722.073914	2407.631104	1054.058472	19.695835
754.333374	718.953125	2399.086182	1051.829346	19.812492
754.650757	715.163635	2397.897461	1054.355591	20.157196
754.968262	715.832336	2408.522461	1047.891235	19.617228
755.285583	724.377258	2414.541260	1041.129761	18.740932
755.602905	727.423645	2410.751709	1035.557007	18.305008
755.920105	722.371033	2388.906738	1036.374390	18.841682
756.237305	718.135742	2379.990479	1036.374390	19.149607
756.554443	712.934570	2373.006104	1028.721069	19.022463
756.871582	717.689941	2366.170166	1028.572510	18.858738
757.188599	710.705566	2367.879150	1026.492065	19.055729
757.505615	707.510559	2374.863525	1034.368042	19.603376
757.822510	709.145203	2390.244141	1032.510498	19.235353
758.139465	720.885010	2391.061768	1032.510620	18.658241
758.456238	728.761047	2398.046143	1028.869629	17.978270
758.773010	720.290588	2424.646484	1034.516724	18.436649
759.089783	718.581604	2436.832031	1040.758179	18.750269
759.406433	718.210144	2455.333252	1045.365112	18.833149
759.723145	719.993347	2462.912109	1040.906860	18.412420
760.039673	717.169861	2471.308594	1038.677734	18.328533
760.356201	720.141907	2465.735596	1039.123535	18.273531
760.672668	719.027405	2453.995850	1039.643677	18.479660
760.989136	711.374268	2453.550293	1034.219604	18.531155
761.305481	706.024475	2457.488525	1025.600464	18.246220
761.621826	710.334045	2468.336670	1020.176331	17.624676
761.938049	721.033630	2479.853271	1028.721191	17.493980
762.254333	718.432922	2500.732422	1028.943970	17.421934
762.570496	722.891113	2536.175049	1035.705566	17.251266
762.886597	717.169922	2614.341309	1045.364990	17.299179
763.202637	724.377258	2742.216064	1075.457642	17.398832
763.518677	717.169861	2898.400391	1101.166382	17.604582
763.834656	724.748779	3045.668701	1126.577881	17.313354
764.150574	720.959290	3164.181641	1141.364136	17.206982
764.466370	719.993408	3228.899170	1150.354736	17.153347
764.782288	715.981018	3261.740967	1145.302124	16.864162
765.097961	715.758118	3220.502686	1141.884155	17.012754
765.413696	719.250305	3165.072510	1131.036011	16.836288
765.729309	719.547546	3077.767334	1118.701782	16.926083
766.044861	725.120300	2975.675049	1097.005493	16.524157
766.360474	720.810730	2841.781982	1074.417358	16.671921
766.675903	711.671448	2682.699707	1051.755005	17.254118
766.991394	708.699402	2573.623291	1037.563110	17.634163
767.306763	710.482605	2480.001953	1023.445618	17.686329
767.622131	718.730225	2431.259033	1010.219727	17.020998
767.937378	717.318542	2362.677979	996.919617	16.993313
768.252625	721.033630	2322.703125	988.672058	16.709967
768.567810	726.606262	2265.861572	970.690735	15.857308
768.882996	721.999512	2230.864990	963.854797	16.028950
769.197998	718.581604	2184.499756	955.161438	16.138680
769.513062	708.104919	2158.568359	958.728027	17.278830
769.828064	710.036804	2121.788330	945.873596	16.705263
770.142944	708.253479	2093.330322	940.895325	16.796312
770.457825	716.649719	2069.330566	933.539368	16.034058
770.772705	716.129639	2039.015137	932.053406	16.322182
771.087402	715.460938	2017.541870	931.830505	16.617214
771.402100	709.591003	1988.860962	934.728333	17.598890
771.716736	712.860291	1974.669312	927.520935	17.012133
772.031372	719.547546	1962.409180	923.805847	16.434517
772.345947	720.439209	1947.474243	913.923523	15.768442
772.660461	718.804626	1946.062622	918.233093	16.249922
772.974854	718.656006	1934.396973	913.254822	16.006601
773.289246	717.169922	1922.731445	916.003906	16.493059
773.603638	714.717957	1908.242188	904.784180	15.924790
773.917908	713.008972	1884.242554	901.143372	16.062927
774.232178	716.872620	1872.651367	890.963867	15.062678
774.546265	721.776672	1858.088013	892.078430	14.987246
774.860474	721.702332	1851.995239	894.307556	15.270840
775.174561	726.383484	1830.818970	895.570740	15.318889
775.488586	722.891174	1821.531250	897.428284	15.886650
775.802551	719.027527	1817.221680	896.908203	16.197563
776.116516	713.231750	1811.277466	896.462402	16.686979
776.430359	712.711670	1799.389038	892.078552	16.505993
776.744202	715.683838	1785.643066	882.939270	15.631945
777.057922	716.872620	1768.553345	879.967102	15.507985
777.371704	711.671448	1754.138672	873.799988	15.552386
777.685303	715.609558	1742.473267	871.719543	15.202600
777.998962	716.426758	1750.943726	871.570984	14.996779
778.312500	726.829285	1748.788940	867.038391	13.719632
778.626038	720.885010	1747.897095	866.592590	14.187524
778.939453	717.615723	1745.890991	857.527771	13.606478
779.252869	717.244141	1750.572144	863.620544	14.165531
779.566223	718.433044	1745.965332	864.066406	14.173119
779.879578	715.089355	1740.764160	869.044617	15.010143
780.192749	716.426819	1722.634277	871.645203	15.426082
780.505920	715.535156	1724.343262	864.140625	14.730797
780.819031	717.912903	1715.501099	867.781433	15.023086
781.132141	721.256531	1722.634277	865.329407	14.387465
781.445190	726.457703	1711.117310	865.180847	14.088437
781.758118	723.336975	1708.739624	858.716492	13.738498
782.071045	711.820068	1683.922485	856.264465	14.858969
782.383911	700.748962	1670.102173	862.654541	16.702435
782.696838	703.275208	1651.452148	861.762939	16.714996
783.009583	713.528992	1649.297485	863.843445	16.063210
783.322266	719.250305	1628.641235	859.162354	15.385248
783.634888	725.566101	1625.074829	860.871338	15.042126
783.947510	723.559875	1621.285522	859.608154	15.154773
784.260132	733.665039	1621.359741	861.762939	14.430401
784.572571	726.011902	1611.403320	858.716553	14.988247
784.885010	726.011902	1593.496216	845.639343	13.790156
785.197449	717.690002	1584.282715	842.592773	14.413088
785.509766	724.451599	1581.161987	834.939636	12.896778
785.822083	730.172852	1580.344727	839.992249	12.917317
786.134277	733.219238	1586.214478	834.716797	11.898959
786.446533	726.011902	1581.310547	832.190613	12.414227
786.758606	721.405090	1577.372437	833.750916	13.125013
787.070740	717.392761	1579.898804	831.967590	13.283945
787.382690	724.005676	1587.403320	838.357605	13.244411
787.694641	721.033508	1602.784058	832.116211	12.597974
788.006653	725.863281	1618.536133	836.128479	12.352252
788.318481	725.194519	1643.798950	840.140808	12.513144
788.630310	727.572266	1665.495483	845.044861	12.524756
788.942017	724.451477	1688.677856	844.970520	12.499041
789.253784	725.714661	1694.473511	845.119141	12.325511
789.565430	720.216309	1697.519897	841.701172	12.430616
789.877014	721.776611	1685.928711	841.924133	12.461470
790.188538	717.021240	1678.126953	835.979980	12.377279
790.500061	719.770447	1660.517212	830.927429	11.815825
790.811462	709.962463	1640.529907	830.704407	12.975088
791.122925	715.386536	1615.341187	829.812805	12.714670
791.434204	710.556885	1592.530273	838.877686	14.549283
791.745483	722.668274	1582.053589	833.899414	12.943105
792.056702	727.126465	1564.295288	830.927307	12.399034
792.367920	733.665039	1549.508911	825.949036	11.311478
792.678955	725.120300	1527.218140	830.110046	13.089394
792.990112	721.033508	1518.078735	823.125488	12.808806
793.301086	713.974854	1512.952026	821.565186	13.466008
793.612122	720.290527	1512.357422	816.884094	12.195127
793.922974	708.699402	1498.091431	817.255615	13.751876
794.233826	711.894348	1486.871704	811.831543	12.895498
794.544556	712.340149	1474.537476	811.311462	12.984999
794.855286	721.999512	1473.720215	810.568420	11.782156
795.166016	728.538269	1487.763306	809.230957	10.628297
795.476624	732.253235	1491.329956	813.391846	10.689118
795.787292	733.442139	1509.831421	819.038879	11.024977
796.097778	727.497864	1518.375977	825.651855	12.410761
796.408264	723.336914	1544.679321	823.125549	12.149456
796.718689	717.318542	1553.372681	824.017273	12.762179
797.029053	720.513489	1560.728516	823.942871	12.309871
797.339355	720.959290	1547.428345	819.410461	11.912264
797.649658	718.581726	1541.335571	819.038879	12.209867
797.959839	717.615723	1527.515503	813.986328	11.899077
798.270020	719.176086	1512.134766	810.122559	11.469257
798.580078	733.293518	1491.775757	810.494141	10.178304
798.890137	729.132629	1475.800659	814.877991	11.483733
799.200195	729.058289	1470.673828	812.871765	11.301473
799.510071	721.182190	1458.636719	806.556091	11.576836
799.820007	726.234802	1450.760620	806.407410	11.065528
800.129883	721.405090	1441.324219	810.345459	12.354217
800.439575	718.507324	1439.243774	810.122559	12.711336
800.749329	707.882019	1431.664673	801.577698	12.945278
801.058960	708.996582	1429.807251	794.221741	11.823515
801.368591	713.826233	1427.949707	789.540710	10.602435
801.678162	723.485596	1425.869141	797.119629	10.483451
801.987671	718.061523	1418.513184	802.395081	12.039883
802.297119	704.909912	1414.352173	812.871765	15.217849
802.606506	706.618835	1405.361694	796.822449	12.909414
802.915894	707.436096	1403.727051	792.512756	12.218551
803.225159	716.723938	1384.036743	779.509766	9.408755
803.534424	716.055359	1383.145142	789.392090	10.993532
803.843628	717.912842	1373.560181	785.528381	10.312791
804.152771	723.114014	1384.408325	791.324036	10.314624
804.461792	721.182190	1389.906616	790.209473	10.322231
804.770874	723.634216	1396.816772	798.085510	11.059600
805.079773	717.169922	1398.897339	795.856445	11.542227
805.388733	718.061462	1399.566040	794.964844	11.284353
805.697571	720.439209	1409.596802	793.181580	10.555260
806.006470	727.349304	1420.370728	791.621277	9.274168
806.315125	720.513489	1426.686523	793.181458	10.290391
806.623901	715.535217	1425.274902	796.005066	11.337938
806.932495	712.488770	1413.980835	796.822327	12.022026
807.241150	717.987122	1408.482422	793.775940	10.976007
807.549622	726.160461	1406.550415	784.265198	8.539917
807.858154	730.247131	1410.339844	785.677002	8.150340
808.166565	729.429871	1409.894165	782.481995	7.796460
808.474915	720.439270	1392.135742	793.107239	10.818572
808.783264	718.210144	1379.875854	790.060852	10.859065
809.091492	713.306152	1368.358887	799.125671	13.101162
809.399719	714.792236	1360.780029	790.729492	11.755216
809.707825	714.569336	1360.928589	787.311584	11.254151
810.015930	718.878845	1350.303345	780.847351	9.814080
810.323975	721.107910	1346.588257	785.156799	10.239952
810.632080	719.993347	1329.647095	789.614929	11.419856
810.939880	715.460938	1319.319092	785.974121	11.677111
811.247864	712.860352	1312.186035	774.159973	10.228099
811.555664	707.584778	1310.625610	774.754395	11.138486
811.863464	714.643555	1304.087036	778.915344	10.903809
812.171143	718.878906	1301.486450	787.385925	11.758691
812.478882	723.039795	1296.285278	782.853516	10.434224
812.786438	724.377258	1288.929321	777.206482	9.357724
813.094055	724.525696	1282.390625	771.336487	8.391062
813.401489	717.987122	1280.087280	766.804138	8.684754
813.708984	722.371094	1282.613647	771.039368	8.687000
814.016357	724.525879	1280.384644	773.862854	8.875812
814.323730	727.943665	1282.539185	783.150635	9.954456
814.630981	719.324646	1278.452637	783.076355	11.401988
814.938232	709.367981	1282.539185	783.522217	12.937537
815.245361	715.237976	1278.675537	783.076355	12.040088
815.552490	710.111084	1279.344238	785.751282	13.288087
815.859619	719.324646	1278.526978	782.556152	11.307446
816.166565	717.169861	1284.099609	777.280762	10.602883
816.473572	715.683838	1291.752930	773.565613	10.047714
816.780457	714.569275	1289.820923	766.358215	9.002832
817.087341	710.111084	1285.362671	757.516296	8.240779
817.394043	724.080017	1292.347168	754.098328	5.282429
817.700806	723.708496	1305.127319	763.311829	6.811498
818.007507	722.519714	1323.628662	769.627625	7.836834
818.314209	715.386536	1320.285034	772.153870	9.384604
818.620667	715.832336	1324.148804	774.383057	9.625043
818.927246	726.086182	1331.133301	778.841125	8.719147
819.233704	728.092346	1357.362183	778.246765	7.970256
819.540161	732.179016	1381.064819	774.977356	6.595666
819.846497	722.965515	1415.764038	781.813232	8.494204
820.152832	718.953125	1467.255859	788.723328	9.323793
820.458984	708.104919	1529.521484	800.686096	11.270917
820.765259	703.869629	1608.282227	805.515808	11.238916
821.071350	709.962463	1701.383667	818.370178	10.934577
821.377502	715.015137	1874.880371	831.670410	10.057657
821.683472	722.371094	2179.150146	852.697998	8.946237
821.989441	717.615723	2698.526123	892.375671	8.822204
822.295349	712.117249	3419.188477	941.861328	8.486813
822.601196	704.761230	4226.858887	1000.040344	8.383615
822.907043	708.996582	4913.564941	1040.015137	7.872831
823.212769	719.547546	5311.307129	1073.822876	7.715459
823.518494	729.949951	5376.767578	1070.404907	7.326627
823.824097	724.377197	5150.292969	1059.556763	7.573112
824.129700	717.838562	4780.488281	1022.182556	7.491269
824.435242	718.284363	4381.185547	995.730774	7.574499
824.740723	722.445313	4044.000000	964.597900	7.290339
825.046082	723.559875	3720.708740	950.183167	7.561296
825.351501	719.621826	3379.659424	929.972839	7.907821
825.656799	705.578613	3046.337158	902.703796	8.421423
825.962036	706.395996	2747.343506	872.165344	8.122176
826.267212	708.327820	2538.329590	861.762939	8.384425
826.572449	717.912903	2416.696045	861.763000	8.467832
826.877502	715.312317	2428.658936	866.964172	8.851207
827.182495	709.888184	2534.466064	869.341797	8.739205
827.487488	714.792175	2682.254150	874.022949	8.093207
827.792419	712.711670	2785.683350	884.425293	8.283452
828.097290	711.671448	2812.135010	884.053772	8.206870
828.402100	705.727234	2742.959229	877.960938	8.454300
828.706848	713.306152	2613.152344	860.425476	7.743749
829.011597	720.662109	2439.135498	843.856018	7.168799
829.316223	718.284363	2281.019287	829.515625	7.117731
829.620789	716.946960	2128.327148	824.314453	7.607270
829.925354	713.083191	2016.798706	822.753967	8.412170
830.229797	716.055359	1893.307617	827.955261	9.505177
830.534302	711.671448	1780.664673	814.134949	9.585048
830.838562	711.002747	1644.096313	794.444641	8.942500
831.142944	716.724121	1537.471802	769.627625	6.445769
831.447144	711.671448	1452.692383	760.265442	6.557709
831.751404	714.940857	1403.949829	759.596680	6.481167
832.055542	713.380371	1375.937866	761.231384	7.222167
832.359619	719.844788	1371.182495	766.581238	7.175456
832.663635	719.176025	1372.817017	765.540955	7.093333
832.967651	722.593933	1410.785767	765.318054	6.208170
833.271545	720.884949	1474.314575	766.135315	6.005918
833.575439	713.008972	1583.985352	773.416992	6.935667
833.879211	705.875916	1701.903687	788.426208	8.287951
834.183044	711.002747	1831.190430	799.348694	7.886709
834.486694	712.711731	1921.839844	811.385742	8.160757
834.790344	719.770508	1964.043823	806.110168	6.938962
835.093933	717.021240	1939.449585	802.320801	6.977878
835.397522	721.107910	1887.066284	796.079407	6.430032
835.700928	714.123474	1820.045288	796.748047	7.471104
836.004395	707.138977	1749.903320	789.466370	7.895110
836.307739	712.934570	1681.619141	791.398254	8.100024
836.611023	721.628113	1608.579590	788.203308	7.506070
836.914307	729.801270	1540.592651	783.150696	6.579920
837.217529	726.160461	1473.942993	768.958801	5.723367
837.520691	715.312256	1398.600220	758.779297	6.361453
837.823730	715.683838	1332.396484	761.454285	7.421681
838.126831	713.529053	1268.050293	765.318054	9.339408
838.429749	717.392761	1226.143677	764.426331	9.244911
838.732727	713.603333	1189.066528	755.361389	8.782605
839.035522	716.724060	1175.246094	741.763977	5.461006
839.338379	716.278259	1171.456665	743.027161	5.876575
839.641113	715.832458	1184.682495	747.188171	6.687791
839.943848	712.042969	1198.057129	758.036377	9.463388
840.246460	716.129639	1236.546021	756.030212	7.667048
840.549072	714.792175	1254.824463	749.417236	6.411665
840.851563	715.015137	1269.759277	745.181946	5.437968
841.154053	710.185364	1258.242310	744.959045	6.344903
841.456482	713.231750	1246.725464	751.646301	7.200563
841.758850	717.392761	1235.654175	754.321228	7.125452
842.061157	719.844727	1206.453247	751.497742	6.504821
842.363403	717.615723	1183.939453	750.903320	7.138302
842.665588	717.541321	1151.469360	743.473083	5.976051
842.967712	724.748718	1139.655151	746.147949	5.157604
843.269775	731.064453	1122.788452	740.798157	2.484837
843.571777	724.823059	1099.308838	742.878601	4.821423
843.873840	717.689941	1080.435913	742.135559	6.739046
844.175659	710.259766	1064.683716	738.643372	8.008377
844.477600	714.643555	1056.287476	743.695984	8.503716
844.779297	718.061523	1045.662231	739.832214	6.645496
845.081116	721.925232	1041.501343	742.358582	6.393891
845.382751	722.965515	1032.064819	734.259460	3.653824
845.684387	714.197754	1010.071289	733.367859	6.479155
845.985962	718.655945	987.706055	735.968445	6.434675
846.287537	714.049133	984.213867	740.055176	9.625995
846.588989	714.272034	990.083679	743.398743	10.560362
846.890381	712.117371	997.588379	742.655579	10.697481
847.191711	717.838562	992.090027	740.649414	8.317495
847.493042	725.268860	982.356262	736.191345	4.248549
847.794250	728.463867	979.012695	735.076843	2.639396
848.095459	729.578430	975.520325	738.346130	3.564948
848.396606	730.841553	980.795959	743.101563	4.904899
848.697693	723.485596	979.161316	742.135559	7.294382
848.998657	720.810730	973.960144	738.569031	7.014948
849.299622	717.467102	961.774414	736.562927	7.816313
849.600464	718.730164	953.303894	734.556702	6.746935
849.901367	715.980957	958.282227	737.231628	8.770350
850.202087	716.055359	966.083984	741.541199	10.193169
850.502808	716.649719	954.269836	746.222229	12.445289
850.803467	716.724121	942.158508	741.838379	11.140385
851.104065	720.810730	936.883057	737.454590	7.702911
851.404663	725.120300	947.136780	731.213074	2.744289
851.705139	721.479492	944.536133	735.745605	6.395736
852.005615	717.318542	949.440125	731.510254	6.113913
852.306030	710.185364	952.189392	735.968445	10.653989
852.606384	716.798340	954.121277	732.179016	6.480906
852.906616	710.928406	946.096619	735.671204	10.521319
853.206909	709.219482	939.632324	726.606262	7.545925
853.506958	715.163757	945.279297	720.513489	2.324802
853.807129	721.107910	946.245117	718.135803	-1.320131
854.107178	723.708496	940.672424	727.646484	1.815043
854.407166	717.615723	936.585754	731.064453	6.141813
854.707092	713.157532	933.465149	737.305908	10.961208
855.007019	706.024414	934.356689	734.408142	12.430887
855.306763	705.281433	932.573425	738.494812	14.612648
855.606567	709.219421	927.669434	732.624817	10.714303
855.906250	714.643555	928.040955	734.631042	9.366323
856.205933	719.250305	930.270020	735.374023	7.640859
856.505493	718.581604	931.904724	736.117004	8.220113
856.805054	719.993347	940.895325	735.076843	6.828140
857.104492	716.203918	937.774658	739.906494	10.697520
857.403931	723.857117	940.226746	738.346191	6.696445
857.703308	724.154297	933.465149	740.500977	7.809762
858.002563	719.993347	934.802551	735.745544	7.333111
858.301819	711.894348	932.127686	740.352295	12.921725
858.601013	715.163757	938.220520	738.494812	10.459694
858.900208	712.860291	942.009949	737.528809	10.765244
859.199219	713.083252	942.975830	730.024231	7.369085
859.498291	706.247375	939.334961	727.943787	9.308266
859.797302	708.476379	933.093567	721.776672	5.921316
860.096191	707.436218	935.174072	724.971680	7.699845
860.395020	708.625061	929.229797	724.005676	6.972024
860.693787	709.442383	926.703552	723.039734	6.258528
860.992554	706.470215	917.415710	718.210144	5.565385
861.291260	706.841797	918.010071	715.758057	4.222348
861.589844	706.470215	926.554993	724.525818	8.203931
861.888428	713.231873	931.756165	735.076843	9.996587
862.186890	715.386536	931.681824	745.850769	14.084558
862.485413	716.129578	925.440369	739.163574	11.004686
862.783813	714.643555	923.508545	733.665039	9.107072
863.082153	719.250305	922.171082	730.841553	5.712204
863.380371	722.519592	920.833679	740.575195	9.104548
863.678589	718.210144	916.375488	733.219238	7.574026
863.976746	711.968689	924.251465	728.092346	7.595367
864.274902	709.219482	924.548645	721.925232	5.900617
864.572937	716.203918	937.477356	730.544373	6.480875
864.870911	722.816833	933.316406	735.894104	6.212492
865.168884	726.383484	932.127625	728.909668	1.227828
865.466736	719.919128	925.068848	726.903503	3.404526
865.764587	715.386536	919.719055	726.754883	5.563651
866.062317	714.643555	916.078308	741.020996	13.094782
866.360107	721.479431	916.078308	737.751770	8.361990
866.657715	727.572266	915.781067	737.231628	5.132259
866.955322	721.999512	924.697327	726.903564	2.419391
867.252808	723.411316	927.372253	729.058289	2.768654
867.550293	721.107910	933.316467	729.652771	4.026633
867.847717	727.795166	931.161804	732.401855	2.265214
868.145081	718.433044	929.824280	732.253235	6.537731
868.442383	710.482605	922.914063	729.429749	8.919180
868.739624	709.739563	919.719055	725.045959	7.289472
869.036804	715.683838	919.050293	730.990173	7.526480
869.333984	716.055359	931.458923	732.996277	7.864734
869.631042	712.786072	933.836609	737.231628	11.058809
869.928101	708.402100	936.660156	736.042725	12.109375
870.224976	710.333984	925.514648	737.083008	12.430961
870.521851	707.956299	928.189514	738.494812	13.866443
870.818726	713.751953	925.440430	735.076904	10.073742
871.115479	719.324707	927.372314	732.401917	6.285681
871.412231	728.686829	924.548767	732.773438	2.086474
871.708862	729.727051	939.186340	735.299622	2.660455
872.005493	729.206848	940.003723	736.339905	3.383853
872.302063	727.126465	949.663086	738.494812	5.108529
872.598572	723.782776	948.548584	735.076843	5.024816
872.895020	722.742615	955.161438	728.538269	2.493625
873.191406	720.216309	954.492737	720.587830	0.158582
873.487671	726.829163	948.548523	722.593933	-1.910176
873.783997	731.956055	957.390564	726.829163	-2.274227
874.080200	732.847839	953.749695	738.940491	2.758081
874.376343	728.835449	949.588684	740.129395	5.116095
874.672424	719.324646	947.211121	735.745605	7.205763
874.968445	719.176025	952.560852	729.875671	4.584551
875.264465	719.398926	950.777649	731.213074	5.105978
875.560364	718.284363	948.251282	736.191406	7.786791
875.856201	716.203918	942.307129	735.894226	8.708549
876.152039	715.237976	947.656921	736.562805	9.175168
876.447754	719.101807	940.226624	736.191345	7.728458
876.743469	716.649719	942.009949	734.853943	8.077833
877.039063	714.643555	944.090332	733.144958	8.063484
877.334595	712.042969	947.805481	732.476257	8.666895
877.630127	720.364929	954.567078	725.714661	2.284237
877.925537	715.758118	956.276062	725.194580	3.923392
878.221008	709.739563	962.740417	727.720886	7.107218
878.516296	703.572449	967.792969	733.888000	11.473579
878.811646	703.126648	969.873352	735.002502	11.949859
879.106812	709.962463	982.281982	730.692932	7.612554
879.401978	708.104980	992.758606	729.949951	7.674229
879.697083	706.618835	1011.482971	726.754883	6.604925
879.992126	714.123474	1031.321777	738.940613	7.823856
880.287109	718.804504	1068.324585	739.386414	5.888620
880.582031	723.485535	1127.172363	744.290344	5.153700
880.876892	723.857117	1245.982300	739.683594	3.031165
881.171753	725.789063	1456.704712	752.760925	3.690147
881.466492	728.835449	1768.330444	763.088928	3.295204
881.761230	724.823059	2140.661377	768.215881	3.064815
882.055786	723.262695	2499.469482	773.714172	2.840406
882.350403	725.937561	2761.980469	776.760681	2.496171
882.644958	723.708496	2859.688721	787.385925	2.981181
882.939453	723.857117	2834.054443	788.723389	3.073944
883.233826	719.621826	2734.339844	797.714050	3.876087
883.528137	715.089355	2619.616455	798.902893	4.400753
883.822449	709.813904	2497.908936	801.057617	5.102845
884.116577	713.157532	2376.869873	786.197083	4.390155
884.410828	716.203918	2248.697754	777.652283	4.009697
884.704956	719.547546	2088.426758	764.575012	3.289367
884.999023	715.980957	1902.001343	758.853699	3.614840
885.292969	721.256531	1717.730347	747.262512	2.609801
885.586914	719.324646	1547.428345	748.302734	3.499331
885.880798	721.033630	1418.067383	750.011719	4.157344
886.174622	717.169922	1320.953735	753.058105	5.943880
886.468384	716.649719	1256.979126	748.079834	5.816844
886.762085	714.420654	1215.741089	741.169617	5.335701
887.055664	720.290527	1175.691895	732.327637	2.643187
887.349304	721.107910	1143.072998	733.813660	3.011090
887.642822	723.708496	1109.933960	733.888000	2.635638
887.936340	718.804504	1087.866089	741.689758	6.200931
888.229736	719.250305	1064.015015	733.516541	4.137963
888.523071	719.176025	1043.656006	737.157288	5.541563
888.816284	725.789001	1029.464111	733.442139	2.520173
889.109619	722.371033	1011.928711	737.157227	5.106476
889.402710	719.621826	994.690430	732.401917	4.646146
889.695862	709.516785	976.857849	730.990173	8.032207
889.988892	713.083252	972.251160	724.525879	4.415140
890.281921	716.649780	969.204712	719.324585	1.059098
>>>>>End Processed Spectral Data<<<<<
