Jaz Data File
++++++++++++++++++++++++++++++++++++
Date: Fri Jun 04 17:04:33 2021
User: jaz
Dark Spectrum Present: Yes
Reference Spectrum Present: Yes
Processed Spectrum Present: Yes
Spectrometers: JAZA3586
Integration Time (usec): 122000 (JAZA3586)
Spectra Averaged: 10 (JAZA3586)
Boxcar Smoothing: 1 (JAZA3586)
Correct for Electrical Dark: No (JAZA3586)
Strobe/Lamp Enabled: Yes (JAZA3586)
Correct for Detector Non-linearity: No (JAZA3586)
Correct for Stray Light: No (JAZA3586)
Number of Pixels in Processed Spectrum: 2048
>>>>>Begin Processed Spectral Data<<<<<
W	D	R	S	P
191.335022	0.000000	0.000000	0.000000	0.000000
191.713211	230.487015	226.177490	224.022705	150.000534
192.091385	464.540619	461.122711	457.036041	219.566422
192.469528	699.262878	689.975098	689.454895	105.600937
192.847641	705.429993	700.228821	702.309265	60.000469
193.225739	712.637390	707.064697	717.987122	-95.999039
193.603790	720.067688	719.101746	728.686768	-892.297485
193.981842	730.247070	730.024231	740.278015	-4501.424316
194.359863	731.956055	737.157288	742.061340	194.286346
194.737854	743.324402	750.606140	748.822815	75.509621
195.115829	747.708252	749.045715	741.243958	-483.324982
195.493774	751.200500	747.485352	732.773438	495.997955
195.871704	747.262451	748.451355	732.327637	-1256.183594
196.249603	749.342957	748.897156	744.216064	1150.041016
196.627457	749.342957	748.599915	745.999329	449.991791
197.005310	751.051941	736.711487	743.398743	53.367893
197.383133	746.073547	736.488586	733.739319	128.683136
197.760910	752.835144	744.438965	736.191345	198.230621
198.138687	747.039551	751.572083	745.107666	-42.622643
198.516449	743.695862	751.274902	744.141785	5.883632
198.894180	736.042725	739.906555	741.392578	138.459839
199.271866	747.039551	737.677429	735.076843	127.777740
199.649536	740.575256	732.327637	737.677429	35.135315
200.027191	736.488586	738.049011	736.711487	14.284596
200.404816	724.154297	736.191406	728.315247	34.567680
200.782410	728.018066	753.726807	736.711487	33.815037
201.159988	731.807434	764.575012	745.033386	40.362923
201.537537	730.395752	777.132141	753.058105	48.489738
201.915070	730.172852	772.450989	742.655701	29.525541
202.292557	730.395752	769.999084	739.980774	24.202564
202.670029	734.036560	770.593506	735.374084	3.658742
203.047485	739.089111	774.828796	738.197510	-2.494710
203.424911	743.027161	773.862854	735.894104	-23.132467
203.802292	745.850769	771.782410	735.448303	-40.114956
204.179688	744.067383	772.079590	737.008728	-25.198496
204.557037	738.643372	773.268372	743.844543	15.021435
204.934357	734.631042	775.125977	743.918762	22.935511
205.311661	729.727051	779.138367	739.089172	18.947323
205.688934	724.377197	775.200256	733.739319	18.421011
206.066177	722.965515	764.872253	733.590759	25.354500
206.443390	727.126465	762.494446	736.637146	26.890654
206.820587	730.098572	770.519226	728.612488	-3.676546
207.197769	727.052063	775.868958	732.253357	10.654700
207.574921	730.990173	770.965027	730.990173	0.000000
207.952042	729.058289	761.602844	739.386414	31.735338
208.329147	729.355469	759.893860	745.999329	54.501431
208.706223	763.980530	802.617920	793.850281	77.307892
209.083267	763.089050	805.664368	799.348633	85.165733
209.460297	765.466614	806.630371	798.828552	81.046875
209.837280	723.337097	754.172607	755.064209	102.891479
210.214264	721.330872	751.497742	747.411072	86.453117
210.591217	715.163757	755.955872	742.135559	66.120140
210.968124	718.730225	770.147705	742.729980	46.676258
211.345016	724.525879	775.571777	747.708252	45.414761
211.721893	733.442200	771.039368	739.534973	16.205406
212.098724	733.070618	762.717468	732.996338	-0.250549
212.475555	735.968506	771.633789	731.881775	-11.458569
212.852356	737.528809	771.485168	733.813660	-10.940951
213.229126	738.048889	778.023743	743.027161	12.453507
213.605865	733.219238	765.169434	737.454529	13.255915
213.982590	727.720886	772.228210	735.225403	16.861307
214.359283	718.655945	767.918640	734.110840	31.372410
214.735931	723.262695	760.711243	729.206848	15.872853
215.112579	714.569275	755.064209	733.516418	46.788921
215.489197	721.033630	757.590576	725.714661	12.804763
215.865799	718.433044	761.974426	736.562805	41.638000
216.242355	727.200684	759.299500	734.259460	21.990770
216.618896	730.395752	755.732910	738.940491	33.724140
216.995407	730.470032	754.469788	731.287354	3.405542
217.371902	726.754883	761.677185	726.977844	0.638450
217.748367	720.513489	772.451111	720.067688	-0.858339
218.124802	722.965515	772.896973	719.473328	-6.993963
218.501236	726.606262	765.466614	724.971680	-4.206299
218.877609	729.949890	752.612244	722.891113	-31.147589
219.253983	726.680664	755.955872	726.977783	1.014917
219.630295	723.559875	760.042480	724.302917	2.036702
220.006592	720.959290	762.420227	732.030457	26.702644
220.382889	715.163635	757.739075	726.680664	27.050875
220.759140	715.758118	752.612305	726.531982	29.233761
221.135391	714.717957	753.652527	727.126404	31.869999
221.511581	715.089355	752.537903	727.869446	34.127064
221.887772	711.968750	755.807312	730.618652	42.542233
222.263931	716.278259	766.209656	729.504150	26.488125
222.640060	724.971680	773.565674	732.253357	14.984727
223.016159	730.990173	765.318054	732.847839	5.411537
223.392212	729.875671	756.921875	731.881836	7.417546
223.768265	723.559875	757.070496	729.652649	18.181620
224.144302	719.398926	765.763855	728.092346	18.749992
224.520294	717.169922	762.494568	727.869446	23.606415
224.896286	717.392761	766.878418	736.414307	38.438503
225.272217	722.668274	773.862793	743.695984	41.074142
225.648148	728.612488	779.658386	749.342957	40.611427
226.024048	729.801270	773.714172	746.147949	37.225231
226.399902	721.107910	764.500732	741.689758	47.431458
226.775772	712.265808	763.014648	734.110901	43.045502
227.151581	713.231750	759.819641	739.014893	55.343014
227.527374	710.333984	762.122986	740.055115	57.388885
227.903137	711.968689	767.175598	743.621582	57.335022
228.278870	711.151367	777.057861	739.237793	42.615566
228.654572	716.278259	776.834961	734.556702	30.184013
229.030273	716.724121	774.680176	734.482422	30.640976
229.405930	715.386536	767.398621	735.745605	39.142960
229.781555	717.095520	760.116882	739.832214	52.849777
230.157181	722.965515	755.732971	732.476257	29.024963
230.532761	722.668274	750.977539	726.606262	13.910599
230.908325	723.634094	763.460449	725.120300	3.731715
231.283859	719.398926	764.946533	729.132568	21.370260
231.659332	721.479431	769.479004	726.160461	9.752234
232.034821	719.176086	759.150940	726.754883	18.958910
232.410263	722.593933	756.030273	732.402039	29.333670
232.785690	722.668213	757.739075	737.900391	43.432571
233.161087	717.838623	762.123047	743.324463	57.550346
233.536469	713.231750	762.791748	737.083008	48.126026
233.911804	711.968567	762.717468	736.340027	48.023621
234.287140	725.045898	759.448059	730.618652	16.198849
234.662430	727.497864	758.630798	734.482361	22.434433
235.037704	727.126465	763.683350	742.878601	43.089382
235.412933	720.067627	763.014648	743.101501	53.633228
235.788162	717.615723	766.655457	741.243958	48.181816
236.163345	719.324646	762.123047	735.225403	37.152691
236.538513	721.925293	765.466614	734.036560	27.815571
236.913635	725.714661	763.683350	733.813660	21.330730
237.288742	723.931458	769.999023	735.596985	25.322647
237.663834	720.959290	775.348877	735.002502	25.819672
238.038879	712.711731	774.977356	736.860168	38.782936
238.413910	716.426819	764.723633	730.172913	28.461699
238.788910	718.135803	758.928040	737.677429	47.905258
239.163879	724.897400	759.076599	733.219238	24.347670
239.538834	718.061523	760.488342	740.946777	53.940536
239.913757	723.114075	772.525391	736.339905	26.766804
240.288651	726.531982	778.989746	746.370789	37.818626
240.663528	732.104736	784.265198	748.228455	30.911762
241.038361	726.383484	771.410828	742.655762	36.138657
241.413177	718.804504	769.701843	740.426575	42.481731
241.787979	721.850891	766.729736	731.213074	20.861015
242.162735	719.919006	772.748291	734.630920	27.848028
242.537476	718.804504	764.946472	728.761047	21.578064
242.912170	713.454773	771.113586	738.271790	43.041149
243.286865	715.237976	769.850403	739.906494	45.170155
243.661514	714.272034	777.577942	740.649597	41.666828
244.036148	720.141907	782.556213	732.773438	20.238197
244.410751	716.649719	785.231140	733.739441	24.918880
244.785339	720.810730	785.825684	738.420410	27.085585
245.159882	716.724060	775.794739	736.860107	34.088058
245.534378	717.615662	774.085754	741.689758	42.631588
245.908890	714.569275	765.838196	731.807556	33.623257
246.283356	713.380432	770.667908	733.516418	35.149021
246.657791	716.946960	766.432617	730.618652	27.627584
247.032196	718.878906	782.927795	737.454529	29.002256
247.406586	715.906738	777.057800	737.677429	35.601494
247.780960	718.061523	784.785339	734.333801	24.387510
248.155289	716.352539	772.228210	736.414246	35.904190
248.529602	715.163635	773.937195	739.163513	40.834480
248.903870	714.569275	770.073425	741.318176	48.192616
249.278122	713.603333	769.627625	730.247070	29.708073
249.652344	715.683838	769.330383	723.931458	15.374000
250.026550	721.033630	773.268494	721.330872	0.569048
250.400711	731.138855	779.064026	733.442200	4.806127
250.774857	733.070618	785.379700	733.367859	0.568240
251.148987	718.432922	782.779114	731.287415	19.977083
251.523071	713.751953	781.441650	727.275085	19.978125
251.897125	718.358704	778.989746	744.958984	43.872379
252.271164	725.120300	772.451111	747.782532	47.880505
252.645187	720.439148	767.621399	756.178772	75.748024
253.019165	709.368103	763.088928	739.386414	55.878349
253.393112	710.111084	777.132141	743.250183	49.445801
253.767044	714.494934	787.608887	733.590759	26.117895
254.140930	716.129578	795.039124	741.095398	31.638531
254.514801	715.089355	792.512756	743.472961	36.660240
254.888657	715.683777	782.927795	741.763977	38.784416
255.262466	727.869446	778.321045	731.510254	7.216437
255.636276	731.956116	777.726563	733.739441	3.896237
256.010010	735.299744	776.834961	738.420410	7.513302
256.383759	732.401855	776.834961	744.438965	27.090408
256.757446	729.132568	776.612000	736.042725	14.554000
257.131134	722.891113	785.454041	738.271790	24.584330
257.504791	720.810730	780.104248	737.603027	28.320629
257.878418	715.609558	773.416992	731.733154	27.891909
258.252014	720.884949	769.999084	729.949951	18.457012
258.625580	722.668274	783.893738	734.333801	19.053392
258.999115	729.132629	794.296082	736.785828	11.744617
259.372650	721.850891	804.401306	727.720886	7.110800
259.746124	716.278259	798.308411	721.776672	6.702917
260.119598	715.460938	806.927551	728.612488	14.378526
260.493042	721.925232	803.955383	736.637207	17.934839
260.866425	725.640320	810.865540	738.197571	14.734196
261.239838	724.005676	805.590088	731.956116	9.745048
261.613159	722.519714	808.562195	728.092346	6.476605
261.986511	722.742615	802.469421	731.138733	10.531111
262.359802	721.999512	790.878113	734.482422	18.123060
262.733063	721.405090	777.206482	739.089172	31.691113
263.106293	714.494934	778.246643	738.346191	37.412735
263.479523	716.649719	788.723328	742.432800	35.773262
263.852692	715.237976	794.296082	739.980774	31.296978
264.225861	715.163635	787.311584	735.448303	28.115377
264.598969	716.278137	779.955627	726.754883	16.452824
264.972076	709.293762	782.556213	727.720886	25.152208
265.345154	710.408386	798.085510	735.002502	28.050779
265.718201	712.563049	803.063782	738.940613	29.146244
266.091217	728.018066	812.500244	750.606140	26.737087
266.464203	736.711487	818.815979	752.315125	19.004608
266.837158	738.940613	817.404297	755.361389	20.927868
267.210114	728.835388	811.905823	742.952942	16.994678
267.583038	727.275085	802.246521	739.386414	16.154591
267.955902	718.433044	812.946045	734.333801	16.823883
268.328766	718.581604	820.153503	740.055115	21.141193
268.701569	711.002747	818.593079	733.442200	20.856384
269.074371	717.095520	810.642761	739.534973	23.987295
269.447144	718.804504	811.237061	736.562927	19.212303
269.819885	719.844727	814.580750	736.191406	17.254978
270.192596	719.027405	823.719910	729.801331	10.291019
270.565277	719.547546	835.831238	729.578430	8.626217
270.937927	722.816833	840.512390	728.463867	4.798001
271.310577	718.507324	838.803467	727.275085	7.288481
271.683136	713.900574	832.339111	727.126465	11.166882
272.055725	712.934570	836.648682	726.606262	11.051037
272.428284	712.414551	837.317383	725.120300	10.172507
272.800812	721.628113	837.317383	723.411316	1.541373
273.173279	725.268860	842.369934	737.083008	10.088847
273.545776	732.773438	850.394714	739.312073	5.559058
273.918152	732.476257	854.109802	738.569092	5.009173
274.290558	729.652649	848.834290	725.937561	-3.117165
274.662964	729.206848	849.502991	732.922058	3.088387
275.035278	716.872620	849.354431	732.699036	11.946105
275.407593	718.804504	855.224365	744.216064	18.627464
275.779907	714.272034	855.298645	745.404846	22.075842
276.152161	721.330750	860.202637	748.302734	19.422207
276.524384	721.256531	861.242859	743.175781	15.658136
276.896606	718.284363	859.905334	741.838379	16.631729
277.268799	717.467102	863.546204	741.020996	16.124067
277.640930	711.225647	860.351135	735.448425	16.243217
278.013031	717.690125	862.134460	736.042786	12.705698
278.385162	719.919128	863.471985	734.408020	10.093071
278.757233	721.851013	868.747375	733.887939	8.194162
279.129272	720.364929	873.502747	725.491760	3.347854
279.501282	718.135742	867.038513	726.086182	5.339350
279.873230	719.696106	866.295593	734.853821	10.339541
280.245178	719.770508	872.091064	745.256165	16.731594
280.617126	720.587830	878.629700	747.411072	16.972239
280.988983	720.736389	893.490234	744.438965	13.720433
281.360870	723.559875	906.418884	741.318298	9.711538
281.732697	721.479309	909.391052	734.705322	7.038418
282.104492	723.411316	910.282654	736.042786	6.759448
282.476288	727.720886	907.533447	732.624817	2.727246
282.848053	730.470032	919.198975	734.408142	2.086649
283.219757	730.247131	917.341370	728.835266	-0.754628
283.591461	724.302917	922.022461	731.213074	3.494928
283.963135	720.736389	911.991516	735.968445	7.964260
284.334747	722.742615	922.988464	743.547180	10.389511
284.706360	712.860352	934.505371	743.101501	13.643956
285.077942	721.553711	951.074890	744.513184	10.003204
285.449524	714.569275	948.028503	741.763977	11.648587
285.821014	715.683777	947.656982	734.036621	7.911623
286.192535	714.940735	953.526855	728.686768	5.761456
286.563995	713.380432	965.192383	733.813660	8.114479
286.935425	714.494934	965.043762	741.466797	10.765112
287.306824	709.888184	965.117981	745.033386	13.770023
287.678223	710.705566	962.591736	736.860046	10.383452
288.049561	718.581604	964.523621	736.414246	7.250751
288.420898	720.662109	968.758789	735.745605	6.079685
288.792145	726.680664	973.365540	744.364685	7.168669
289.163452	722.816895	974.182922	745.627869	9.074804
289.534668	723.857117	977.600891	749.194336	9.985356
289.905914	717.987122	984.956848	745.404968	10.270020
290.277039	717.764343	997.811218	748.154053	10.851651
290.648193	722.148193	1011.260010	743.621643	7.427386
291.019318	729.727051	1023.742859	739.906494	3.462209
291.390381	732.253357	1021.736633	734.631042	0.821355
291.761475	727.497986	1015.941101	740.649597	4.559516
292.132507	725.714600	1013.711975	744.736145	6.604764
292.503510	723.559875	1017.129944	748.971436	8.656046
292.874481	733.962219	1020.993713	754.246887	7.067053
293.245422	733.516418	1020.547913	755.361511	7.610695
293.616364	734.408142	1026.120483	750.383118	5.476277
293.987213	719.250305	1029.835693	735.968445	5.382784
294.358093	715.832458	1049.748779	729.875671	4.205608
294.728943	709.888184	1070.182007	729.206848	5.361919
295.099731	711.448547	1094.033203	722.668274	2.932613
295.470490	715.089355	1101.240723	728.315247	3.425054
295.841248	720.959290	1111.345825	729.949951	2.303015
296.211975	716.575439	1125.389038	744.513245	6.833874
296.582642	713.900574	1131.779053	742.432861	6.827891
296.953308	716.575439	1146.862427	743.770264	6.320159
297.323883	719.176025	1147.382690	742.432800	5.431203
297.694519	716.649719	1166.181274	744.216003	6.132225
298.065063	711.597168	1170.639404	747.633972	7.850433
298.435608	715.683777	1169.450562	746.668030	6.828233
298.806122	714.569275	1152.063599	743.695984	6.657620
299.176575	716.278137	1129.327026	741.912781	6.206201
299.547028	709.442383	1123.531494	735.968445	6.405882
299.917450	708.327820	1130.664551	731.436035	5.471515
300.287872	705.058411	1136.311523	726.829285	5.048282
300.658234	711.894348	1133.933960	732.624817	4.911972
301.028564	713.454773	1128.732544	741.466980	6.745415
301.398865	720.141907	1118.776001	736.191406	4.026123
301.769135	721.405090	1120.484985	732.104736	2.681079
302.139374	727.126404	1119.147583	731.138733	1.023498
302.509583	728.983948	1130.515869	733.739319	1.184307
302.879791	727.572266	1142.032837	737.454529	2.384367
303.249939	731.436035	1147.679810	731.138733	-0.071425
303.620087	722.371094	1145.450806	738.123230	3.723208
303.990173	721.850891	1131.704712	739.386292	4.278452
304.360260	717.021240	1141.364136	745.181946	6.636309
304.730286	722.296692	1152.286621	743.770203	4.993957
305.100281	726.531982	1157.116333	738.346130	2.743748
305.470276	729.281189	1153.624023	731.807434	0.595331
305.840179	733.293518	1157.859253	729.132629	-0.980034
306.210144	727.943787	1163.506348	726.086182	-0.426484
306.579987	733.590759	1178.441284	731.510254	-0.467686
306.949890	733.070618	1179.109985	737.454529	0.982853
307.319702	735.894226	1200.286133	746.445129	2.271983
307.689484	729.652771	1199.543091	743.993164	3.051860
308.059265	731.213074	1214.329224	746.073669	3.075988
308.429016	730.172852	1223.171265	743.844543	2.773172
308.798737	728.315247	1238.477661	741.615417	2.607046
309.168396	722.593933	1257.053345	737.900391	2.863914
309.538055	726.011902	1273.994507	733.070618	1.288128
309.907684	725.937561	1290.266724	740.575195	2.593812
310.277313	719.844727	1300.297485	745.479187	4.416287
310.646851	711.374207	1314.340698	752.983826	6.900818
311.016388	709.516663	1327.418091	754.321228	7.251086
311.385895	717.764343	1336.111450	751.572083	5.467437
311.755371	716.575439	1333.436646	747.188171	4.962661
312.124817	712.860291	1330.167358	736.414246	3.815598
312.494232	712.563049	1334.328247	737.454529	4.003357
312.863617	719.027344	1329.795776	741.243958	3.637486
313.232971	727.720764	1324.000244	743.993164	2.728989
313.602295	725.491760	1318.947632	738.123230	2.128460
313.971619	729.875671	1328.235352	733.367859	0.583627
314.340820	730.767273	1338.860718	739.683594	1.466275
314.710083	739.460693	1354.092651	740.203674	0.120882
315.079285	727.943665	1370.959473	743.027161	2.345743
315.448486	730.098572	1393.918945	744.216003	2.126694
315.817596	719.696106	1393.919067	751.571960	4.727791
316.186707	721.107910	1373.560181	745.999268	3.815047
316.555786	713.083191	1353.498413	735.596985	3.515500
316.924866	712.042969	1334.402466	728.984070	2.722076
317.293884	721.405090	1337.523071	732.624817	1.821035
317.662872	726.086182	1336.037231	743.250061	2.813977
318.031830	722.073792	1354.464355	736.042725	2.208909
318.400757	719.919128	1366.575684	737.974609	2.792128
318.769684	716.203918	1378.538452	731.584656	2.322201
319.138550	723.559875	1372.742798	728.315247	0.732516
319.507416	713.380432	1379.875854	725.863281	1.872908
319.876190	706.916016	1375.714844	725.268860	2.744150
320.244995	711.076965	1395.479492	743.027161	4.668334
320.613770	722.445313	1386.563110	743.398743	3.155077
320.982483	726.977844	1387.083130	745.181946	2.757757
321.351166	716.278259	1376.160767	737.083008	3.152796
321.719818	709.070801	1377.498169	740.649475	4.724324
322.088440	707.882019	1390.501099	743.993164	5.290087
322.457062	715.980957	1405.733276	740.055115	3.490261
322.825623	721.107910	1423.194336	735.819824	2.095456
323.194183	733.665039	1440.135376	728.018066	-0.799322
323.562653	735.225403	1464.432251	732.253235	-0.407589
323.931183	732.922058	1502.847046	736.785828	0.501837
324.299591	718.507324	1541.335815	741.466858	2.790318
324.668060	715.312317	1560.505859	742.432800	3.208790
325.036407	716.203918	1577.818359	748.302734	3.725427
325.404755	723.337097	1577.446655	749.788757	3.096987
325.773102	724.154297	1577.298218	758.259277	3.997565
326.141388	719.547546	1577.298218	759.745300	4.686415
326.509674	717.541443	1580.864624	762.123047	5.163953
326.877899	724.005676	1594.833618	764.352051	4.633105
327.246124	732.699158	1595.799683	757.293274	2.849508
327.614288	735.151123	1602.338257	762.494568	3.153119
327.982422	723.262695	1606.944946	750.903320	3.127892
328.350525	720.885010	1610.362915	754.246887	3.750726
328.718628	724.600098	1610.585938	751.200500	3.002351
329.086700	725.789001	1613.186523	756.401672	3.449713
329.454712	722.668274	1621.136719	755.212891	3.622233
329.822693	716.352539	1631.613403	758.110657	4.562428
330.190674	720.810730	1640.381226	760.934143	4.363277
330.558563	722.593933	1649.594727	762.345886	4.288233
330.926483	721.330811	1659.922852	754.395508	3.522798
331.294312	719.919128	1682.213745	753.058105	3.443745
331.662231	719.398926	1709.482788	745.776428	2.664169
332.029999	714.866455	1726.572266	744.587585	2.937725
332.397766	716.723938	1733.259644	747.410950	3.018784
332.765503	722.519714	1748.566040	758.259277	3.483231
333.133240	728.909668	1776.801147	757.887695	2.765365
333.500916	722.816895	1809.048462	749.045715	2.414662
333.868561	718.804504	1823.760254	741.615417	2.064419
334.236176	717.541321	1832.230835	737.454407	1.786425
334.603790	724.971680	1825.171875	732.253235	0.661839
334.971344	721.553711	1826.955200	725.194519	0.329365
335.338867	720.885010	1840.775757	736.934387	1.433120
335.706360	715.981018	1860.391602	739.683594	2.071160
336.073853	713.677551	1862.323242	746.593750	2.865653
336.441284	716.278259	1869.307739	743.324402	2.345659
336.808655	717.169922	1865.741211	746.742371	2.574716
337.176086	724.748779	1844.936523	749.788818	2.235343
337.543396	720.885071	1784.825562	746.742371	2.430333
337.910706	720.142029	1746.336914	752.760803	3.178614
338.277954	721.925293	1783.934082	758.927979	3.484216
338.645264	732.179016	1862.174805	763.014648	2.728827
339.012421	730.767273	1949.406250	761.974426	2.560820
339.379669	724.748779	2005.430298	757.962097	2.593410
339.746796	721.850891	2044.810913	757.962097	2.729577
340.113953	730.544434	2072.525635	763.906250	2.486012
340.481018	726.606262	2078.469971	764.203430	2.781136
340.848114	726.309082	2082.333740	768.290039	3.095885
341.215118	720.810730	2077.801270	761.454285	2.995125
341.582153	733.367859	2084.711670	762.717468	2.171883
341.949066	730.767273	2096.525391	760.562683	2.181602
342.316010	728.909668	2109.899902	762.197266	2.410415
342.682922	724.600159	2118.073242	760.414063	2.570118
343.049835	719.770508	2132.488037	757.887695	2.698146
343.416656	727.572266	2172.314453	769.553223	2.905775
343.783478	727.126404	2213.775391	774.011414	3.153738
344.150269	731.287354	2273.291992	785.008240	3.483834
344.516998	721.479431	2325.303711	779.584167	3.622887
344.883728	723.782776	2383.334229	784.636719	3.666891
345.250427	726.829285	2420.411133	780.847351	3.189575
345.617065	731.584656	2429.847656	780.550049	2.883263
345.983704	722.593994	2429.178955	771.187988	2.847441
346.350281	713.826233	2427.395752	771.262207	3.351832
346.716827	711.894348	2430.813477	772.822571	3.544566
347.083405	708.327820	2419.296631	779.955627	4.186389
347.449860	730.024170	2404.882080	803.732605	4.400877
347.816376	732.253235	2378.578857	807.744873	4.585462
348.182770	733.293518	2372.634521	814.506409	4.953996
348.549194	712.785950	2363.643799	795.410645	5.004955
348.915558	712.042969	2378.207275	801.354797	5.360325
349.281921	724.525879	2391.581787	798.308411	4.425918
349.648193	728.463867	2404.287354	807.596375	4.722007
350.014526	731.807556	2431.853760	813.317627	4.794580
350.380737	719.696228	2463.581055	819.781921	5.739238
350.746948	722.073792	2504.596191	823.422852	5.685710
351.113159	717.764343	2523.246094	821.045105	5.720399
351.479309	720.142029	2535.729248	820.376404	5.520769
351.845428	714.049133	2560.620361	821.936707	5.842589
352.211517	712.934570	2583.654297	829.292664	6.219964
352.577576	707.584778	2615.827393	844.301819	7.164552
352.943604	711.597168	2642.130615	844.301819	6.873989
353.309601	714.643555	2677.870117	854.778503	7.137992
353.675537	716.872620	2730.030518	859.385315	7.079062
354.041473	715.980957	2781.968018	871.793884	7.541815
354.407379	715.832336	2841.930664	872.536804	7.370518
354.773254	728.761047	2897.583252	881.378906	7.036900
355.139038	732.253235	2951.155518	895.199219	7.343540
355.504913	727.943787	3019.811279	904.561340	7.706273
355.870636	717.912903	3082.522705	905.378662	7.927979
356.236389	711.002747	3139.141357	905.973145	8.029624
356.602081	718.507324	3206.756836	912.883301	7.811756
356.967804	723.708496	3273.555420	927.000732	7.972723
357.333405	723.931458	3357.145752	942.975891	8.318519
357.699036	715.683838	3429.962158	959.322510	8.976186
358.064606	707.584900	3519.348389	972.696960	9.428676
358.430176	704.909912	3590.010498	979.532776	9.518659
358.795654	707.436218	3639.347412	989.637939	9.625180
359.161163	711.522766	3637.043945	999.000061	9.826532
359.526581	714.940735	3647.372070	1023.297058	10.515381
359.892029	720.216248	3674.566406	1044.027466	10.960489
360.257416	716.055359	3730.516357	1060.448364	11.424696
360.622772	721.033508	3817.004883	1071.742554	11.327916
360.988098	718.655945	3926.973389	1083.630859	11.375898
361.353394	722.148193	4093.262695	1108.819580	11.470135
361.718658	721.851013	4248.629883	1136.534546	11.758139
362.083893	722.593994	4386.684082	1160.980103	11.964393
362.449097	729.355530	4464.107910	1180.373047	12.076236
362.814209	726.829163	4487.810059	1182.230591	12.108582
363.179382	724.748718	4399.761230	1179.778564	12.381722
363.544434	725.120178	4251.898926	1157.636353	12.263774
363.909546	728.909668	4063.912842	1154.664307	12.766244
364.274536	731.658875	3917.387939	1144.930664	12.972597
364.639587	723.114075	3795.680420	1154.069946	14.025926
365.004517	721.925293	3723.458252	1141.735718	13.986534
365.369507	713.008972	3685.563721	1143.073120	14.467830
365.734344	718.284424	3670.702881	1145.302246	14.463324
366.099274	718.804504	3662.677734	1160.682861	15.010101
366.464081	724.823059	3642.839111	1169.822144	15.250055
366.828918	724.228699	3642.319336	1182.007690	15.687621
367.193665	723.857117	3642.022217	1194.861938	16.140446
367.558411	723.188416	3672.263428	1209.871216	16.502897
367.923126	711.151306	3677.984619	1216.484253	17.032738
368.287781	710.036804	3693.068115	1221.313843	17.139513
368.652435	707.361877	3668.473877	1227.332397	17.559975
369.017059	725.120300	3666.170654	1237.734741	17.429638
369.381653	729.058289	3654.430664	1246.279419	17.680523
369.746185	733.887939	3670.925781	1247.171143	17.476221
370.110687	731.138672	3681.699951	1261.883179	17.987917
370.475220	731.435974	3704.807861	1274.514526	18.264738
370.839661	736.117004	3733.489014	1305.127319	18.983641
371.204041	735.299805	3772.052002	1309.288208	18.901390
371.568451	729.949890	3812.918701	1319.244751	19.114527
371.932770	730.024231	3870.131592	1323.405762	18.896854
372.297150	727.646484	3893.313721	1340.495483	19.359236
372.661377	729.206848	3920.063232	1349.040161	19.425297
373.025696	725.120300	3932.620361	1353.424072	19.588583
373.389862	723.039734	3949.932617	1357.807983	19.671190
373.754059	725.937561	3963.232666	1369.770630	19.887995
374.118225	718.581543	3972.966553	1378.835571	20.288136
374.482361	724.154297	4007.368896	1390.649780	20.300089
374.846436	723.857117	4044.222656	1402.612427	20.442186
375.210510	732.104736	4112.878418	1424.977539	20.494505
375.574524	733.962219	4185.546387	1452.618164	20.821047
375.938538	726.680664	4264.901855	1478.104004	21.237320
376.302460	728.166687	4350.647461	1509.979858	21.582258
376.666412	718.061523	4461.209961	1540.964233	21.984240
377.030304	721.851013	4553.939941	1567.118652	22.057621
377.394196	714.717957	4636.267090	1586.214478	22.223272
377.757996	723.782776	4714.656738	1602.264038	22.012253
378.121796	722.891174	4779.671387	1618.238892	22.070402
378.485565	728.018066	4798.023926	1626.858032	22.084488
378.849304	721.182190	4764.810547	1618.610474	22.193638
379.212982	722.668274	4704.997070	1604.344360	22.139711
379.576630	719.398926	4624.006836	1585.917358	22.192202
379.940277	718.358704	4554.311035	1574.920532	22.329834
380.303864	710.259583	4499.104004	1574.846191	22.819269
380.667450	709.070801	4498.286621	1590.747070	23.268040
381.030945	711.745789	4500.887207	1611.700195	23.750879
381.394501	717.318420	4539.004395	1633.991211	23.986084
381.757935	718.358704	4560.849609	1643.650391	24.080517
382.121399	720.216248	4565.382324	1659.254028	24.421255
382.484741	719.993347	4583.437500	1685.334351	24.986540
382.848145	724.451477	4606.396973	1714.758179	25.510576
383.211487	719.696106	4669.108887	1736.454590	25.744549
383.574768	720.216248	4726.693359	1755.475952	25.839653
383.938019	715.832458	4791.336426	1778.435547	26.072924
384.301270	719.176086	4855.534180	1821.011108	26.637806
384.664459	721.776672	4903.235840	1846.794312	26.904905
385.027649	720.587830	4953.984863	1870.422485	27.161041
385.390778	724.228699	5000.350098	1884.837280	27.141619
385.753876	717.244141	5045.377441	1915.375488	27.682404
386.116943	717.169861	5073.315430	1940.787109	28.089447
386.479980	716.352539	5084.832031	1958.842773	28.442167
386.842987	723.262695	5123.098145	1975.412231	28.459009
387.205994	724.154358	5148.361328	1996.068359	28.748972
387.568909	720.513489	5196.509277	2034.631470	29.359232
387.931793	722.965515	5216.868652	2062.346436	29.804399
388.294678	724.005676	5265.685059	2090.953125	30.097843
388.657471	721.256592	5300.607422	2115.992920	30.457077
389.020294	724.302979	5325.350098	2145.342529	30.885136
389.383057	722.742615	5348.161621	2170.902588	31.308729
389.745819	721.182190	5354.922363	2192.450195	31.751198
390.108521	717.021240	5363.021484	2208.648193	32.105618
390.471191	713.231873	5419.565918	2237.180420	32.380798
390.833801	719.547546	5494.908691	2279.087158	32.658043
391.196442	712.785950	5624.642090	2331.916504	32.963722
391.558960	717.467041	5719.897949	2398.714600	33.608612
391.921509	714.123474	5840.713379	2447.531494	33.812107
392.284027	723.634216	5935.672363	2509.648682	34.267101
392.646484	715.535217	6025.355957	2541.970459	34.397305
393.008911	716.501160	6068.525879	2548.731934	34.234344
393.371307	710.631287	6079.225098	2559.134277	34.431789
393.733673	714.049133	6051.659668	2563.444092	34.648369
394.096008	713.603333	6013.914063	2583.059814	35.270699
394.458344	711.820129	6007.078125	2596.731445	35.596214
394.820587	720.587830	6015.771484	2621.028320	35.889980
395.182831	721.776672	6059.312500	2654.390381	36.207977
395.545013	723.857178	6078.482910	2660.334717	36.164570
395.907196	723.485657	6058.940918	2642.873535	35.974213
396.269287	722.742493	5998.310059	2621.920166	35.999496
396.631409	723.931458	5915.759277	2603.938721	36.210896
396.993469	721.107910	5840.342285	2596.805908	36.640205
397.355530	719.919128	5798.732910	2590.341553	36.827934
397.717499	717.838623	5776.664551	2594.353760	37.093884
398.079468	716.872742	5775.624512	2612.632080	37.474842
398.441376	716.575439	5770.572266	2627.121338	37.802670
398.803284	713.900574	5791.079590	2639.901611	37.934467
399.165131	713.528992	5823.029785	2660.186035	38.098770
399.526978	720.141907	5846.806152	2682.328369	38.274139
399.888763	722.593994	5863.895996	2703.950439	38.538029
400.250519	722.222473	5869.691895	2716.433350	38.741581
400.612244	730.024231	5887.450684	2736.271729	38.900169
400.973938	725.937561	5903.054199	2755.962158	39.211491
401.335602	718.135742	5918.880371	2784.420166	39.730549
401.697205	707.956299	5968.588379	2816.444580	40.080513
402.058807	713.306152	6010.718750	2845.497070	40.249668
402.420349	716.649719	6086.209473	2876.704346	40.227783
402.781860	706.990417	6158.580566	2900.703857	40.239880
403.143341	706.767517	6249.527344	2939.489990	40.281780
403.504822	707.882019	6347.235840	2976.195313	40.222927
403.866241	715.832458	6450.813965	3037.495361	40.482483
404.227631	713.008972	6572.001465	3087.872314	40.533646
404.588959	717.244141	6701.213379	3152.961670	40.704044
404.950287	712.711731	6810.513184	3192.342041	40.664337
405.311554	713.454773	6898.189941	3235.809326	40.783546
405.672821	715.460938	6957.781250	3262.112305	40.796551
406.034027	716.575378	6958.152344	3260.849365	40.763317
406.395203	717.169861	6928.580078	3258.322998	40.911049
406.756348	712.414551	6880.729004	3247.400391	41.096897
407.117493	710.631287	6859.479004	3247.251953	41.253593
407.478516	716.724060	6842.760254	3250.521240	41.361118
407.839600	724.451477	6856.060547	3257.580078	41.312626
408.200592	736.711426	6854.054688	3281.430908	41.598442
408.561554	730.767273	6851.082031	3296.068604	41.914532
408.922485	726.160461	6863.416504	3309.888916	42.099083
409.283417	719.398926	6888.159668	3307.585693	41.956348
409.644257	720.736328	6970.486816	3321.925781	41.620693
410.005096	721.033508	7047.613281	3355.436768	41.640247
410.365906	719.250305	7117.309082	3404.328125	41.967072
410.726715	721.925232	7198.224609	3448.315186	42.097961
411.087433	718.358704	7252.763184	3474.395264	42.177319
411.448120	717.838562	7339.994141	3503.819092	42.070599
411.808807	720.142029	7363.622559	3530.939453	42.309109
412.169434	727.869446	7373.876465	3537.775391	42.279613
412.530029	733.070618	7377.814453	3544.462646	42.310017
412.890564	720.141907	7367.188965	3545.280029	42.502155
413.251099	718.358704	7364.811035	3568.982666	42.889408
413.611572	717.318420	7390.074219	3580.796875	42.912983
413.972076	728.092346	7435.398926	3594.171143	42.730698
414.332489	726.457703	7487.113281	3602.641846	42.542976
414.692871	720.959290	7576.275879	3639.421631	42.572250
415.053223	717.764343	7669.452637	3683.260498	42.658646
415.413574	713.306152	7822.961426	3759.197510	42.841618
415.773834	717.318420	7917.920410	3825.104248	43.160084
416.134094	720.513489	8051.220215	3893.388428	43.281982
416.494263	717.615662	8160.519531	3943.988281	43.348305
416.854462	718.730225	8349.397461	4019.703125	43.259296
417.214630	719.027405	8553.581055	4113.027344	43.320911
417.574738	725.343201	8772.477539	4220.320313	43.431324
417.934784	729.875671	8990.407227	4328.281738	43.561436
418.294861	723.337097	9240.137695	4435.426758	43.585491
418.654846	716.575500	9558.079102	4564.342285	43.519371
419.014832	716.724121	9877.952148	4706.854492	43.554535
419.374756	718.730225	10237.354492	4854.642578	43.450737
419.734680	732.922058	10581.004883	5018.256836	43.514408
420.094543	726.160461	10927.034180	5159.357910	43.458996
420.454376	725.120300	11228.032227	5314.873535	43.699818
420.814148	715.981018	11559.497070	5453.076660	43.685978
421.173920	715.386658	11920.906250	5622.709473	43.793800
421.533691	717.987244	12291.676758	5781.791504	43.752724
421.893341	721.330872	12594.088867	5900.527344	43.622520
422.253021	722.742615	12816.253906	5980.180176	43.473209
422.612640	723.262695	12927.261719	6021.938965	43.417542
422.972260	725.268860	12945.539063	6045.863770	43.539093
423.331757	724.079895	12912.030273	6049.802246	43.696621
423.691315	732.922058	12908.461914	6056.191895	43.721016
424.050781	739.386292	12956.610352	6095.869629	43.843704
424.410248	739.237793	13025.192383	6120.166016	43.797394
424.769653	732.401917	13120.895508	6176.116699	43.941704
425.128998	723.188477	13201.141602	6204.871582	43.930946
425.488373	727.572266	13199.209961	6207.101074	43.935921
425.847656	722.816895	13100.757813	6156.798340	43.900528
426.206940	724.302979	12962.333008	6095.869629	43.892410
426.566193	719.473328	12743.140625	6027.140137	44.143497
426.925385	715.683777	12529.296875	5917.320313	44.030869
427.284576	714.792175	12237.510742	5793.160156	44.072655
427.643677	722.742615	12006.874023	5688.096191	44.002972
428.002777	731.733215	11777.575195	5620.406250	44.258038
428.361847	727.720886	11525.096680	5540.085449	44.569763
428.720856	719.473206	11282.348633	5449.584473	44.780529
429.079865	715.015076	11079.723633	5379.591309	45.004410
429.438812	719.473328	10963.588867	5317.325684	44.882866
429.797760	717.912903	10911.131836	5290.576660	44.859859
430.156616	720.067688	10807.850586	5238.639160	44.792511
430.515503	723.708496	10723.887695	5216.794434	44.930054
430.874268	729.058350	10689.783203	5206.466309	44.950626
431.233093	726.234802	10712.817383	5209.734863	44.895237
431.591827	720.587830	10724.186523	5234.255371	45.120438
431.950562	722.742493	10733.770508	5247.778320	45.200508
432.309204	718.358704	10798.414063	5286.861328	45.322193
432.667877	718.210144	10929.855469	5323.121094	45.094704
433.026459	714.346375	11049.038086	5393.857422	45.279640
433.385010	721.182129	11150.312500	5435.244141	45.200909
433.743561	722.296692	11300.403320	5495.132324	45.119942
434.102051	723.559875	11435.932617	5541.274902	44.973366
434.460510	723.039734	11606.828125	5629.843262	45.083603
434.818939	721.330750	11670.727539	5676.653809	45.256588
435.177338	717.541321	11730.467773	5704.962891	45.286976
435.535675	717.392822	11705.500977	5685.347168	45.212097
435.894012	719.770508	11664.338867	5661.347168	45.150951
436.252289	721.107910	11667.831055	5671.080566	45.218765
436.610535	719.844727	11648.957031	5678.585938	45.371857
436.968719	730.618652	11755.953125	5741.965332	45.453014
437.326935	732.401917	11857.526367	5777.110840	45.345192
437.685028	739.237793	11981.015625	5829.420410	45.279163
438.043152	731.807556	12061.784180	5855.500000	45.222446
438.401215	731.138733	12212.246094	5915.388184	45.154613
438.759277	722.593933	12397.929688	6008.118652	45.270859
439.117249	724.525818	12676.862305	6161.107422	45.485512
439.475250	722.222473	12889.515625	6301.019531	45.850765
439.833130	731.138733	13180.708008	6430.603027	45.780415
440.191071	732.847839	13388.831055	6526.305176	45.776432
440.548889	733.070618	13634.176758	6618.515137	45.619686
440.906708	725.268860	13872.094727	6740.296875	45.752701
441.264496	716.946960	14076.426758	6821.658691	45.695732
441.622223	723.188416	14273.403320	6906.214844	45.630466
441.979950	726.457703	14351.198242	6944.778809	45.639927
442.337616	732.401855	14424.609375	6995.675781	45.743347
442.695251	735.299744	14342.356445	6962.833496	45.766941
443.052887	728.018066	14218.717773	6923.304688	45.922649
443.410461	718.061462	14091.362305	6844.171875	45.808514
443.768005	715.163635	13973.742188	6812.296387	45.986324
444.125458	726.457703	13913.333008	6771.503906	45.841389
444.482941	730.544373	13915.190430	6788.742188	45.948883
444.840393	726.829285	13994.249023	6844.989746	46.114170
445.197754	715.163757	14194.344727	6941.731934	46.193966
445.555084	713.157532	14387.458008	7054.226563	46.372162
445.912415	702.829407	14676.421875	7186.782715	46.401474
446.269714	709.888184	14878.749023	7297.864746	46.496162
446.626953	710.333984	15178.485352	7421.950684	46.388905
446.984161	720.290527	15436.167969	7513.492188	46.162399
447.341309	722.816895	15668.364258	7615.286621	46.117214
447.698456	724.080017	15840.449219	7701.402344	46.157394
448.055542	727.423584	16005.028320	7781.724121	46.174129
448.412598	730.990173	16030.589844	7812.336426	46.284519
448.769653	733.813660	15932.213867	7774.294434	46.323830
449.126617	729.355530	15712.203125	7695.830566	46.496334
449.483582	726.160461	15554.532227	7644.857910	46.658508
449.840515	727.646545	15353.541992	7528.574219	46.499222
450.197388	726.309082	15152.032227	7457.318359	46.659771
450.554230	726.606262	14989.831055	7379.226074	46.641766
450.911041	726.457703	14853.782227	7370.310059	47.028385
451.267822	724.005676	14756.965820	7336.873535	47.123825
451.624573	715.089355	14626.862305	7282.038574	47.204258
451.981262	712.414551	14549.585938	7238.645020	47.164482
452.337921	715.535156	14444.522461	7172.738281	47.033352
452.694580	721.627991	14404.401367	7134.101563	46.865307
453.051147	719.324646	14404.624023	7139.748535	46.914749
453.407715	720.216309	14388.870117	7138.634277	46.957203
453.764221	722.668213	14430.331055	7193.468750	47.205719
454.120728	730.618652	14278.234375	7133.953125	47.265400
454.477142	728.686829	14235.137695	7147.550781	47.524429
454.833557	727.126465	14092.700195	7073.842285	47.485546
455.189911	721.479492	14005.096680	7034.982422	47.528492
455.546265	723.931458	13853.147461	6957.484375	47.478485
455.902557	731.658875	13733.965820	6905.174316	47.480156
456.258820	726.532043	13737.979492	6930.140625	47.678082
456.615051	723.485596	13795.042969	6986.238770	47.911297
456.971252	717.244202	13810.127930	7002.660156	48.006351
457.327393	721.256531	13907.090820	7048.355469	47.984066
457.683502	721.033691	14068.700195	7132.689941	48.035786
458.039612	719.844788	14404.176758	7313.617188	48.184834
458.395630	719.770508	14727.096680	7492.091797	48.348423
458.751648	715.460938	15093.483398	7654.220703	48.259487
459.107605	716.278259	15578.084961	7883.890137	48.228401
459.463562	715.089355	16120.569336	8111.404785	48.010937
459.819458	720.216309	16598.113281	8343.675781	48.013031
460.175323	718.953125	17054.109375	8522.076172	47.768890
460.531158	714.717834	17476.150391	8735.622070	47.853336
460.886932	709.962463	17840.677734	8874.716797	47.661491
461.242676	705.355713	18062.992188	9019.458008	47.898815
461.598419	717.169861	18080.230469	9049.105469	47.986561
461.954102	721.033630	17877.681641	8998.133789	48.244274
462.309723	726.309082	17431.417969	8813.790039	48.413219
462.665344	714.197754	16919.472656	8557.221680	48.397968
463.020905	719.324707	16445.496094	8330.450195	48.397827
463.376373	718.581604	16068.484375	8147.070313	48.394371
463.731873	719.919006	15752.176758	8011.467285	48.506008
464.087341	713.677673	15537.741211	7909.822266	48.543671
464.442749	716.055359	15425.320313	7852.683594	48.517914
464.798126	715.758118	15345.815430	7810.404785	48.493633
465.153503	716.724060	15385.270508	7839.457031	48.557861
465.508820	714.569275	15409.046875	7848.818848	48.550549
465.864105	721.553711	15494.272461	7897.413574	48.575081
466.219330	725.863342	15673.565430	8009.685059	48.728706
466.574524	730.470032	15803.445313	8106.130371	48.933006
466.929657	725.343201	15982.737305	8196.258789	48.965866
467.284790	725.268860	16165.448242	8280.815430	48.934315
467.639893	723.188416	16380.554688	8359.501953	48.771378
467.994934	724.748718	16620.107422	8468.652344	48.718021
468.349945	725.194519	16730.521484	8506.695313	48.618195
468.704926	721.330811	16804.601563	8569.035156	48.794205
469.059875	724.154297	16657.035156	8522.076172	48.942322
469.414764	721.851013	16508.205078	8456.764648	48.997467
469.769653	722.296692	16331.070313	8386.547852	49.102200
470.124451	718.284424	16236.928711	8343.081055	49.133137
470.479248	719.696106	16070.862305	8276.282227	49.224834
470.834015	715.386536	15990.391602	8211.713867	49.075775
471.188721	711.374207	16049.610352	8251.836914	49.161213
471.543365	710.705505	16116.184570	8315.217773	49.362385
471.898010	710.185364	16199.627930	8383.055664	49.536129
472.252625	713.231750	16289.979492	8425.483398	49.511307
472.607178	704.315430	16511.625000	8499.339844	49.312782
472.961700	702.606506	16693.369141	8580.108398	49.262829
473.316193	707.361877	16934.630859	8707.387695	49.299892
473.670654	717.095520	17110.505859	8801.380859	49.314236
474.025055	724.600098	17379.927734	8938.097656	49.314537
474.379456	717.764343	17589.980469	9043.458984	49.345585
474.733795	724.302979	17769.646484	9150.529297	49.434185
475.088104	728.092346	17906.880859	9214.206055	49.398785
475.442383	738.494812	17908.666016	9256.707031	49.610523
475.796570	731.361633	17973.828125	9294.304688	49.661938
476.150787	725.640381	18069.083984	9359.170898	49.779793
476.504944	723.634277	18251.794922	9410.365234	49.558712
476.859070	731.361633	18448.919922	9516.023438	49.581673
477.213135	735.299805	18647.306641	9612.467773	49.559872
477.567200	726.086182	18960.271484	9785.593750	49.684193
477.921173	722.296814	19336.984375	9936.651367	49.500454
478.275146	717.169861	19762.443359	10166.469727	49.614933
478.629089	730.618652	20095.392578	10310.394531	49.470112
478.983002	731.435974	20490.089844	10525.946289	49.570740
479.336823	729.058289	20860.193359	10703.083984	49.545273
479.690643	720.810730	21228.660156	10920.864258	49.737316
480.044403	718.878906	21614.884766	11131.586914	49.831093
480.398163	723.262695	22142.359375	11424.862305	49.962887
480.751862	721.628113	22894.599609	11801.129883	49.968506
481.105499	717.912903	23808.226563	12282.090820	50.082375
481.459137	719.993408	24988.375000	12874.284180	50.082825
481.812744	720.810730	26433.046875	13674.747070	50.380436
482.166290	730.544434	28209.771484	14617.128906	50.534843
482.519806	727.795166	30341.294922	15731.965820	50.666660
482.873291	729.727051	32770.546875	16943.621094	50.603867
483.226715	719.844788	35465.433594	18339.621094	50.710827
483.580139	719.027527	38193.453125	19748.845703	50.780815
483.933502	719.027405	41202.191406	21296.720703	50.830250
484.286804	725.789063	44150.894531	22766.279297	50.755180
484.640106	724.525879	46969.718750	24194.970703	50.752186
484.993347	724.674500	49013.937500	25271.468750	50.832825
485.346558	717.169861	50221.359375	25958.695313	50.988663
485.699738	721.479431	50366.027344	26104.921875	51.130375
486.052887	720.439148	49661.265625	25767.515625	51.178284
486.405975	718.730164	48318.468750	25073.900391	51.166603
486.759064	715.312256	46491.359375	24089.982422	51.063103
487.112061	711.894348	44614.625000	23109.853516	51.017235
487.464996	712.191589	43118.984375	22288.365234	50.879051
487.817963	716.872620	42362.207031	21860.751953	50.771301
488.170868	722.816895	42171.996094	21682.353516	50.566833
488.523743	719.696106	42340.886719	21707.689453	50.426220
488.876587	713.751953	42549.230469	21772.037109	50.335953
489.229401	715.237976	42512.226563	21795.812500	50.435631
489.582153	724.600098	42125.109375	21675.292969	50.604919
489.934845	726.829285	41400.359375	21362.625000	50.735195
490.287537	723.485596	40527.753906	20937.763672	50.784195
490.640198	725.863281	39586.558594	20457.990234	50.776566
490.992798	723.782898	38688.089844	20031.640625	50.857918
491.345337	725.417480	38184.167969	19739.779297	50.760799
491.697876	720.736328	37948.332031	19571.187500	50.635696
492.050354	733.293518	38199.027344	19622.083984	50.416176
492.402832	733.145020	38489.773438	19719.498047	50.286144
492.755219	739.906555	38755.703125	19810.666016	50.165356
493.107605	729.206970	38652.574219	19771.730469	50.213165
493.459930	727.126465	38156.230469	19544.437500	50.274540
493.812225	722.668274	37079.882813	19070.609375	50.465752
494.164490	721.405090	35593.457031	18314.728516	50.451073
494.516724	714.420654	33823.566406	17435.357422	50.502476
494.868896	716.798340	32044.236328	16483.835938	50.329800
495.221039	716.352539	30520.736328	15697.862305	50.266129
495.573120	723.708496	29204.908203	15053.062500	50.311623
495.925201	722.742615	28403.851563	14712.532227	50.539124
496.277222	726.606262	27862.703125	14489.179688	50.716846
496.629211	723.411316	27694.333984	14400.981445	50.712284
496.981140	717.838562	27590.828125	14328.313477	50.647415
497.333069	714.420654	27669.591797	14326.456055	50.498787
497.684967	718.061523	27755.632813	14341.167969	50.385838
498.036804	716.203918	27881.875000	14407.445313	50.399052
498.388580	716.724121	27865.453125	14433.081055	50.523018
498.740326	712.860352	27796.500000	14426.320313	50.633739
499.092072	717.392822	27621.443359	14342.581055	50.643631
499.443756	714.866455	27398.833984	14233.949219	50.663692
499.795410	717.838623	27162.771484	14112.612305	50.651569
500.147003	723.411316	26860.062500	13928.120117	50.521809
500.498566	725.937561	26520.275391	13746.449219	50.478176
500.850098	724.525818	26159.537109	13577.113281	50.531086
501.201599	717.689941	25856.455078	13461.497070	50.693844
501.553009	717.244141	25611.181641	13342.390625	50.715748
501.904449	714.420654	25427.431641	13219.270508	50.600266
502.255859	715.237976	25248.435547	13150.245117	50.686451
502.607178	721.776611	25168.634766	13118.219727	50.707718
502.958405	721.925232	25058.220703	13089.984375	50.821457
503.309692	718.655945	24992.093750	13029.129883	50.715824
503.660919	708.402161	24988.080078	13022.590820	50.718090
504.012115	713.751953	25023.968750	13046.592773	50.731102
504.363251	712.191589	25131.039063	13112.276367	50.780796
504.714294	725.194580	25144.931641	13135.829102	50.822147
505.065369	731.287354	25186.765625	13151.433594	50.786766
505.416443	746.073547	25222.281250	13170.157227	50.759842
505.767395	741.912659	25308.992188	13211.023438	50.755363
506.118317	734.036621	25310.181641	13239.406250	50.884178
506.469238	717.467102	25347.482422	13306.057617	51.110771
506.820160	711.671387	25294.205078	13327.901367	51.321930
507.170929	715.163635	25328.685547	13362.750000	51.384708
507.521729	717.021179	25350.304688	13355.022461	51.304573
507.872498	718.358704	25487.914063	13369.957031	51.077213
508.223236	711.299988	25671.812500	13424.570313	50.933533
508.573883	715.906799	25798.720703	13501.844727	50.974892
508.924500	716.872742	25937.369141	13604.085938	51.098175
509.275116	721.405090	26103.734375	13686.858398	51.080627
509.625702	722.148132	26354.953125	13805.445313	51.041222
509.976196	723.931335	26616.720703	13950.187500	51.080845
510.326660	723.114075	26853.447266	14071.374023	51.083389
510.677124	729.281250	27069.000000	14215.448242	51.200878
511.027557	737.305847	27267.611328	14311.594727	51.165222
511.377869	747.039551	27476.697266	14432.338867	51.198929
511.728180	741.838318	27641.726563	14490.887695	51.111919
512.078430	728.240967	27807.048828	14570.094727	51.116920
512.428650	714.346375	27950.232422	14645.958008	51.151672
512.778931	712.860352	28051.431641	14699.902344	51.162304
513.129028	720.141907	28105.451172	14740.768555	51.197624
513.479126	725.640381	28120.236328	14762.093750	51.238037
513.829285	725.714661	28119.271484	14773.312500	51.280663
514.179382	723.857117	28120.833984	14731.703125	51.129166
514.529297	724.600098	28101.437500	14716.620117	51.108971
514.879272	724.971680	28188.148438	14762.167969	51.112793
515.229187	720.810730	28098.687500	14749.610352	51.241371
515.579163	719.473206	28162.515625	14754.588867	51.142708
515.928955	714.420654	28141.787109	14751.022461	51.177357
516.278748	718.433044	28331.478516	14849.250000	51.174427
516.628540	722.519714	28513.447266	14990.127930	51.339085
516.978333	730.692932	28850.927734	15156.713867	51.301208
517.327942	726.309082	29278.244141	15408.004883	51.421017
517.677612	722.296814	29751.478516	15663.459961	51.469460
518.027222	717.615723	30272.634766	15940.161133	51.505787
518.376831	714.866455	30927.021484	16229.719727	51.353020
518.726379	709.145203	31560.080078	16532.949219	51.291164
519.075867	707.064697	32137.859375	16773.837891	51.117935
519.425293	721.033630	32574.833984	17028.845703	51.195812
519.774658	726.086243	32939.140625	17191.867188	51.115242
520.124084	727.423645	33140.277344	17311.494141	51.165104
520.473389	719.919006	33100.671875	17268.544922	51.106365
520.822693	717.689941	32885.496094	17180.052734	51.176517
521.171997	724.228577	32563.763672	17013.466797	51.160416
521.521240	727.720886	32195.146484	16837.886719	51.196327
521.870361	733.442139	31813.005859	16642.916016	51.189499
522.219482	725.343201	31458.507813	16482.125000	51.269638
522.568604	721.479431	31159.736328	16322.524414	51.254723
522.917664	721.182190	30966.031250	16214.563477	51.226509
523.266724	724.525879	30892.544922	16214.414063	51.345394
523.615662	721.628113	31038.697266	16320.741211	51.453239
523.964600	714.197754	31343.115234	16543.128906	51.679695
524.313538	714.792175	31822.294922	16774.953125	51.627937
524.662354	722.965393	32426.750000	17041.105469	51.470634
525.011169	731.584656	33165.019531	17401.623047	51.397697
525.359985	727.275085	34026.484375	17877.603516	51.503708
525.708740	716.798340	35049.484375	18453.822266	51.662205
526.057434	717.392822	36188.988281	19077.744141	51.760719
526.406067	716.055359	37543.378906	19819.804688	51.873848
526.754700	717.392761	39041.250000	20660.986328	52.039635
527.103333	709.962463	40785.730469	21644.083984	52.236355
527.451782	707.882019	42682.082031	22679.716797	52.346046
527.800293	715.535156	44673.394531	23790.095703	52.492458
528.148743	716.649719	46665.300781	24868.599609	52.562912
528.497131	724.005676	48548.207031	25974.744141	52.799076
528.845642	721.330811	50240.453125	26948.556641	52.963837
529.193909	722.593933	51714.988281	27883.656250	53.264927
529.542175	719.324646	52929.613281	28613.828125	53.427216
529.890503	718.061462	53747.761719	29216.349609	53.740242
530.238770	714.569153	54091.859375	29446.759766	53.828495
530.586914	710.705505	53936.050781	29394.898438	53.891983
530.934998	715.163635	53220.066406	28904.501953	53.688965
531.283142	722.222412	52070.457031	28158.205078	53.431210
531.631226	731.807434	50339.500000	27049.833984	53.052311
531.979248	721.479431	48384.296875	25838.921875	52.698193
532.327148	716.055359	46383.769531	24622.806641	52.349350
532.675110	712.414490	44704.234375	23642.607422	52.123764
533.023071	715.460876	43598.531250	23018.240234	52.008354
533.370850	722.296814	43032.199219	22688.857422	51.918251
533.718689	721.479431	43113.410156	22641.595703	51.708233
534.066467	725.640381	43370.277344	22755.353516	51.658813
534.414246	720.290527	43674.394531	22892.072266	51.617374
534.761963	713.677673	43782.433594	22990.005859	51.722710
535.109619	717.541443	43858.441406	23018.462891	51.693226
535.457153	713.603333	43577.730469	22913.843750	51.792118
535.804749	720.885010	43049.136719	22658.392578	51.827106
536.152344	715.386536	42200.902344	22238.507813	51.881050
536.499817	723.857117	41233.925781	21708.728516	51.801617
536.847229	712.191589	40214.937500	21140.611328	51.713924
537.194641	708.922302	39241.644531	20582.595703	51.576096
537.542114	705.281433	38556.648438	20222.599609	51.563046
537.889404	716.724060	38028.578125	19907.482422	51.433407
538.236694	719.696106	37663.976563	19693.119141	51.356861
538.583984	713.974854	37394.554688	19546.296875	51.341400
538.931213	712.340149	37239.488281	19532.849609	51.524715
539.278381	706.470276	37142.968750	19512.787109	51.613949
539.625488	713.231873	37049.343750	19482.619141	51.654911
539.972595	709.293762	37118.964844	19559.968750	51.773815
540.319641	714.272156	37422.488281	19751.298828	51.860401
540.666687	714.197754	37989.121094	20070.873047	51.929485
541.013611	717.169922	38936.781250	20489.419922	51.733261
541.360596	721.925293	40047.312500	21029.525391	51.639923
541.707458	719.250305	41359.273438	21688.962891	51.598675
542.054260	718.953125	42542.691406	22328.562500	51.668289
542.401062	724.897278	43758.730469	22965.335938	51.681290
542.747864	725.640381	44688.550781	23417.023438	51.614834
543.094666	728.686829	45237.875000	23722.630859	51.661118
543.441284	725.640442	45166.246094	23698.330078	51.693016
543.787903	724.451599	44637.503906	23430.767578	51.707443
544.134460	721.702332	43729.980469	22905.523438	51.580349
544.481079	715.089355	42489.042969	22259.609375	51.574051
544.827637	720.736328	40963.832031	21467.396484	51.553345
545.174072	718.210144	39281.101563	20585.345703	51.518791
545.520508	722.593933	37806.121094	19793.875000	51.427906
545.866943	719.547546	36607.390625	19113.333984	51.253532
546.213318	728.612488	35649.257813	18617.958984	51.228565
546.559631	731.213074	34834.597656	18177.863281	51.158123
546.905823	726.309082	34113.265625	17824.033203	51.210789
547.252136	720.141907	33584.828125	17514.935547	51.102852
547.598389	714.717957	33102.230469	17242.095703	51.030090
547.944458	719.696106	32790.160156	17030.554688	50.859440
548.290588	727.275085	32391.007813	16815.523438	50.809700
548.636658	732.550476	31993.490234	16604.281250	50.771763
548.982727	730.024231	31399.587891	16305.510742	50.784832
549.328735	723.857117	30821.365234	16008.223633	50.782829
549.674622	719.696106	30097.359375	15665.836914	50.875866
550.020569	723.708496	29439.556641	15333.034180	50.875484
550.366455	720.439209	28655.140625	14935.886719	50.888130
550.712280	711.151367	27985.822266	14585.252930	50.868080
551.058044	710.854187	27366.359375	14275.335938	50.888103
551.403748	713.528992	26865.708984	14052.428711	51.004925
551.749512	720.290588	26536.919922	13887.699219	51.003593
552.095154	713.603333	26311.115234	13778.622070	51.040192
552.440735	720.810730	26258.580078	13732.925781	50.952435
552.786316	717.615723	26213.033203	13697.484375	50.910595
553.131897	722.593994	26222.619141	13694.140625	50.868759
553.477417	717.838562	26203.744141	13700.083008	50.938915
553.822815	721.850891	26183.609375	13699.637695	50.969723
554.168213	724.302979	26139.843750	13703.354492	51.067383
554.513672	721.553711	26099.500000	13655.502930	50.965313
554.859009	724.005676	26024.156250	13607.354492	50.922024
555.204285	730.024231	25902.599609	13532.828125	50.860126
555.549500	736.711487	25727.093750	13420.706055	50.755501
555.894714	733.888000	25543.492188	13298.403320	50.643757
556.239990	728.909729	25280.906250	13148.683594	50.585594
556.585022	725.714661	25067.062500	13036.413086	50.575253
556.930115	724.525879	24788.130859	12878.742188	50.508709
557.275146	722.222473	24545.009766	12762.011719	50.538960
557.620178	719.176086	24307.093750	12655.834961	50.604973
557.965149	725.566101	24097.859375	12600.999023	50.809875
558.310059	718.210144	23937.216797	12520.008789	50.828182
558.654968	722.371094	23801.390625	12438.648438	50.765923
558.999756	712.637390	23680.650391	12357.360352	50.699738
559.344604	724.451477	23630.865234	12312.778320	50.589878
559.689331	717.987244	23534.568359	12277.039063	50.660751
560.033997	723.039795	23472.080078	12242.932617	50.639027
560.378723	718.804504	23404.017578	12247.762695	50.821468
560.723389	720.290588	23419.548828	12232.382813	50.715717
561.067932	713.974915	23480.552734	12237.731445	50.616993
561.412476	711.894348	23485.232422	12215.960938	50.515503
561.757019	714.494934	23448.525391	12214.401367	50.584545
562.101501	721.850891	23474.978516	12224.804688	50.555489
562.445862	727.200684	23472.970703	12236.543945	50.599930
562.790222	728.612488	23470.224609	12240.778320	50.621593
563.134644	731.658875	23417.541016	12254.747070	50.794090
563.478943	730.247070	23437.603516	12247.168945	50.718903
563.823181	727.572266	23450.384766	12273.323242	50.811275
564.167358	719.547546	23459.005859	12247.168945	50.694351
564.511536	712.637390	23491.322266	12277.039063	50.768520
564.855774	707.510559	23489.244141	12242.636719	50.633221
565.199768	713.751953	23581.306641	12263.144531	50.505585
565.543823	721.256531	23684.216797	12302.598633	50.434879
565.887817	726.234863	23905.787109	12408.925781	50.400848
566.231812	725.417480	24059.070313	12505.593750	50.485779
566.575745	726.903564	24239.330078	12586.879883	50.441315
566.919617	728.389648	24432.515625	12698.557617	50.498249
567.263428	727.869446	24647.400391	12800.129883	50.470306
567.607239	716.649719	24853.812500	12847.460938	50.257820
567.950989	716.798340	24939.187500	12888.030273	50.247864
568.294678	714.940857	25001.900391	12934.543945	50.313435
568.638367	713.900574	24929.751953	12911.286133	50.369427
568.981995	713.231750	24830.037109	12858.977539	50.362171
569.325623	712.191589	24679.203125	12747.078125	50.214382
569.669128	715.460938	24527.179688	12687.487305	50.277874
570.012573	712.191589	24396.109375	12594.534180	50.170513
570.356140	716.203918	24260.208984	12560.429688	50.306755
570.699524	714.940735	24196.013672	12521.867188	50.282742
571.042908	714.569336	24231.826172	12546.683594	50.312473
571.386230	713.008972	24330.500000	12581.456055	50.252789
571.729492	717.318542	24460.306641	12659.995117	50.299805
572.072815	726.086182	24589.369141	12722.929688	50.273232
572.416016	725.714661	24719.994141	12784.303711	50.256100
572.759094	728.761047	24844.302734	12846.346680	50.248035
573.102234	722.148193	24939.259766	12858.605469	50.115215
573.445374	719.473328	24999.595703	12863.063477	50.014530
573.788391	710.705566	25049.826172	12852.438477	49.885666
574.131409	711.374207	25078.208984	12874.581055	49.917061
574.474365	714.494934	25064.314453	12877.479492	49.951023
574.817261	724.823059	24950.703125	12831.856445	49.975616
575.160156	723.485657	24771.634766	12742.098633	49.977291
575.502930	717.838623	24602.968750	12629.233398	49.869495
575.845703	714.717957	24400.343750	12526.695313	49.869816
576.188477	722.965515	24179.888672	12410.784180	49.826733
576.531250	729.206848	23913.216797	12279.120117	49.818443
576.873901	727.126404	23688.599609	12142.476563	49.715237
577.216431	721.628113	23490.431641	12039.864258	49.709404
577.559082	723.337097	23289.072266	11936.210938	49.689827
577.901611	724.377258	23026.859375	11835.531250	49.820259
578.244080	726.309082	22751.640625	11685.512695	49.757267
578.586487	722.668274	22444.771484	11521.899414	49.715405
578.928955	764.723633	22162.865234	11502.135742	50.179184
579.271301	762.643127	21821.072266	11338.000000	50.219112
579.613647	759.819580	21434.402344	11138.274414	50.199104
579.955872	713.454651	21085.031250	10812.977539	49.576538
580.298157	715.832336	20765.974609	10640.669922	49.500088
580.640320	715.163757	20548.044922	10543.853516	49.557549
580.982483	718.581604	20296.531250	10437.897461	49.644196
581.324524	712.786072	20058.689453	10343.458984	49.781456
581.666626	716.129639	19880.361328	10246.418945	49.729565
582.008728	716.203918	19754.640625	10187.422852	49.747879
582.350647	718.210144	19643.113281	10129.020508	49.727127
582.692566	718.953125	19559.894531	10073.814453	49.651772
583.034424	726.383362	19495.548828	10014.668945	49.486935
583.376343	717.244141	19459.140625	9966.520508	49.350803
583.718201	720.959290	19375.029297	9945.344727	49.449722
584.059937	715.683777	19305.703125	9922.831055	49.527367
584.401611	721.107910	19219.736328	9897.864258	49.607761
584.743347	719.770447	19132.728516	9869.333008	49.690887
585.085022	710.928406	19015.775391	9802.757813	49.668968
585.426514	713.008972	18966.587891	9772.145508	49.629375
585.768127	702.978027	18893.548828	9693.904297	49.426300
586.109619	704.166809	18840.570313	9646.053711	49.303524
586.451172	707.436218	18766.490234	9584.828125	49.157566
586.792542	715.832458	18754.601563	9556.741211	49.010601
587.133850	721.330872	18695.603516	9534.451172	49.031857
587.475220	726.977844	18638.539063	9552.209961	49.271152
587.816589	732.104675	18572.783203	9531.405273	49.321560
588.157776	738.791992	18642.406250	9573.385742	49.345310
588.498962	734.928223	18723.468750	9578.809570	49.163971
588.840210	718.581726	18787.146484	9615.960938	49.242313
589.181335	714.049133	18815.306641	9614.326172	49.169388
589.522400	717.095520	18847.183594	9618.784180	49.098980
589.863403	728.538269	18908.482422	9644.195313	49.041172
590.204407	739.312073	18912.419922	9648.653320	49.024860
590.545410	734.556702	18989.767578	9674.289063	48.970852
590.886353	739.237793	18991.626953	9679.565430	48.981689
591.227112	727.572266	19005.150391	9664.926758	48.897915
591.567932	724.748718	18936.716797	9617.743164	48.830494
591.908752	717.021240	18858.478516	9584.678711	48.880623
592.249512	719.696106	18850.304688	9586.611328	48.905773
592.590149	717.467102	18766.193359	9553.545898	48.956802
592.930786	719.101746	18731.119141	9523.750977	48.882084
593.271423	715.386536	18614.910156	9444.469727	48.767124
593.612000	724.451477	18542.167969	9390.972656	48.639912
593.952576	725.863281	18481.314453	9352.706055	48.587009
594.292969	732.624817	18481.908203	9352.334961	48.563709
594.633484	724.748718	18497.289063	9384.285156	48.724243
594.973877	728.686768	18568.025391	9403.380859	48.626774
595.314209	716.872620	18664.398438	9473.670898	48.791115
595.654480	720.067627	18874.080078	9564.320313	48.717899
595.994812	712.265930	19041.556641	9673.695313	48.891304
596.335022	719.473328	19233.927734	9736.034180	48.700111
596.675171	719.919128	19371.982422	9797.631836	48.668682
597.015320	726.309082	19565.392578	9868.070313	48.525509
597.355408	726.309082	19714.593750	9935.090820	48.497173
597.695496	731.956055	19856.361328	9982.941406	48.372665
598.035461	728.389587	19919.445313	9978.855469	48.201962
598.375366	725.640381	19926.205078	9983.610352	48.217175
598.715271	718.284424	19885.562500	9950.323242	48.165627
599.055176	726.011902	19765.638672	9903.066406	48.199760
599.395081	722.965515	19600.166016	9821.629883	48.199223
599.734802	730.395691	19329.925781	9705.420898	48.254047
600.074524	723.411316	19013.025391	9556.666992	48.296570
600.414246	726.383362	18602.130859	9367.269531	48.338596
600.753906	718.878845	18198.146484	9179.209961	48.402092
601.093506	718.358704	17808.728516	9005.935547	48.492676
601.433044	719.473145	17564.865234	8888.909180	48.496559
601.772583	719.101746	17406.154297	8805.690430	48.460258
602.112122	720.067688	17364.173828	8767.498047	48.350033
602.451538	724.005676	17329.326172	8749.590820	48.331406
602.790894	720.885010	17364.396484	8774.854492	48.391048
603.130310	721.702332	17477.560547	8816.760742	48.311813
603.469604	715.312317	17678.474609	8885.713867	48.165558
603.808838	718.953125	17945.222656	8972.053711	47.909969
604.148010	710.928406	18239.386719	9106.541992	47.897041
604.487305	727.200684	18511.705078	9216.137695	47.732216
604.826416	733.293518	18744.423828	9311.914063	47.629547
605.165527	737.900330	18920.373047	9378.563477	47.521935
605.504456	720.141907	19116.826172	9458.141602	47.497692
605.843445	713.974854	19249.978516	9531.924805	47.572014
606.182434	716.055359	19339.662109	9565.435547	47.517002
606.521423	724.080078	19294.708984	9547.900391	47.514923
606.860229	731.584656	19137.556641	9509.485352	47.690498
607.199036	728.018066	18946.896484	9437.114258	47.802589
607.537903	725.268799	18760.322266	9339.034180	47.761246
607.876648	716.946960	18534.515625	9210.120117	47.667408
608.215271	723.039795	18198.445313	9067.235352	47.748219
608.553955	723.188477	17846.027344	8933.118164	47.947243
608.892578	728.315247	17574.304688	8785.033203	47.825729
609.231140	722.965515	17449.177734	8682.941406	47.589828
609.569641	721.256531	17360.087891	8615.994141	47.447666
609.908081	723.188416	17304.583984	8595.560547	47.477135
610.246521	722.371094	17280.658203	8590.731445	47.519169
610.584961	725.789001	17321.673828	8585.604492	47.360027
610.923340	721.627991	17359.419922	8605.295898	47.384102
611.261597	730.841553	17356.447266	8580.849609	47.216373
611.599854	721.479431	17274.044922	8560.490234	47.358280
611.938110	718.210144	17210.666016	8519.177734	47.300220
612.276245	715.089355	17022.826172	8451.933594	47.442783
612.614319	721.107910	16790.630859	8322.350586	47.302227
612.952393	714.569275	16469.123047	8146.475098	47.173065
613.290466	715.386658	16175.851563	8008.867188	47.175041
613.628479	716.872620	15848.176758	7863.308594	47.229481
613.966370	725.863281	15568.502930	7744.274902	47.285469
614.304260	724.154297	15320.776367	7600.127441	47.106606
614.642151	724.748779	15107.304688	7490.753906	47.043133
614.979980	725.714661	14902.598633	7405.009277	47.113983
615.317749	729.355469	14699.159180	7325.207520	47.215065
615.655396	730.024231	14608.359375	7289.914063	47.267124
615.993164	724.674500	14512.137695	7242.583496	47.274174
616.330811	722.371094	14456.411133	7236.119141	47.427765
616.668396	719.176025	14373.489258	7196.515625	47.438049
617.005859	722.593994	14347.187500	7162.187988	47.264484
617.343445	729.132629	14348.375000	7140.193848	47.073551
617.680908	734.333801	14375.718750	7125.407715	46.850624
618.018311	742.209900	14416.734375	7158.175293	46.919113
618.355652	730.915833	14450.393555	7163.302246	46.885067
618.692993	735.745544	14470.008789	7192.280762	47.010422
619.030273	732.179016	14470.676758	7173.259277	46.883438
619.367554	737.454407	14476.843750	7167.760254	46.801975
619.704712	724.748718	14466.516602	7161.444824	46.840382
620.041870	727.126404	14456.413086	7151.339355	46.792034
620.379028	724.600098	14406.926758	7136.775879	46.864662
620.716064	724.228577	14375.347656	7102.746094	46.725235
621.053040	714.792175	14327.050781	7077.408691	46.741814
621.389954	712.934570	14258.765625	7042.040527	46.723644
621.726929	715.163635	14162.618164	7002.585938	46.755486
622.063843	717.987244	14088.092773	6983.563965	46.862583
622.400635	714.123535	14051.684570	6954.883301	46.790863
622.737427	718.284424	14035.856445	6935.787598	46.686459
623.074219	717.615723	13998.781250	6906.586426	46.599602
623.410889	724.377197	13928.862305	6892.840332	46.714905
623.747559	719.324646	13874.769531	6851.527832	46.613422
624.084167	727.572205	13827.661133	6816.457520	46.479725
624.420715	726.011902	13809.085938	6781.015137	46.281197
624.757324	730.172852	13787.093750	6794.017578	46.441612
625.093750	723.262695	13843.340820	6784.878418	46.201065
625.430176	729.281250	13899.588867	6801.076660	46.102154
625.766602	737.900330	13938.448242	6807.541504	45.980221
626.102905	743.101563	13974.484375	6851.974121	46.169571
626.439209	744.290344	14036.007813	6898.859375	46.303787
626.775452	733.219238	14167.523438	6939.799316	46.199490
627.111694	723.559875	14232.909180	6958.969238	46.156250
627.447876	715.015137	14303.942383	6959.415527	45.952122
627.783997	713.306152	14352.387695	6998.572754	46.082767
628.120056	717.392761	14423.198242	7038.027832	46.116482
628.456055	719.027344	14488.734375	7068.566406	46.112377
628.792053	715.683777	14458.121094	7039.514160	46.016804
629.128052	713.157532	14384.932617	6993.149902	45.933990
629.463928	715.535217	14279.347656	6950.648438	45.968739
629.799744	721.925232	14197.317383	6917.509277	45.977020
630.135559	723.559875	14083.782227	6862.895996	45.952347
630.471375	715.015076	13957.692383	6782.352051	45.816540
630.807068	720.142029	13771.268555	6699.281250	45.813202
631.142700	729.281250	13648.593750	6628.396973	45.661221
631.478333	731.658936	13482.377930	6547.481934	45.611729
631.813965	723.485596	13364.905273	6478.899902	45.528225
632.149475	711.968689	13221.574219	6421.018066	45.637325
632.484924	714.197754	13116.881836	6387.953125	45.746193
632.820435	716.501038	13039.383789	6346.195313	45.684879
633.155884	718.730164	12962.554688	6304.363281	45.620007
633.491150	729.355469	12900.289063	6291.582520	45.700909
633.826477	727.200684	12847.312500	6263.496094	45.678585
634.161804	734.110840	12788.463867	6215.273926	45.470402
634.497009	725.491699	12729.691406	6155.906250	45.237625
634.832153	724.674377	12618.237305	6093.343262	45.139282
635.167297	718.804504	12542.225586	6055.746094	45.138725
635.502380	718.358704	12446.002930	6017.107910	45.181698
635.837463	726.903503	12387.006836	6000.539063	45.228035
636.172424	727.943787	12278.450195	5973.715332	45.415943
636.507324	722.073792	12200.877930	5924.973145	45.326145
636.842224	716.203918	12102.575195	5857.357910	45.151821
637.177124	715.758118	11998.997070	5813.667969	45.181259
637.511963	722.593933	11879.445313	5748.875488	45.051075
637.846741	721.627991	11756.176758	5721.829590	45.314056
638.181396	726.234802	11641.898438	5641.508301	45.029541
638.516113	728.835449	11537.950195	5611.564453	45.172329
638.850769	726.903564	11430.731445	5547.069824	45.032169
639.185303	720.885010	11349.295898	5516.159668	45.117508
639.519836	720.141907	11274.620117	5476.705078	45.066772
639.854370	720.810730	11189.692383	5433.832520	45.019344
640.188843	723.114075	11078.386719	5389.696777	45.064796
640.523254	717.169861	10956.085938	5341.102539	45.160374
640.857605	720.439209	10862.983398	5296.520996	45.117695
641.191895	716.501160	10794.031250	5245.920410	44.945728
641.526184	716.501160	10733.844727	5210.031738	44.857510
641.860413	710.779785	10692.161133	5173.921387	44.714672
642.194580	713.603333	10605.970703	5140.633301	44.751976
642.528748	716.501160	10542.886719	5102.516113	44.635078
642.862793	724.451477	10479.284180	5071.160645	44.559544
643.196838	727.795105	10452.386719	5054.219727	44.489525
643.530823	728.018066	10388.932617	5024.943848	44.477425
643.864746	725.268860	10319.384766	4997.526855	44.529976
644.198669	722.148132	10255.485352	4992.474121	44.793613
644.532532	724.748779	10196.117188	4979.619629	44.923512
644.866333	728.018066	10164.315430	4962.158203	44.870781
645.200073	733.293518	10131.027344	4929.985840	44.656433
645.533813	728.835388	10096.922852	4915.496582	44.690670
645.867554	725.045898	10064.898438	4898.406738	44.683369
646.201172	718.358704	10048.551758	4879.459473	44.598225
646.534729	726.383484	10089.864258	4875.149902	44.307953
646.868225	723.485657	10096.848633	4888.376465	44.433258
647.201782	725.789063	10097.071289	4893.131348	44.469284
647.535217	723.039795	10098.779297	4890.382324	44.448151
647.868591	734.408142	10112.600586	4895.509277	44.369968
648.201965	737.751709	10150.124023	4900.339355	44.224644
648.535278	737.231628	10135.633789	4899.447266	44.286419
648.868591	728.909729	10139.497070	4887.930176	44.195122
649.201782	722.519714	10101.826172	4868.165527	44.199921
649.534912	718.210144	10081.245117	4842.753906	44.051357
649.868103	716.426819	10013.925781	4826.927246	44.210819
650.201172	717.912903	9971.424805	4798.320801	44.095779
650.534180	717.541443	9941.480469	4779.299316	44.034958
650.867188	725.045959	9912.949219	4757.826172	43.892281
651.200134	725.120300	9872.007813	4741.925293	43.914444
651.533020	724.154297	9806.472656	4726.470215	44.067116
651.865845	726.531982	9763.526367	4695.857422	43.923073
652.198608	733.813660	9727.266602	4675.646973	43.830032
652.531433	742.432800	9688.257813	4653.355957	43.717857
652.864136	731.510315	9663.291992	4635.226074	43.705906
653.196777	1345.102173	10317.602539	5259.740723	43.629295
653.529358	1369.027466	10284.016602	5262.044434	43.668221
653.861938	1371.851074	10223.534180	5227.047852	43.553261
654.194519	751.200500	9449.671875	4549.035156	43.660942
654.526978	720.959412	9408.433594	4499.995605	43.499825
654.859375	717.169922	9342.155273	4483.648926	43.669395
655.191833	717.764343	9319.195313	4463.810059	43.551426
655.524170	713.306152	9261.313477	4424.355469	43.414200
655.856445	721.033691	9219.110352	4401.024902	43.303814
656.188660	748.302734	9201.648438	4404.517090	43.251682
656.520874	753.058105	9148.299805	4397.086426	43.405876
656.853088	746.816589	9141.537109	4382.448730	43.308552
657.185181	719.919128	9105.797852	4357.333984	43.375473
657.517212	717.764343	9140.051758	4364.541504	43.299129
657.849243	729.429871	9158.330078	4376.355957	43.266926
658.181274	734.408020	9214.428711	4387.353027	43.077080
658.513123	731.361633	9262.206055	4388.393066	42.868340
658.844971	721.702332	9343.195313	4405.334473	42.726151
659.176819	715.238037	9426.414063	4442.262695	42.784405
659.508667	714.792175	9509.782227	4482.460449	42.838799
659.840393	713.231873	9559.788086	4511.512695	42.935131
660.172058	712.785950	9608.382813	4530.014160	42.911434
660.503662	719.621826	9661.062500	4534.769531	42.668156
660.835266	721.330811	9709.359375	4557.208984	42.677639
661.166931	722.148132	9681.644531	4540.787598	42.621140
661.498413	724.525818	9632.159180	4536.701172	42.796722
661.829773	726.680603	9528.803711	4491.599609	42.772850
662.161194	727.572266	9425.597656	4456.528809	42.871300
662.492615	721.256531	9290.811523	4405.111328	42.987701
662.823975	729.132629	9148.001953	4351.241699	43.023701
663.155212	730.470032	8983.644531	4291.130371	43.142918
663.486450	731.064514	8814.085938	4220.097168	43.164955
663.817627	722.073792	8679.152344	4144.605469	43.012417
664.148743	719.027405	8549.567383	4076.618896	42.878162
664.479858	720.513489	8419.463867	4031.071289	43.000122
664.810913	720.513489	8315.514648	3980.768311	42.926327
665.141907	722.742493	8229.917969	3956.694092	43.078144
665.472778	725.120178	8173.076172	3920.805908	42.906883
665.803711	727.943787	8125.002441	3904.979492	42.949986
666.134583	724.748718	8085.770996	3864.187500	42.649494
666.465454	726.754883	8063.109375	3826.070313	42.245987
666.796143	727.349304	7998.687988	3798.132080	42.231323
667.126831	727.720886	7996.830566	3789.215820	42.116505
667.457458	727.200745	7951.505371	3790.107422	42.397251
667.788147	724.302917	7939.021973	3766.999268	42.173454
668.118774	725.343079	7880.917969	3753.996338	42.325787
668.449219	724.302917	7887.605469	3745.600342	42.177437
668.779663	729.727051	7885.524902	3745.302979	42.141716
669.110107	734.110840	7875.493652	3732.522705	41.986431
669.440552	727.052063	7826.008301	3719.742920	42.156776
669.770874	724.674500	7799.779297	3714.393311	42.256882
670.101135	720.067688	7791.753906	3698.864014	42.122860
670.431396	723.411316	7783.433105	3673.155029	41.780941
670.761597	722.519714	7736.622559	3631.248047	41.469711
671.091797	721.479431	7677.552246	3619.731201	41.665058
671.421875	717.169861	7616.919922	3598.406250	41.758560
671.751892	715.386536	7584.003906	3597.366211	41.958660
672.081909	714.940735	7572.636230	3571.731689	41.658180
672.411865	718.878845	7543.509277	3550.481201	41.490925
672.741821	719.919128	7490.754395	3520.388672	41.360767
673.071716	717.689941	7448.921875	3499.658203	41.329258
673.401550	719.621826	7420.092285	3480.636719	41.206284
673.731262	713.529053	7399.659668	3483.534424	41.429123
674.060974	718.210144	7312.205078	3442.964844	41.321758
674.390625	714.494934	7268.292480	3432.636963	41.474308
674.720276	721.182190	7229.283203	3403.584717	41.216362
675.049927	720.290527	7207.661621	3422.977539	41.660744
675.379395	723.114075	7173.407715	3419.857422	41.808075
675.708923	720.216309	7119.761230	3398.235107	41.847019
676.038330	726.309082	7089.891113	3366.136475	41.483356
676.367737	730.990173	7051.031250	3334.854736	41.200119
676.697083	738.049011	7018.189453	3336.934814	41.382603
677.026428	749.937317	6980.592285	3324.155029	41.315365
677.355652	745.256348	6934.078613	3302.533203	41.320896
677.684875	745.627869	6943.812500	3295.845703	41.144592
678.013977	729.652649	6933.335938	3281.654053	41.136875
678.343079	730.024170	6956.071777	3286.706299	41.064285
678.672180	723.336975	6926.722656	3268.799561	41.033440
679.001221	716.946960	6973.979980	3270.211670	40.806316
679.330139	715.163757	6996.790527	3279.499268	40.822792
679.659058	716.203918	7044.566406	3291.536133	40.695084
679.987976	719.993347	7046.572754	3317.913330	41.063576
680.316772	715.832458	7090.411621	3333.665771	41.066761
680.645630	711.448547	7123.179199	3336.414795	40.940060
680.974304	720.141907	7189.011719	3345.405518	40.583035
681.302979	724.525818	7207.884277	3350.532471	40.503799
681.631653	723.188416	7236.861816	3360.117432	40.482979
681.960266	715.015137	7254.545410	3357.145752	40.402454
682.288757	717.987244	7276.613281	3349.121094	40.117149
682.617249	720.216309	7282.929688	3359.225830	40.212170
682.945679	722.965515	7261.232910	3347.634766	40.143188
683.274109	722.891174	7239.388184	3339.907227	40.159859
683.602478	727.052063	7192.355469	3313.083984	39.998619
683.930725	728.686768	7116.863281	3299.486572	40.243092
684.259033	725.566101	7032.381348	3283.957275	40.565498
684.587280	722.148132	6962.981934	3254.087646	40.570530
684.915344	721.850891	6906.363281	3228.824951	40.536327
685.243469	727.275085	6849.596191	3201.110107	40.406815
685.571533	730.544373	6776.928223	3173.023438	40.395699
685.899536	724.748718	6705.597656	3127.995850	40.182373
686.227539	717.541321	6627.505859	3086.238037	40.079712
686.555420	715.535156	6603.654785	3073.309326	40.042904
686.883301	712.786072	6589.313965	3081.705322	40.311546
687.211121	720.216309	6574.453613	3067.439453	40.094433
687.538940	725.194580	6548.818848	3050.721436	39.932640
687.866638	730.544434	6535.815918	3021.148438	39.457310
688.194336	723.634216	6539.679199	3019.216797	39.469822
688.521973	719.101746	6540.645996	3004.727783	39.261505
688.849609	723.114075	6531.357910	3011.340576	39.396187
689.177063	720.587830	6532.621094	3012.678467	39.436985
689.504578	718.655945	6494.206543	3011.192139	39.693810
689.832031	715.312317	6466.490723	2982.288330	39.417595
690.159485	721.702332	6384.386719	2943.725342	39.239746
690.486816	728.166687	6310.753418	2908.802979	39.061394
690.814087	729.949951	6236.524902	2888.295654	39.195789
691.141296	730.470032	6134.878418	2858.500000	39.375820
691.468506	727.869385	6032.563965	2824.915283	39.531891
691.795715	720.364807	5894.286621	2775.206787	39.715366
692.122803	725.937561	5824.292969	2742.141846	39.546169
692.449829	718.284424	5768.492188	2707.739990	39.393536
692.776855	718.135803	5720.566406	2681.659424	39.251392
693.103821	710.036865	5652.951172	2647.703125	39.200890
693.430664	712.786072	5572.480469	2619.616699	39.237663
693.757568	721.182190	5517.273438	2594.948242	39.068607
694.084351	719.621887	5463.775879	2560.397461	38.800926
694.411133	725.120300	5415.256348	2541.004639	38.717091
694.737854	720.141907	5360.792480	2528.893066	38.976246
695.064575	725.863281	5333.375000	2531.344971	39.185612
695.391174	722.371094	5330.849121	2521.834229	39.046799
695.717773	725.937561	5303.356934	2508.534180	38.943268
696.044250	721.627991	5279.951660	2489.735596	38.788551
696.370789	717.615540	5250.750488	2475.618164	38.781170
696.697205	717.467041	5273.858398	2477.772949	38.633770
697.023621	719.324524	5319.852051	2495.977295	38.618462
697.349915	726.903503	5384.718262	2525.475098	38.614063
697.676208	722.593994	5457.312012	2542.193115	38.430996
698.002380	722.891113	5511.850098	2563.963867	38.444111
698.328674	720.884949	5598.338379	2592.719238	38.377285
698.654724	723.559875	5688.318848	2616.273193	38.122967
698.980896	726.234863	5786.250000	2653.127197	38.080761
699.306946	726.680664	5867.611816	2678.612793	37.968456
699.632935	729.875671	5940.650879	2704.247314	37.890167
699.958862	722.519714	5995.932129	2717.399170	37.829002
700.284729	720.142029	6013.467285	2724.531982	37.866367
700.610596	714.569275	5989.244629	2722.005615	38.058006
700.936340	712.414551	5913.529785	2689.312744	38.009121
701.262146	710.631287	5797.469238	2635.145996	37.833221
701.587830	711.745789	5660.158203	2586.180420	37.879513
701.913513	708.922180	5525.595703	2539.072510	37.996151
702.239075	712.265869	5391.776855	2495.010986	38.096828
702.564697	713.528992	5268.954590	2440.769775	37.916119
702.890137	721.405090	5120.869629	2384.151367	37.794289
703.215698	715.163757	4998.492676	2339.792725	37.929115
703.541016	708.773621	4888.673340	2284.363037	37.694427
703.866455	712.191589	4824.624512	2250.406494	37.404011
704.191711	722.668274	4759.163574	2222.914307	37.167046
704.517029	726.532043	4677.579102	2208.351318	37.504471
704.842163	731.213074	4623.263672	2186.357666	37.387608
705.167419	729.132568	4572.143555	2153.738525	37.070045
705.492493	735.894226	4547.103516	2134.494385	36.697018
705.817566	724.302917	4484.020996	2116.587158	37.031612
706.142578	725.343201	4457.123047	2113.094971	37.187397
706.467590	722.668274	4429.705566	2105.441895	37.301315
706.792480	724.451477	4427.401855	2108.859863	37.386631
707.117371	721.627991	4429.036621	2104.550049	37.301582
707.442200	727.497864	4436.838379	2106.333740	37.171997
707.766907	726.829163	4446.646484	2091.918701	36.697758
708.091675	719.250305	4421.829102	2095.411133	37.167633
708.416321	710.928467	4397.978027	2088.278076	37.356419
708.741028	714.346375	4399.241211	2087.386475	37.261311
709.065552	719.696106	4425.172852	2073.417480	36.532990
709.390137	722.073914	4463.438965	2070.370850	36.037567
709.714600	723.039795	4480.454590	2081.144775	36.144665
710.039063	725.640381	4507.277344	2101.132568	36.372932
710.363403	726.754944	4538.187012	2133.899902	36.919064
710.687744	722.742615	4583.437500	2146.754150	36.884850
711.012085	725.789001	4619.103027	2150.915039	36.604446
711.336304	721.553711	4655.957031	2162.729248	36.630093
711.660461	722.742493	4700.910156	2172.685791	36.447517
711.984619	722.668274	4731.374512	2191.930420	36.651779
712.308716	728.240906	4767.039551	2181.379150	35.979465
712.632751	727.943665	4769.863281	2191.707275	36.214565
712.956726	720.884949	4776.401855	2180.859131	35.999706
713.280701	724.525879	4743.931641	2175.212158	36.092060
713.604553	724.080078	4706.037109	2160.277344	36.067623
713.928467	725.863281	4656.180176	2134.940186	35.851482
714.252258	722.371094	4577.567383	2107.151123	35.919830
714.575989	721.182190	4518.348145	2079.064209	35.760410
714.899719	723.485657	4437.878418	2054.767334	35.841167
715.223267	720.439148	4388.987793	2041.690063	36.015633
715.546936	726.457703	4331.997559	2023.783203	35.981449
715.870422	724.377258	4301.607422	2019.696655	36.210121
716.193970	724.005676	4279.762207	1994.136353	35.720406
716.517395	721.627991	4262.970215	1969.393433	35.234249
716.840820	722.222412	4225.893066	1946.954102	34.955673
717.164124	720.439148	4169.645996	1945.468140	35.516254
717.487488	717.021240	4119.045898	1940.192749	35.954224
717.810730	716.501160	4096.383301	1930.830444	35.928158
718.133972	714.197754	4067.256592	1901.406616	35.406742
718.457092	715.758118	4029.362305	1876.515259	35.030045
718.780212	713.454773	3969.548828	1843.524780	34.706310
719.103210	715.758118	3912.781250	1816.181519	34.420250
719.426208	712.637390	3836.621094	1801.543579	34.856335
719.749207	722.965515	3797.983398	1791.958618	34.763805
720.072083	722.965515	3753.402100	1774.126099	34.686771
720.394958	729.132629	3716.696533	1750.275024	34.179768
720.717773	718.507324	3643.508545	1725.309204	34.420563
721.040527	720.216309	3610.666748	1716.318481	34.461830
721.363281	718.135803	3577.007568	1715.872681	34.899670
721.685913	721.107910	3556.574219	1721.148315	35.268993
722.008545	720.885010	3532.722900	1713.420776	35.298470
722.331055	715.312317	3495.719971	1697.296997	35.318008
722.653503	711.745789	3465.404541	1675.452026	34.997303
722.976013	709.442383	3442.890625	1667.575806	35.052189
723.298401	713.751953	3441.181641	1662.820679	34.797184
723.620789	713.826233	3428.550537	1661.705933	34.916241
723.943115	712.340149	3417.925049	1661.483032	35.080875
724.265381	715.758118	3393.776611	1659.179810	35.228348
724.587585	720.290527	3382.185547	1659.922852	35.299377
724.909790	720.736328	3366.730469	1648.925903	35.079048
725.231873	719.250305	3370.148438	1640.529907	34.753490
725.553894	725.343201	3385.529297	1632.951050	34.118210
725.875916	932.424866	3603.310547	1837.952148	33.903633
726.197937	939.855164	3617.130615	1844.490845	33.789413
726.519775	928.189636	3614.307373	1841.815918	34.012890
726.841675	714.717834	3401.578857	1628.269897	34.000717
727.163513	704.612732	3411.757813	1626.635132	34.058849
727.485291	713.454773	3416.959229	1636.368774	34.137691
727.806946	735.968445	3463.472656	1659.328247	33.853653
728.128662	739.386414	3480.562500	1660.442871	33.600777
728.450256	743.770203	3511.323486	1650.932129	32.778481
728.771790	734.928223	3512.438232	1649.000366	32.909771
729.093323	742.507080	3528.413086	1641.421387	32.266499
729.414795	734.185120	3534.803467	1660.740112	33.083942
729.736145	731.807434	3525.812500	1655.390259	33.055874
730.057495	723.782776	3518.010986	1657.767944	33.425514
730.378845	718.210144	3515.930420	1651.675171	33.365204
730.700134	720.810730	3505.082275	1656.356323	33.601089
731.021301	725.491699	3506.791260	1661.111694	33.639671
731.342468	734.408142	3502.555908	1651.526733	33.131130
731.663574	733.962341	3514.147217	1643.947632	32.731110
731.984680	728.166687	3503.224609	1640.827148	32.887981
732.305664	724.005676	3506.271484	1645.508179	33.120575
732.626648	718.878845	3522.171875	1652.641113	33.309479
732.947571	709.219421	3550.778564	1643.278931	32.871372
733.268433	712.860291	3569.205811	1648.554565	32.758442
733.589233	715.758118	3569.874268	1636.591797	32.263355
733.909973	731.584656	3550.629883	1641.644165	32.282543
734.230713	731.956055	3517.342529	1623.217163	31.997753
734.551331	732.476257	3468.153564	1615.564087	32.280411
734.871948	727.720886	3421.268799	1599.737671	32.374283
735.192505	725.194580	3373.417969	1578.486938	32.221313
735.513062	727.052063	3332.402588	1557.236328	31.864590
735.833435	723.114075	3281.579834	1539.626587	31.914146
736.153931	719.993347	3234.620361	1525.286255	32.024349
736.474304	715.758057	3185.803467	1512.357788	32.250408
736.794617	724.451477	3155.933838	1501.435181	31.955143
737.114807	726.829285	3131.414063	1500.617798	32.179714
737.434998	723.262695	3116.479248	1493.410522	32.180450
737.755188	716.649719	3117.816406	1495.490845	32.435944
738.075256	717.244141	3117.816406	1485.682739	32.010643
738.395325	715.609558	3112.466797	1490.066772	32.311363
738.715271	717.912903	3114.770264	1485.980103	32.044758
739.035278	714.717834	3128.813232	1495.342285	32.336105
739.355164	714.569275	3157.568359	1489.026489	31.701086
739.675049	711.448547	3161.432373	1486.054321	31.616770
739.994873	717.615723	3158.014404	1493.856323	31.807941
740.314636	723.114075	3147.686279	1500.914917	32.079922
740.634277	729.132568	3138.398438	1493.261719	31.716265
740.953979	727.052063	3128.292969	1477.583862	31.255997
741.273499	734.482361	3122.200195	1467.701538	30.707951
741.593140	732.847839	3096.714600	1462.871948	30.882626
741.912598	733.888000	3059.563232	1451.875366	30.872210
742.232117	723.114197	3002.870117	1440.506836	31.467958
742.551453	718.804504	2938.524170	1433.745239	32.208603
742.870850	715.015137	2907.985596	1416.655762	31.994987
743.190063	708.996582	2866.598877	1402.984009	32.164753
743.509338	710.779785	2857.088135	1382.848022	31.312754
743.828552	719.844727	2823.875000	1368.953247	30.850721
744.147705	732.624817	2804.630127	1358.550903	30.208710
744.466797	736.191406	2771.045654	1354.018433	30.362225
744.785828	731.956055	2737.238281	1351.046265	30.872971
745.104858	730.321472	2714.873047	1337.151733	30.577703
745.423706	729.801331	2694.736816	1328.086792	30.448095
745.742615	733.516418	2687.009277	1319.987915	30.021685
746.061401	744.959045	2670.959961	1324.817505	30.106863
746.380249	741.095398	2670.662598	1312.483276	29.612230
746.698975	728.315247	2658.476807	1307.059204	29.984222
747.017639	713.974854	2644.582764	1300.074707	30.358305
747.336304	711.894348	2621.771484	1302.006470	30.897909
747.654907	719.621826	2612.855225	1309.065430	31.134228
747.973389	721.925293	2613.969971	1309.213989	31.039896
748.291931	721.776672	2615.604492	1309.288208	31.022436
748.610352	712.265930	2606.465088	1297.919922	30.918289
748.928711	713.751953	2623.703369	1293.387451	30.348181
749.247070	724.005798	2630.985107	1295.542114	29.970768
749.565308	731.287415	2623.554688	1293.907593	29.732595
749.883545	724.525879	2588.483887	1286.625977	30.156263
750.201782	715.683838	2570.725342	1276.297852	30.221104
750.519836	716.946960	2571.096924	1267.753052	29.706665
750.837952	718.433044	2554.527588	1268.050171	29.934032
751.155884	721.925232	2537.660889	1267.604370	30.052786
751.473877	712.934570	2521.016846	1267.530029	30.673132
751.791809	714.940735	2514.998535	1257.202026	30.124659
752.109619	712.191589	2510.317627	1249.548950	29.884300
752.427490	718.358704	2504.224609	1241.821411	29.311422
752.745300	724.748718	2511.803467	1241.375610	28.909407
753.062988	729.429871	2511.060547	1236.768799	28.476101
753.380615	731.213074	2498.503418	1240.261108	28.803873
753.698303	722.445313	2485.351807	1245.016479	29.642591
754.015808	721.850891	2474.429443	1253.784058	30.351458
754.333374	725.863281	2477.846924	1250.217407	29.929169
754.650757	726.903503	2475.097900	1240.632446	29.386261
754.968262	722.148132	2479.110352	1235.951416	29.243845
755.285583	716.872742	2474.132080	1231.567505	29.289631
755.602905	722.445313	2465.215576	1242.564331	29.844381
755.920105	725.343079	2443.147705	1229.561401	29.352482
756.237305	729.727051	2424.126221	1226.440552	29.315023
756.554443	731.361633	2416.398682	1212.843262	28.573948
756.871582	727.795166	2417.141846	1217.450073	28.984869
757.188599	727.275085	2409.414307	1214.180786	28.945625
757.505615	727.497864	2421.822754	1210.985718	28.535721
757.822510	729.875671	2434.082764	1211.654419	28.269966
758.139465	725.789063	2465.587158	1217.895874	28.285282
758.456238	718.061523	2472.348633	1223.765869	28.826773
758.773010	720.513489	2478.515869	1230.675903	29.019438
759.089783	732.030334	2491.296143	1228.669800	28.229927
759.406433	737.008789	2504.967773	1227.332397	27.733879
759.723145	731.287415	2508.757080	1216.558472	27.301228
760.039673	727.349304	2514.404053	1219.976440	27.566427
760.356201	728.463867	2516.113037	1217.672974	27.366058
760.672668	736.562805	2520.348389	1225.771851	27.425327
760.989136	727.795166	2511.951904	1224.137329	27.819426
761.305481	716.649719	2506.304932	1226.366455	28.481281
761.621826	710.705566	2515.221436	1226.515015	28.584368
761.938049	720.216309	2533.648682	1235.134155	28.394653
762.254333	733.070618	2553.190186	1236.991699	27.686152
762.570496	731.807434	2590.118408	1238.403442	27.261099
762.886597	721.107910	2643.095947	1246.130981	27.316668
763.202637	716.723938	2734.117188	1274.663208	27.656445
763.518677	715.906738	2846.760010	1311.666016	27.958719
763.834656	719.250305	2981.619873	1342.055786	27.528900
764.150574	717.021301	3111.575195	1378.315430	27.616589
764.466370	721.330750	3220.800049	1399.863281	27.147064
764.782288	719.027405	3278.384766	1414.649414	27.179558
765.097961	724.154297	3312.118408	1412.123169	26.583401
765.413696	725.937500	3282.917236	1401.795044	26.431870
765.729309	732.699036	3219.834229	1380.841797	26.059813
766.044861	728.463867	3099.612061	1354.910034	26.419529
766.360474	723.708496	2950.709717	1328.086792	27.138660
766.675903	723.708496	2797.868896	1296.805298	27.630302
766.991394	720.959290	2659.962891	1256.830566	27.636425
767.306763	727.720764	2558.762451	1219.902100	26.879854
767.622131	722.148132	2479.407471	1199.617554	27.171257
767.937378	725.863281	2415.804443	1174.131714	26.525682
768.252625	725.417480	2356.139404	1162.614746	26.810043
768.567810	723.485535	2308.883057	1145.376465	26.611052
768.882996	726.754883	2265.787354	1145.525024	27.209961
769.197998	728.686768	2229.081787	1132.596313	26.920214
769.513062	729.578430	2183.459717	1129.698608	27.520828
769.828064	728.909668	2143.039063	1111.940308	27.085968
770.142944	724.302979	2117.850342	1097.079712	26.750202
770.457825	724.748718	2097.045898	1085.488403	26.287287
770.772705	717.021240	2072.897217	1078.281128	26.644022
771.087402	722.296692	2055.807617	1074.417358	26.405531
771.402100	724.823059	2026.160767	1067.061279	26.298956
771.716736	730.841614	2004.464478	1060.597046	25.891138
772.031372	726.903503	1976.229492	1057.996338	26.501719
772.345947	725.120300	1967.090210	1045.587769	25.803158
772.660461	720.141907	1944.204956	1044.696289	26.514517
772.974854	719.696106	1933.802612	1039.123535	26.309673
773.289246	716.575439	1914.632446	1040.238159	27.015636
773.603638	713.826233	1901.703735	1029.241211	26.552822
773.917908	704.464050	1886.026001	1022.628235	26.927422
774.232178	706.395935	1873.691772	1016.832703	26.594522
774.546265	708.402100	1862.992188	1017.650085	26.784224
774.860474	715.683777	1851.846680	1020.473572	26.826242
775.174561	720.587830	1846.942749	1014.009277	26.050531
775.488586	724.377258	1846.125366	1011.260071	25.574621
775.802551	725.045959	1828.367065	996.993958	24.648129
776.116516	725.045959	1816.478516	995.284973	24.760027
776.430359	725.863281	1814.323853	986.665833	23.960680
776.744202	728.463867	1813.358032	991.569824	24.251762
777.057922	724.823059	1798.571777	985.922852	24.316656
777.371704	727.349365	1778.955688	981.687683	24.185698
777.685303	728.018066	1767.661743	968.238831	23.106068
777.998962	732.624817	1750.646362	960.437012	22.377935
778.312500	732.030457	1737.643188	965.563782	23.222988
778.626038	728.315247	1727.315430	969.947754	24.187433
778.939453	728.018066	1740.392578	982.059082	25.093580
779.252869	732.030457	1753.767212	983.545166	24.616390
779.566223	725.194580	1755.104492	987.483215	25.467144
779.879578	723.782898	1749.903320	983.322266	25.293268
780.192749	713.974792	1730.807617	977.526611	25.918894
780.505920	719.919006	1734.745605	975.669006	25.201349
780.819031	719.547546	1728.950195	981.390320	25.940369
781.132141	742.804382	1748.120117	1002.789551	25.861046
781.445190	748.822815	1733.036743	1003.160950	25.841753
781.758118	753.801086	1729.321655	989.266418	24.137403
782.071045	739.609192	1707.402222	966.826965	23.477930
782.383911	727.720886	1684.665527	950.777649	23.309265
782.696838	719.993347	1661.111694	945.725037	23.985474
783.009583	708.253601	1640.827148	947.656921	25.671253
783.322266	712.785950	1639.043823	952.858093	25.918499
783.634888	713.083191	1631.910645	953.006653	26.111917
783.947510	718.210144	1619.873657	939.112122	24.499380
784.260132	714.569275	1609.174194	932.201965	24.327240
784.572571	715.609558	1601.520874	926.034851	23.752411
784.885010	718.284424	1592.233032	934.876892	24.783205
785.197449	726.754883	1586.437500	932.201965	23.898016
785.509766	735.522644	1585.248657	928.412415	22.700232
785.822083	739.163391	1582.573608	915.335205	20.888035
786.134277	739.609314	1574.994751	921.279480	21.746868
786.446533	731.658875	1568.158813	930.047180	23.716476
786.758606	726.011902	1573.806030	930.121521	24.075375
787.070740	731.064514	1583.167969	939.112122	24.415768
787.382690	730.544373	1588.071899	935.842834	23.940742
787.694641	725.863281	1591.787109	939.557922	24.678226
788.006653	710.556946	1602.858398	934.951172	25.147804
788.318481	718.135803	1629.384399	935.991394	23.907372
788.630310	718.210144	1657.545044	936.437195	23.232082
788.942017	724.525879	1671.216797	932.647766	21.984142
789.253784	717.021301	1684.665527	941.564148	23.205103
789.565430	724.005676	1687.786133	941.712708	22.588861
789.877014	722.668274	1683.476685	941.266907	22.751532
790.188538	719.919006	1668.467407	938.889160	23.084763
790.500061	714.272034	1652.046753	936.734375	23.722364
790.811462	712.785950	1646.325317	937.774658	24.100613
791.122925	711.151367	1625.223511	930.047180	23.947323
791.434204	715.535156	1602.858398	929.378418	24.099815
791.745483	719.844788	1574.251831	918.455994	23.245502
792.056702	715.683777	1552.852539	905.824463	22.712349
792.367920	722.593933	1533.088013	898.988586	21.763842
792.678955	720.587830	1529.075684	895.867859	21.679983
792.990112	722.965515	1513.174805	901.217712	22.557592
793.301086	710.408386	1499.131714	894.604736	23.353735
793.612122	714.495056	1476.617798	900.251770	24.373596
793.922974	714.940735	1472.902832	896.016541	23.889824
794.233826	722.445313	1475.800659	889.700745	22.201399
794.544556	719.473328	1477.212524	883.607910	21.661091
794.855286	721.925293	1471.639648	879.521301	21.020807
795.166016	718.581543	1470.896484	893.936035	23.308655
795.476624	720.513489	1476.395020	897.651184	23.434584
795.787292	725.120300	1491.478516	899.583008	22.765165
796.097778	728.835449	1504.481445	894.901917	21.410086
796.408264	732.179016	1520.902466	893.341553	20.433338
796.718689	730.098572	1530.413208	895.793518	20.703726
797.029053	728.018066	1542.821777	904.635559	21.676079
797.339355	721.999512	1535.019897	905.452942	22.564432
797.649658	723.262695	1538.214966	909.465332	22.848288
797.959839	717.244141	1519.639160	899.954590	22.770636
798.270020	712.934570	1520.828125	901.069092	23.287043
798.580078	715.758118	1513.843628	901.886414	23.321848
798.890137	729.652771	1506.784790	902.480774	22.239208
799.200195	728.761047	1484.716919	899.805969	22.626310
799.510071	727.349304	1457.299194	890.963928	22.414501
799.820007	714.940735	1438.872070	878.926819	22.652161
800.129883	717.838562	1441.175415	880.338623	22.465338
800.439575	716.278259	1436.791626	879.149719	22.604919
800.749329	717.392761	1436.717407	882.196228	22.910860
801.058960	720.736328	1426.537964	879.372742	22.476063
801.368591	723.559875	1414.352417	876.697815	22.168442
801.678162	727.200684	1407.739258	867.632874	20.635448
801.987671	731.361633	1395.479492	863.620544	19.914976
802.297119	730.692932	1397.188354	866.964172	20.445938
802.606506	725.194519	1392.804565	873.205566	22.170284
802.915894	717.095520	1393.250366	877.069336	23.659346
803.225159	713.603271	1374.674438	870.827881	23.783310
803.534424	715.832336	1372.073853	875.954773	24.399925
803.843628	713.751953	1370.290649	864.586426	22.974194
804.152771	721.479431	1379.504272	855.893066	20.426832
804.461792	724.674500	1383.813843	861.688660	20.786827
804.770874	726.309082	1382.699341	863.100403	20.839937
805.079773	726.383362	1390.501099	869.341858	21.526077
805.388733	727.646484	1392.210083	853.143860	18.884178
805.697571	729.206848	1394.364868	850.320374	18.208233
806.006470	724.377258	1402.463745	863.397705	20.501875
806.315125	721.776672	1411.305786	871.050781	21.648703
806.623901	721.776672	1417.175781	870.827820	21.433899
806.932495	718.804504	1409.745605	858.567871	20.227972
807.241150	721.256531	1399.120239	854.406982	19.642658
807.549622	724.674377	1400.383423	856.413147	19.496374
807.858154	722.668274	1404.098633	848.760010	18.503981
808.166565	716.575500	1401.423706	852.029297	19.778660
808.474915	718.507324	1393.696167	850.989014	19.621428
808.783264	725.491760	1380.544556	858.419250	20.292637
809.091492	726.383362	1369.547729	854.704102	19.951469
809.399719	725.268799	1357.064941	852.697937	20.169344
809.707825	720.884949	1352.160889	844.821838	19.632759
810.015930	722.445313	1344.507690	843.410156	19.445774
810.323975	717.169861	1342.575806	848.982910	21.076399
810.632080	717.615662	1338.043457	856.190247	22.335329
810.939880	715.981018	1329.498657	856.338867	22.877558
811.247864	717.095520	1314.712280	852.177917	22.603516
811.555664	716.352539	1302.229492	843.261536	21.661373
811.863464	714.866516	1296.805298	838.729065	21.284464
812.171143	716.575439	1296.062378	830.109924	19.592243
812.478882	719.770508	1300.371948	830.555847	19.081135
812.786438	733.070618	1310.031250	834.716736	17.617514
813.094055	739.534973	1303.492554	833.825134	16.719372
813.401489	737.974609	1292.867310	833.156433	17.153194
813.708984	727.795105	1284.099609	829.218445	18.231623
814.016357	732.624817	1289.226563	834.568176	18.315315
814.323730	740.575195	1291.455688	835.162598	17.170221
814.630981	734.928223	1282.836426	830.407227	17.426094
814.938232	725.343201	1276.743530	823.199890	17.746941
815.245361	717.467102	1275.851929	823.348450	18.962074
815.552490	719.176086	1279.046997	828.846924	19.588594
815.859619	714.049133	1284.099609	837.317383	21.624094
816.166565	713.751953	1283.951050	837.317383	21.670576
816.473572	716.872620	1283.802368	833.156433	20.511150
816.780457	721.925232	1275.777710	830.853027	19.667294
817.087341	720.439209	1272.954224	834.865417	20.710064
817.394043	712.785950	1272.359741	836.054199	22.028954
817.700806	707.584778	1284.916870	828.103821	20.875168
818.007507	703.869629	1293.833252	825.354675	20.591955
818.314209	713.677673	1312.631958	828.178223	19.116743
818.620667	709.665344	1321.028076	838.580566	21.086536
818.927246	714.569275	1334.551147	842.444153	20.625584
819.233704	713.454773	1343.170288	846.233643	21.085533
819.540161	717.689941	1370.662231	844.227539	19.378708
819.846497	724.228577	1415.020996	850.097412	18.220934
820.152832	726.086243	1462.277710	861.540039	18.399261
820.458984	733.442200	1504.035767	876.474854	18.561361
820.765259	733.665039	1559.391235	887.768860	18.662823
821.071350	738.197510	1652.418335	896.610901	17.327694
821.377502	728.389587	1810.608765	922.245361	17.912800
821.683472	721.107910	2065.392822	973.662842	18.787308
821.989441	711.671448	2492.039063	1054.429932	19.252117
822.295349	719.770447	3082.151123	1167.593018	18.956411
822.601196	718.432922	3753.476318	1285.882935	18.696602
822.907043	720.736328	4359.786621	1395.850952	18.551945
823.212769	718.507324	4766.593750	1454.252808	18.175142
823.518494	723.188416	4939.347656	1475.131836	17.834797
823.824097	724.228577	4857.540527	1452.098145	17.609838
824.129700	725.268860	4627.202637	1408.779663	17.517233
824.435242	724.748779	4326.647949	1356.841919	17.548885
824.740723	722.296814	4043.405518	1305.944702	17.573887
825.046082	721.182312	3775.395752	1254.527222	17.462595
825.351501	728.389648	3476.698486	1199.840454	17.154215
825.656799	724.674500	3152.590576	1143.147339	17.235886
825.962036	729.801331	2834.054688	1100.720459	17.627113
826.267212	724.005676	2577.412842	1064.386353	18.365131
826.572449	733.665039	2434.454346	1040.758301	18.055925
826.877502	724.154297	2388.906738	1027.160767	18.201294
827.182495	730.098450	2454.590332	1035.705688	17.721581
827.487488	729.058289	2554.453125	1061.488770	18.211430
827.792419	733.293518	2665.610107	1074.194458	17.642084
828.097290	719.770447	2701.275635	1067.953003	17.571621
828.402100	716.055359	2666.873291	1051.012085	17.170067
828.706848	717.912903	2569.908203	1039.792358	17.380144
829.011597	720.290527	2439.804199	1025.897827	17.772892
829.316223	725.937500	2309.699951	1002.566650	17.466581
829.620789	721.850891	2179.595947	976.709290	17.483057
829.925354	725.937561	2070.816895	952.635254	16.856359
830.229797	724.080017	1946.062622	928.783997	16.751791
830.534302	733.813660	1822.200073	916.747009	16.807756
830.838562	729.058289	1685.408691	897.279724	17.589937
831.142944	727.869446	1573.657349	878.035339	17.754557
831.447144	714.494934	1479.961548	849.651672	17.656778
831.751404	718.433044	1423.120117	839.546448	17.186834
832.055542	717.541321	1385.002808	830.407227	16.909725
832.359619	724.377258	1366.278442	833.156433	16.946405
832.663635	723.336975	1372.519897	824.462952	15.577424
832.967651	726.457703	1395.256470	834.939697	16.220425
833.271545	722.371094	1449.646118	839.174988	16.060484
833.575439	722.668274	1520.902344	861.837219	17.434603
833.879211	722.222412	1625.520508	878.109558	17.257553
834.183044	723.262695	1729.767212	894.827637	17.045620
834.486694	720.513489	1818.113281	903.372498	16.659897
834.790344	727.275085	1868.713379	919.421875	16.833744
835.093933	727.423645	1868.341919	924.400146	17.264734
835.397522	730.544373	1841.072876	916.895569	16.780405
835.700928	721.925232	1785.494507	897.205322	16.480364
836.004395	731.361633	1745.445190	889.403503	15.584699
836.307739	735.076843	1694.250610	880.635803	15.175452
836.611023	729.875671	1641.421387	869.564697	15.324412
836.914307	727.423645	1564.815308	851.880676	14.862464
837.217529	723.931396	1497.348267	849.428711	16.226349
837.520691	731.138855	1424.234497	842.444153	16.059155
837.823730	723.262695	1353.126831	837.094421	18.072426
838.126831	723.559998	1282.093384	822.382507	17.693214
838.429749	723.262695	1231.864746	812.277344	17.501827
838.732727	724.005676	1204.447144	803.732483	16.594488
839.035522	720.587708	1190.775269	793.181580	15.439343
839.338379	719.324707	1186.763062	793.998840	15.975183
839.641113	721.925293	1190.701050	791.621155	14.867634
839.943848	719.547546	1194.861938	803.286682	17.617632
840.246460	714.494934	1200.583374	809.528137	19.550600
840.549072	716.798340	1219.753418	822.902649	21.096180
840.851563	723.931396	1237.957642	817.032715	18.112173
841.154053	729.058289	1249.697388	808.339294	15.227632
841.456482	727.200684	1241.598511	804.549866	15.036840
841.758850	723.857117	1228.744019	804.921387	16.055927
842.061157	719.473328	1220.719360	808.264954	17.714180
842.363403	717.095520	1198.651489	793.330139	15.830894
842.665588	710.408264	1187.654663	788.203308	16.300814
842.967712	720.662048	1156.819092	781.813171	14.020437
843.269775	721.405090	1140.992676	785.751282	15.335581
843.571777	721.925232	1110.751587	781.367432	15.287596
843.873840	715.980957	1089.500977	782.556213	17.823746
844.175659	716.872620	1063.569214	781.293152	18.581242
844.477600	727.497986	1049.302979	784.265198	17.640251
844.779297	729.206848	1051.086304	778.023743	15.166203
845.081116	732.476257	1038.083374	772.599670	13.129084
845.382751	736.934387	1032.213501	764.797913	9.436335
845.684387	732.699219	1004.498535	762.568848	10.989590
845.985962	729.206970	1004.721375	758.556458	10.652615
846.287537	720.364929	1002.863831	766.283936	16.254580
846.588989	723.857117	1002.789551	763.683350	14.278093
846.890381	726.606384	998.702942	770.073425	15.974859
847.191711	726.160461	991.718445	761.677246	13.374399
847.493042	721.702332	982.950684	762.271667	15.529031
847.794250	722.296692	978.938293	754.618469	12.594131
848.095459	723.262695	966.901306	762.643127	16.163462
848.396606	729.949951	967.347168	764.277832	14.460102
848.697693	729.058289	958.207825	767.621399	16.828796
848.998657	727.720886	958.802246	765.392334	16.302244
849.299622	730.915833	963.483398	762.271667	13.482463
849.600464	727.795166	972.771240	757.590576	12.162580
849.901367	728.835388	965.266663	752.017883	9.805173
850.202087	723.485596	954.344177	750.680359	11.779837
850.502808	727.274963	944.610535	746.668030	8.923099
850.803467	726.531982	942.901550	751.126160	11.366745
851.104065	727.869446	957.167664	753.132324	11.017477
851.404663	726.086182	956.573242	756.327393	13.120567
851.705139	721.850891	971.656677	751.720703	11.957213
852.005615	722.668274	956.201660	755.361511	13.999385
852.306030	720.736328	945.873596	749.937439	12.970359
852.606384	723.114075	932.424805	755.287170	15.370973
852.906616	719.101746	935.545593	752.463684	15.413669
853.206909	714.866394	947.211121	759.522461	19.219746
853.506958	717.838562	951.372070	753.281006	15.176599
853.807129	723.634094	948.548523	750.011658	11.727822
854.107178	732.773438	934.876892	752.686523	9.852917
854.407166	735.076843	931.384583	759.076599	12.225578
854.707092	725.194519	934.653870	751.720642	12.664091
855.007019	721.182190	943.570313	746.965271	11.593731
855.306763	718.730225	947.211121	740.723816	9.626009
855.606567	717.318420	946.022278	742.878601	11.176104
855.906250	721.850891	944.759094	748.451355	11.933372
856.205933	723.559875	936.883118	747.039551	11.006618
856.505493	726.754883	926.926453	757.441895	15.330355
856.805054	720.364929	930.047119	753.875427	15.981566
857.104492	716.946960	939.260681	760.562683	19.618998
857.403931	716.278259	944.536133	760.636902	19.433565
857.703308	711.968689	941.192566	771.262207	25.867077
858.002563	713.454773	927.372253	768.438782	25.703373
858.301819	715.089355	932.201965	768.587402	24.640690
858.601013	725.937683	930.047180	758.853699	16.126646
858.900208	724.674500	930.715820	756.921875	15.650927
859.199219	722.593994	925.663269	758.630798	17.746065
859.498291	719.696106	934.505310	759.150879	18.367357
859.797302	727.423584	939.780762	759.299500	15.010519
860.096191	739.089111	948.548523	754.469788	7.343034
860.395020	740.946716	940.449646	754.172607	6.629422
860.693787	727.795105	936.808777	750.457520	10.842551
860.992554	712.488770	925.068848	748.005554	16.707485
861.291260	712.934631	931.087402	745.776367	15.054466
861.589844	724.228577	932.573425	744.290344	9.629116
861.888428	734.185120	940.003723	739.906494	2.779814
862.186890	731.658875	938.443359	740.649597	4.347871
862.485413	725.937561	934.728210	748.971436	11.032043
862.783813	717.690002	939.260681	749.194336	14.218638
863.082153	718.284424	938.666260	749.342957	14.093055
863.380371	719.844727	942.678650	754.395508	15.505171
863.678589	729.875671	939.335022	756.698914	12.805942
863.976746	732.996399	938.740540	747.188171	6.897777
864.274902	737.305969	941.266907	736.860046	-0.218631
864.572937	735.299744	944.090332	744.290344	4.306037
864.870911	728.166687	946.839600	755.361511	12.436302
865.168884	725.045959	937.477356	757.293274	15.180107
865.466736	724.971680	931.013000	745.553528	9.989184
865.764587	725.714661	925.886169	746.222229	10.244999
866.062317	725.417480	935.991394	749.417236	11.397307
866.360107	726.234802	938.071960	750.085999	11.259212
866.657715	728.984070	936.362976	749.120056	9.709756
866.955322	725.789063	937.774658	750.011658	11.426529
867.252808	722.519714	928.338196	753.058105	14.837536
867.550293	721.182312	932.053284	755.138611	16.102880
867.847717	723.188477	922.914063	752.240723	14.546082
868.145081	721.776672	929.081238	746.742249	12.042946
868.442383	714.940735	928.041016	744.513184	13.877245
868.739624	713.529053	933.539368	746.370789	14.927361
869.036804	716.203918	939.706543	756.921814	18.218084
869.333984	721.776611	938.146179	754.767029	15.247254
869.631042	719.770447	938.814880	754.544189	15.875200
869.928101	712.637451	932.350586	753.355286	18.532272
870.224976	717.689941	926.703613	753.726807	17.241392
870.521851	739.237732	939.929504	766.804138	13.735693
870.818726	745.479187	948.251282	764.277832	9.270824
871.115479	745.404846	956.573242	766.135437	9.817090
871.412231	723.559875	948.474182	750.531738	11.992062
871.708862	718.284424	945.056335	750.680420	14.285718
872.005493	706.618896	950.406067	750.457520	17.982334
872.302063	707.733398	944.981934	742.878601	14.813664
872.598572	711.225586	949.068665	741.169678	12.589852
872.895020	721.033630	946.170837	739.906494	8.382828
873.191406	730.693054	953.229553	756.104492	11.418998
873.487671	728.984070	949.365906	753.503906	11.126070
873.783997	727.126465	946.170837	746.816650	8.989131
874.080200	721.182190	941.341125	740.649597	8.842433
874.376343	729.875671	942.530029	746.222229	7.686914
874.672424	737.677429	955.087219	759.671082	10.116220
874.968445	740.946716	962.517395	763.386230	10.127475
875.264465	739.312073	963.483398	765.763855	11.799807
875.560364	737.083008	958.059326	763.609131	12.004057
875.856201	727.869446	959.842590	753.801086	11.178725
876.152039	722.742615	967.124207	750.903320	11.523252
876.447754	719.250305	965.712463	752.017822	13.295152
876.743469	725.045959	966.827087	759.076599	14.074978
877.039063	726.086182	961.477234	760.636902	14.678009
877.334595	723.782898	956.573242	756.921814	14.235520
877.630127	727.943787	949.365906	756.253113	12.785230
877.925537	730.024231	947.656921	753.578125	10.822774
878.221008	732.699036	950.183289	751.497742	8.643709
878.516296	722.296692	951.372070	744.736145	9.795664
878.811646	721.776672	969.130371	737.528809	6.368264
879.106812	719.993347	989.860840	745.627747	9.498884
879.401978	722.891113	1009.996887	752.835205	10.429638
879.697083	716.798340	1015.792480	757.070496	13.469213
879.992126	714.940735	1031.247559	758.184998	13.671618
880.287109	722.668213	1064.832397	759.076599	10.640618
880.582031	730.098450	1131.704712	772.451111	10.545817
880.876892	726.383362	1257.573608	781.367432	10.351107
881.171753	726.754944	1448.011353	808.636536	11.352633
881.466492	724.302979	1722.931519	849.057190	12.492554
881.761230	721.850891	2042.953491	887.100159	12.508436
882.055786	713.826172	2377.389893	916.152527	12.162225
882.350403	711.671387	2631.282471	936.882996	11.732148
882.644958	721.256531	2789.250000	955.161438	11.310719
882.939453	718.804504	2817.781982	967.421387	11.844666
883.233826	718.284424	2774.463623	959.173828	11.715389
883.528137	715.015076	2695.034180	949.663086	11.850796
883.822449	722.222473	2627.492676	934.505310	11.141875
884.116577	721.776611	2552.521240	922.616943	10.970418
884.410828	727.498047	2445.673828	908.499329	10.534503
884.704956	720.885071	2286.963623	897.205322	11.258710
884.999023	719.398926	2084.934326	876.697754	11.519205
885.292969	713.974854	1857.567993	857.081848	12.513803
885.586914	715.535156	1654.870117	827.806641	11.952231
885.880798	726.977783	1505.150269	822.605469	12.288752
886.174622	723.485535	1401.572266	796.525146	10.771426
886.468384	724.154297	1318.427490	780.178528	9.427353
886.762085	712.934570	1251.555054	758.556458	8.470136
887.055664	715.089355	1204.521362	763.609070	9.913474
887.349304	714.866516	1159.271118	764.575012	11.185414
887.642822	716.575439	1123.382813	764.946472	11.890402
887.936340	715.981018	1098.937256	754.246887	9.992230
888.229736	718.284363	1078.578247	755.064270	10.208307
888.523071	721.702332	1066.838501	752.315125	8.869773
888.816284	730.618652	1052.200806	762.494568	9.912215
889.109619	729.132507	1052.498047	759.225281	9.306116
889.402710	728.315186	1039.346436	760.191162	10.248481
889.695862	722.371033	1010.888489	755.212891	11.382971
889.988892	723.634216	987.037354	757.590515	12.891379
890.281921	724.005676	973.662903	757.218994	13.303568
>>>>>End Processed Spectral Data<<<<<
