Jaz Data File
++++++++++++++++++++++++++++++++++++
Date: Fri Jun 04 17:00:04 2021
User: jaz
Dark Spectrum Present: Yes
Reference Spectrum Present: Yes
Processed Spectrum Present: Yes
Spectrometers: JAZA3586
Integration Time (usec): 27600 (JAZA3586)
Spectra Averaged: 10 (JAZA3586)
Boxcar Smoothing: 1 (JAZA3586)
Correct for Electrical Dark: No (JAZA3586)
Strobe/Lamp Enabled: Yes (JAZA3586)
Correct for Detector Non-linearity: No (JAZA3586)
Correct for Stray Light: No (JAZA3586)
Number of Pixels in Processed Spectrum: 2048
>>>>>Begin Processed Spectral Data<<<<<
W	D	R	S	P
191.335022	0.000000	0.000000	0.000000	0.000000
191.713211	231.675903	230.932861	227.886429	509.994659
192.091385	465.135040	462.162933	460.528229	155.001541
192.469528	702.606506	697.033875	692.947083	173.336838
192.847641	708.922302	696.959473	705.132813	31.677202
193.225739	719.473328	706.618896	716.649719	21.966032
193.603790	726.086243	718.135742	724.748718	16.823147
193.981842	730.692932	724.451477	729.801331	14.285155
194.359863	736.488586	730.990173	730.172852	114.864685
194.737854	735.596924	736.191406	731.064453	-762.422974
195.115829	734.110840	743.101563	731.213074	-32.230625
195.493774	730.470032	743.250061	730.024231	-3.488261
195.871704	732.104736	739.312073	738.271912	85.568024
196.249603	736.488586	745.999329	734.333801	-22.656330
196.627457	737.008606	745.330627	742.952942	71.428993
197.005310	737.603088	743.695984	738.346191	12.196221
197.383133	737.454529	740.872375	738.940613	43.480125
197.760910	741.020996	746.965271	729.504150	-193.746857
198.138687	738.420410	749.194336	727.869446	-97.930550
198.516449	738.569031	749.268616	733.888000	-43.749645
198.894180	729.801270	742.804382	734.631042	37.143208
199.271866	731.956116	741.318298	740.946777	96.031685
199.649536	734.185120	735.374023	739.312012	431.228516
200.027191	735.076843	741.466858	738.123291	47.675129
200.404816	735.522644	741.243958	740.352356	84.416138
200.782410	738.048889	759.299500	741.095398	14.336101
201.159988	738.940613	763.980652	748.971436	40.059135
201.537537	732.773438	768.587402	742.061279	25.933577
201.915070	718.358704	755.435791	740.500916	59.719395
202.292557	719.101746	752.017883	737.231628	55.079010
202.670029	722.965515	753.949768	734.853943	38.369259
203.047485	724.674377	760.859924	741.169678	45.585327
203.424911	728.538147	759.002258	739.609314	36.341671
203.802292	722.222473	764.203552	745.107666	54.513111
204.179688	722.816895	765.838196	737.677429	34.542271
204.557037	718.655945	772.822571	741.763977	42.661015
204.934357	727.646545	768.438782	735.968445	20.400694
205.311661	726.532043	775.646179	737.083008	21.482540
205.688934	725.863281	769.181824	739.386414	31.217884
206.066177	720.439209	765.763855	737.751709	38.196659
206.443390	720.885010	763.832031	736.042725	35.293983
206.820587	713.157532	765.392334	728.983948	30.298605
207.197769	708.550781	775.646057	731.584656	34.330097
207.574921	709.888184	768.884521	723.559875	23.173798
207.952042	709.962463	768.141602	715.683838	9.834065
208.329147	711.374207	761.528625	714.866455	6.962993
208.706223	725.417480	769.850403	727.795105	5.351042
209.083267	732.847717	768.290100	728.983948	-10.901551
209.460297	737.825989	768.513123	729.429749	-27.360783
209.837280	722.816895	754.618469	717.838562	-15.654359
210.214264	714.866516	756.104492	724.971619	24.504360
210.591217	711.671570	758.259277	719.547546	16.905697
210.968124	709.368103	758.630798	723.559875	28.808355
211.345016	717.541443	761.677246	719.027405	3.366795
211.721893	717.689941	762.940369	725.268860	16.748833
212.098724	722.742615	763.906250	726.606262	9.386069
212.475555	729.206970	753.726807	730.098450	3.635748
212.852356	729.949890	747.931213	732.030457	11.570708
213.229126	728.463867	746.890930	735.448425	37.903805
213.605865	714.272034	757.218994	739.906555	59.688789
213.982590	717.987244	760.191101	736.265686	43.309887
214.359283	719.027527	765.318054	735.968445	36.596943
214.735931	725.714661	756.624695	722.445374	-10.576782
215.112579	720.662109	753.503906	721.256531	1.809954
215.489197	722.148132	752.760925	717.467102	-15.291092
215.865799	721.330811	760.191223	721.479431	0.382447
216.242355	714.420654	762.271667	719.919128	11.490821
216.618896	715.981018	764.352051	723.485596	15.514611
216.995407	709.665283	762.643127	725.565979	30.013859
217.371902	711.374268	757.590515	727.795166	35.530575
217.748367	712.414490	760.191101	721.330811	18.662523
218.124802	714.197754	759.002258	720.587830	14.262128
218.501236	715.683777	761.900146	713.083191	-5.626980
218.877609	709.293762	758.333496	720.216309	22.272850
219.253983	706.247314	759.745300	725.417480	35.833435
219.630295	702.532227	761.379883	739.609314	63.005207
220.006592	704.538391	761.157043	736.339905	56.167912
220.382889	706.173096	757.739075	729.355469	44.956722
220.759140	712.340149	759.596680	726.829285	30.660601
221.135391	711.374207	757.441956	723.485657	26.290518
221.511581	714.717834	759.968262	721.330872	14.614308
221.887772	713.231750	760.785583	715.758118	5.312647
222.263931	711.894348	765.763855	720.587830	16.138039
222.640060	710.779785	770.519226	729.652649	31.591967
223.016159	712.340149	770.147705	728.983948	28.791737
223.392212	712.711670	773.565613	730.767273	29.670391
223.768265	714.123474	776.017578	728.761047	23.649382
224.144302	718.953125	781.293152	734.631042	25.149038
224.520294	716.649719	776.389160	724.674500	13.432968
224.896286	716.501160	765.020813	720.959290	9.188297
225.272217	714.346375	756.104492	718.061523	8.896831
225.648148	718.581543	755.510071	730.321472	31.790949
226.024048	713.306091	753.875427	727.572266	35.164921
226.399902	713.529053	756.550293	728.463867	34.714977
226.775772	708.996582	757.070496	720.290588	23.493004
227.151581	711.597168	762.494568	719.176025	14.890461
227.527374	708.625000	758.630798	716.501160	15.750493
227.903137	712.191589	750.531738	728.612488	42.829510
228.278870	722.371094	753.206726	743.027161	66.987656
228.654572	722.222473	754.544128	745.627747	72.413597
229.030273	721.776611	763.683350	731.138855	22.340664
229.405930	715.535156	769.701904	729.058289	24.965746
229.781555	711.002747	774.680176	737.008728	40.840187
230.157181	709.293762	773.119812	748.079834	60.768402
230.532761	703.869629	770.816406	747.262512	64.816986
230.908325	712.563171	775.646179	736.340027	37.691380
231.283859	713.380432	775.274597	733.219238	32.052788
231.659332	713.826233	770.370605	724.228577	18.396780
232.034821	711.597168	771.782410	725.417480	22.962959
232.410263	711.820068	775.348816	721.405090	15.087692
232.785690	711.522888	779.361145	726.086243	21.467760
233.161087	715.832458	769.256042	726.977844	20.862295
233.536469	718.358704	764.797852	726.829285	18.240173
233.911804	726.977783	756.327393	731.213074	14.430484
234.287140	722.891113	756.847473	728.092346	15.317404
234.662430	717.838623	762.123047	726.531982	19.630739
235.037704	715.386536	767.695740	718.432922	5.823806
235.412933	709.962463	775.868958	719.250305	14.092453
235.788162	705.652893	774.828674	722.742676	24.704865
236.163345	713.751953	778.841064	722.891296	14.041278
236.538513	718.730164	776.983582	726.829285	13.903255
236.913635	729.801270	774.903076	724.154297	-12.520502
237.288742	723.262695	766.506836	728.389648	11.855833
237.663834	720.662109	760.636963	726.086243	13.568864
238.038879	717.169861	758.333557	732.253235	36.642418
238.413910	707.436218	760.488342	724.748718	32.632999
238.788910	710.779785	764.054871	726.234802	29.009840
239.163879	711.374268	771.559509	718.581543	11.975154
239.538834	715.758118	775.497498	723.559875	13.059656
239.913757	718.730286	776.983582	719.547546	1.402943
240.288651	724.525879	770.296326	727.943787	7.467499
240.663528	716.575439	771.485168	732.401917	28.822720
241.038361	707.213318	772.005310	740.798096	51.834766
241.413177	701.343323	779.509827	736.488525	44.961975
241.787979	709.888184	783.447937	731.733154	29.696905
242.162735	714.197754	788.203308	729.726990	20.983879
242.537476	716.426819	789.912292	729.281250	17.492479
242.912170	720.067688	788.723389	727.423645	10.714270
243.286865	716.278320	781.813293	726.680664	15.872966
243.661514	708.625183	786.642883	727.795166	24.571325
244.036148	708.847961	787.608826	731.361633	28.584846
244.410751	717.021301	791.992676	723.931396	9.216978
244.785339	724.080017	789.837952	718.433044	-8.587515
245.159882	722.445313	787.014465	720.959290	-2.301444
245.534378	713.380371	785.156921	727.423645	19.565268
245.908890	708.104919	788.128967	738.420410	37.882977
246.283356	706.544495	793.850281	735.299744	32.936245
246.657791	709.516663	809.973938	741.095398	31.434990
247.032196	707.956299	816.289734	734.928223	24.897137
247.406586	709.368103	823.794250	732.773438	20.454533
247.780960	714.494934	820.747864	725.937561	10.769235
248.155289	716.352539	815.992493	727.572266	11.260269
248.529602	716.798340	819.707581	726.086182	9.025275
248.903870	715.535156	817.998718	723.857117	8.121873
249.278122	722.816895	812.871765	721.925232	-0.990133
249.652344	721.256531	806.110291	729.578430	9.807343
250.026550	722.593994	799.423035	733.739441	14.506815
250.400711	720.439209	801.280579	730.915833	12.959483
250.774857	723.336914	803.732605	728.984070	7.024202
251.148987	726.383362	804.475586	725.937561	-0.570864
251.523071	721.405090	809.156555	719.473328	-2.201402
251.897125	712.488831	808.785095	716.426819	4.089451
252.271164	703.944031	813.763428	715.683838	10.690104
252.645187	706.544617	813.466125	722.371094	14.801958
253.019165	712.340149	814.357849	721.553711	9.031337
253.393112	720.513489	812.500244	720.216309	-0.323068
253.767044	725.491699	808.413574	721.999512	-4.211419
254.140930	728.909668	803.138123	722.742493	-8.308371
254.514801	723.039795	804.772766	723.559875	0.636317
254.888657	715.832336	808.339355	727.720886	12.851511
255.262466	713.454773	814.506348	731.807434	18.161678
255.636276	716.724121	815.918152	739.386414	22.846428
256.010010	724.302917	809.156555	736.488586	14.360809
256.383759	720.662109	806.927551	734.036621	15.503904
256.757446	715.163757	814.803528	733.219238	18.120758
257.131134	704.984192	827.880859	735.819824	25.090698
257.504791	706.916077	843.335876	741.243896	25.163370
257.878418	710.408386	848.091309	741.169678	22.342125
258.252014	716.203918	855.595886	740.129395	17.164171
258.625580	716.129639	856.858948	739.163513	16.367504
258.999115	718.284363	865.626709	732.847839	9.884108
259.372650	716.575439	880.784485	733.070618	10.045231
259.746124	715.980957	905.527283	729.652832	7.212946
260.119598	715.312317	932.647705	726.532043	5.162402
260.493042	711.597168	952.486572	724.674500	5.428770
260.866425	711.894348	954.715637	723.857178	4.926599
261.239838	709.665283	939.483582	723.262695	5.916593
261.613159	713.529053	913.997742	722.296814	4.373631
261.986511	715.832458	896.462402	717.541321	0.946057
262.359802	722.371094	892.301453	721.925293	-0.262343
262.733063	729.652771	893.415833	720.439209	-5.626154
263.106293	728.389587	898.245544	720.662109	-4.549430
263.479523	721.925232	898.171204	727.943665	3.414792
263.852692	713.751953	892.970032	726.680603	7.213921
264.225861	712.265869	893.044373	725.343079	7.233830
264.598969	713.380371	885.836914	717.095520	2.154252
264.972076	707.361877	894.084656	718.878723	6.167885
265.345154	707.882019	894.307556	722.816833	8.011142
265.718201	708.030701	913.774841	728.018005	9.714641
266.091217	721.330872	928.115234	732.922058	5.605446
266.464203	724.748718	931.830383	740.723816	7.714395
266.837158	714.717834	940.969666	732.699158	7.947482
267.210114	705.727234	945.725037	730.098450	10.154766
267.583038	707.882019	957.464844	717.318420	3.780870
267.955902	713.974854	956.276062	720.885010	2.851887
268.328766	717.838562	955.087158	719.770508	0.814313
268.701569	715.758118	956.053040	720.885071	2.133609
269.074371	716.724121	966.826965	722.445374	2.287560
269.447144	712.340271	976.040527	728.389587	6.086197
269.819885	711.151367	987.037354	741.169617	10.880672
270.192596	717.318542	984.436707	738.197571	7.816401
270.565277	725.640381	1002.120789	733.516418	2.848678
270.937927	725.566101	1022.851257	728.092346	0.849772
271.310577	725.863281	1061.562866	724.080017	-0.531208
271.683136	724.823059	1084.596802	721.405090	-0.950033
272.055725	723.634216	1113.129028	719.770447	-0.991995
272.428284	719.919128	1118.478882	728.018066	2.032051
272.800812	715.238037	1121.822388	728.240906	3.198074
273.173279	717.467041	1109.339600	727.497864	2.559716
273.545776	714.643555	1103.469727	729.652649	3.860104
273.918152	713.900574	1106.144653	734.853943	5.341921
274.290558	710.036804	1103.321167	741.764099	8.067266
274.662964	708.253601	1100.423340	736.340027	7.161803
275.035278	713.677551	1092.844360	736.340027	5.976914
275.407593	717.169861	1091.135376	734.556702	4.649317
275.779907	725.937683	1101.463501	735.448303	2.532614
276.152161	716.352539	1123.160034	734.631042	4.493158
276.524384	719.398926	1140.323853	733.516418	3.353922
276.896606	709.962463	1145.153564	740.203796	6.948978
277.268799	709.442383	1140.323853	737.825989	6.587335
277.640930	699.485840	1151.840820	737.008728	8.295010
278.013031	704.835632	1169.822144	727.423645	4.857778
278.385162	714.049133	1173.908691	726.829285	2.779142
278.757233	719.398926	1173.537231	727.646667	1.816130
279.129272	717.912903	1160.757080	734.259583	3.691294
279.501282	718.655945	1167.221436	739.237793	4.588371
279.873230	716.426941	1178.664063	739.683594	5.031325
280.245178	721.925232	1208.756714	733.590820	2.396227
280.617126	723.485596	1248.954468	726.234802	0.523191
280.988983	728.686707	1277.040894	724.302979	-0.799434
281.360870	724.377197	1302.675293	730.915833	1.130669
281.732697	721.033630	1322.142578	731.733215	1.779974
282.104492	719.101746	1353.795532	724.823059	0.901429
282.476288	721.925293	1385.894531	727.497986	0.839300
282.848053	714.346375	1404.692993	729.504089	2.195667
283.219757	708.699280	1406.476196	731.213074	3.226503
283.591461	704.909912	1393.993530	718.433044	1.962481
283.963135	704.612732	1379.355835	723.634277	2.819080
284.334747	709.145203	1378.018188	725.714661	2.477220
284.706360	713.826233	1400.012085	734.036621	2.945323
285.077942	719.919128	1433.299438	723.857117	0.552018
285.449524	717.912903	1463.614868	722.891174	0.667595
285.821014	714.197754	1495.044922	728.018066	1.769913
286.192535	717.838562	1520.679565	738.643311	2.591391
286.563995	724.674377	1544.902222	741.763977	2.083519
286.935425	721.479431	1556.196289	733.665039	1.459849
287.306824	718.358704	1554.190063	729.652771	1.351238
287.678223	706.321594	1541.707153	732.922058	3.184214
288.049561	711.820007	1511.763184	732.030334	2.526470
288.420898	706.990417	1496.085327	736.117004	3.691139
288.792145	710.259766	1495.788086	737.825989	3.509259
289.163452	706.470276	1516.146973	741.764099	4.359002
289.534668	701.120422	1539.923828	731.436035	3.614150
289.905914	700.154541	1577.075195	724.451477	2.770711
290.277039	704.389832	1608.876831	716.946960	1.388315
290.648193	711.522888	1661.334473	725.491699	1.470693
291.019318	712.117371	1696.999878	730.841553	1.901159
291.390381	707.733398	1720.776733	740.649597	3.249239
291.761475	707.807800	1721.965454	736.117004	2.791401
292.132507	715.832458	1703.241211	733.813660	1.821049
292.503510	715.163757	1691.650024	731.287415	1.651191
292.874481	718.581604	1676.789551	736.785828	1.899820
293.245422	715.980957	1681.470581	733.888000	1.854711
293.616364	717.838562	1705.321777	735.299744	1.768251
293.987213	715.683838	1730.064453	732.773438	1.684732
294.358093	716.426819	1782.373657	730.247070	1.296524
294.728943	719.398926	1828.292603	732.104675	1.145804
295.099731	718.433105	1893.084595	726.011902	0.645195
295.470490	718.210144	1923.697388	733.442078	1.263550
295.841248	715.089417	1941.084351	731.956055	1.375751
296.211975	723.411316	1958.248169	733.665039	0.830371
296.582642	721.850891	2006.619141	733.962341	0.942695
296.953308	721.182190	2068.736328	731.064453	0.733348
297.323883	717.095520	2116.735840	734.185242	1.221008
297.694519	720.364929	2153.070068	722.816833	0.171138
298.065063	720.364807	2162.655029	718.878845	-0.103028
298.435608	715.089355	2129.218750	716.798340	0.120851
298.806122	711.448547	2063.683838	727.646484	1.197864
299.176575	708.996582	1999.114624	740.203674	2.418933
299.547028	711.299988	1973.926147	747.039551	2.830574
299.917450	703.052429	1956.464966	742.581360	3.153705
300.287872	707.138977	1948.663208	739.609192	2.615351
300.658234	705.058533	1937.146118	730.098572	2.032326
301.028564	715.981018	1937.369141	734.631042	1.526953
301.398865	717.318542	1933.133789	736.339905	1.564494
301.769135	722.296814	1931.350586	742.729980	1.690013
302.139374	712.042969	1930.979004	739.014893	2.212743
302.509583	708.773682	1938.929321	733.590820	2.017398
302.879791	712.711731	1950.966431	727.646545	1.206118
303.249939	721.182129	1948.365845	730.990234	0.799237
303.620087	721.256531	1927.932617	728.389648	0.591138
303.990173	720.067688	1900.366333	726.977844	0.585458
304.360260	724.600098	1900.589478	725.937683	0.113741
304.730286	729.875671	1913.146484	730.024231	0.012555
305.100281	726.011902	1927.115356	736.711426	0.890808
305.470276	718.061523	1943.164673	729.355469	0.921877
305.840179	714.940735	1954.681641	725.863281	0.881035
306.210144	709.962463	1970.731079	725.268860	1.214053
306.579987	713.231750	1967.833374	725.491699	0.977199
306.949890	715.014954	1986.706055	723.262695	0.648565
307.319702	717.987122	2001.046509	717.541321	-0.034745
307.689484	720.216309	2022.148560	722.891113	0.205449
308.059265	716.501160	2041.467163	726.531982	0.757063
308.429016	718.135803	2088.054932	728.686768	0.770189
308.798737	709.293762	2157.008057	720.364929	0.764734
309.168396	712.934570	2223.285889	720.067688	0.472282
309.538055	712.191589	2268.684814	726.606262	0.926099
309.907684	713.974854	2287.186523	728.092346	0.897368
310.277313	709.813904	2311.929199	732.996338	1.446989
310.646851	709.813904	2325.155029	729.504150	1.218953
311.016388	711.522949	2345.588379	735.299805	1.455074
311.385895	709.962585	2345.291016	730.247070	1.240392
311.755371	710.928467	2363.866699	732.847717	1.326078
312.124817	718.433044	2368.473633	737.380188	1.148283
312.494232	724.748779	2365.575928	741.021057	0.991712
312.863617	731.807434	2342.987549	743.473083	0.724044
313.232971	722.742615	2318.988037	734.110901	0.712189
313.602295	718.358704	2306.728271	731.510254	0.827991
313.971619	710.408386	2315.198486	724.525879	0.879710
314.340820	704.687012	2328.424561	728.389648	1.459758
314.710083	700.674622	2368.622070	732.401855	1.902172
315.079285	700.154541	2396.782959	738.123230	2.237891
315.448486	709.591003	2439.878662	744.141785	1.996823
315.817596	715.758118	2431.556641	741.243958	1.485363
316.186707	714.197754	2400.052002	740.129395	1.538190
316.555786	713.454773	2338.826660	734.333801	1.284569
316.924866	714.792175	2298.331543	739.980774	1.590652
317.293884	719.993347	2280.499023	743.844482	1.528424
317.662872	726.457703	2275.818115	746.370850	1.285250
318.031830	718.953125	2280.127686	737.157288	1.166056
318.400757	714.420654	2289.638428	729.578430	0.962265
318.769684	716.055237	2320.697021	736.414246	1.268757
319.138550	718.878845	2346.925781	747.782532	1.775360
319.507416	720.736389	2373.749023	748.154114	1.658652
319.876190	704.092590	2387.718018	743.621582	2.347849
320.244995	711.151367	2386.603516	732.104736	1.250610
320.613770	711.671448	2369.736816	735.894226	1.460906
320.982483	717.169922	2345.217041	726.457703	0.570486
321.351166	716.649719	2329.167236	724.302917	0.474612
321.719818	715.981018	2307.991211	719.473206	0.219357
322.088440	723.114075	2302.641357	725.045959	0.122308
322.457062	720.290527	2319.953857	729.281250	0.562038
322.825623	725.789001	2360.597412	729.058289	0.199980
323.194183	714.643555	2414.169678	730.470032	0.931229
323.562653	710.556885	2467.964844	730.395691	1.128867
323.931183	706.247375	2534.020020	733.962219	1.516318
324.299591	710.779785	2597.697510	729.652771	1.000202
324.668060	713.751953	2668.656494	726.680664	0.661347
325.036407	713.900574	2710.860352	724.228699	0.517192
325.404755	718.953125	2740.655518	731.287415	0.610094
325.773102	711.002747	2740.804688	736.934387	1.277545
326.141388	714.643555	2751.652588	744.736145	1.477293
326.509674	708.922180	2759.825928	736.711426	1.354976
326.877899	716.798340	2783.379883	732.030457	0.737068
327.246124	713.231873	2803.144531	726.532043	0.636398
327.614288	717.764221	2813.546875	735.448303	0.843794
327.982422	714.792175	2804.853516	732.550537	0.849657
328.350525	711.671448	2777.807373	726.829285	0.733632
328.718628	714.346375	2754.773438	725.863342	0.564439
329.086700	716.501160	2745.039795	727.349365	0.534779
329.454712	718.581604	2759.900391	732.401917	0.677029
329.822693	716.946960	2773.794922	724.377197	0.361244
330.190674	715.683777	2791.255859	731.658875	0.769672
330.558563	718.953125	2813.695557	724.748779	0.276676
330.926483	710.779785	2832.345459	729.875671	0.900085
331.294312	709.962463	2850.698242	731.138733	0.989205
331.662231	711.745789	2889.707031	736.488586	1.136053
332.029999	714.346375	2938.227295	737.974670	1.062480
332.397766	713.751953	2991.055908	732.327637	0.815687
332.765503	705.504395	3045.594482	728.835388	0.997013
333.133240	712.191589	3118.262451	731.361633	0.796736
333.500916	714.940735	3177.407227	728.761047	0.561239
333.868561	711.968689	3210.843506	730.990234	0.761204
334.236176	707.362000	3217.531006	728.835388	0.855456
334.603790	703.349609	3230.831055	734.853943	1.246471
334.971344	704.389832	3230.979492	736.042725	1.252791
335.338867	708.402161	3231.425049	739.980774	1.251618
335.706360	707.287598	3223.475342	744.513184	1.479444
336.073853	715.015137	3232.837158	748.302673	1.322077
336.441284	709.368103	3249.629639	748.748474	1.550249
336.808655	718.878906	3247.326172	747.856934	1.146080
337.176086	711.522949	3206.236572	746.296570	1.393892
337.543396	710.854187	3109.791992	738.791992	1.164591
337.910706	701.863586	3055.550781	730.395752	1.212233
338.277954	705.430115	3062.535156	735.522644	1.276673
338.645264	702.680847	3160.391846	745.776428	1.753484
339.012421	708.402161	3284.328857	748.525635	1.557633
339.379669	716.575439	3395.336914	742.061340	0.951406
339.746796	727.497986	3500.178467	736.637207	0.329617
340.113953	722.742615	3577.007080	735.374023	0.442545
340.481018	713.603333	3622.778076	736.191406	0.776443
340.848114	709.665283	3631.545654	733.590820	0.818840
341.215118	716.575439	3628.870361	731.510315	0.512822
341.582153	720.736389	3648.857666	731.138733	0.355257
341.949066	714.569336	3666.839111	738.346191	0.805375
342.316010	709.813965	3678.133057	732.922058	0.778491
342.682922	706.098816	3690.541992	731.064453	0.836526
343.049835	713.380371	3716.101807	722.891174	0.316739
343.416656	719.324646	3764.027344	730.841553	0.378260
343.783478	717.169922	3840.856201	736.265625	0.611319
344.150269	721.702393	3966.427734	745.404846	0.730492
344.516998	716.649719	4108.420410	752.835205	1.066861
344.883728	716.501160	4215.639160	757.887695	1.182764
345.250427	711.002747	4297.743652	749.937317	1.085514
345.617065	713.751953	4323.006348	750.828918	1.027275
345.983704	726.011902	4337.421387	738.197510	0.337420
346.350281	728.241028	4294.919922	739.237732	0.308318
346.716827	720.364929	4270.028809	736.488586	0.454231
347.083405	708.550781	4232.580078	741.987000	0.948806
347.449860	709.591003	4188.815918	737.008728	0.788041
347.816376	708.327820	4116.222168	733.665039	0.743486
348.182770	712.191589	4070.154297	726.160461	0.415992
348.549194	709.219482	4048.458252	735.745544	0.794375
348.915558	719.473328	4059.975342	738.569031	0.571642
349.281921	715.981018	4093.931396	741.095398	0.743480
349.648193	707.807800	4144.754395	738.569031	0.895016
350.014526	706.247375	4203.230957	731.213074	0.713921
350.380737	705.132813	4245.286133	742.209900	1.047330
350.746948	716.278259	4303.762207	749.417236	0.923739
351.113159	713.157532	4345.669434	758.556458	1.249794
351.479309	718.581604	4385.123535	751.126221	0.887611
351.845428	718.507324	4402.882324	743.547363	0.679628
352.211517	721.033630	4457.048828	745.107666	0.644377
352.577576	721.850891	4502.076172	744.810486	0.607360
352.943604	716.426819	4578.311035	749.491516	0.856180
353.309601	718.730286	4638.124512	740.055115	0.544085
353.675537	709.516785	4739.473145	731.956055	0.556812
354.041473	713.529053	4838.444824	729.132629	0.378276
354.407379	706.618958	4956.734375	734.853943	0.664335
354.773254	713.083252	5063.284180	741.466858	0.652467
355.139038	709.591003	5158.392090	740.946777	0.704814
355.504913	710.408386	5261.746582	740.946777	0.670976
355.870636	714.866455	5360.346680	736.042725	0.455847
356.236389	719.398926	5483.615234	735.002441	0.327515
356.602081	718.953125	5630.140137	733.367859	0.293508
356.967804	713.974792	5789.742188	739.460693	0.502109
357.333405	711.299866	5949.418457	741.318298	0.573077
357.699036	714.866455	6108.575684	741.466858	0.493175
358.064606	719.621826	6292.475098	743.547363	0.429323
358.430176	724.971680	6430.603516	739.757874	0.259151
358.795654	726.160461	6493.611816	743.844543	0.306619
359.161163	719.176025	6458.169434	745.256287	0.454440
359.526581	711.968750	6423.618652	750.606140	0.676466
359.892029	706.247314	6435.582031	745.925049	0.692536
360.257416	709.516663	6559.072754	742.878601	0.570333
360.622772	707.956299	6777.671875	736.042786	0.462732
360.988098	710.854187	7065.966309	735.671204	0.390505
361.353394	706.916016	7387.176270	733.516418	0.398194
361.718658	713.157532	7691.966309	737.603027	0.350282
362.083893	714.792175	7941.103027	738.866211	0.333144
362.449097	716.203918	8097.732910	739.386292	0.314059
362.814209	713.529053	8119.727051	737.677429	0.326056
363.179382	719.844727	7914.057129	731.138733	0.156987
363.544434	721.405090	7533.627441	730.470032	0.133069
363.909546	718.284424	7082.609863	731.361633	0.205477
364.274536	713.751953	6740.371582	735.894226	0.367408
364.639587	714.197754	6509.735840	737.454590	0.401289
365.004517	718.358704	6389.439453	737.008728	0.328862
365.369507	716.724121	6310.158691	740.946716	0.433054
365.734344	720.885010	6255.621094	740.352356	0.351730
366.099274	717.021240	6197.367188	741.764160	0.451485
366.464081	717.244141	6165.863281	746.445129	0.535934
366.828918	706.916016	6169.280762	754.395508	0.869211
367.193665	712.488770	6180.574219	754.469788	0.767746
367.558411	705.281433	6193.949219	753.503906	0.878582
367.923126	714.717957	6176.042480	749.863037	0.643527
368.287781	712.637390	6164.153809	751.126160	0.706019
368.652435	715.758118	6115.039551	742.952881	0.503674
369.017059	714.792175	6091.114746	744.810486	0.558343
369.381653	723.188416	6041.406250	744.364685	0.398184
369.746185	728.463867	6038.285156	750.085938	0.407209
370.110687	726.680603	6045.046875	752.612305	0.487588
370.475220	712.042969	6110.136230	751.572083	0.732279
370.839661	705.652893	6188.079590	751.497742	0.836215
371.204041	705.875793	6278.134277	750.829041	0.806733
371.568451	712.637390	6345.378418	752.315125	0.704413
371.932770	717.541321	6383.792969	752.835205	0.622879
372.297150	718.284424	6417.006348	750.011658	0.556743
372.661377	716.649719	6445.240723	746.965271	0.529197
373.025696	717.392761	6470.652344	747.559631	0.524344
373.389862	712.785950	6463.296875	755.510071	0.742962
373.754059	706.767395	6448.064453	751.126221	0.772627
374.118225	703.200928	6484.769531	750.234558	0.813510
374.482361	711.299988	6532.101074	741.095276	0.511876
374.846436	719.919128	6638.948730	748.897156	0.489574
375.210510	724.674500	6726.402344	746.147949	0.357788
375.574524	717.764343	6867.800781	748.005554	0.491724
375.938538	714.643555	6987.353516	748.079773	0.533043
376.302460	711.597168	7147.847656	754.544128	0.667267
376.666412	712.265930	7318.446777	760.414063	0.728835
377.030304	716.203918	7519.063965	761.602844	0.667351
377.394196	719.176025	7709.873535	759.745300	0.580332
377.757996	717.541321	7864.125488	765.689514	0.673723
378.121796	714.420715	7943.109375	769.701843	0.764746
378.485565	711.522888	7937.313965	771.633789	0.831894
378.849304	714.717957	7827.791504	769.627625	0.771954
379.212982	716.575439	7671.235840	770.816406	0.779923
379.576630	724.005676	7473.292969	785.305481	0.908241
379.940277	723.411316	7337.617188	785.602722	0.940270
380.303864	726.457703	7231.586426	791.695496	1.002867
380.667450	717.095520	7198.150391	790.283691	1.129263
381.030945	717.615723	7171.623535	808.339294	1.405694
381.394501	708.179199	7188.936035	814.134949	1.634929
381.757935	709.442383	7235.895996	805.887390	1.477755
382.121399	708.699402	7276.985840	801.800720	1.417437
382.484741	713.454651	7331.300781	810.717041	1.469699
382.848145	716.946960	7383.981934	833.007813	1.740817
383.211487	718.210144	7459.621582	839.026367	1.792150
383.574768	712.637390	7577.391113	849.577332	1.994827
383.938019	714.866516	7675.693848	857.602051	2.050554
384.301270	715.980957	7787.074219	880.264343	2.323310
384.664459	711.820068	7875.865723	897.651184	2.593941
385.027649	701.566345	7956.261230	913.031738	2.914876
385.390778	700.303162	8020.235840	937.031555	3.234024
385.753876	712.042969	8029.226563	957.167542	3.349985
386.116943	718.433044	8058.055176	989.043457	3.686980
386.479980	723.114075	8086.142090	1003.012390	3.801402
386.842987	718.284363	8161.485840	1029.166992	4.176733
387.205994	720.290527	8223.825195	1046.628174	4.349119
387.568909	718.581543	8298.277344	1081.178833	4.783797
387.931793	717.764343	8342.264648	1108.225098	5.121132
388.294678	717.615662	8378.821289	1151.395020	5.662025
388.657471	717.615723	8387.959961	1182.453491	6.060194
389.020294	724.823059	8375.922852	1223.245605	6.514391
389.383057	721.628113	8373.619141	1252.297974	6.935056
389.745819	715.312317	8380.231445	1289.672241	7.493360
390.108521	715.758118	8430.906250	1331.504761	7.981009
390.471191	721.182190	8529.877930	1377.721069	8.407792
390.833801	720.662109	8680.415039	1426.092163	8.862462
391.196442	713.380371	8886.977539	1481.298950	9.395112
391.558960	712.785950	9081.129883	1544.307983	9.936519
391.921509	713.751892	9264.583008	1606.796387	10.443950
392.284027	717.541321	9433.101563	1669.359253	10.920903
392.646484	714.049133	9569.595703	1728.429810	11.454749
393.008911	719.398926	9604.666992	1779.178711	11.927382
393.371307	720.067688	9553.770508	1826.732422	12.527757
393.733673	716.724060	9456.731445	1870.050781	13.195946
394.096008	719.696106	9409.547852	1907.870972	13.673131
394.458344	726.160461	9431.617188	1952.972778	14.092451
394.820587	722.296692	9465.349609	1996.885742	14.578307
395.182831	710.482605	9530.809570	2059.522705	15.294671
395.545013	695.696350	9492.990234	2098.903320	15.950439
395.907196	700.823242	9391.493164	2131.001953	16.456484
396.269287	709.739563	9204.471680	2145.490967	16.901669
396.631409	711.374268	9052.671875	2166.147217	17.440607
396.993469	703.646790	8921.155273	2187.992188	18.063206
397.355530	699.485840	8832.883789	2216.227295	18.648312
397.717499	705.355713	8783.547852	2252.264160	19.149191
398.079468	716.872620	8782.730469	2302.938477	19.663946
398.441376	723.485596	8804.278320	2348.634766	20.111259
398.803284	724.005798	8823.002930	2386.900635	20.532108
399.165131	717.987122	8868.624023	2425.686768	20.951735
399.526978	713.603333	8884.672852	2466.701660	21.454945
399.888763	706.024414	8910.159180	2518.119385	22.087582
400.250519	707.510498	8918.852539	2554.007568	22.487154
400.612244	700.674744	8951.842773	2602.527100	23.049492
400.973938	711.225647	8948.499023	2626.972900	23.257055
401.335602	712.934570	8969.750000	2659.591553	23.576366
401.697205	718.804504	9007.421875	2699.120850	23.892000
402.058807	716.129578	9079.198242	2753.956299	24.366974
402.420349	716.278137	9166.428711	2830.264893	25.017151
402.781860	714.866455	9277.214844	2892.679443	25.434761
403.143341	717.169861	9423.590820	2972.554688	25.904844
403.504822	717.764343	9594.190430	3029.990479	26.049067
403.866241	721.999512	9790.573242	3106.596680	26.295172
404.227631	714.569275	9968.676758	3182.608398	26.669661
404.588959	721.107910	10171.596680	3263.300781	26.900122
404.950287	720.216309	10322.282227	3335.523438	27.236919
405.311554	726.011902	10438.640625	3381.145264	27.336918
405.672821	714.643555	10476.609375	3422.977783	27.743738
406.034027	707.213318	10475.643555	3432.340088	27.897284
406.395203	702.012146	10384.919922	3438.358398	28.259548
406.756348	704.389832	10293.675781	3440.216064	28.530029
407.117493	704.984192	10233.712891	3456.785889	28.879004
407.478516	702.086426	10215.955078	3475.212646	29.148249
407.839600	704.984192	10228.215820	3488.587158	29.229607
408.200592	708.847961	10199.757813	3503.522217	29.445799
408.561554	719.993347	10185.044922	3525.441406	29.640070
408.922485	724.971680	10179.323242	3560.215088	29.988766
409.283417	724.377258	10200.797852	3586.072266	30.198057
409.644257	724.154297	10316.338867	3627.087158	30.263521
410.005096	715.386658	10462.342773	3685.935303	30.476679
410.365906	717.244141	10611.022461	3745.748779	30.610193
410.726715	708.847961	10730.426758	3793.079834	30.775908
411.087433	710.705566	10797.968750	3821.834717	30.842152
411.448120	704.835632	10890.624023	3855.791016	30.934820
411.808807	709.070801	10918.709961	3898.366455	31.238085
412.169434	713.826233	10859.043945	3909.958008	31.503826
412.530029	719.176025	10769.659180	3915.753174	31.805208
412.890564	718.210144	10727.826172	3919.542725	31.982571
413.251099	714.272034	10744.768555	3924.372803	32.003410
413.611572	723.485596	10811.045898	3957.585938	32.060284
413.972076	729.429871	10874.352539	3999.715576	32.235687
414.332489	729.801331	10971.835938	4042.365234	32.342831
414.692871	719.398926	11113.382813	4089.398682	32.422596
415.053223	709.516785	11241.703125	4140.519043	32.576351
415.413574	708.773682	11440.166992	4237.855957	32.885593
415.773834	705.207092	11606.605469	4320.480469	33.163391
416.134094	711.151367	11788.276367	4374.201660	33.068600
416.494263	713.380432	11943.717773	4429.705078	33.091835
416.854462	715.163757	12231.491211	4522.658203	33.061707
417.214630	713.826355	12564.367188	4639.016113	33.122452
417.574738	709.219482	12943.311523	4772.166016	33.210037
417.934784	711.299988	13263.481445	4883.174805	33.236256
418.294861	711.968750	13636.332031	5024.647461	33.368599
418.654846	716.426941	14095.968750	5182.688965	33.381279
419.014832	716.872742	14599.370117	5362.353027	33.462860
419.374756	711.671448	15147.723633	5538.821777	33.438164
419.734680	714.717834	15690.729492	5724.578613	33.452572
420.094543	713.083252	16250.823242	5925.195313	33.544853
420.454376	718.730225	16769.306641	6095.498047	33.498905
420.814148	716.723938	17290.318359	6261.861816	33.457664
421.173920	720.216309	17832.728516	6430.231934	33.367489
421.533691	722.593994	18375.212891	6632.558594	33.479252
421.893341	713.677734	18769.611328	6784.209473	33.620701
422.253021	712.191589	19009.683594	6908.964355	33.866787
422.612640	709.665283	19044.679688	6957.484375	34.075890
422.972260	720.513489	18992.294922	6967.664063	34.190155
423.331757	725.714661	18871.181641	6948.493652	34.293846
423.691315	728.389587	18885.968750	6943.439941	34.228405
424.050781	726.011902	19011.689453	6976.653809	34.183266
424.410248	723.188416	19157.544922	7010.164063	34.104664
424.769653	715.758118	19295.673828	7079.042969	34.248188
425.128998	713.157471	19354.669922	7132.689453	34.436756
425.488373	715.832336	19247.896484	7114.485840	34.527473
425.847656	719.176086	19012.580078	7052.071777	34.618465
426.206940	722.073914	18755.566406	6979.923340	34.701263
426.566193	718.804626	18399.285156	6873.373047	34.809959
426.925385	713.603333	18029.259766	6753.225098	34.879543
427.284576	711.597168	17488.408203	6586.490234	35.017937
427.643677	714.049133	17100.623047	6475.779785	35.161289
428.002777	724.451477	16716.626953	6349.464844	35.173534
428.361847	731.213074	16328.840820	6217.205566	35.171967
428.720856	732.030457	15979.989258	6107.460938	35.253445
429.079865	721.776611	15728.102539	6044.451660	35.469540
429.438812	717.615723	15558.543945	5986.273438	35.500866
429.797760	712.265869	15453.183594	5944.663574	35.495735
430.156616	723.262695	15264.157227	5874.446777	35.425495
430.515503	721.999512	15140.518555	5852.378906	35.581875
430.874268	720.141907	15115.476563	5828.825684	35.488468
431.233093	707.659180	15171.649414	5854.607910	35.584572
431.591827	710.482605	15275.227539	5877.345215	35.475132
431.950562	710.111084	15297.593750	5884.998535	35.474850
432.309204	715.460938	15348.043945	5885.072754	35.329456
432.667877	701.566223	15449.541992	5918.062500	35.370930
433.026459	706.544617	15565.454102	5985.975098	35.530407
433.385010	713.751953	15719.632813	6041.628418	35.505257
433.743561	727.200745	15898.776367	6127.597168	35.595490
434.102051	726.606262	16095.456055	6196.920410	35.593517
434.460510	715.980957	16247.405273	6283.408691	35.846214
434.818939	709.813904	16312.418945	6311.792969	35.904125
435.177338	706.395996	16375.502930	6336.015625	35.928146
435.535675	715.238037	16327.577148	6303.471191	35.793697
435.894012	721.107910	16265.163086	6282.072266	35.775505
436.252289	722.668274	16254.760742	6292.400391	35.859509
436.610535	724.080078	16246.885742	6311.570313	35.995361
436.968719	727.869446	16420.380859	6360.981934	35.896816
437.326935	727.943787	16536.962891	6393.080566	35.834839
437.685028	726.011902	16689.953125	6444.720703	35.822662
438.043152	719.101746	16790.111328	6470.058105	35.784660
438.401215	722.519714	17050.617188	6553.500000	35.711327
438.759277	716.129700	17347.679688	6663.021973	35.756691
439.117249	714.123535	17785.173828	6839.937500	35.884224
439.475250	703.721130	18073.394531	6944.927246	35.931625
439.833130	705.207092	18483.099609	7074.138672	35.825008
440.191071	707.659119	18733.720703	7163.524902	35.814064
440.548889	720.959290	19089.335938	7288.873535	35.756638
440.906708	717.244141	19431.052734	7429.454590	35.867687
441.264496	712.340149	19704.189453	7529.020020	35.892658
441.622223	705.058594	19869.958984	7611.496582	36.036911
441.979950	711.448547	19891.431641	7629.106934	36.067074
442.337616	708.699280	19897.005859	7637.279785	36.108349
442.695251	709.665283	19729.824219	7603.546875	36.245132
443.052887	711.151367	19525.566406	7550.419922	36.351219
443.410461	715.015137	19336.019531	7505.317871	36.465824
443.768005	717.764343	19172.851563	7425.144531	36.344341
444.125458	714.494934	19095.425781	7372.835938	36.224174
444.482941	719.324646	19146.470703	7365.554688	36.067604
444.840393	723.857117	19302.287109	7419.349609	36.039066
445.197754	722.371094	19625.873047	7534.295410	36.035252
445.555084	719.547546	19923.158203	7660.089844	36.141861
445.912415	712.711731	20328.183594	7834.850098	36.308777
446.269714	717.764343	20613.876953	7957.895996	36.389679
446.626953	719.324707	20963.695313	8094.613281	36.431305
446.984161	721.033630	21324.138672	8215.206055	36.373993
447.341309	715.386536	21603.962891	8320.938477	36.410103
447.698456	721.182190	21784.890625	8391.898438	36.416740
448.055542	722.148132	21883.634766	8438.559570	36.464413
448.412598	725.120300	21811.935547	8423.625977	36.508625
448.769653	717.095520	21668.158203	8383.278320	36.590900
449.126617	713.231873	21301.919922	8261.868164	36.663998
449.483582	716.798340	21022.097656	8192.097656	36.814526
449.840515	722.891174	20632.380859	8066.971191	36.887333
450.197388	725.491760	20375.218750	7987.244629	36.956001
450.554230	719.101746	20174.154297	7892.212402	36.870171
450.911041	710.705505	19966.552734	7833.438965	36.989975
451.267822	704.538330	19776.931641	7787.072754	37.135006
451.624573	701.492004	19578.693359	7730.008301	37.232830
451.981262	703.795410	19463.375000	7693.377441	37.258736
452.337921	709.442383	19312.390625	7642.332031	37.267693
452.694580	711.671448	19221.742188	7623.385254	37.340290
453.051147	711.225647	19218.101563	7605.998047	37.255196
453.407715	709.516663	19149.371094	7570.778809	37.208878
453.764221	710.928467	19153.830078	7578.654785	37.237774
454.120728	712.637390	18943.775391	7518.097656	37.328773
454.477142	715.460938	18893.250000	7502.271484	37.335732
454.833557	721.405090	18678.812500	7431.460938	37.366505
455.189911	723.039734	18490.828125	7380.414551	37.468788
455.546265	723.039795	18247.486328	7318.743652	37.637157
455.902557	725.491760	18089.890625	7256.105957	37.609219
456.258820	724.080017	18106.978516	7242.435059	37.498665
456.615051	726.829163	18219.623047	7259.523926	37.345066
456.971252	719.621887	18212.117188	7276.688965	37.485027
457.327393	721.850891	18361.466797	7370.978516	37.694290
457.683502	721.627991	18639.876953	7491.423340	37.781570
458.039612	726.754883	19129.904297	7663.880371	37.695320
458.395630	726.234863	19625.726563	7834.255859	37.609589
458.751648	720.290588	20096.509766	8020.681641	37.677067
459.107605	722.371094	20838.421875	8295.750000	37.648438
459.463562	722.891174	21601.435547	8578.694336	37.626202
459.819458	722.816895	22325.146484	8842.840820	37.588650
460.175323	711.968567	22947.429688	9071.767578	37.596695
460.531158	709.962585	23467.103516	9296.905273	37.732960
460.886932	713.603333	23751.384766	9437.336914	37.867073
461.242676	718.358704	23814.466797	9498.487305	38.015621
461.598419	720.290588	23580.859375	9430.500977	38.101460
461.954102	721.405090	23122.412109	9266.440430	38.145763
462.309723	722.222473	22423.521484	9018.864258	38.231083
462.665344	726.383484	21683.021484	8759.918945	38.334084
463.020905	725.640381	21078.568359	8524.528320	38.318260
463.376373	724.302917	20637.433594	8359.426758	38.342159
463.731873	711.225647	20270.599609	8198.636719	38.280426
464.087341	703.795410	19979.035156	8100.259766	38.372879
464.442749	698.817139	19771.138672	8042.972168	38.506874
464.798126	707.213318	19676.919922	8006.044434	38.476246
465.153503	712.637390	19783.544922	8039.480469	38.418953
465.508820	713.826233	19895.818359	8052.558105	38.258446
465.864105	712.265869	20072.359375	8119.207520	38.258808
466.219330	711.894348	20379.750000	8248.940430	38.321648
466.574524	718.432922	20559.787109	8344.047852	38.432938
466.929657	712.711670	20747.029297	8407.650391	38.408787
467.284790	715.015076	20899.943359	8472.293945	38.431046
467.639893	710.556946	21070.990234	8542.956055	38.468723
467.994934	715.832336	21230.515625	8646.013672	38.656120
468.349945	708.699280	21234.751953	8663.176758	38.753078
468.704926	706.618835	21204.138672	8655.226563	38.778389
469.059875	705.058594	20979.000000	8573.344727	38.809849
469.414764	710.333984	20719.835938	8485.890625	38.859322
469.769653	717.467102	20498.783203	8414.188477	38.909046
470.124451	721.850891	20403.826172	8387.885742	38.949520
470.479248	724.748779	20254.845703	8321.533203	38.897831
470.834015	723.708496	20154.611328	8279.775391	38.886856
471.188721	727.646545	20209.226563	8304.295898	38.891350
471.543365	728.092346	20335.615234	8346.795898	38.856022
471.898010	720.513489	20527.687500	8418.201172	38.863129
472.252625	711.374268	20691.150391	8474.448242	38.854664
472.607178	705.578613	20974.617188	8595.190430	38.924450
472.961700	712.265869	21206.220703	8668.601563	38.822842
473.316193	718.804504	21532.039063	8793.429688	38.795628
473.670654	724.005676	21701.820313	8886.903320	38.912048
474.025055	723.559875	21948.578125	9001.477539	39.000759
474.379456	721.182190	22113.828125	9058.245117	38.971626
474.733795	714.420654	22244.154297	9108.102539	38.986462
475.088104	710.705505	22379.681641	9190.578125	39.133705
475.442383	712.265930	22370.392578	9212.944336	39.249371
475.796570	713.677673	22488.162109	9255.889648	39.230373
476.150787	711.820068	22642.712891	9322.835938	39.264320
476.504944	705.950134	22962.736328	9441.051758	39.246910
476.859070	706.990417	23284.169922	9578.735352	39.295189
477.213135	714.494934	23614.521484	9690.189453	39.195126
477.567200	717.912842	24051.939453	9860.639648	39.181950
477.921173	720.290588	24528.146484	10030.049805	39.103725
478.275146	717.021240	25059.259766	10248.871094	39.157654
478.629089	721.850891	25417.251953	10389.824219	39.148884
478.983002	725.268860	25892.791016	10576.249023	39.141640
479.336823	721.405090	26308.513672	10743.430664	39.168259
479.690643	713.008850	26786.130859	10916.555664	39.134350
480.044403	711.076965	27292.427734	11117.471680	39.149231
480.398163	718.210144	28053.365234	11391.647461	39.046558
480.751862	719.770508	29053.849609	11805.215820	39.124073
481.105499	717.838562	30336.462891	12299.180664	39.101551
481.459137	714.197754	31932.708984	12924.661133	39.112892
481.812744	716.723938	33951.511719	13721.706055	39.130630
482.166290	714.494873	36393.691406	14717.437500	39.246799
482.519806	716.055359	39310.968750	15917.872070	39.388134
482.873291	717.838562	42686.765625	17287.939453	39.481834
483.226715	718.210144	46390.753906	18878.314453	39.761532
483.580139	718.061523	49833.792969	20538.164063	40.353878
483.933502	714.866455	52925.531250	22268.599609	41.282242
484.286804	716.203857	55304.332031	23864.029297	42.404507
484.640106	715.609558	57138.277344	25239.669922	43.464909
484.993347	712.934631	58102.875000	26143.486328	44.311859
485.346558	713.008972	58299.406250	26421.083984	44.642616
485.699738	712.711670	57665.230469	26054.619141	44.496552
486.052887	711.225647	56501.277344	25250.443359	43.984932
486.405975	709.516663	55083.800781	24286.291016	43.360153
486.759064	714.123474	53691.074219	23307.353516	42.647285
487.112061	722.593933	52533.582031	22502.876953	42.037960
487.464996	725.937561	51834.917969	21989.146484	41.603664
487.817963	719.844788	51682.519531	21861.494141	41.484573
488.170868	714.494934	51773.910156	21900.726563	41.493294
488.523743	712.265869	51864.042969	21984.093750	41.585709
488.876587	711.968750	51689.652344	21948.429688	41.658348
489.229401	723.708557	51263.972656	21727.826172	41.559174
489.582153	725.194580	50452.738281	21342.416016	41.460365
489.934845	734.482422	49414.207031	20843.175781	41.308147
490.287537	725.045898	48365.347656	20334.498047	41.161480
490.640198	724.674500	47541.332031	19901.759766	40.962101
490.992798	717.912903	46975.738281	19556.623047	40.725460
491.345337	717.912903	46891.558594	19481.281250	40.636536
491.697876	717.838562	46999.660156	19505.726563	40.594532
492.050354	719.398926	47409.964844	19712.955078	40.679646
492.402832	716.055359	47635.250000	19828.646484	40.735123
492.755219	707.436218	47503.582031	19794.169922	40.786980
493.107605	704.761292	46725.636719	19551.572266	40.952744
493.459930	709.368103	45418.425781	19026.326172	40.969234
493.812225	718.433044	43612.726563	18302.542969	40.994053
494.164490	721.182190	41548.597656	17361.500000	40.757710
494.516724	723.485596	39335.566406	16440.517578	40.704960
494.868896	721.999512	37351.535156	15590.940430	40.592766
495.221039	714.272034	35803.359375	14936.778320	40.532562
495.573120	710.408386	34569.933594	14406.777344	40.450565
495.925201	709.591003	33929.148438	14086.831055	40.269169
496.277222	709.293762	33550.871094	13898.622070	40.160458
496.629211	701.863464	33483.855469	13852.108398	40.114235
496.981140	706.098816	33435.332031	13855.004883	40.174809
497.333069	713.083252	33514.761719	13905.308594	40.218140
497.684967	718.953125	33554.437500	13943.648438	40.275620
498.036804	719.919006	33597.164063	13979.463867	40.330460
498.388580	715.237976	33504.507813	13970.843750	40.426659
498.740326	716.872559	33360.734375	13903.079102	40.394138
499.092072	710.705566	32985.503906	13775.500977	40.479866
499.443756	711.151367	32573.349609	13602.821289	40.460705
499.795410	713.529053	32157.845703	13470.265625	40.569290
500.147003	718.804504	31816.947266	13286.291992	40.412342
500.498566	719.621887	31410.806641	13124.012695	40.416786
500.850098	718.358704	31000.359375	12974.145508	40.472187
501.201599	712.191589	30613.466797	12860.833008	40.629177
501.553009	713.529053	30276.130859	12720.328125	40.614826
501.904449	713.900574	30034.052734	12603.227539	40.550018
502.255859	721.033508	29769.833984	12501.953125	40.555614
502.607178	717.615662	29710.017578	12484.715820	40.586842
502.958405	715.163635	29580.728516	12431.737305	40.590141
503.309692	709.070862	29561.337891	12420.590820	40.591331
503.660919	709.591003	29525.744141	12419.031250	40.634991
504.012115	714.346375	29608.521484	12464.131836	40.664890
504.363251	716.055359	29709.796875	12489.395508	40.606487
504.714294	722.296692	29803.937500	12497.940430	40.491676
505.065369	721.627991	29820.287109	12507.153320	40.501953
505.416443	725.566101	29876.083984	12520.305664	40.461510
505.767395	719.473145	29871.103516	12559.760742	40.616207
506.118317	717.838562	29888.119141	12523.574219	40.471790
506.469238	716.203918	29865.236328	12549.209961	40.594849
506.820160	727.126465	29870.064453	12532.714844	40.509258
507.170929	727.052063	29890.720703	12590.596680	40.679192
507.521729	724.228577	30003.662109	12614.000977	40.607933
507.872498	717.541321	30024.615234	12664.824219	40.765869
508.223236	715.609436	30204.505859	12721.145508	40.712055
508.573883	721.182190	30367.078125	12805.405273	40.761871
508.924500	721.330811	30643.931641	12867.522461	40.592030
509.275116	718.804504	30864.755859	12977.192383	40.663464
509.625702	714.643555	31117.384766	13096.151367	40.724972
509.976196	713.529053	31398.396484	13250.331055	40.856628
510.326660	709.591003	31703.335938	13325.747070	40.705494
510.677124	709.293762	31969.787109	13414.984375	40.644562
511.027557	716.946960	32206.216797	13518.488281	40.653660
511.377869	725.194580	32419.984375	13643.762695	40.759281
511.728180	728.092346	32540.281250	13730.176758	40.871391
512.078430	722.445313	32707.462891	13783.823242	40.835926
512.428650	719.473145	32818.250000	13854.782227	40.921524
512.778931	720.439148	32962.394531	13885.692383	40.832676
513.129028	720.439270	33027.480469	13903.375977	40.805149
513.479126	725.937683	33109.511719	13895.203125	40.666500
513.829285	726.160583	33059.660156	13911.549805	40.779346
514.179382	720.959290	33005.937500	13906.942383	40.842472
514.529297	720.810730	32893.371094	13890.745117	40.935303
514.879272	720.141907	32923.980469	13884.578125	40.878471
515.229187	723.188416	32822.335938	13834.200195	40.845356
515.579163	720.884949	32872.863281	13822.164063	40.747971
515.928955	717.541321	32872.417969	13835.389648	40.795830
516.278748	723.708496	33100.824219	13923.661133	40.769394
516.628540	724.525879	33323.808594	14060.750000	40.909565
516.978333	724.600098	33822.820313	14233.950195	40.815941
517.327942	716.798340	34424.226563	14485.761719	40.848450
517.677612	714.420654	35120.074219	14754.291992	40.806873
518.027222	710.482605	35822.089844	15001.792969	40.702526
518.376831	719.621887	36599.812500	15292.093750	40.614254
518.726379	724.154297	37368.250000	15623.112305	40.658554
519.075867	725.714661	37949.222656	15917.648438	40.812740
519.425293	718.655945	38340.503906	16112.395508	40.917023
519.774658	709.219482	38528.488281	16164.260742	40.865520
520.124084	712.191589	38532.054688	16189.820313	40.924603
520.473389	710.036804	38263.597656	16135.950195	41.077095
520.822693	715.832458	37838.136719	16004.508789	41.184612
521.171997	717.392761	37315.046875	15806.194336	41.228878
521.521240	714.420654	36834.757813	15604.090820	41.222401
521.870361	712.711731	36416.359375	15409.268555	41.162617
522.219482	712.637390	36087.121094	15266.831055	41.143196
522.568604	719.250305	35809.453125	15144.008789	41.107651
522.917664	725.120300	35647.250000	15052.393555	41.026344
523.266724	723.782776	35697.699219	15042.585938	40.941376
523.615662	726.680664	35967.273438	15156.046875	40.945297
523.964600	719.101746	36424.828125	15383.114258	41.069077
524.313538	717.838623	37061.300781	15636.338867	41.048649
524.662354	712.265930	37867.042969	15916.237305	40.920639
525.011169	713.083252	38835.507813	16279.874023	40.833683
525.359985	712.191589	39949.082031	16710.236328	40.772968
525.708740	716.278259	41271.371094	17253.984375	40.778374
526.057434	722.148132	42709.203125	17877.681641	40.859100
526.406067	721.256531	44321.425781	18602.130859	41.011024
526.754700	721.999512	46041.156250	19409.060547	41.234352
527.103333	718.432922	48001.859375	20305.966797	41.425793
527.451782	719.696106	50066.878906	21385.957031	41.879314
527.800293	713.603333	52082.125000	22503.322266	42.418427
528.148743	717.392822	53977.953125	23717.353516	43.183853
528.497131	715.981140	55621.011719	24803.140625	43.870586
528.845642	715.981018	56983.863281	25800.431641	44.580406
529.193909	708.847961	58000.253906	26669.474609	45.313301
529.542175	715.906738	58685.261719	27427.806641	46.079346
529.890503	715.089355	58954.082031	27821.166016	46.542831
530.238770	717.541443	58718.019531	27781.267578	46.661213
530.586914	708.253601	58034.957031	27241.087891	46.283550
530.934998	710.482605	56889.652344	26399.757813	45.727406
531.283142	708.030579	55545.816406	25386.119141	45.001976
531.631226	710.854065	53913.386719	24279.306641	44.299496
531.979248	715.609558	52269.437500	23228.369141	43.668453
532.327148	717.615723	50780.781250	22261.687500	43.033779
532.675110	723.262695	49757.855469	21559.232422	42.492386
533.023071	720.587708	49288.707031	21172.708984	42.110176
533.370850	719.844727	49169.597656	21024.699219	41.909100
533.718689	709.368103	49345.105469	21091.197266	41.907104
534.066467	707.659119	49523.503906	21213.056641	42.005623
534.414246	699.114319	49591.417969	21296.199219	42.127457
534.761963	702.383606	49478.550781	21272.792969	42.173077
535.109619	695.622070	49150.281250	21133.400391	42.179176
535.457153	701.863525	48531.042969	20855.363281	42.136410
535.804749	702.383606	47621.136719	20484.146484	42.161743
536.152344	707.882019	46682.761719	20028.150391	42.023533
536.499817	717.764343	45762.750000	19580.699219	41.875774
536.847229	719.324707	44896.378906	19108.728516	41.626598
537.194641	717.392761	44097.550781	18693.078125	41.437576
537.542114	716.055359	43454.312500	18403.966797	41.386600
537.889404	715.386536	42916.062500	18149.183594	41.311653
538.236694	719.027405	42415.265625	17958.595703	41.345619
538.583984	712.785950	41990.769531	17769.347656	41.321209
538.931213	716.575439	41769.941406	17655.664063	41.261143
539.278381	719.027527	41678.546875	17568.060547	41.135818
539.625488	726.754944	41737.027344	17522.662109	40.955364
539.972595	726.160461	42030.671875	17653.210938	40.981117
540.319641	723.262695	42706.972656	17895.810547	40.902882
540.666687	719.770508	43718.308594	18374.171875	41.058144
541.013611	713.900574	45117.058594	18900.828125	40.958637
541.360596	711.968689	46515.285156	19548.154297	41.124065
541.707458	708.550781	48012.707031	20225.125000	41.257629
542.054260	712.117249	49132.011719	20849.640625	41.589359
542.401062	703.423828	50047.566406	21345.759766	41.833408
542.747864	699.040039	50444.937500	21624.248047	42.064186
543.094666	704.612793	50370.261719	21673.658203	42.220421
543.441284	713.974915	49803.035156	21480.544922	42.303867
543.787903	719.993347	48842.222656	21059.470703	42.266281
544.134460	711.076965	47567.636719	20451.304688	42.129063
544.481079	711.671387	46077.125000	19740.748047	41.946182
544.827637	709.293762	44405.238281	18941.175781	41.724426
545.174072	713.900574	42727.855469	18173.332031	41.556271
545.520508	714.049133	41258.816406	17534.550781	41.486248
545.866943	714.123535	40042.628906	16998.976563	41.407253
546.213318	713.157532	39176.335938	16592.466797	41.284443
546.559631	711.002747	38463.324219	16229.645508	41.106461
546.905823	710.631165	37868.457031	15924.261719	40.943275
547.252136	710.928406	37340.460938	15700.090820	40.920979
547.598389	712.785950	36846.199219	15513.218750	40.960514
547.944458	712.488770	36396.449219	15350.718750	41.021877
548.290588	713.157532	35803.210938	15127.588867	41.078396
548.636658	724.154297	35114.500000	14831.789063	41.022079
548.982727	721.776672	34314.703125	14494.752930	40.999634
549.328735	723.485657	33538.839844	14178.222656	41.001347
549.674622	711.151367	32702.187500	13841.780273	41.044716
550.020569	719.027527	31925.205078	13538.625000	41.080318
550.366455	716.129639	31119.914063	13172.906250	40.971138
550.712280	718.358704	30409.951172	12875.769531	40.945637
551.058044	718.061523	29845.843750	12600.551758	40.794353
551.403748	713.677551	29362.726563	12425.273438	40.879528
551.749512	714.866516	29072.945313	12279.862305	40.782017
552.095154	711.448547	28836.587891	12193.523438	40.824955
552.440735	721.256531	28806.494141	12148.792969	40.688763
552.786316	719.696106	28797.208984	12146.860352	40.698631
553.131897	714.272034	28847.806641	12151.838867	40.654564
553.477417	706.916016	28809.099609	12157.559570	40.746456
553.822815	706.544617	28792.601563	12129.993164	40.673023
554.168213	706.693176	28719.041016	12109.782227	40.707367
554.513672	704.909973	28661.234375	12054.872070	40.598907
554.859009	705.207092	28434.091797	12004.792969	40.750237
555.204285	711.374207	28221.365234	11916.596680	40.731468
555.549500	713.008850	27934.478516	11828.918945	40.835087
555.894714	715.906677	27656.734375	11718.430664	40.839592
556.239990	716.575439	27318.734375	11581.043945	40.840553
556.585022	712.934631	27004.802734	11447.968750	40.830246
556.930115	706.841797	26723.865234	11296.687500	40.703526
557.275146	702.160706	26424.724609	11208.120117	40.843357
557.620178	701.417664	26187.921875	11110.262695	40.840614
557.965149	704.687012	25970.212891	11050.597656	40.948723
558.310059	710.408264	25789.880859	10943.081055	40.800987
558.654968	719.621887	25643.947266	10864.618164	40.703190
558.999756	718.358704	25536.953125	10806.513672	40.647572
559.344604	714.123535	25502.328125	10802.649414	40.698895
559.689331	715.609558	25410.416016	10775.305664	40.736080
560.033997	716.724060	25343.320313	10744.620117	40.719784
560.378723	725.491882	25332.398438	10702.192383	40.544308
560.723389	728.092346	25333.068359	10682.651367	40.457500
561.067932	732.179016	25375.494141	10676.112305	40.351444
561.412476	729.578430	25334.107422	10677.747070	40.432266
561.757019	723.188416	25346.070313	10689.932617	40.477570
562.101501	725.194580	25348.968750	10686.588867	40.454380
562.445862	714.494934	25381.365234	10676.038086	40.384300
562.790222	715.832458	25375.791016	10650.478516	40.286549
563.134644	703.646729	25356.919922	10626.404297	40.249252
563.478943	707.807800	25343.765625	10628.484375	40.269093
563.823181	707.064758	25330.318359	10641.932617	40.347504
564.167358	715.535217	25332.771484	10673.882813	40.452744
564.511536	718.135803	25392.283203	10690.229492	40.415154
564.855774	713.380432	25443.923828	10695.875977	40.365047
565.199768	714.643555	25620.693359	10723.517578	40.186516
565.543823	711.077087	25739.130859	10769.881836	40.190117
565.887817	714.049133	26004.021484	10875.540039	40.179920
566.231812	715.683777	26232.054688	10969.309570	40.184498
566.575745	715.758118	26479.708984	11066.721680	40.176151
566.919617	717.838562	26689.462891	11115.538086	40.034843
567.263428	719.324707	26796.533203	11177.729492	40.105534
567.607239	724.377197	26874.255859	11211.835938	40.105190
567.950989	721.479309	26844.830078	11222.014648	40.195972
568.294678	715.683777	26863.181641	11202.695313	40.107132
568.638367	711.894348	26767.482422	11141.321289	40.027599
568.981995	717.392761	26630.466797	11085.891602	40.012615
569.325623	718.135742	26399.533203	11012.629883	40.085411
569.669128	719.324646	26220.759766	10952.666992	40.128498
570.012573	715.683777	26058.115234	10896.344727	40.172394
570.356140	710.854187	26001.271484	10859.268555	40.127506
570.699524	707.956360	26001.343750	10817.956055	39.970924
571.042908	709.665283	26120.304688	10825.014648	39.807537
571.386230	711.597168	26245.875000	10863.578125	39.758244
571.729492	714.643555	26380.437500	10943.676758	39.854733
572.072815	711.894348	26565.750000	11015.303711	39.852505
572.416016	718.581604	26709.375000	11028.530273	39.667694
572.759094	727.200745	26907.914063	11086.708008	39.569233
573.102234	733.888000	26963.787109	11085.148438	39.463596
573.445374	731.956055	26925.820313	11116.504883	39.644970
573.788391	716.872620	26871.875000	11085.965820	39.644779
574.131409	712.785950	26863.626953	11081.582031	39.649952
574.474365	707.064697	26857.537109	11043.911133	39.528336
574.817261	719.473206	26720.373047	10997.991211	39.531391
575.160156	715.758057	26474.208984	10917.000977	39.603481
575.502930	715.163757	26244.982422	10835.714844	39.642078
575.845703	715.906738	26019.474609	10743.579102	39.629478
576.188477	723.114075	25790.400391	10648.620117	39.595451
576.531250	729.949951	25530.712891	10521.860352	39.482292
576.873901	726.977844	25268.943359	10408.547852	39.449043
577.216431	719.101746	24958.656250	10288.325195	39.477722
577.559082	722.445374	24624.666016	10192.625000	39.620502
577.901611	719.473206	24233.833984	10038.149414	39.629723
578.244080	724.971619	23860.906250	9873.418945	39.542152
578.586487	722.519592	23509.603516	9702.671875	39.408958
578.928955	754.692688	23162.906250	9595.007813	39.451229
579.271301	756.847595	22834.341797	9465.499023	39.445831
579.613647	757.442078	22477.984375	9312.508789	39.386982
579.955872	724.228699	22133.740234	9157.364258	39.389668
580.298157	714.197754	21823.750000	9037.291016	39.428093
580.640320	705.429993	21531.666016	8947.385742	39.574871
580.982483	703.349609	21311.802734	8843.063477	39.496967
581.324524	701.937805	21059.841797	8766.383789	39.613338
581.666626	705.429993	20879.138672	8683.015625	39.544464
582.008728	711.968689	20757.429688	8611.908203	39.410118
582.350647	723.039795	20665.443359	8548.825195	39.241936
582.692566	722.891174	20586.089844	8492.207031	39.114120
583.034424	723.857117	20466.166016	8452.008789	39.145126
583.376343	721.107910	20331.156250	8382.312500	39.067749
583.718201	720.885010	20213.609375	8363.811523	39.209126
584.059937	714.272156	20121.474609	8305.038086	39.113136
584.401611	702.309326	20058.242188	8286.612305	39.183346
584.743347	703.126648	19966.626953	8217.434570	39.008011
585.085022	704.092590	19851.384766	8187.119629	39.081383
585.426514	709.591003	19777.527344	8133.993652	38.936584
585.768127	709.591003	19719.496094	8121.732910	38.990948
586.109619	707.287598	19674.320313	8098.030762	38.966259
586.451172	713.008972	19619.335938	8086.439453	38.999805
586.792542	712.711670	19595.857422	8047.653809	38.843857
587.133850	711.522888	19558.035156	8012.657715	38.739979
587.475220	711.968689	19549.935547	8003.294922	38.705482
587.816589	711.894348	19509.220703	8016.893066	38.861904
588.157776	717.764221	19567.548828	8019.419434	38.736012
588.498962	712.117249	19618.146484	8001.214355	38.554352
588.840210	706.173035	19696.462891	8018.155762	38.503799
589.181335	706.693176	19749.884766	8021.425293	38.411270
589.522400	712.785950	19800.708984	8056.347656	38.472290
589.863403	718.953125	19904.361328	8041.337402	38.166424
590.204407	711.894348	19881.847656	8063.553223	38.349903
590.545410	717.244202	19936.535156	8077.002441	38.293598
590.886353	717.764343	19892.695313	8074.848145	38.368240
591.227112	722.965515	19907.853516	8061.622559	38.252281
591.567932	715.015137	19817.054688	8027.889160	38.283211
591.908752	710.631165	19715.705078	8002.254395	38.366718
592.249512	718.581604	19642.667969	7978.626465	38.364044
592.590149	717.318542	19544.142578	7926.763184	38.293472
592.930786	726.160461	19485.964844	7903.283691	38.257984
593.271423	722.222412	19379.710938	7865.389160	38.285789
593.612000	723.188293	19322.349609	7826.008301	38.188923
593.952576	721.776611	19306.152344	7809.290527	38.136948
594.292969	722.073914	19360.763672	7813.302246	38.045746
594.633484	727.720886	19401.185547	7840.645996	38.091084
594.973877	731.510315	19497.033203	7852.162598	37.945396
595.314209	729.801270	19635.681641	7893.846191	37.893208
595.654480	724.748779	19882.070313	7957.970215	37.756954
595.994812	722.519714	20105.572266	8021.424316	37.656116
596.335022	718.210144	20336.580078	8106.353027	37.659313
596.675171	720.513489	20488.974609	8162.971191	37.648140
597.015320	716.501160	20694.496094	8246.116211	37.689545
597.355408	716.055359	20801.343750	8267.291992	37.595860
597.695496	715.089417	20921.939453	8304.072266	37.556488
598.035461	713.231873	20879.138672	8294.487305	37.594418
598.375366	720.587830	20811.302734	8287.354492	37.663002
598.715271	715.163635	20687.511719	8252.133789	37.737026
599.055176	718.581604	20439.191406	8155.763672	37.712738
599.395081	713.528992	20216.431641	8061.398926	37.675777
599.734802	717.021179	19884.003906	7926.985840	37.616589
600.074524	715.832336	19544.812500	7802.528809	37.637177
600.414246	716.426758	19109.990234	7626.505859	37.567921
600.753906	722.148132	18699.988281	7485.107422	37.618309
601.093506	721.330811	18371.720703	7364.365723	37.636761
601.433044	723.188477	18151.337891	7295.858887	37.712959
601.772583	715.758118	18045.603516	7225.865723	37.565872
602.112122	717.912903	18054.669922	7186.634277	37.312172
602.451538	713.677673	18112.998047	7164.640625	37.075947
602.790894	718.655945	18248.451172	7194.138672	36.939865
603.130310	716.278137	18447.136719	7250.831543	36.854126
603.469604	718.210144	18679.703125	7321.864746	36.765625
603.808838	717.615662	18995.267578	7421.132813	36.676029
604.148010	716.575378	19287.126953	7536.599121	36.724941
604.487305	722.148132	19605.515625	7641.366699	36.641869
604.826416	722.742493	19826.640625	7718.640625	36.620262
605.165527	724.302917	20022.056641	7783.061035	36.578133
605.504456	719.696228	20164.048828	7848.076660	36.660412
605.843445	714.420654	20211.677734	7887.679688	36.791115
606.182434	708.327820	20186.341797	7865.313965	36.743923
606.521423	704.241211	20065.599609	7819.618652	36.750401
606.860229	708.699402	19863.941406	7749.699219	36.757561
607.199036	717.021301	19597.119141	7692.783691	36.947701
607.537903	720.216309	19306.744141	7587.720215	36.948826
607.876648	719.398926	18996.603516	7464.079590	36.902145
608.215271	721.627991	18729.486328	7313.394043	36.604942
608.553955	718.432922	18435.917969	7201.419434	36.590897
608.892578	719.919006	18237.083984	7109.878418	36.478275
609.231140	711.299988	18116.341797	7068.640625	36.525860
609.569641	717.095520	18070.943359	7042.634766	36.450356
609.908081	710.928406	18107.423828	7021.830078	36.276855
610.246521	710.556946	18099.994141	7006.969238	36.208256
610.584961	711.448547	18114.556641	6997.681152	36.121323
610.923340	715.386536	18035.794922	6987.428223	36.211857
611.261597	717.615723	17922.187500	6973.384766	36.361084
611.599854	712.042969	17786.955078	6933.039063	36.433548
611.938110	710.779846	17613.236328	6867.578125	36.425465
612.276245	713.231750	17397.685547	6776.111328	36.338497
612.614319	708.327820	17084.349609	6654.328613	36.309193
612.952393	704.389832	16740.478516	6540.125000	36.391262
613.290466	703.126648	16393.632813	6406.231934	36.347492
613.628479	710.705566	16077.028320	6279.917480	36.242973
613.966370	725.045959	15807.903320	6169.429199	36.096497
614.304260	731.584656	15551.484375	6081.009277	36.096230
614.642151	726.680664	15353.542969	6000.613281	36.056488
614.979980	716.129578	15188.813477	5931.883301	36.038609
615.317749	712.711670	15013.014648	5866.050781	36.036572
615.655396	718.507324	14886.921875	5846.731934	36.194767
615.993164	723.039795	14808.606445	5812.181152	36.130188
616.330811	723.188416	14811.653320	5796.132324	36.007782
616.668396	723.708496	14816.036133	5771.464355	35.819176
617.005859	722.593994	14780.520508	5769.605957	35.901535
617.343445	719.993408	14753.028320	5761.284668	35.924454
617.680908	717.690002	14720.707031	5744.714844	35.899586
618.018311	718.284485	14732.594727	5723.835938	35.717426
618.355652	721.405212	14777.918945	5726.362793	35.605965
618.692993	721.776672	14780.445313	5711.130371	35.489517
619.030273	717.838562	14764.469727	5693.297363	35.421013
619.367554	716.649719	14701.015625	5672.269531	35.436855
619.704712	711.820068	14653.463867	5654.437500	35.452183
620.041870	716.501160	14616.682617	5652.728027	35.511959
620.379028	713.454773	14577.823242	5635.712891	35.502941
620.716064	719.844727	14544.312500	5617.508301	35.427502
621.053040	716.501160	14506.937500	5588.976563	35.332279
621.389954	724.971680	14464.807617	5537.187500	35.023823
621.726929	722.148132	14394.815430	5511.033203	35.025246
622.063843	720.216309	14331.434570	5482.203125	34.985748
622.400635	710.036804	14279.719727	5469.274902	35.072582
622.737427	709.442383	14232.239258	5448.767090	35.046928
623.074219	710.259705	14149.319336	5414.290527	35.002678
623.410889	710.036804	14064.390625	5383.529785	34.996029
623.747559	710.631287	14016.019531	5370.749512	35.024292
624.084167	710.854187	14003.239258	5380.854004	35.132896
624.420715	711.374268	14033.926758	5384.420898	35.076214
624.757324	712.117371	14070.038086	5373.349609	34.894894
625.093750	719.473328	14142.629883	5376.990723	34.697632
625.430176	728.612549	14190.109375	5400.544434	34.705883
625.766602	732.104736	14273.700195	5430.042969	34.692650
626.102905	725.789001	14357.515625	5459.095215	34.722721
626.439209	720.513489	14493.043945	5475.144531	34.522568
626.775452	721.999512	14600.187500	5488.369629	34.344326
627.111694	722.296814	14689.424805	5491.937012	34.149040
627.447876	716.946960	14736.680664	5507.243652	34.168243
627.783997	719.919128	14795.975586	5537.781738	34.227360
628.120056	720.364929	14857.497070	5549.001465	34.155704
628.456055	723.188293	14849.695313	5532.357422	34.043583
628.792053	710.705505	14800.433594	5504.865234	34.025921
629.128052	707.510498	14686.453125	5486.661621	34.188217
629.463928	715.237976	14583.395508	5462.066895	34.228260
629.799744	717.318420	14459.754883	5434.426270	34.325119
630.135559	721.256531	14335.075195	5362.650391	34.093258
630.471375	712.488770	14201.553711	5301.425293	34.019680
630.807068	716.501160	14016.464844	5205.797363	33.754200
631.142700	712.117371	13857.828125	5171.246582	33.920792
631.478333	724.080078	13680.171875	5131.717285	34.019806
631.813965	723.336975	13577.114258	5092.708496	33.992901
632.149475	730.395752	13446.563477	5036.164063	33.860584
632.484924	717.689941	13356.285156	4980.808594	33.730953
632.820435	716.501160	13235.988281	4937.712891	33.717133
633.155884	717.764343	13154.924805	4892.908691	33.569920
633.491150	718.878906	13099.570313	4867.051270	33.505177
633.826477	721.107910	13025.117188	4835.770020	33.441635
634.161804	715.312317	12975.484375	4823.658691	33.509693
634.497009	715.237976	12886.765625	4776.030762	33.363049
634.832153	711.076965	12850.358398	4755.671387	33.318237
635.167297	715.758118	12783.262695	4718.074219	33.166061
635.502380	720.067688	12724.415039	4718.445801	33.307751
635.837463	722.816895	12604.639648	4691.399902	33.400459
636.172424	718.655945	12523.351563	4648.824707	33.293266
636.507324	712.042969	12401.421875	4603.202637	33.287994
636.842224	709.888184	12311.291992	4562.410156	33.207375
637.177124	710.408386	12153.473633	4528.453613	33.365582
637.511963	716.798340	12020.695313	4481.197266	33.301781
637.846741	723.708496	11893.338867	4429.631348	33.178562
638.181396	716.278259	11756.176758	4381.557129	33.200294
638.516113	723.114075	11668.350586	4325.458984	32.912445
638.850769	719.398926	11557.491211	4275.155762	32.807961
639.185303	729.429871	11488.984375	4244.022949	32.664856
639.519836	719.696106	11387.041992	4220.022949	32.813477
639.854370	712.414490	11286.731445	4192.753906	32.913136
640.188843	702.532227	11175.723633	4139.256348	32.814487
640.523254	704.241211	11081.656250	4106.117188	32.781536
640.857605	710.111145	10990.413086	4079.442383	32.774635
641.191895	719.250305	10925.546875	4064.061768	32.772038
641.526184	725.120300	10854.067383	4035.083740	32.678257
641.860413	724.228577	10796.557617	4006.551514	32.587528
642.194580	723.485596	10732.135742	3972.520752	32.462269
642.528748	714.494934	10677.077148	3937.746826	32.353580
642.862793	723.559875	10635.096680	3886.998047	31.916727
643.196838	720.662109	10561.313477	3863.889893	31.941257
643.530823	724.302917	10513.538086	3835.357666	31.780365
643.864746	717.169861	10447.481445	3835.729248	32.049942
644.198669	721.925232	10387.594727	3810.837891	31.957563
644.532532	717.912903	10331.125000	3798.726563	32.047703
644.866333	718.878845	10273.464844	3769.525391	31.928610
645.200073	711.448547	10264.475586	3758.380127	31.894932
645.533813	719.101746	10254.963867	3757.488525	31.862738
645.867554	717.615723	10248.648438	3756.225342	31.881220
646.201172	719.844727	10238.468750	3740.176025	31.730755
646.534729	721.033630	10208.598633	3723.680908	31.648237
646.868225	725.789001	10233.862305	3724.423828	31.537775
647.201782	729.058350	10222.716797	3724.795654	31.555141
647.535217	722.668274	10244.190430	3721.526123	31.495571
647.868591	721.776672	10247.163086	3717.364990	31.448469
648.201965	716.203918	10254.518555	3710.529297	31.392605
648.535278	718.953125	10242.036133	3697.600830	31.278187
648.868591	713.231873	10205.925781	3689.055908	31.348570
649.201782	722.148132	10175.385742	3672.709229	31.212175
649.534912	714.569275	10142.543945	3661.563721	31.257980
649.868103	713.083252	10101.604492	3635.706299	31.129747
650.201172	708.625000	10048.701172	3620.251709	31.173479
650.534180	716.946960	9991.264648	3596.920654	31.053215
650.867188	723.336975	9981.678711	3580.499268	30.860411
651.200134	730.098572	9975.065430	3574.852539	30.770840
651.533020	735.448303	9927.882813	3566.604736	30.798767
651.865845	732.847656	9877.282227	3556.945313	30.883240
652.198608	733.367859	9826.088867	3536.586670	30.829262
652.531433	725.788879	9820.813477	3524.401123	30.770805
652.864136	725.417480	9772.962891	3500.698242	30.674408
653.196777	859.905334	9894.967773	3619.360107	30.541624
653.529358	864.289246	9847.637695	3598.035156	30.431257
653.861938	861.317139	9801.941406	3581.688477	30.427086
654.194519	718.284424	9587.799805	3424.983643	30.516878
654.526978	717.021240	9519.367188	3397.194580	30.448399
654.859375	720.439209	9452.420898	3370.520264	30.349138
655.191833	719.696228	9413.188477	3347.114990	30.222822
655.524170	716.203918	9369.573242	3335.597900	30.270222
655.856445	716.203918	9357.833008	3315.090576	30.074038
656.188660	722.073792	9326.999023	3307.511475	30.046024
656.520874	722.222412	9286.056641	3289.678711	29.980221
656.853088	724.377197	9266.664063	3278.310547	29.897535
657.185181	727.572266	9264.062500	3258.843018	29.652359
657.517212	727.572266	9312.434570	3253.938721	29.428154
657.849243	727.943787	9350.551758	3255.870850	29.317429
658.181274	719.770447	9415.789063	3270.136719	29.327976
658.513123	711.448547	9457.621094	3277.344482	29.337357
658.844971	709.145203	9526.796875	3304.093506	29.429018
659.176819	708.625061	9612.467773	3316.873779	29.293518
659.508667	717.392761	9745.916992	3336.266602	29.006664
659.840393	716.501160	9832.702148	3352.910400	28.920042
660.172058	719.919006	9908.639648	3362.495361	28.758915
660.503662	718.581604	9926.249023	3365.467529	28.746544
660.835266	713.083252	9950.471680	3364.650146	28.704723
661.166931	710.705566	9893.928711	3361.083740	28.861090
661.498413	707.882080	9832.925781	3348.600830	28.939243
661.829773	721.479492	9718.202148	3311.003662	28.782972
662.161194	720.885010	9582.525391	3272.365967	28.792421
662.492615	723.857117	9416.978516	3226.149658	28.784742
662.823975	709.739563	9240.435547	3171.017334	28.852016
663.155212	713.008850	9061.291992	3122.125977	28.857635
663.486450	714.272034	8908.747070	3075.984131	28.820787
663.817627	726.160461	8766.012695	3039.798584	28.777124
664.148743	727.497986	8662.731445	2982.957031	28.423347
664.479858	728.018066	8542.881836	2943.353516	28.347717
664.810913	726.977844	8458.918945	2909.322998	28.225063
665.141907	720.290527	8380.528320	2893.793701	28.373835
665.472778	715.237976	8304.444336	2855.007813	28.194908
665.803711	705.281433	8267.069336	2832.419678	28.130095
666.134583	716.203918	8215.577148	2811.391846	27.938175
666.465454	718.358704	8200.717773	2813.175049	27.996738
666.796143	726.754883	8144.618652	2790.364258	27.819456
667.126831	719.770508	8107.838379	2771.045654	27.764704
667.457458	716.649719	8083.095703	2754.030518	27.657583
667.788147	714.420654	8039.034668	2755.962158	27.872341
668.118774	715.312256	8030.564453	2743.331055	27.723158
668.449219	726.309021	8005.227051	2721.708740	27.413410
668.779663	728.166687	8012.359863	2708.408447	27.185463
669.110107	723.634216	7989.548828	2708.334229	27.315212
669.440552	719.993408	7963.171387	2708.482910	27.453276
669.770874	713.751953	7959.084473	2690.501709	27.283079
670.101135	719.844727	7934.490234	2679.727539	27.165339
670.431396	723.485596	7935.901855	2660.780518	26.860554
670.761597	724.451477	7855.283691	2644.359619	26.924042
671.091797	725.640381	7805.574707	2619.765381	26.753426
671.421875	719.844727	7733.575684	2607.430908	26.912725
671.751892	725.045959	7703.854004	2597.400391	26.829144
672.081909	724.080017	7684.089844	2593.387939	26.857834
672.411865	720.513489	7635.273438	2584.248779	26.953003
672.741821	719.919128	7586.158691	2569.536865	26.937855
673.071716	718.953125	7531.398438	2548.657715	26.858265
673.401550	724.897400	7483.025879	2522.280273	26.595867
673.731262	726.086182	7463.931152	2508.385742	26.452072
674.060974	724.228699	7412.142090	2494.936768	26.476240
674.390625	726.829285	7386.507813	2487.655029	26.440100
674.720276	724.674500	7334.496094	2466.478760	26.351757
675.049927	725.417480	7271.858887	2451.023926	26.359457
675.379395	716.575439	7230.174316	2440.101318	26.460424
675.708923	713.751953	7175.042480	2422.417236	26.444645
676.038330	711.225647	7152.528809	2399.457764	26.209482
676.367737	717.392761	7102.597656	2384.300049	26.105774
676.697083	716.723938	7095.093262	2376.126709	26.016100
677.026428	718.210144	7080.083984	2370.628174	25.973761
677.355652	711.671448	7075.477051	2362.157959	25.935528
677.684875	715.832458	7059.799316	2358.442627	25.892477
678.013977	715.312256	7049.619629	2347.668945	25.770088
678.343079	720.067688	7053.408691	2330.058838	25.420883
678.672180	721.330811	7061.878906	2318.319336	25.186916
679.001221	721.033630	7102.150879	2326.641357	25.161858
679.330139	720.439209	7146.955566	2337.637939	25.164469
679.659058	721.256531	7184.479004	2344.102295	25.108925
679.987976	725.045898	7229.505859	2346.034180	24.921181
680.316772	725.045898	7270.372559	2350.343506	24.831421
680.645630	724.302917	7338.062500	2360.077148	24.732893
680.974304	715.906738	7375.882813	2375.680908	24.921623
681.302979	723.039856	7440.748535	2377.761475	24.632235
681.631653	722.296814	7458.655762	2380.064697	24.609257
681.960266	728.835449	7477.230957	2366.690430	24.270287
682.288757	716.575439	7460.364746	2361.489258	24.391537
682.617249	714.272034	7422.990234	2358.294189	24.505756
682.945679	717.689941	7392.600098	2351.012451	24.469580
683.274109	721.553711	7350.916504	2344.473877	24.480787
683.602478	724.600159	7318.224121	2317.204834	24.153709
683.930725	718.433044	7232.701172	2289.786865	24.121723
684.259033	723.114075	7137.073730	2254.418945	23.874565
684.587280	716.872742	7030.449219	2231.236328	23.985826
684.915344	721.330872	6965.730957	2202.258545	23.716093
685.243469	714.643555	6897.447266	2189.924072	23.861029
685.571533	718.061523	6826.636719	2174.395020	23.840805
685.899536	710.854187	6765.411621	2164.809814	24.014233
686.227539	715.535156	6705.226563	2144.970947	23.864933
686.555420	712.117249	6688.433594	2136.797607	23.838772
686.883301	717.095520	6658.117188	2111.609131	23.472624
687.211121	715.238037	6637.312500	2099.497803	23.374577
687.538940	719.696228	6627.505371	2087.163330	23.146770
687.866638	713.826355	6634.267090	2087.906250	23.209080
688.194336	710.556946	6642.736816	2093.924805	23.319723
688.521973	707.956299	6628.619629	2091.993164	23.376383
688.849609	721.850891	6619.406738	2084.116943	23.098825
689.177063	722.519714	6592.583496	2061.603271	22.812077
689.504578	727.943848	6541.239746	2045.479614	22.664179
689.832031	725.789001	6461.735840	2039.832642	22.908924
690.159485	730.618652	6366.331543	2020.291016	22.883926
690.486816	728.240967	6289.279785	1991.610229	22.718224
690.814087	722.148193	6196.995605	1963.598022	22.675514
691.141296	717.392822	6117.193848	1940.638306	22.653530
691.468506	712.191589	6017.183105	1914.855469	22.670418
691.795715	716.872620	5927.722656	1892.267212	22.556675
692.122803	724.748779	5846.286621	1869.456421	22.350857
692.449829	726.309082	5783.427246	1845.382446	22.128677
692.776855	723.188477	5728.740234	1823.388794	21.979601
693.103821	711.597168	5686.089844	1809.345581	22.067545
693.430664	712.860291	5622.709473	1793.667603	22.013046
693.757568	709.665283	5557.025879	1787.426270	22.233976
694.084351	718.507324	5500.036621	1776.429321	22.125181
694.411133	721.256531	5456.717285	1752.429688	21.775558
694.737854	724.005676	5438.959473	1727.909790	21.291920
695.064575	719.398926	5414.587891	1714.758179	21.199556
695.391174	717.392761	5398.315918	1722.634277	21.475283
695.717773	715.535156	5369.857910	1719.513672	21.570883
696.044250	714.717957	5357.746094	1717.804688	21.604149
696.370789	717.021301	5388.953613	1711.191772	21.279642
696.697205	719.101746	5394.674805	1714.832397	21.296440
697.023621	718.953125	5455.825684	1720.405273	21.141632
697.349915	712.414490	5499.738770	1731.773438	21.292875
697.676208	709.739563	5604.431152	1748.120117	21.214424
698.002380	714.123352	5689.507813	1768.479004	21.191442
698.328674	712.117249	5817.902832	1786.311646	21.038767
698.654724	711.077087	5949.047363	1800.280640	20.794384
698.980896	709.591003	6063.622559	1809.717163	20.547623
699.306946	724.154297	6143.349121	1816.627319	20.159323
699.632935	726.532043	6175.744629	1821.382690	20.091906
699.958862	723.262695	6194.246582	1807.859497	19.824530
700.284729	721.330811	6202.939941	1803.252808	19.737307
700.610596	724.971619	6187.930176	1797.828613	19.638754
700.936340	729.949951	6082.569824	1789.952515	19.803434
701.262146	716.129639	5922.893066	1756.442017	19.980019
701.587830	712.488770	5755.563965	1722.708618	20.031822
701.913513	705.281433	5609.632813	1689.569702	20.069693
702.239075	711.151367	5483.466309	1664.752563	19.981941
702.564697	708.625000	5341.474121	1627.452515	19.832882
702.890137	716.203918	5219.914551	1597.211426	19.561815
703.215698	717.169922	5097.464355	1576.555176	19.619349
703.541016	718.061523	4984.449219	1559.614136	19.725180
703.866455	715.237976	4894.543457	1542.004395	19.782387
704.191711	715.312317	4812.141113	1524.766235	19.758062
704.517029	713.157471	4767.856934	1502.326782	19.463078
704.842163	715.089355	4707.969238	1474.537598	19.020061
705.167419	712.265869	4657.889160	1458.785522	18.920197
705.492493	717.987122	4617.690918	1462.574829	19.093443
705.817566	710.631287	4581.431152	1456.927734	19.280161
706.142578	710.408264	4557.654297	1455.664551	19.371162
706.467590	704.464111	4540.787598	1433.150879	18.994404
706.792480	709.813904	4545.171875	1430.847534	18.799644
707.117371	709.145203	4547.995605	1420.890991	18.540598
707.442200	713.826233	4532.986328	1425.126343	18.624516
707.766907	716.278259	4515.599609	1420.742310	18.541840
708.091675	721.330811	4505.048340	1409.968384	18.200026
708.416321	716.426941	4506.014160	1402.241089	18.097332
708.741028	712.042969	4520.131836	1406.699219	18.241598
709.065552	707.807800	4544.057129	1415.243774	18.440825
709.390137	716.129639	4553.716309	1413.237671	18.165272
709.714600	718.655945	4581.951660	1409.894165	17.892450
710.039063	721.405090	4610.483887	1404.990234	17.577045
710.363403	722.519714	4664.725098	1411.974609	17.489065
710.687744	727.423645	4708.117676	1417.918945	17.346104
711.012085	727.497864	4760.574707	1432.853638	17.489271
711.336304	724.600098	4806.122559	1424.606079	17.150610
711.660461	714.792175	4848.995605	1422.822754	17.126165
711.984619	711.374268	4869.057129	1420.593750	17.058048
712.308716	703.275208	4860.884277	1430.698853	17.496202
712.632751	707.956360	4854.865723	1435.082642	17.534174
712.956726	713.974854	4835.175293	1423.788696	17.223475
713.280701	715.832458	4804.339844	1416.135620	17.128578
713.604553	711.820068	4740.588379	1401.795044	17.126202
713.928467	713.751953	4673.641602	1399.343140	17.313391
714.252258	713.380432	4611.598145	1383.888062	17.200363
714.575989	716.352539	4556.540527	1368.210327	16.974632
714.899719	710.854065	4492.045410	1345.622192	16.787516
715.223267	715.237976	4452.516113	1335.219849	16.589128
715.546936	711.820068	4422.720703	1324.594604	16.512825
715.870422	715.906738	4399.092285	1319.244751	16.380875
716.193970	717.689941	4367.587891	1307.059082	16.147551
716.517395	728.092346	4332.889160	1308.619507	16.104296
716.840820	721.776611	4310.523926	1291.158325	15.865751
717.164124	720.142029	4271.960449	1290.415405	16.055815
717.487488	712.860352	4246.251953	1269.313354	15.748410
717.810730	715.981018	4194.239746	1271.171021	15.961722
718.133972	709.962463	4152.556152	1255.567505	15.848661
718.457092	707.807678	4081.522705	1248.657227	16.031275
718.780212	706.990417	4029.956787	1233.722412	15.851259
719.103210	708.996582	3973.337891	1227.703857	15.890105
719.426208	719.919128	3930.019531	1219.010376	15.547528
719.749207	720.290588	3875.035400	1217.970093	15.775586
720.072083	726.309082	3835.209229	1202.440918	15.315122
720.394958	717.021240	3775.172852	1196.571045	15.681034
720.717773	720.736328	3715.953857	1174.874634	15.162114
721.040527	720.587830	3670.182861	1161.054321	14.933118
721.363281	723.485596	3638.009766	1149.834595	14.628426
721.685913	718.433044	3628.573486	1153.475464	14.949190
722.008545	717.541321	3598.778076	1160.236938	15.364778
722.331055	715.609558	3575.223877	1152.955200	15.293868
722.653503	714.643555	3557.837158	1136.608643	14.841236
722.976013	707.287598	3547.955078	1123.159912	14.639951
723.298401	710.482666	3536.438232	1121.228149	14.534747
723.620789	713.231873	3505.899658	1130.441650	14.939470
723.943115	726.160461	3480.562500	1133.042236	14.772055
724.265381	726.754883	3463.324219	1130.887451	14.767854
724.587585	725.343079	3467.782227	1123.011353	14.500532
724.909790	715.163635	3465.181641	1108.447998	14.301156
725.231873	713.974854	3472.463135	1105.252930	14.184511
725.553894	716.203918	3470.308594	1100.497681	13.953491
725.875916	767.324158	3529.379639	1155.927490	14.069353
726.197937	772.599609	3524.252686	1169.896362	14.438476
726.519775	770.667786	3536.438232	1174.428833	14.598501
726.841675	721.479431	3509.466064	1135.865845	14.863286
727.163513	718.358704	3540.821533	1122.342651	14.313171
727.485291	721.479431	3564.895752	1117.884399	13.941152
727.806946	720.513489	3574.852539	1109.934204	13.643113
728.128662	718.581604	3603.756592	1112.386108	13.649241
728.450256	716.575439	3619.583008	1109.413940	13.532121
728.771790	722.593994	3635.112305	1104.509888	13.112909
729.093323	715.015137	3629.093506	1103.395386	13.327722
729.414795	711.894348	3635.186279	1104.881470	13.443307
729.736145	705.727234	3620.697266	1100.200317	13.532663
730.057495	707.287598	3602.641602	1088.683472	13.172686
730.378845	709.665283	3596.771729	1088.163452	13.109948
730.700134	710.036865	3601.973389	1094.924927	13.309008
731.021301	716.872742	3615.273193	1091.061157	12.910170
731.342468	722.222412	3621.737549	1088.014771	12.615639
731.663574	730.544373	3629.316406	1079.692871	12.044703
731.984680	729.355469	3637.712891	1089.129272	12.370343
732.305664	725.714661	3642.988281	1082.739258	12.238297
732.626648	718.210144	3657.774658	1087.494629	12.562558
732.947571	715.906738	3669.885742	1084.373901	12.473588
733.268433	719.250305	3672.486328	1082.887817	12.313188
733.589233	726.383484	3667.136719	1077.835327	11.951082
733.909973	724.897400	3635.260742	1078.801147	12.160123
734.230713	718.655945	3597.143311	1086.751587	12.787815
734.551331	710.408386	3550.852539	1077.463745	12.922463
734.871948	718.730225	3513.701172	1061.042847	12.247448
735.192505	721.033630	3472.760498	1048.188477	11.889074
735.513062	716.798340	3425.578125	1055.024414	12.486289
735.833435	706.841797	3382.854248	1048.337036	12.761347
736.153931	706.395935	3337.604248	1038.752075	12.631312
736.474304	712.488770	3297.703369	1022.851257	12.005289
736.794617	720.290588	3246.657471	1023.445618	11.999643
737.114807	720.513489	3221.617188	1012.820374	11.687116
737.434998	714.717834	3205.270752	1002.343689	11.548675
737.755188	711.597168	3215.821533	997.811218	11.429250
738.075256	713.603333	3215.004639	1007.544861	11.751074
738.395325	714.420715	3229.493408	1009.773926	11.743327
738.715271	716.426941	3248.366455	1011.928711	11.670965
739.035278	708.253601	3268.279297	1004.944336	11.589366
739.355164	710.631287	3291.759033	1004.721375	11.393861
739.675049	703.275208	3291.684814	998.257141	11.396261
739.994873	714.049133	3296.440186	1004.275635	11.238673
740.314636	716.426819	3274.446533	1002.269470	11.174373
740.634277	725.566101	3255.276367	999.966064	10.847091
740.953979	726.383362	3211.289063	989.117859	10.573217
741.273499	736.785828	3173.989258	984.436707	10.161273
741.593140	732.773438	3140.776123	981.390320	10.324610
741.912598	725.194580	3102.584717	977.155090	10.598198
742.232117	717.392761	3067.662109	976.783630	11.036645
742.551453	719.176025	3034.151611	967.792969	10.739506
742.870850	726.754883	3007.328125	969.873352	10.660411
743.190063	717.541321	2961.260498	958.728027	10.749415
743.509338	711.151367	2927.601563	960.139832	11.233660
743.828552	702.235046	2911.106201	950.628967	11.245288
744.147705	705.801514	2895.577148	948.845703	11.099046
744.466797	714.866394	2866.896240	943.867432	10.641165
744.785828	716.946960	2826.698486	941.935547	10.664223
745.104858	722.593933	2808.717041	934.505371	10.158147
745.423706	704.909912	2787.318115	926.034851	10.618712
745.742615	706.247314	2771.194336	916.301208	10.172362
746.061401	703.126648	2748.903564	922.245361	10.710783
746.380249	713.380432	2740.656006	920.536377	10.218440
746.698975	710.631287	2726.389648	917.267090	10.251020
747.017639	715.535156	2717.027344	911.397156	9.785799
747.336304	717.615662	2705.287598	911.545837	9.756649
747.654907	721.256531	2700.383789	915.781067	9.828804
747.973389	721.182190	2704.916260	911.768738	9.607464
748.291931	720.142029	2701.944092	912.734619	9.718054
748.610352	721.628113	2703.207275	912.288757	9.621652
748.928711	711.968689	2704.990479	911.768738	10.024981
749.247070	706.693176	2697.486084	918.530273	10.640841
749.565308	700.228821	2705.733643	915.706726	10.744322
749.883545	709.070862	2690.947266	915.186584	10.400029
750.201782	722.816895	2682.031006	908.647949	9.484980
750.519836	726.531982	2658.031006	907.161926	9.351801
750.837952	726.977844	2651.121094	903.892578	9.194468
751.155884	721.256592	2644.730957	898.468506	9.213116
751.473877	728.241028	2636.483398	895.050598	8.741529
751.791809	731.138855	2623.480469	894.307617	8.622585
752.109619	727.497986	2620.582764	893.490234	8.768348
752.427490	721.182190	2598.143311	889.477844	8.966390
752.745300	718.804504	2588.855469	893.936035	9.365067
753.062988	719.027405	2578.081543	885.168274	8.936850
753.380615	720.067688	2584.768799	881.527527	8.658751
753.698303	715.535156	2577.561279	873.799988	8.499603
754.015808	720.810608	2562.180664	874.320129	8.336701
754.333374	721.702332	2548.137451	870.976563	8.172983
754.650757	716.575439	2547.394531	873.799988	8.587662
754.968262	718.507324	2554.676025	875.880432	8.570732
755.285583	714.346375	2567.456299	875.954773	8.720929
755.602905	724.154297	2569.239502	872.016663	8.013850
755.920105	722.668274	2563.518311	863.026062	7.624618
756.237305	728.612488	2543.605225	869.787598	7.778275
756.554443	722.668274	2527.853027	868.970276	8.104545
756.871582	724.228577	2528.373291	872.834045	8.236893
757.188599	722.371033	2535.951904	872.759766	8.292364
757.505615	719.547546	2535.580322	878.481140	8.751692
757.822510	717.541321	2547.394287	874.468750	8.575958
758.139465	713.974854	2563.443604	868.524414	8.356430
758.456238	715.683777	2593.684814	863.249023	7.857570
758.773010	712.488770	2610.180420	879.446960	8.797962
759.089783	712.860291	2614.267090	877.886658	8.679173
759.406433	714.123474	2615.901611	874.617371	8.439150
759.723145	718.804504	2616.793213	861.465759	7.516444
760.039673	719.993347	2628.458740	857.230469	7.190968
760.356201	723.931458	2638.489990	855.298584	6.861484
760.672668	715.312317	2637.672363	859.979675	7.525508
760.989136	722.445313	2629.350342	863.471924	7.395576
761.305481	716.055359	2635.220215	868.673096	7.952300
761.621826	717.244141	2650.526611	873.725769	8.094090
761.938049	713.157532	2659.814453	881.973328	8.672088
762.254333	722.296692	2681.882324	885.688477	8.338078
762.570496	730.841553	2713.906982	881.378906	7.591144
762.886597	729.058289	2816.593506	880.487305	7.253963
763.202637	726.309082	2934.883057	879.521301	6.937156
763.518677	724.971680	3101.766846	889.477844	6.921344
763.834656	721.479492	3263.152588	905.973083	7.258746
764.150574	718.210144	3404.253662	924.251465	7.670811
764.466370	712.563171	3487.546875	930.864441	7.866759
764.782288	718.507324	3513.255615	929.824219	7.561214
765.097961	723.039795	3491.856445	929.824219	7.468332
765.413696	724.971680	3425.949951	921.650940	7.281779
765.729309	724.154297	3314.050049	913.849121	7.324419
766.044861	724.897278	3179.784912	902.406555	7.230851
766.360474	722.148132	3030.882080	896.536621	7.553425
766.675903	718.730225	2884.951904	879.669922	7.429512
766.991394	715.758118	2770.674072	863.769104	7.202775
767.306763	712.860352	2676.384033	845.119141	6.735788
767.622131	713.380432	2601.115479	846.085144	7.029838
767.937378	708.625061	2516.930420	835.088318	6.993468
768.252625	708.550720	2457.339600	838.060364	7.405676
768.567810	702.309326	2409.488525	829.887024	7.473011
768.882996	700.080261	2374.194824	832.264832	7.895790
769.197998	709.219482	2327.235596	828.401062	7.365908
769.513062	715.386536	2300.040771	820.524963	6.634787
769.828064	725.566101	2265.935791	820.153381	6.140557
770.142944	721.182190	2251.818359	810.419739	5.830095
770.457825	722.073792	2221.577148	808.487854	5.762846
770.772705	719.473328	2191.855957	802.543640	5.641897
771.087402	718.804504	2160.426025	810.716980	6.375631
771.402100	718.878845	2129.070068	815.175110	6.828597
771.716736	718.210144	2110.123047	813.763367	6.864885
772.031372	721.925232	2092.141846	804.624207	6.035468
772.345947	718.804504	2081.367920	800.834717	6.020286
772.660461	715.906738	2072.154297	798.754211	6.108581
772.974854	716.055359	2058.631104	803.212402	6.491779
773.289246	714.569275	2037.677734	811.162842	7.300503
773.603638	716.203857	2022.148560	814.803711	7.550079
773.917908	709.293762	2000.749390	809.899658	7.790117
774.232178	712.563049	1989.455444	801.875000	6.994478
774.546265	711.820068	1975.189087	794.890442	6.575305
774.860474	720.216248	1961.145996	789.763672	5.604461
775.174561	719.696106	1947.771484	783.968018	5.233548
775.488586	720.439148	1931.870728	786.345703	5.440386
775.802551	715.906738	1927.115356	791.026794	6.202074
776.116516	718.507324	1913.889282	786.122742	5.656386
776.430359	714.717834	1903.635620	781.144531	5.587157
776.744202	711.968689	1891.004272	780.401550	5.804139
777.057922	715.906738	1889.889648	785.305481	5.911393
777.371704	719.176025	1890.335571	790.878174	6.122321
777.685303	723.708496	1875.400757	793.775940	6.083869
777.998962	716.055359	1861.729004	791.398254	6.576297
778.312500	714.197754	1853.927124	791.101074	6.747507
778.626038	717.764343	1852.441040	790.878174	6.443582
778.939453	720.216309	1855.561646	791.918396	6.315443
779.252869	731.510254	1853.332642	793.404480	5.517293
779.566223	727.646545	1851.549438	784.339539	5.044297
779.879578	726.011902	1843.227539	786.419983	5.407021
780.192749	713.008972	1838.695190	784.339539	6.336629
780.505920	713.529053	1835.723022	790.729553	6.879426
780.819031	715.163757	1826.360962	787.163025	6.479432
781.132141	722.445374	1821.159668	787.311707	5.903840
781.445190	723.485596	1810.014282	779.881348	5.190452
781.758118	725.045959	1803.624390	784.339539	5.497383
782.071045	720.810730	1779.847534	775.348877	5.149787
782.383911	714.420593	1757.036499	776.760681	5.979199
782.696838	718.284363	1744.850708	768.290222	4.871176
783.009583	715.312195	1728.875610	768.290222	5.226908
783.322266	720.810730	1730.584595	770.816406	4.952166
783.634888	713.454773	1711.340332	768.884583	5.554726
783.947510	715.832458	1707.773804	775.200256	5.985011
784.260132	712.340271	1697.817017	768.884583	5.737762
784.572571	707.064697	1708.145386	768.958923	6.182741
784.885010	707.882019	1696.033813	765.912537	5.872632
785.197449	710.111084	1690.089722	771.856689	6.300709
785.509766	723.039795	1672.034180	773.119812	5.277167
785.822083	720.587830	1672.405640	771.559387	5.355180
786.134277	718.804504	1652.418091	768.661682	5.340237
786.446533	711.002747	1654.275757	775.051758	6.790082
786.758606	717.244141	1650.337524	775.571838	6.251003
787.070740	721.479431	1660.294312	780.178650	6.252481
787.382690	727.943665	1667.947388	779.138367	5.446223
787.694641	725.640381	1680.133179	781.293152	5.830612
788.006653	723.188293	1705.767578	778.246765	5.603464
788.318481	720.959290	1727.092407	781.738953	6.040916
788.630310	717.689941	1766.918823	775.943359	5.552022
788.942017	711.745789	1792.255859	776.686340	6.010176
789.253784	707.213379	1801.840942	761.900085	4.995919
789.565430	701.120544	1793.816284	763.906250	5.745945
789.877014	708.179199	1792.255859	757.367615	4.537356
790.188538	704.761292	1779.773071	769.553284	6.027096
790.500061	720.364929	1759.859985	766.729797	4.460326
790.811462	720.067688	1734.151245	775.423157	5.458669
791.122925	719.176025	1706.213257	768.958801	5.043657
791.434204	715.163635	1673.965942	770.073425	5.726915
791.745483	713.751892	1653.681274	755.584290	4.450589
792.056702	725.120300	1639.415405	752.537903	2.998770
792.367920	722.519714	1622.474243	750.977539	3.162140
792.678955	721.405090	1592.753296	760.116882	4.442747
792.990112	717.838623	1583.762573	762.345947	5.139865
793.301086	723.262695	1575.440430	765.838135	4.996075
793.612122	724.674500	1572.542603	769.627625	5.301901
793.922974	717.615662	1553.001099	767.027039	5.914800
794.233826	708.402161	1553.001099	767.695740	7.020324
794.544556	711.002747	1556.419067	754.172668	5.106350
794.855286	718.507324	1558.945435	754.321289	4.261345
795.166016	723.336975	1563.329224	749.342957	3.095979
795.476624	718.135742	1568.159058	755.584412	4.405605
795.787292	713.900574	1584.059937	755.732910	4.807434
796.097778	703.944031	1604.195801	749.640137	5.075925
796.408264	701.863464	1619.873657	754.246887	5.706192
796.718689	705.652893	1635.180054	753.058044	5.099921
797.029053	709.739563	1634.659790	760.414063	5.478797
797.339355	719.993408	1641.272827	754.767029	3.774492
797.649658	720.439209	1637.780640	751.423401	3.377607
797.959839	725.194580	1624.703491	746.816589	2.403757
798.270020	714.643555	1607.093628	741.763977	3.038873
798.580078	708.476379	1592.381714	747.039551	4.362817
798.890137	708.625000	1577.595337	751.051941	4.882438
799.200195	712.711670	1560.951538	756.847473	5.203222
799.510071	716.946960	1545.050781	761.082764	5.329743
799.820007	721.330872	1541.261230	755.287170	4.141364
800.129883	717.318542	1535.242798	754.469910	4.542152
800.439575	717.838562	1534.499634	750.308899	3.975987
800.749329	713.083191	1531.601929	755.212891	5.147066
801.058960	722.668274	1517.484497	753.503906	3.879593
801.368591	726.903503	1505.521851	754.618469	3.559506
801.678162	729.875671	1487.763306	761.454285	4.166662
801.987671	715.980957	1484.494019	766.878357	6.622841
802.297119	706.544617	1480.110229	764.277832	7.463260
802.606506	702.829407	1475.800659	752.537903	6.430834
802.915894	709.739563	1466.067017	747.411072	4.980846
803.225159	716.055359	1454.475708	749.788757	4.568319
803.534424	712.785950	1441.249878	751.943542	5.375365
803.843628	716.501160	1443.776245	745.627747	4.004893
804.152771	716.055359	1439.169434	748.154114	4.438962
804.461792	720.885010	1456.853516	751.200500	4.119129
804.770874	718.804504	1455.813354	756.847473	5.161806
805.079773	714.123474	1465.175293	746.965271	4.372774
805.388733	713.231750	1466.438477	738.048889	3.294864
805.697571	712.340149	1480.481812	737.380188	3.259820
806.006470	714.792175	1493.336060	741.466858	3.426227
806.315125	711.671448	1498.908813	749.491516	4.804151
806.623901	714.940735	1499.800415	756.847473	5.339392
806.932495	717.467102	1496.902710	756.476013	5.004764
807.241150	727.869446	1487.911987	756.253113	3.734484
807.549622	728.389648	1471.045288	754.618347	3.531744
807.858154	724.525818	1462.649048	757.813477	4.509770
808.166565	714.940735	1455.664673	754.023987	5.276359
808.474915	707.659119	1453.361328	746.445129	5.201273
808.783264	711.820068	1444.147583	739.757996	3.814950
809.091492	712.934570	1439.243774	745.850769	4.531981
809.399719	720.364929	1433.522461	747.633972	3.823705
809.707825	729.355469	1415.689819	747.856934	2.695693
810.015930	735.448425	1397.336914	739.237793	0.572508
810.323975	737.751770	1378.538452	740.426575	0.417425
810.632080	723.411316	1365.312622	740.946777	2.731800
810.939880	714.792175	1359.293945	741.689758	4.173392
811.247864	707.436218	1363.380737	736.785828	4.474404
811.555664	714.792175	1369.845093	741.615417	4.094820
811.863464	720.439148	1368.878906	739.534912	2.944879
812.171143	721.405090	1363.603394	747.113831	4.003240
812.478882	720.662109	1358.550903	735.522644	2.329643
812.786438	717.467041	1349.188721	743.770264	4.163736
813.094055	716.352478	1340.643921	738.123230	3.487274
813.401489	716.426819	1334.551147	744.141785	4.483720
813.708984	720.662109	1333.362305	737.974609	2.825607
814.016357	731.287415	1332.693726	742.432800	1.853221
814.323730	730.767273	1334.922729	744.290344	2.238343
814.630981	725.120300	1334.254028	745.702148	3.378872
814.938232	713.454773	1329.424194	741.615479	4.571770
815.245361	703.944031	1329.870117	736.042786	5.128202
815.552490	707.733398	1332.396362	736.340027	4.579530
815.859619	710.036804	1335.591431	737.083008	4.323556
816.166565	714.197754	1333.362305	739.534973	4.092163
816.473572	719.176025	1335.219849	742.507141	3.787249
816.780457	718.878845	1342.724487	736.414246	2.810856
817.087341	721.033630	1345.176514	742.358582	3.416678
817.394043	714.197754	1351.120728	739.832214	4.024735
817.700806	716.872742	1357.510742	741.243958	3.804210
818.007507	713.306152	1361.077271	738.123230	3.831149
818.314209	713.900574	1368.507446	737.231628	3.564132
818.620667	707.882019	1378.018188	734.482422	3.969403
818.927246	708.773682	1391.169922	732.178955	3.429866
819.233704	704.909912	1416.209839	734.853821	4.209744
819.540161	706.395996	1448.160034	741.987000	4.798157
819.846497	714.940735	1497.720093	743.621643	3.663984
820.152832	721.256531	1550.772095	748.005554	3.224656
820.458984	724.897400	1622.325562	752.537903	3.079968
820.765259	720.439148	1707.699585	755.807190	3.582443
821.071350	718.878723	1817.072876	749.342957	2.774030
821.377502	713.677551	1986.483276	754.395508	3.199071
821.683472	714.346375	2318.467773	765.912415	3.214597
821.989441	713.677673	2881.905273	783.224915	3.207562
822.295349	713.603333	3673.823486	798.011230	2.851406
822.601196	712.414551	4554.385254	821.416565	2.837138
822.907043	707.510498	5302.093750	838.580566	2.852709
823.212769	709.813904	5731.935059	850.320313	2.797750
823.518494	713.528992	5798.510254	842.890076	2.543983
823.824097	725.120300	5562.152832	842.072754	2.417855
824.129700	725.863342	5157.426270	825.057434	2.238354
824.435242	721.628113	4717.183105	808.859375	2.183208
824.740723	718.061523	4328.431152	786.271423	1.889277
825.046082	719.993347	3971.703857	778.841125	1.809748
825.351501	726.160461	3625.601563	779.658386	1.845112
825.656799	724.822998	3279.053467	773.416992	1.902491
825.962036	724.302917	2968.616455	771.410889	2.098993
826.267212	713.454773	2724.309326	765.169495	2.571778
826.572449	712.637451	2581.202393	772.674011	3.212977
826.877502	712.191589	2589.078369	760.859863	2.593032
827.182495	718.433044	2703.578857	764.352051	2.313130
827.487488	715.832458	2871.205811	758.853699	1.995999
827.792419	718.358704	2996.703125	767.472839	2.155694
828.097290	722.222473	3038.238281	760.414063	1.649021
828.402100	727.423645	2962.969971	767.844299	1.808088
828.706848	728.315247	2815.181641	765.540955	1.783809
829.011597	722.742615	2617.462158	769.701904	2.478430
829.316223	718.730286	2436.832031	758.927917	2.339654
829.620789	717.690002	2276.041016	762.643066	2.884656
829.925354	721.107910	2130.779053	760.116882	2.767239
830.229797	716.055359	1988.415039	762.420227	3.644006
830.534302	722.296692	1851.846680	759.448059	3.289041
830.838562	720.810730	1736.083130	748.376953	2.715155
831.142944	728.018066	1632.059204	740.946777	1.430102
831.447144	723.708496	1543.490356	734.333801	1.296114
831.751404	723.782776	1481.967773	738.049011	1.881630
832.055542	717.467102	1443.404785	734.259521	2.313204
832.359619	709.219482	1432.482056	733.665039	3.379901
832.663635	708.996582	1436.643188	734.333801	3.482078
832.967651	710.333984	1474.389038	734.482422	3.160563
833.271545	716.501160	1550.920776	734.408020	2.146026
833.575439	714.123474	1668.393188	732.996277	1.977722
833.879211	713.603333	1814.918335	741.615417	2.543513
834.183044	708.179260	1944.576660	745.702148	3.034857
834.486694	703.275330	2039.609741	750.903320	3.564077
834.790344	705.207092	2069.553711	749.045715	3.213159
835.093933	710.185364	2056.773682	749.788818	2.941022
835.397522	719.324646	2002.829712	745.181946	2.014585
835.700928	722.148132	1941.604370	745.033386	1.876677
836.004395	715.312317	1856.824829	741.318176	2.278193
836.307739	713.083191	1772.342773	742.284180	2.756736
836.611023	715.089355	1688.232056	736.637146	2.214248
836.914307	721.479492	1620.616699	740.798096	2.148571
837.217529	720.364929	1545.125122	735.671204	1.855845
837.520691	713.008972	1466.587280	742.209900	3.874969
837.823730	710.631165	1384.779785	737.751709	4.022933
838.126831	705.875793	1328.755493	736.860107	4.974366
838.429749	714.049133	1285.214233	732.996399	3.317301
838.732727	717.169861	1257.053467	732.773438	2.890174
839.035522	720.067688	1227.480957	726.457764	1.259343
839.338379	713.826355	1213.957886	719.473328	1.129097
839.641113	708.476501	1221.090942	718.135742	1.884309
839.943848	711.225647	1245.759399	723.336975	2.265774
840.246460	711.597168	1280.533203	734.779602	4.074699
840.549072	714.866455	1307.727905	740.278015	4.286256
840.851563	722.445313	1320.062134	744.216003	3.642918
841.154053	722.371094	1316.049805	740.426575	3.041288
841.456482	725.863281	1289.895142	739.534973	2.423922
841.758850	716.426819	1264.780884	740.649475	4.417339
842.061157	716.946960	1241.524170	743.398743	5.042496
842.363403	709.665283	1220.422241	736.711426	5.295306
842.665588	710.036804	1204.521362	733.070618	4.658146
842.967712	717.244141	1179.184204	734.556641	3.747781
843.269775	718.210144	1167.147095	732.030457	3.078453
843.571777	719.175964	1142.998901	733.665039	3.418662
843.873840	709.070801	1116.249878	728.092346	4.671543
844.175659	714.346375	1091.729858	730.767273	4.351250
844.477600	716.501221	1069.587769	727.200745	3.030284
844.779297	716.946960	1061.786011	730.098450	3.813805
845.081116	711.522888	1046.925415	727.943787	4.895878
845.382751	708.253479	1037.786011	729.504089	6.448714
845.684387	715.386658	1030.801636	719.250305	1.224941
845.985962	720.587830	1017.873047	723.485596	0.974743
846.287537	726.086243	1009.179626	724.897278	-0.419990
846.588989	718.135803	1011.780273	728.761047	3.618404
846.890381	713.529053	1010.665710	726.606262	4.401076
847.191711	708.402100	1021.142334	722.445374	4.490396
847.493042	717.764343	1001.229187	721.330811	1.258169
847.794250	725.714661	994.021790	723.188477	-0.941527
848.095459	727.795166	984.362488	724.228699	-1.390071
848.396606	729.058289	981.167419	724.971680	-1.620968
848.697693	728.686829	985.179749	720.141907	-3.331445
848.998657	729.206970	980.275696	722.668274	-2.604345
849.299622	724.525879	984.288086	725.417480	0.343238
849.600464	724.748718	978.641113	729.355469	1.814450
849.901367	723.485596	977.823792	726.309082	1.110131
850.202087	723.039795	982.504883	725.046082	0.773240
850.502808	723.336975	985.774170	723.782898	0.169916
850.803467	717.838562	978.566895	725.194580	2.821334
851.104065	714.346375	974.405945	730.767273	6.314283
851.404663	710.408386	965.341003	732.624756	8.714604
851.705139	712.042969	965.341003	735.968445	9.445583
852.005615	712.637390	960.214050	728.835388	6.542619
852.306030	711.894348	962.368896	732.401917	8.187486
852.606384	716.501160	969.501953	731.213074	5.814968
852.906616	721.107910	973.439941	725.343201	1.678459
853.206909	718.358704	973.960022	718.432922	0.029037
853.506958	723.188416	976.560730	713.826172	-3.695054
853.807129	715.089417	973.514221	715.460876	0.143740
854.107178	717.095520	973.365662	718.433044	0.521920
854.407166	708.699402	965.415222	719.621887	4.254699
854.707092	713.157532	960.511230	722.816895	3.905081
855.007019	711.077087	960.065430	715.089417	1.611453
855.306763	710.259705	961.997375	715.906738	2.243222
855.606567	708.847961	957.613464	713.083252	1.702523
855.906250	710.408386	958.579407	711.448547	0.419131
856.205933	712.637390	953.080994	711.225647	-0.587141
856.505493	709.368103	953.898254	724.228699	6.077204
856.805054	705.281433	950.406067	729.949951	10.063663
857.104492	706.395996	949.514465	731.510315	10.330074
857.403931	714.197754	956.573242	726.160583	4.935660
857.703308	723.708496	955.830261	728.612488	2.112681
858.002563	725.417480	950.034607	724.971680	-0.198471
858.301819	726.457764	947.285339	720.587830	-2.658153
858.601013	728.018066	955.161438	718.953125	-3.990846
858.900208	725.120300	963.780579	724.302917	-0.342488
859.199219	715.683777	965.415222	726.680664	4.403485
859.498291	706.693176	958.728027	723.262695	6.574297
859.797302	708.550781	953.378235	720.959290	5.068267
860.096191	720.216309	946.913879	716.501160	-1.638813
860.395020	724.154297	941.043945	715.535217	-3.973947
860.693787	723.782776	946.096497	714.346375	-4.244633
860.992554	723.559875	945.576416	713.751953	-4.417654
861.291260	720.736389	952.560852	719.101746	-0.705121
861.589844	713.826233	948.920105	716.203918	1.011377
861.888428	708.847961	954.418457	719.176086	4.205768
862.186890	713.751953	944.536194	721.479492	3.348382
862.485413	721.033630	937.997559	728.389648	3.390434
862.783813	720.736328	930.344421	730.247253	4.537480
863.082153	715.015076	939.334961	731.510315	7.353445
863.380371	709.888184	951.074890	724.080017	5.884169
863.678589	708.922302	960.214111	723.857117	5.943216
863.976746	710.408264	963.483398	724.600098	5.607755
864.274902	708.179199	968.833191	736.711426	10.946400
864.572937	703.646790	968.461670	739.163513	13.411906
864.870911	702.978027	965.341003	737.454590	13.140788
865.168884	709.293762	956.201660	729.281250	8.095119
865.466736	716.649719	949.514465	732.476257	6.796451
865.764587	721.405090	941.341248	732.178955	4.898633
866.062317	722.816895	936.511414	731.436035	4.033393
866.360107	714.346375	937.848877	726.086182	5.252651
866.657715	707.882019	948.845642	723.857117	6.629672
866.955322	701.492004	955.012878	725.714661	9.554502
867.252808	706.544617	959.173828	724.971680	7.294114
867.550293	704.018311	948.994324	725.640320	8.826174
867.847717	703.349548	945.650696	725.863281	9.291633
868.145081	700.451843	942.232727	725.343201	10.295007
868.442383	710.333984	949.663086	728.463867	7.575294
868.739624	720.364929	947.879883	728.835449	3.723061
869.036804	733.665039	944.833496	731.361633	-1.090791
869.333984	724.971680	951.372070	726.234802	0.557915
869.631042	717.615662	950.108887	723.559875	2.556726
869.928101	710.779785	955.830078	720.067688	3.790203
870.224976	714.792175	951.297668	719.993408	2.199202
870.521851	714.940735	965.192383	727.646545	5.077214
870.818726	716.501160	963.111816	729.058289	5.091884
871.115479	716.798340	963.854797	729.652771	5.203034
871.412231	713.751892	966.232605	722.891113	3.619770
871.708862	707.287598	970.987976	719.176025	4.508309
872.005493	706.916077	966.678406	721.330750	5.549178
872.302063	716.575500	954.789978	722.296692	2.401698
872.598572	724.600159	952.486572	725.343079	0.326004
872.895020	728.463867	955.755920	719.547546	-3.922848
873.191406	722.891174	961.774414	720.885010	-0.839810
873.487671	722.816895	964.523621	725.120300	0.952975
873.783997	720.513489	968.090149	725.714661	2.100833
874.080200	721.999512	969.353271	730.841614	3.574679
874.376343	720.736389	972.994202	724.154297	1.354926
874.672424	724.154297	977.080811	724.971680	0.323170
874.968445	725.045959	972.919861	725.268860	0.089925
875.264465	718.804504	970.542175	721.107910	0.915002
875.560364	712.042969	968.758850	722.965515	4.254722
875.856201	713.157532	974.926025	708.922180	-1.617976
876.152039	719.324707	973.439941	715.535156	-1.491273
876.447754	728.315247	971.285156	714.494934	-5.688076
876.743469	731.064453	971.656677	722.965515	-3.366251
877.039063	727.943787	976.783508	723.411316	-1.821442
877.334595	722.073914	991.569824	721.553711	-0.193028
877.630127	718.507324	990.826843	717.541321	-0.354732
877.925537	719.547546	994.096130	720.959290	0.514205
878.221008	721.999512	986.517273	723.782776	0.674157
878.516296	718.730225	997.811218	728.761047	3.594234
878.811646	722.073914	1001.377747	721.627991	-0.159655
879.106812	720.067688	1012.003113	724.897278	1.654335
879.401978	720.439148	1016.832703	724.897278	1.504125
879.697083	720.216309	1046.925415	727.423645	2.206041
879.992126	717.764343	1072.634033	725.343201	2.135673
880.287109	720.067688	1120.336426	724.377258	1.076669
880.582031	709.665222	1193.078857	722.816895	2.720584
880.876892	708.327820	1318.501831	722.148132	2.264979
881.171753	705.429932	1546.388184	724.674500	2.288409
881.466492	708.922180	1874.286133	725.863281	1.453718
881.761230	712.860352	2293.650635	729.206848	1.034071
882.055786	714.717957	2702.018311	733.516418	0.945930
882.350403	721.479431	2982.436768	740.278015	0.831444
882.644958	723.708496	3109.123047	744.438965	0.869051
882.939453	728.389648	3064.318359	739.386414	0.470766
883.233826	727.572266	2958.734375	744.661865	0.765951
883.528137	726.160583	2806.710938	746.890930	0.996388
883.822449	720.216309	2667.988037	752.017822	1.632713
884.116577	714.866455	2530.230713	752.240723	2.058775
884.410828	712.117249	2394.776611	744.438965	1.920871
884.704956	714.940857	2234.060059	739.906433	1.643425
884.999023	717.912903	2037.900757	732.476135	1.103285
885.292969	718.878845	1817.295898	725.194580	0.574985
885.586914	715.312256	1625.074829	723.262695	0.873903
885.880798	714.420654	1481.967773	713.900574	-0.067759
886.174622	713.677673	1388.495117	725.863281	1.805764
886.468384	715.683838	1312.706177	725.120300	1.580588
886.762085	712.191650	1254.601440	733.219238	3.876698
887.055664	717.541443	1199.914673	724.748718	1.494128
887.349304	721.925232	1163.952148	726.309143	0.991775
887.642822	725.120300	1132.596436	719.770508	-1.312909
887.936340	718.878845	1113.054810	724.748779	1.489166
888.229736	715.758118	1088.757813	717.467041	0.458157
888.523071	720.513489	1067.878784	718.358704	-0.620323
888.816284	730.395752	1051.160522	712.340149	-5.628923
889.109619	727.274963	1041.798462	713.231750	-4.464917
889.402710	719.398926	1027.012207	710.556885	-2.874402
889.695862	713.900574	1023.817200	714.940735	0.335626
889.988892	713.528992	1012.448914	725.268799	3.927409
890.281921	708.847961	998.628540	742.729980	11.692302
>>>>>End Processed Spectral Data<<<<<
