Jaz Data File
++++++++++++++++++++++++++++++++++++
Date: Fri Jun 04 16:50:41 2021
User: jaz
Dark Spectrum Present: Yes
Reference Spectrum Present: Yes
Processed Spectrum Present: Yes
Spectrometers: JAZA3586
Integration Time (usec): 24900 (JAZA3586)
Spectra Averaged: 10 (JAZA3586)
Boxcar Smoothing: 1 (JAZA3586)
Correct for Electrical Dark: No (JAZA3586)
Strobe/Lamp Enabled: Yes (JAZA3586)
Correct for Detector Non-linearity: No (JAZA3586)
Correct for Stray Light: No (JAZA3586)
Number of Pixels in Processed Spectrum: 2048
>>>>>Begin Processed Spectral Data<<<<<
W	D	R	S	P
191.335022	0.000000	0.000000	0.000000	0.000000
191.713211	231.155762	234.127869	236.802780	190.000519
192.091385	464.763519	467.438385	476.949188	455.561890
192.469528	701.492004	705.652893	711.968689	251.789597
192.847641	713.603333	712.860291	711.894348	229.998352
193.225739	723.857117	731.064453	713.528992	-143.300171
193.603790	734.482422	738.271790	722.742615	-309.809143
193.981842	733.739441	737.900330	736.340027	62.500732
194.359863	736.117004	734.185120	744.290344	-423.075958
194.737854	737.974609	738.123230	749.788757	7949.199219
195.115829	740.500916	744.736145	748.525574	189.473984
195.493774	744.141785	746.147949	753.058105	444.446136
195.871704	743.472961	746.593750	756.847473	428.561920
196.249603	746.445068	755.361511	756.698975	114.999969
196.627457	747.188171	758.556458	754.989929	68.627388
197.005310	747.188171	764.203430	747.931152	4.366557
197.383133	750.606140	760.339783	750.680420	0.763124
197.760910	754.246887	757.293274	747.856873	-209.757172
198.138687	752.909485	756.327393	751.051941	-54.347401
198.516449	751.943542	754.989990	748.674133	-107.318733
198.894180	745.330566	752.612305	747.931152	35.713806
199.271866	748.154053	751.572083	746.890930	-36.954697
199.649536	744.736145	746.816650	748.451355	178.572479
200.027191	745.553467	751.051941	735.374023	-185.132156
200.404816	740.500916	744.364685	735.151062	-138.462021
200.782410	742.432800	759.448059	733.516418	-52.402271
201.159988	746.370850	763.311829	742.952881	-20.175745
201.537537	747.931152	776.314880	746.073547	-6.544612
201.915070	745.999268	771.559509	742.135559	-15.116088
202.292557	737.008606	778.320984	743.770203	16.366999
202.670029	728.835388	777.726563	742.284180	27.507607
203.047485	720.885010	782.333313	744.216003	37.968491
203.424911	718.358704	770.667786	747.856934	56.392178
203.802292	723.188416	771.633789	745.776367	46.625610
204.179688	728.538147	771.930969	741.987000	30.993265
204.557037	728.835388	782.556335	738.866272	18.672201
204.934357	735.374023	782.704895	732.699036	-5.651677
205.311661	737.603088	775.571777	736.414246	-3.131114
205.688934	741.912659	776.091980	733.293518	-25.217413
206.066177	736.191406	769.999084	737.677429	4.395519
206.443390	740.278015	775.051758	734.779602	-15.811968
206.820587	744.216064	767.101318	731.435974	-55.844215
207.197769	743.101501	768.810242	727.200684	-61.849854
207.574921	737.751709	772.302429	724.154297	-39.354931
207.952042	727.052185	774.159973	726.309082	-1.577453
208.329147	726.309082	773.045471	727.869446	3.338649
208.706223	732.179016	770.073425	738.569092	16.862846
209.083267	734.036621	768.364441	743.993164	29.004297
209.460297	734.333801	767.992920	736.934387	7.726245
209.837280	723.485596	767.398499	720.736389	-6.260590
210.214264	726.457703	769.479004	715.163635	-26.252268
210.591217	725.640381	767.101318	716.055359	-23.118198
210.968124	722.668274	765.912415	725.120300	5.670193
211.345016	723.188416	764.054871	721.107910	-5.090986
211.721893	720.662109	770.370605	722.816833	4.334720
212.098724	717.095520	765.986755	713.306152	-7.750607
212.475555	702.383606	762.048767	717.838562	25.902815
212.852356	708.773682	761.974426	724.600159	29.748600
213.229126	711.448547	765.838135	729.206848	32.650185
213.605865	725.417480	768.661621	729.949890	10.480980
213.982590	719.027527	761.602844	731.287354	28.795620
214.359283	722.445313	756.104492	737.825989	45.695339
214.735931	720.141907	760.785583	736.191345	39.488155
215.112579	718.284363	756.104492	731.658875	35.363476
215.489197	719.324646	761.825867	729.504089	23.950943
215.865799	714.049133	760.934143	735.596863	45.958675
216.242355	717.541321	764.203430	737.528809	42.834515
216.618896	722.816895	761.751465	739.832214	43.702343
216.995407	731.733215	762.866028	737.603088	18.854298
217.371902	732.104675	764.277832	734.853943	8.545221
217.748367	733.219238	768.736023	730.544434	-7.531100
218.124802	732.104675	763.683350	725.120300	-22.117378
218.501236	736.934387	768.067200	720.513489	-52.744667
218.877609	731.510315	760.265442	721.628113	-34.366749
219.253983	727.572266	757.516174	723.336975	-14.144080
219.630295	726.309082	750.829041	727.200745	3.636477
220.006592	721.479431	749.342957	723.931396	8.799911
220.382889	720.142029	754.395508	722.742615	7.592180
220.759140	717.095520	761.751465	729.058289	26.788748
221.135391	717.764343	770.816406	733.888000	30.392139
221.511581	717.689941	775.497498	731.733215	24.293146
221.887772	714.420654	770.890808	726.309082	21.052586
222.263931	711.522888	761.454285	724.600098	26.190353
222.640060	704.984192	756.253113	730.024231	48.840580
223.016159	706.470276	760.785583	737.528870	57.182026
223.392212	709.145203	769.627625	745.553528	60.196541
223.768265	723.188416	774.457275	740.203674	33.188293
224.144302	723.485596	775.200378	738.717590	29.453850
224.520294	731.881836	767.918640	731.138855	-2.061728
224.896286	728.389648	763.757751	739.014893	30.041883
225.272217	728.315247	766.135315	733.293518	13.163042
225.648148	724.525818	769.701843	733.813660	20.559227
226.024048	722.593933	772.599609	730.692871	16.196037
226.399902	718.953125	775.943359	732.179016	23.207294
226.775772	723.857178	779.064026	733.442200	17.362017
227.151581	729.206970	777.726563	740.500977	23.277208
227.527374	734.036621	776.983582	739.163513	11.937730
227.903137	730.395752	775.794739	736.785828	14.075371
228.278870	730.990234	779.807129	724.971680	-12.328835
228.654572	736.042786	772.302490	728.463867	-20.901766
229.030273	733.590759	765.912415	730.767273	-8.735587
229.405930	723.782776	759.893982	735.299622	31.892719
229.781555	724.674500	762.048767	734.185242	25.447300
230.157181	724.302917	765.838135	729.058289	11.449010
230.532761	731.658875	771.262207	730.395752	-3.189435
230.908325	720.885010	776.983582	727.720886	12.185473
231.283859	720.736389	776.091980	727.720886	12.617510
231.659332	713.603333	773.862793	730.544250	28.113293
232.034821	725.120300	770.816406	735.596924	22.926731
232.410263	722.668274	767.770020	741.466858	41.680389
232.785690	729.875671	768.438721	735.522644	14.643480
233.161087	724.228577	761.157043	733.219238	24.346155
233.536469	720.736328	767.472839	731.881836	23.847540
233.911804	716.501160	763.163269	729.875671	28.662468
234.287140	719.621826	766.878418	730.693054	23.427902
234.662430	724.377258	766.655457	724.080078	-0.702916
235.037704	723.485596	770.890625	725.789001	4.858990
235.412933	719.324646	778.023743	724.228699	8.354563
235.788162	718.210144	773.268372	725.343079	12.955256
236.163345	720.142029	767.027039	726.234802	12.995142
236.538513	718.953125	764.054932	723.262695	9.555205
236.913635	721.256531	774.903076	725.640320	8.171615
237.288742	723.931458	778.172363	724.674500	1.369892
237.663834	724.748779	776.017578	723.336975	-2.753730
238.038879	730.024231	771.410889	730.841614	1.974991
238.413910	727.646545	774.754456	737.008728	19.873907
238.788910	733.145020	777.800842	742.432800	20.798588
239.163879	730.692932	778.692444	735.374023	9.752373
239.538834	735.002502	776.166199	737.900391	7.039912
239.913757	728.092346	775.200256	738.346191	21.766716
240.288651	729.578430	777.057861	735.745605	12.989152
240.663528	723.337097	777.726563	729.281250	10.928868
241.038361	729.578430	778.915466	721.405090	-16.566338
241.413177	728.984070	784.190918	725.714661	-5.922108
241.787979	732.327637	787.608887	725.863281	-11.693577
242.162735	732.699219	789.243469	730.692932	-3.548171
242.537476	731.881775	785.156921	730.618652	-2.370941
242.912170	731.807556	787.237305	734.705322	5.227818
243.286865	727.869446	788.054688	739.980774	20.123419
243.661514	726.532043	789.689270	743.993164	27.647066
244.036148	730.024231	789.317810	736.339905	10.651531
244.410751	730.767273	788.128906	730.024231	-1.295364
244.785339	733.516418	786.419983	724.823059	-16.432465
245.159882	724.823059	798.977234	728.463867	4.909782
245.534378	722.222412	799.348694	727.200745	6.454781
245.908890	715.758057	795.782166	728.389648	15.784733
246.283356	716.724060	782.407654	727.572266	16.515852
246.657791	721.553711	782.779114	727.497986	9.708838
247.032196	730.024231	790.357971	733.516418	5.788117
247.406586	734.928223	803.509583	737.751709	4.116988
247.780960	726.383362	808.710754	739.683594	16.155294
248.155289	717.987122	818.444519	732.699158	14.645050
248.529602	717.689941	815.620911	729.429749	11.987839
248.903870	725.268860	823.794250	731.807434	6.636436
249.278122	727.869446	818.370178	728.018005	0.164153
249.652344	716.501160	814.655029	726.531982	10.219488
250.026550	713.008972	800.983337	726.531982	15.371535
250.400711	707.659180	798.679932	722.519714	16.326534
250.774857	721.033630	795.187744	726.086182	6.813582
251.148987	722.445374	795.633484	724.228577	2.436466
251.523071	726.383362	799.274414	737.231506	14.882684
251.897125	723.262695	804.475586	734.036621	13.266275
252.271164	727.200745	806.704651	731.881836	5.887876
252.645187	728.909668	806.778992	730.470032	2.003824
253.019165	729.578430	810.122620	725.789063	-4.704707
253.393112	724.600098	812.277344	734.185242	10.932305
253.767044	723.336975	809.899719	734.631042	13.047261
254.140930	725.045959	806.704590	738.717590	16.742420
254.514801	726.309082	810.122559	729.058289	3.280149
254.888657	735.374023	814.060608	723.857117	-14.636430
255.262466	731.361633	814.952209	722.965515	-10.044335
255.636276	734.408142	813.911926	727.869446	-8.224383
256.010010	727.943787	813.837708	731.138733	3.719642
256.383759	733.144958	821.565186	736.265686	3.529427
256.757446	724.600159	823.645691	736.860107	12.378094
257.131134	723.114075	827.360840	736.637207	12.972232
257.504791	724.005676	835.162598	732.030457	7.219326
257.878418	723.857117	840.140808	728.018066	3.578274
258.252014	718.804504	848.388428	722.148132	2.580280
258.625580	711.448547	856.561768	724.228699	8.807021
258.999115	716.724060	875.731750	724.228577	4.719594
259.372650	717.318542	890.666748	725.640381	4.800649
259.746124	723.708496	902.480896	729.875671	3.449736
260.119598	733.516418	926.257751	739.757874	3.238255
260.493042	737.900208	938.666321	743.770203	2.923798
260.866425	730.172852	952.783752	737.380188	3.237638
261.239838	711.448547	941.266907	731.361633	8.664706
261.613159	713.528992	925.886230	730.470032	7.977613
261.986511	715.386536	899.285828	732.922058	9.535395
262.359802	725.491699	881.824707	730.098450	2.946755
262.733063	731.584534	879.446960	724.228577	-4.974865
263.106293	734.408142	883.087830	722.073914	-8.295839
263.479523	732.104736	890.740967	728.018066	-2.576127
263.852692	721.702332	889.997986	734.110840	7.373042
264.225861	724.005676	890.815247	734.036560	6.013374
264.598969	728.612488	893.044434	727.423645	-0.723000
264.972076	734.482422	900.325989	724.154297	-6.227631
265.345154	734.333801	894.604736	713.157532	-13.212794
265.718201	729.281189	896.016541	721.330811	-4.768262
266.091217	732.699158	898.691406	725.789001	-4.162939
266.464203	733.144958	918.976074	738.049011	2.638984
266.837158	735.671204	926.109131	727.943665	-4.057773
267.210114	726.011780	929.155579	732.104675	2.999302
267.583038	720.959290	928.263977	727.275085	3.046625
267.955902	718.953125	932.350586	733.219238	6.685231
268.328766	715.015137	941.787048	729.429871	6.356490
268.701569	712.414551	941.341125	737.380188	10.905521
269.074371	713.751953	946.839600	744.810486	13.324830
269.447144	720.884949	951.594971	748.376953	11.916259
269.819885	722.445313	966.529785	739.906494	7.153745
270.192596	725.863281	979.384094	725.120300	-0.293065
270.565277	721.627991	996.622375	727.943787	2.296700
270.937927	723.039795	1007.544861	735.076721	4.230830
271.310577	710.854065	1030.801636	743.472961	10.195076
271.683136	714.494934	1047.891235	734.705261	6.061953
272.055725	711.299988	1081.550415	734.705261	6.321471
272.428284	717.392761	1092.695801	730.024231	3.365672
272.800812	719.250305	1101.389160	729.429871	2.663839
273.173279	723.931396	1073.228516	727.943665	1.148669
273.545776	728.389587	1071.445190	730.767273	0.693090
273.918152	724.302917	1064.906616	729.578430	1.548871
274.290558	725.268860	1075.606079	728.389587	0.890778
274.662964	724.302917	1056.213135	731.287415	2.104333
275.035278	729.801270	1054.578491	737.305908	2.310704
275.407593	725.714661	1056.064575	735.522644	2.968968
275.779907	725.863281	1070.850708	735.968445	2.929140
276.152161	723.411316	1079.395630	733.293518	2.776022
276.524384	726.977844	1103.098145	736.339905	2.489113
276.896606	722.891113	1111.717285	725.937500	0.783483
277.268799	719.919128	1122.639771	722.891113	0.737977
277.640930	721.776672	1119.370483	727.052063	1.326829
278.013031	724.971680	1133.488037	738.717590	3.364837
278.385162	726.309082	1127.246582	738.346130	3.002226
278.757233	725.789001	1133.710938	737.603088	2.896164
279.129272	726.829163	1127.618042	729.355469	0.630333
279.501282	723.559875	1138.020386	728.389465	1.165271
279.873230	729.058289	1142.850098	722.742493	-1.526322
280.245178	722.668274	1156.670532	722.296692	-0.085618
280.617126	728.166687	1174.205933	725.045898	-0.699667
280.988983	714.420593	1199.617432	730.470032	3.307820
281.360870	717.615662	1234.762695	735.819824	3.520113
281.732697	718.953125	1270.947876	734.928223	2.894067
282.104492	728.538269	1296.731079	736.711609	1.438480
282.476288	728.389465	1313.449097	738.791992	1.778028
282.848053	724.748718	1322.662598	736.562927	1.975905
283.219757	717.318420	1323.480103	730.767273	2.218691
283.591461	719.324707	1321.250977	733.739441	2.394767
283.963135	723.262695	1319.318970	736.265686	2.181504
284.334747	723.114075	1329.349976	734.110840	1.813942
284.706360	723.188293	1350.154663	727.943665	0.758473
285.077942	724.971619	1370.588013	728.612488	0.563937
285.449524	731.881836	1402.315063	735.076843	0.476559
285.821014	732.030457	1420.519409	735.522644	0.507225
286.192535	727.646545	1451.355103	734.110840	0.893218
286.563995	726.383484	1465.472656	734.705261	1.125950
286.935425	722.965515	1486.871704	739.609314	2.178775
287.306824	719.770508	1484.791382	740.500977	2.709791
287.678223	726.680664	1477.806763	735.076843	1.117812
288.049561	733.739441	1457.076294	728.835449	-0.677968
288.420898	730.024231	1444.667847	727.572266	-0.343103
288.792145	724.748718	1441.770020	729.355469	0.642484
289.163452	721.107910	1448.457153	723.708496	0.357543
289.534668	726.011902	1472.605591	731.658936	0.756373
289.905914	726.680603	1497.348267	733.145020	0.838807
290.277039	725.045898	1535.094238	742.804260	2.192260
290.648193	731.584656	1572.914429	741.615479	1.192258
291.019318	732.699158	1598.028687	742.432800	1.124848
291.390381	730.544373	1617.570313	734.928223	0.494219
291.761475	727.126465	1609.471313	731.436035	0.488422
292.132507	714.123474	1606.127808	726.531982	1.391082
292.503510	712.265930	1582.573730	732.476257	2.322205
292.874481	714.346375	1570.239380	736.637146	2.604388
293.245422	715.386536	1574.326050	734.556702	2.231841
293.616364	723.485596	1596.022461	744.290344	2.384398
293.987213	713.380432	1635.254395	739.534973	2.837106
294.358093	716.724060	1671.291138	741.838379	2.630964
294.728943	715.163635	1716.913086	736.042786	2.084269
295.099731	720.216309	1765.358398	741.169617	2.004829
295.470490	720.736328	1793.147827	742.432800	2.023148
295.841248	720.885010	1824.354858	739.980774	1.730520
296.211975	731.287354	1840.106934	739.312073	0.723717
296.582642	735.076843	1885.803101	744.810486	0.845869
296.953308	736.860107	1931.127808	738.940613	0.174208
297.323883	734.853943	1979.498657	735.596924	0.059694
297.694519	733.070618	2011.597656	730.767273	-0.180156
298.065063	733.070618	2009.739868	730.767273	-0.180418
298.435608	727.497986	1988.563843	735.745605	0.654020
298.806122	726.977844	1931.573608	732.253357	0.437949
299.176575	730.692871	1875.029175	732.922058	0.194802
299.547028	733.962219	1836.837524	726.086182	-0.714137
299.917450	734.928223	1825.692261	727.646545	-0.667576
300.287872	726.160461	1823.165894	723.114075	-0.277700
300.658234	728.240967	1817.295898	719.324646	-0.818721
301.028564	732.847717	1812.317749	725.417480	-0.688323
301.398865	737.825989	1815.586914	733.962219	-0.358500
301.769135	729.504089	1809.791382	738.569031	0.839123
302.139374	722.148132	1811.500366	735.671204	1.241386
302.509583	712.488770	1810.088501	732.699158	1.841326
302.879791	711.076965	1809.940063	734.705261	2.150249
303.249939	707.733398	1799.983398	741.021057	3.047623
303.620087	717.838562	1789.209595	746.147949	2.642351
303.990173	721.330811	1775.760742	742.061218	1.966030
304.360260	720.290527	1785.123047	748.005554	2.602759
304.730286	722.668274	1782.819702	740.798157	1.710122
305.100281	722.519592	1798.125977	750.903320	2.638858
305.470276	735.968445	1800.875000	740.129395	0.390734
305.840179	731.361633	1820.119507	740.946777	0.880374
306.210144	726.829285	1836.540405	734.259521	0.669565
306.579987	720.290588	1852.663940	739.832214	1.725723
306.949890	712.934631	1870.868164	743.027283	2.598824
307.319702	725.491760	1886.323120	741.021057	1.337774
307.689484	729.652771	1911.660278	733.962219	0.364587
308.059265	737.825989	1935.288696	732.996277	-0.403329
308.429016	727.349365	1967.907593	743.918884	1.335650
308.798737	723.411316	2000.526489	744.959045	1.687219
309.168396	723.634277	2049.046143	743.101501	1.468768
309.538055	726.011902	2088.575195	734.036560	0.588938
309.907684	725.863281	2122.308594	728.686768	0.202191
310.277313	723.039795	2149.428955	729.652771	0.463617
310.646851	727.275085	2172.017334	727.497986	0.015428
311.016388	728.686829	2186.134766	732.327637	0.249807
311.385895	724.525879	2176.549561	732.699219	0.562893
311.755371	727.646484	2178.778809	731.881836	0.291865
312.124817	731.584534	2176.772461	730.321472	-0.087398
312.494232	733.144958	2178.852783	733.739441	0.041121
312.863617	733.813660	2163.398193	735.374023	0.109148
313.232971	732.104675	2149.800781	735.299805	0.225375
313.602295	741.095398	2141.627441	734.705322	-0.456261
313.971619	738.271790	2153.441406	728.315247	-0.703558
314.340820	737.677429	2161.763428	729.949890	-0.542632
314.710083	722.742615	2190.369873	722.816895	0.005061
315.079285	716.649719	2216.450195	732.847717	1.080010
315.448486	716.278259	2255.013428	741.318176	1.627305
315.817596	725.268860	2255.756348	747.559753	1.456457
316.186707	730.544373	2227.892822	744.438965	0.927947
316.555786	729.652649	2188.066650	736.191406	0.448347
316.924866	726.309082	2146.605469	733.367859	0.496993
317.293884	714.717834	2128.772949	730.692932	1.129737
317.662872	712.488770	2122.754395	724.600098	0.858798
318.031830	715.609558	2140.735596	727.126404	0.808128
318.400757	726.309082	2149.280518	733.367859	0.496059
318.769684	727.720764	2160.277344	733.367859	0.394197
319.138550	721.999512	2182.791016	731.584656	0.656161
319.507416	717.764343	2212.511963	724.600098	0.457318
319.876190	715.163635	2229.675781	728.612549	0.888003
320.244995	722.891113	2222.022949	734.259460	0.758329
320.613770	725.640320	2197.800293	739.534973	0.943828
320.982483	736.042786	2178.630127	735.448303	-0.041209
321.351166	735.745544	2161.391846	729.578430	-0.432584
321.719818	732.847717	2159.682861	729.132568	-0.260377
322.088440	725.491760	2157.082275	732.476135	0.487875
322.457062	721.479492	2179.893066	733.590637	0.830433
322.825623	721.256531	2214.740967	729.281250	0.537315
323.194183	714.569336	2254.790283	733.887939	1.254275
323.562653	712.340271	2298.183105	732.550537	1.274418
323.931183	710.705566	2351.978271	732.773438	1.344558
324.299591	715.981018	2422.343018	728.909668	0.757673
324.668060	720.662109	2479.556396	724.228699	0.202775
325.036407	725.268799	2521.908936	730.247131	0.277091
325.404755	725.640381	2539.889893	730.544373	0.270304
325.773102	725.863281	2553.264404	738.197510	0.674960
326.141388	720.885010	2552.967285	741.689758	1.135579
326.509674	722.816895	2558.837158	740.946777	0.987455
326.877899	728.240967	2567.902100	737.083008	0.480634
327.246124	731.807434	2588.632568	731.733215	-0.003997
327.614288	728.463867	2586.849121	730.767273	0.123947
327.982422	717.764343	2577.858643	729.429749	0.627141
328.350525	716.278259	2549.846436	729.727051	0.733477
328.718628	712.637390	2538.106445	734.482361	1.196677
329.086700	712.191589	2529.264648	727.572266	0.846453
329.454712	713.528992	2548.211914	720.513428	0.380689
329.822693	719.101746	2563.741211	717.838623	-0.068475
330.190674	724.080017	2591.381836	732.030457	0.425772
330.558563	724.674500	2599.332031	743.770264	1.018627
330.926483	722.593933	2622.291504	743.101563	1.079521
331.294312	718.432922	2634.700195	740.500916	1.151613
331.662231	716.278259	2673.634766	733.516418	0.880686
332.029999	717.169861	2723.417725	736.191345	0.948112
332.397766	720.736511	2773.126221	741.541199	1.013681
332.765503	718.061523	2805.001953	746.667969	1.370736
333.133240	723.559875	2839.701416	746.593750	1.088485
333.500916	721.999512	2883.391357	740.278015	0.845682
333.868561	733.219238	2942.610596	738.271912	0.228691
334.236176	722.148132	2982.288330	743.473083	0.943523
334.603790	723.336975	2993.433594	742.878601	0.860828
334.971344	723.708496	2979.241943	735.522644	0.523785
335.338867	734.110901	2963.712646	728.909668	-0.233281
335.706360	736.117004	2971.365967	733.442200	-0.119665
336.073853	731.213074	2979.613281	739.757874	0.380039
336.441284	728.092285	2987.266602	742.878601	0.654501
336.808655	728.018066	2971.365967	735.745605	0.344465
337.176086	723.188416	2945.805664	731.807556	0.387792
337.543396	729.355469	2874.995361	728.835449	-0.024236
337.910706	728.983948	2816.072998	738.197510	0.441455
338.277954	732.476257	2820.234131	735.671204	0.153032
338.645264	724.377258	2892.158936	733.293518	0.411308
339.012421	723.634216	3011.489258	720.959290	-0.116919
339.379669	721.776672	3126.732666	731.658875	0.410910
339.746796	720.439209	3225.481201	734.259460	0.551697
340.113953	716.352539	3306.842529	739.163513	0.880566
340.481018	719.770508	3336.117920	737.900330	0.692944
340.848114	721.776672	3343.102295	741.912659	0.768160
341.215118	726.903564	3346.966064	743.695984	0.640917
341.582153	719.696106	3355.436523	739.312012	0.744228
341.949066	718.358704	3377.578857	736.488586	0.681774
342.316010	717.244141	3386.123779	738.420410	0.793452
342.682922	723.708496	3404.699219	736.562805	0.479461
343.049835	724.525879	3420.080078	735.225342	0.396930
343.416656	728.686768	3457.379883	734.631042	0.217843
343.783478	721.256531	3500.698486	735.225403	0.502578
344.150269	722.073914	3609.552002	732.253235	0.352533
344.516998	718.358704	3731.631592	728.612488	0.340287
344.883728	729.281250	3851.407227	731.064453	0.057115
345.250427	738.717712	3922.812256	725.120300	-0.427042
345.617065	740.872375	3941.610596	723.857117	-0.531604
345.983704	738.643311	3939.530273	719.547546	-0.596577
346.350281	727.646484	3937.449951	729.949951	0.071763
346.716827	728.909668	3887.444092	732.550598	0.115273
347.083405	727.423645	3852.298828	732.550537	0.164067
347.449860	733.962341	3795.531494	735.968445	0.065525
347.816376	729.578430	3767.965088	736.488525	0.227426
348.182770	722.668274	3733.711670	739.163391	0.547821
348.549194	717.912903	3712.164063	738.494690	0.687377
348.915558	722.742615	3739.210205	745.033386	0.738969
349.281921	730.618652	3753.550537	748.079773	0.577622
349.648193	732.550476	3783.717041	747.336731	0.484610
350.014526	732.179016	3803.259033	743.547363	0.370174
350.380737	729.578430	3861.809570	746.222229	0.531372
350.746948	726.680664	3925.115479	739.163391	0.390276
351.113159	726.457703	3991.616455	734.408020	0.243489
351.479309	730.767273	4037.089844	730.544250	-0.006745
351.845428	728.240967	4057.002686	728.761047	0.015624
352.211517	723.188293	4083.157471	735.225403	0.358251
352.577576	718.061523	4118.896973	733.739441	0.461002
352.943604	724.005676	4179.453613	749.417236	0.735406
353.309601	723.262695	4231.763184	751.423401	0.802642
353.675537	723.262695	4310.672363	752.017822	0.801557
354.041473	723.336975	4401.916504	738.271790	0.405994
354.407379	716.872742	4500.516113	731.881836	0.396684
354.773254	715.609558	4598.001465	734.110901	0.476545
355.139038	715.312317	4684.267090	736.042786	0.522316
355.504913	726.160461	4782.420410	738.420410	0.302248
355.870636	728.240967	4876.265137	739.683533	0.275856
356.236389	725.417480	4985.786621	744.216003	0.441242
356.602081	725.863281	5117.376953	747.039551	0.482209
356.967804	726.754883	5250.527344	745.107666	0.405696
357.333405	727.349365	5384.792480	743.250061	0.341404
357.699036	728.909729	5531.316895	734.779602	0.122228
358.064606	726.234863	5683.787109	737.231628	0.221818
358.430176	723.634216	5804.603027	735.076843	0.225206
358.795654	717.764343	5856.614746	740.946716	0.451120
359.161163	715.535217	5840.193848	738.271790	0.443670
359.526581	720.884949	5804.008301	738.123230	0.339128
359.892029	727.720886	5803.414063	741.763977	0.276673
360.257416	733.219238	5889.605469	739.609192	0.123923
360.622772	731.807434	6079.820313	740.278015	0.158387
360.988098	722.668274	6338.839844	733.442139	0.191836
361.353394	720.290527	6620.446777	731.733215	0.193939
361.718658	711.597168	6894.475098	735.745544	0.390569
362.083893	714.643616	7115.971191	738.271912	0.369116
362.449097	715.460938	7268.068848	742.061340	0.405951
362.814209	725.268860	7276.465332	743.695984	0.281279
363.179382	725.566101	7095.909668	739.906494	0.225112
363.544434	734.259460	6775.665527	741.689758	0.122990
363.909546	728.761169	6403.333984	739.534973	0.189861
364.274536	724.674500	6121.800781	744.587585	0.368957
364.639587	713.826233	5915.239746	743.918884	0.578548
365.004517	717.615723	5774.436035	744.736145	0.536314
365.369507	720.736389	5684.529297	741.169617	0.411645
365.734344	721.256531	5624.715332	743.250061	0.448531
366.099274	728.092468	5604.505371	745.256165	0.351974
366.464081	726.309082	5567.057129	750.606018	0.501925
366.828918	724.674500	5567.948730	751.869202	0.561494
367.193665	716.426819	5580.505859	743.473083	0.556041
367.558411	723.411316	5617.136719	745.776428	0.457016
367.923126	730.618652	5612.158691	742.358459	0.240494
368.287781	738.866211	5594.103027	738.346191	-0.010710
368.652435	734.556702	5552.791016	733.665039	-0.018506
369.017059	728.686707	5532.357910	739.089172	0.216552
369.381653	723.857117	5509.101074	752.092102	0.590043
369.746185	719.919128	5503.899902	753.429626	0.700473
370.110687	725.120300	5533.323730	748.897156	0.494506
370.475220	730.544373	5573.595703	741.095398	0.217859
370.839661	740.649597	5630.957520	742.284180	0.033425
371.204041	740.500977	5676.505371	740.649475	0.003008
371.568451	737.677429	5732.900879	748.228333	0.211220
371.932770	729.132629	5774.658691	746.296448	0.340179
372.297150	724.154297	5816.193848	746.370850	0.436300
372.661377	720.439209	5835.958496	751.572021	0.608595
373.025696	719.176086	5876.378906	740.575195	0.414936
373.389862	722.593994	5860.181641	743.027161	0.397719
373.754059	719.770508	5865.828125	735.299744	0.301770
374.118225	719.919128	5878.162598	748.376953	0.551696
374.482361	721.033630	5939.907715	747.485352	0.506847
374.846436	720.662109	6013.096191	745.627869	0.471725
375.210510	722.593933	6109.244141	744.661865	0.409678
375.574524	717.987122	6210.592285	747.931152	0.545170
375.938538	721.627991	6352.362793	748.154053	0.471094
376.302460	717.392761	6478.230957	750.011658	0.566218
376.666412	722.073914	6648.681641	744.141785	0.372352
377.030304	722.668274	6786.364746	740.798096	0.298990
377.394196	726.754944	6937.942871	738.049011	0.181834
377.757996	720.959290	7061.730469	740.278015	0.304675
378.121796	720.290588	7141.828125	738.197571	0.278858
378.485565	722.371094	7159.140625	738.048889	0.243566
378.849304	730.395752	7070.349609	739.014893	0.135950
379.212982	728.612488	6937.496094	742.655762	0.226180
379.576630	735.968445	6773.361816	737.083008	0.018461
379.940277	730.470032	6665.325684	745.181946	0.247890
380.303864	734.705383	6576.979980	740.798157	0.104288
380.667450	733.888000	6537.896484	739.906494	0.103695
381.030945	732.550598	6508.026855	734.853943	0.039881
381.394501	727.052185	6539.382813	745.107666	0.310641
381.757935	728.315247	6543.840332	754.024109	0.442073
382.121399	727.869446	6563.531250	751.051941	0.397256
382.484741	731.361633	6589.462402	749.194336	0.304411
382.848145	721.553711	6658.489746	751.349060	0.501864
383.211487	725.045959	6727.071777	753.132324	0.467948
383.574768	724.600098	6844.767090	753.801086	0.477127
383.938019	724.005676	6923.007324	753.206726	0.471061
384.301270	716.501160	7033.792969	760.265442	0.692770
384.664459	713.380432	7077.928223	755.584412	0.663110
385.027649	714.940735	7137.296387	756.996094	0.654828
385.390778	719.696106	7208.478516	754.618469	0.538196
385.753876	723.039795	7248.007813	767.547058	0.682107
386.116943	721.999512	7306.410156	763.683350	0.633069
386.479980	721.479431	7310.793457	755.287109	0.513068
386.842987	716.501160	7368.898438	756.178772	0.596441
387.205994	723.336975	7425.962402	762.420227	0.583104
387.568909	726.606262	7489.862793	766.952698	0.596553
387.931793	727.943665	7537.861816	768.661621	0.597921
388.294678	725.788879	7566.914551	776.314880	0.738563
388.657471	722.296692	7585.861816	781.293152	0.859560
389.020294	722.519714	7569.664063	781.813232	0.865960
389.383057	721.776611	7583.112793	786.865784	0.948637
389.745819	721.405090	7589.502441	806.555969	1.239803
390.108521	722.445313	7611.496094	818.815979	1.398896
390.471191	715.238037	7672.424316	829.812805	1.646855
390.833801	717.987122	7791.383301	840.735291	1.735350
391.196442	722.296692	7989.103027	862.208801	1.925359
391.558960	727.126404	8180.878906	874.245850	1.973763
391.921509	728.463867	8367.081055	896.016541	2.193495
392.284027	728.686768	8540.131836	913.329041	2.363740
392.646484	731.584656	8648.019531	948.251282	2.736922
393.008911	728.018066	8656.267578	967.941589	3.026185
393.371307	722.816895	8610.200195	994.319031	3.442233
393.733673	719.547546	8532.702148	1006.058838	3.667037
394.096008	721.999573	8510.708008	1033.848022	4.003853
394.458344	723.039795	8518.806641	1057.327637	4.288069
394.820587	730.024231	8555.661133	1100.571899	4.735048
395.182831	728.166687	8570.966797	1135.345581	5.191754
395.545013	727.052185	8521.629883	1162.391724	5.585159
395.907196	720.142029	8410.399414	1188.100464	6.085082
396.269287	723.782776	8284.753906	1209.871216	6.428916
396.631409	731.287354	8156.209473	1249.548950	6.980028
396.993469	737.305847	8051.145996	1274.514648	7.345099
397.355530	738.569092	7976.768066	1310.328491	7.899194
397.717499	730.915955	7951.654297	1339.529541	8.428689
398.079468	731.287415	7959.679199	1370.216431	8.839159
398.441376	725.863281	7957.152344	1400.829102	9.333962
398.803284	727.274963	7981.300781	1447.937134	9.934651
399.165131	717.169861	7995.121094	1497.794312	10.725882
399.526978	723.114014	8004.707031	1544.084961	11.274607
399.888763	727.423584	8000.992188	1574.326172	11.643564
400.250519	734.036621	8007.381348	1610.585815	12.051528
400.612244	726.309082	8056.198730	1651.080688	12.616446
400.973938	722.445313	8037.474121	1677.829712	13.060569
401.335602	719.027405	8049.584473	1722.114136	13.683636
401.697205	715.609558	8082.724121	1758.448242	14.155319
402.058807	708.550781	8181.621094	1814.398071	14.797764
402.420349	706.544617	8292.406250	1858.533813	15.186004
402.781860	713.306152	8402.969727	1914.335327	15.618748
403.143341	719.844727	8519.921875	1971.622681	16.048277
403.504822	727.943787	8640.218750	2021.554077	16.349411
403.866241	731.881775	8803.683594	2082.779541	16.736012
404.227631	728.092285	8986.839844	2141.998779	17.120108
404.588959	719.473206	9200.682617	2215.335693	17.637375
404.950287	716.724060	9346.910156	2264.821289	17.938166
405.311554	721.182129	9442.092773	2329.984619	18.447645
405.672821	724.525818	9454.352539	2364.609619	18.787127
406.034027	727.646545	9436.520508	2390.764404	19.096819
406.395203	728.983948	9363.925781	2380.064697	19.120926
406.756348	727.497986	9300.842773	2381.848145	19.296438
407.117493	726.680664	9232.113281	2398.491943	19.655806
407.478516	725.268860	9209.004883	2439.878418	20.210548
407.839600	721.405090	9192.731445	2485.203125	20.820803
408.200592	715.015137	9192.211914	2513.363770	21.213953
408.561554	715.981018	9167.617188	2524.732178	21.401197
408.922485	720.439209	9178.764648	2535.283447	21.456306
409.283417	727.943848	9198.973633	2554.527588	21.562714
409.644257	728.018066	9322.836914	2597.251709	21.748379
410.005096	731.510254	9466.910156	2642.799072	21.879808
410.365906	722.371094	9609.347656	2691.541748	22.157936
410.726715	722.148132	9694.202148	2735.009033	22.434784
411.087433	717.541321	9767.910156	2776.098389	22.745560
411.448120	719.770508	9826.163086	2812.655518	22.982592
411.808807	716.872742	9848.231445	2815.552979	22.983219
412.169434	717.838562	9769.991211	2818.450928	23.205667
412.530029	715.683777	9723.402344	2823.949219	23.405098
412.890564	712.860352	9693.086914	2844.531250	23.737385
413.251099	712.340149	9710.845703	2859.688721	23.863392
413.611572	717.912903	9743.242188	2887.478271	24.038630
413.972076	720.959290	9800.008789	2910.957764	24.121450
414.332489	730.544250	9864.799805	2941.496094	24.205057
414.692871	734.408020	10000.477539	2982.510986	24.261669
415.053223	733.145020	10131.250000	3031.031006	24.450523
415.413574	722.593994	10338.257813	3086.535156	24.584274
415.773834	719.770447	10481.215820	3126.955811	24.660131
416.134094	725.491699	10626.403320	3179.859375	24.789309
416.494263	733.219238	10754.278320	3217.827881	24.793875
416.854462	734.482422	11017.235352	3290.570313	24.858011
417.214630	731.881836	11325.518555	3369.628174	24.899347
417.574738	733.070618	11663.668945	3465.255859	24.995752
417.934784	730.024231	11917.487305	3544.537109	25.157742
418.294861	723.411316	12244.198242	3641.724854	25.330851
418.654846	715.015076	12632.726563	3760.535156	25.554569
419.014832	717.169861	13107.817383	3882.762939	25.548244
419.374756	729.727051	13603.343750	4014.204346	25.513243
419.734680	735.671204	14113.208008	4136.432129	25.421429
420.094543	724.302917	14608.213867	4273.520996	25.563532
420.454376	715.015076	15033.967773	4382.003418	25.609333
420.814148	708.773682	15492.860352	4509.654785	25.709272
421.173920	717.392761	15957.327148	4635.077637	25.706703
421.533691	719.547546	16436.951172	4776.178223	25.809801
421.893341	727.572266	16781.642578	4876.710449	25.844774
422.253021	723.114075	17021.416016	4947.149902	25.917028
422.612640	729.652771	17087.841797	4988.165039	26.032907
422.972260	718.655945	17047.792969	4995.520996	26.191618
423.331757	719.250305	16936.562500	5001.390137	26.404743
423.691315	715.237976	16925.789063	4995.892090	26.406593
424.050781	720.364929	17077.587891	5024.498535	26.313353
424.410248	725.268860	17235.111328	5062.169922	26.268579
424.769653	725.640381	17394.267578	5099.023926	26.237217
425.128998	723.782898	17379.037109	5133.797852	26.478222
425.488373	720.885071	17286.751953	5105.339844	26.466799
425.847656	717.392822	17063.396484	5061.427246	26.575512
426.206940	726.011902	16859.660156	5015.433594	26.586807
426.566193	726.754883	16520.837891	4945.737793	26.712427
426.925385	728.315247	16211.515625	4879.905762	26.813517
427.284576	729.578369	15750.317383	4750.098633	26.766460
427.643677	737.454529	15409.194336	4686.272949	26.914452
428.002777	738.271790	15044.293945	4599.635254	26.991175
428.361847	727.200745	14703.023438	4534.397949	27.241312
428.720856	724.377258	14409.081055	4447.091797	27.203472
429.079865	721.553711	14161.208008	4391.811035	27.309164
429.438812	726.754883	14009.703125	4355.105469	27.315853
429.797760	713.900574	13914.075195	4324.790527	27.354864
430.156616	716.798340	13761.606445	4289.867676	27.390738
430.515503	717.467041	13677.793945	4260.072266	27.334227
430.874268	726.977844	13600.890625	4256.653809	27.417274
431.233093	724.674377	13647.254883	4269.805176	27.433615
431.591827	720.736328	13680.245117	4299.154785	27.612301
431.950562	722.296692	13704.468750	4324.418457	27.746681
432.309204	726.680664	13747.859375	4345.445801	27.791380
432.667877	726.457703	13885.320313	4372.046387	27.704435
433.026459	725.343079	14029.171875	4397.086426	27.599148
433.385010	718.284424	14180.600586	4438.398438	27.633535
433.743561	715.089355	14333.515625	4485.060547	27.682871
434.102051	715.089417	14486.281250	4550.892578	27.853823
434.460510	722.891113	14657.104492	4609.889160	27.895353
434.818939	728.761047	14704.583008	4633.442871	27.938835
435.177338	724.897278	14737.796875	4629.653809	27.865444
435.535675	728.612549	14642.838867	4616.501953	27.941830
435.894012	733.813660	14586.441406	4606.099609	27.953440
436.252289	735.374023	14605.983398	4615.462402	27.973454
436.610535	726.160461	14626.120117	4599.412598	27.865204
436.968719	726.606262	14759.195313	4632.997559	27.837996
437.326935	727.423645	14846.351563	4669.554688	27.920897
437.685028	726.829285	14988.864258	4717.925781	27.984060
438.043152	726.606262	15096.231445	4769.343262	28.133907
438.401215	721.107910	15333.778320	4829.751465	28.116995
438.759277	727.720886	15545.987305	4903.385254	28.179171
439.117249	721.776611	15909.549805	4997.749512	28.154045
439.475250	724.971680	16198.586914	5069.674316	28.078135
439.833130	715.386536	16624.341797	5184.546875	28.092104
440.191071	718.210144	16917.242188	5269.697266	28.097279
440.548889	721.702332	17181.761719	5368.594238	28.231321
440.906708	731.361633	17513.521484	5448.321289	28.106987
441.264496	728.835388	17729.447266	5516.828125	28.163651
441.622223	727.646484	17908.962891	5584.220703	28.266602
441.979950	722.445313	17892.244141	5603.391113	28.427507
442.337616	722.668213	17867.203125	5600.864746	28.453360
442.695251	722.222412	17743.712891	5553.979980	28.386221
443.052887	724.377197	17573.113281	5506.203125	28.380919
443.410461	718.210144	17427.330078	5484.952637	28.527792
443.768005	713.008972	17256.804688	5463.850098	28.716757
444.125458	707.882019	17167.791016	5433.683105	28.710981
444.482941	713.380371	17198.478516	5433.757813	28.634211
444.840393	712.117249	17360.236328	5458.574707	28.510473
445.197754	711.820068	17633.447266	5559.998047	28.650778
445.555084	709.813904	17877.679688	5643.514160	28.737995
445.912415	719.473206	18255.806641	5771.018066	28.806162
446.269714	722.296692	18555.916016	5869.097656	28.860102
446.626953	724.971619	18898.970703	5973.567871	28.879698
446.984161	723.485535	19195.513672	6052.031250	28.846567
447.341309	719.770447	19413.666016	6112.216309	28.846024
447.698456	717.690002	19567.326172	6168.240723	28.915947
448.055542	710.705566	19634.123047	6209.181152	29.056461
448.412598	721.776611	19591.103516	6219.138184	29.133850
448.769653	724.674377	19456.466797	6195.063965	29.203770
449.126617	732.476257	19163.265625	6107.163574	29.161461
449.483582	727.200684	18906.476563	6047.943848	29.268181
449.840515	724.525879	18551.382813	5946.892578	29.294937
450.197388	723.634216	18293.849609	5888.639160	29.396368
450.554230	724.748718	18093.457031	5833.580566	29.414000
450.911041	733.219238	17917.285156	5798.212891	29.474943
451.267822	735.151184	17796.394531	5765.371094	29.483311
451.624573	736.191406	17627.207031	5709.568848	29.443922
451.981262	731.807434	17557.880859	5691.736816	29.477638
452.337921	728.166687	17414.253906	5656.442871	29.535242
452.694580	723.485596	17306.439453	5636.232422	29.625284
453.051147	719.621826	17285.117188	5630.734375	29.646635
453.407715	722.668274	17201.005859	5614.982422	29.689365
453.764221	735.002502	17218.095703	5641.954590	29.769606
454.120728	743.472961	16996.003906	5589.050781	29.814295
454.477142	737.974670	16925.119141	5580.208496	29.914070
454.833557	732.996399	16739.882813	5540.902344	30.036482
455.189911	733.293640	16607.623047	5504.717285	30.057484
455.546265	735.745544	16415.328125	5461.473145	30.139370
455.902557	730.098572	16301.868164	5406.488770	30.031206
456.258820	726.680664	16279.725586	5406.042969	30.086472
456.615051	723.188416	16375.500977	5433.460938	30.093142
456.971252	727.795166	16333.743164	5436.804199	30.174448
457.327393	719.547546	16536.515625	5496.246094	30.199839
457.683502	724.377258	16755.041016	5565.644531	30.200041
458.039612	715.906738	17206.802734	5714.994141	30.314224
458.395630	718.358704	17605.880859	5843.537598	30.348909
458.751648	715.758057	18088.476563	5980.478027	30.304523
459.107605	727.126404	18768.494141	6165.490723	30.143858
459.463562	735.151062	19462.111328	6375.173340	30.117126
459.819458	742.284180	20081.796875	6586.192871	30.217457
460.175323	731.881836	20584.306641	6766.600098	30.397888
460.531158	725.863281	21093.875000	6911.490234	30.369322
460.886932	721.702332	21369.460938	7021.681641	30.511688
461.242676	728.092346	21472.521484	7069.829590	30.570797
461.598419	729.355469	21226.726563	7036.318848	30.769621
461.954102	731.287415	20816.351563	6899.453125	30.710211
462.309723	723.559875	20163.751953	6712.210449	30.805511
462.665344	726.383362	19467.904297	6520.807129	30.917574
463.020905	725.789063	18905.138672	6367.743652	31.034964
463.376373	735.076904	18504.275391	6240.982910	30.985674
463.731873	736.711487	18188.859375	6127.299316	30.887817
464.087341	737.231628	17929.544922	6030.111816	30.786320
464.442749	731.287415	17784.431641	6001.282715	30.903362
464.798126	726.977844	17661.458984	5986.421875	31.057604
465.153503	725.343079	17741.931641	6026.545410	31.153145
465.508820	723.262695	17792.751953	6029.814453	31.087936
465.864105	720.141907	17995.376953	6084.203613	31.050587
466.219330	723.114075	18263.310547	6175.670410	31.086060
466.574524	726.903503	18498.255859	6240.388184	31.024567
466.929657	728.761047	18660.830078	6306.666504	31.105755
467.284790	726.903503	18791.306641	6362.244629	31.195835
467.639893	724.971680	18899.490234	6427.928223	31.378857
467.994934	726.309082	19064.740234	6474.516113	31.345140
468.349945	721.405090	19088.814453	6467.605957	31.284763
468.704926	728.166687	19063.552734	6483.730469	31.390469
469.059875	728.092346	18834.328125	6436.622559	31.527979
469.414764	727.052063	18603.248047	6400.956543	31.740000
469.769653	720.959290	18386.283203	6331.706543	31.761358
470.124451	727.646545	18328.474609	6286.232910	31.581392
470.479248	732.773438	18199.335938	6222.481934	31.429815
470.834015	738.643311	18134.841797	6183.992676	31.301950
471.188721	726.903503	18144.800781	6221.367188	31.544933
471.543365	724.377258	18238.273438	6259.855469	31.606205
471.898010	718.730225	18403.669922	6302.431152	31.573198
472.252625	725.417480	18593.882813	6358.975098	31.527933
472.607178	728.983948	18892.951172	6439.371094	31.437996
472.961700	730.841614	19100.478516	6506.392090	31.440742
473.316193	732.922058	19355.412109	6568.657715	31.337032
473.670654	727.423645	19476.228516	6629.958496	31.482191
474.025055	723.782776	19685.390625	6707.604004	31.557564
474.379456	716.649719	19837.265625	6771.429688	31.666239
474.733795	717.987122	20004.894531	6825.596191	31.667122
475.088104	723.411316	20110.404297	6860.296387	31.654654
475.442383	721.999512	20130.242188	6865.200684	31.652538
475.796570	722.073792	20215.541016	6885.558594	31.618208
476.150787	719.621826	20424.404297	6949.310547	31.615108
476.504944	723.559875	20676.441406	7029.780762	31.605564
476.859070	726.011902	20990.443359	7129.568848	31.599983
477.213135	733.962219	21237.500000	7230.324219	31.684103
477.567200	732.624817	21680.419922	7370.830078	31.689278
477.921173	727.720764	22041.455078	7509.701660	31.819769
478.275146	722.222412	22530.740234	7670.195313	31.858986
478.629089	725.566101	22828.693359	7763.593750	31.841774
478.983002	731.584656	23268.791016	7883.146973	31.732248
479.336823	732.922058	23616.156250	7992.892578	31.726156
479.690643	728.538086	24051.421875	8127.677734	31.724808
480.044403	725.194519	24514.474609	8281.483398	31.763422
480.398163	722.816895	25201.923828	8482.398438	31.698793
480.751862	725.417480	26082.632813	8769.281250	31.722189
481.105499	724.674500	27200.740234	9119.024414	31.705425
481.459137	724.525818	28618.583984	9558.673828	31.670359
481.812744	718.581726	30452.226563	10129.392578	31.650377
482.166290	719.176086	32665.482422	10826.055664	31.637085
482.519806	720.810730	35371.066406	11687.965820	31.651011
482.873291	723.708496	38503.222656	12714.161133	31.737974
483.226715	732.847717	42079.785156	13891.710938	31.825485
483.580139	731.287415	45594.375000	15121.273438	32.075336
483.933502	730.693054	48887.843750	16348.901367	32.431751
484.286804	726.754883	51570.917969	17532.248047	33.052940
484.640106	727.646545	53594.550781	18505.314453	33.627216
484.993347	735.151123	54710.730469	19207.400391	34.223347
485.346558	735.894104	54907.035156	19456.761719	34.558746
485.699738	723.411316	54248.488281	19223.376953	34.563171
486.052887	717.095520	52953.468750	18614.763672	34.262844
486.405975	705.429993	51405.519531	17845.658203	33.807098
486.759064	715.015137	49808.609375	17127.521484	33.431053
487.112061	722.668274	48518.566406	16519.724609	33.051071
487.464996	733.442139	47738.386719	16170.129883	32.840561
487.817963	737.528809	47610.285156	16070.489258	32.711880
488.170868	730.990173	47694.839844	16098.575195	32.722157
488.523743	730.098572	47794.480469	16166.636719	32.798767
488.876587	725.268860	47515.769531	16137.956055	32.939781
489.229401	728.315247	47021.363281	16033.338867	33.061172
489.582153	731.287354	46169.480469	15747.941406	33.048531
489.934845	728.835388	45181.253906	15380.291992	32.959866
490.287537	722.445313	44102.605469	14971.997070	32.848083
490.640198	716.649719	43260.828125	14649.823242	32.749893
490.992798	709.219482	42644.265625	14426.319336	32.710346
491.345337	710.482605	42541.355469	14354.096680	32.616138
491.697876	711.299988	42677.328125	14375.421875	32.559959
492.050354	721.999573	43103.007813	14538.590820	32.600903
492.402832	716.501160	43317.148438	14663.046875	32.737873
492.755219	715.460938	43127.082031	14643.059570	32.839108
493.107605	715.758118	42369.269531	14437.316406	32.942142
493.459930	726.754883	41144.910156	14044.551758	32.950035
493.812225	731.807434	39428.964844	13516.928711	33.038918
494.164490	734.556641	37456.523438	12852.512695	32.999199
494.516724	733.144958	35399.824219	12165.137695	32.976891
494.868896	726.829285	33572.417969	11531.039063	32.893944
495.221039	728.315247	32195.218750	11053.718750	32.813534
495.573120	722.296692	31157.287109	10677.524414	32.709808
495.925201	731.213074	30565.687500	10451.346680	32.580208
496.277222	732.476257	30169.953125	10324.511719	32.584435
496.629211	740.723816	30031.005859	10334.764648	32.755032
496.981140	736.191345	29952.390625	10332.015625	32.844193
497.333069	736.637207	30074.843750	10360.920898	32.804607
497.684967	738.940613	30129.009766	10353.637695	32.714104
498.036804	738.346130	30205.837891	10374.590820	32.701275
498.388580	732.179016	30068.302734	10357.055664	32.808960
498.740326	728.612488	29900.453125	10327.186523	32.903561
499.092072	727.646484	29606.587891	10243.298828	32.950142
499.443756	728.761047	29316.134766	10149.454102	32.954037
499.795410	724.451477	28996.337891	10048.699219	32.980637
500.147003	726.160461	28609.000000	9952.774414	33.090656
500.498566	718.804504	28222.255859	9803.723633	33.031925
500.850098	719.993347	27850.742188	9677.409180	33.015736
501.201599	717.987122	27556.576172	9555.923828	32.929958
501.553009	721.776672	27215.156250	9487.566406	33.086720
501.904449	716.352539	26933.771484	9399.739258	33.120678
502.255859	714.271973	26741.031250	9363.704102	33.232841
502.607178	714.717834	26646.070313	9353.671875	33.314709
502.958405	716.501160	26598.072266	9331.604492	33.286633
503.309692	717.244141	26527.556641	9300.916992	33.256756
503.660919	722.593994	26559.138672	9283.753906	33.135857
504.012115	732.401917	26577.117188	9308.497070	33.183167
504.363251	733.219238	26680.843750	9351.146484	33.212780
504.714294	729.578430	26748.537109	9360.285156	33.170837
505.065369	717.764343	26828.853516	9381.313477	33.179577
505.416443	720.810730	26849.140625	9393.499023	33.192661
505.767395	720.364807	26849.361328	9420.768555	33.297886
506.118317	735.596924	26804.556641	9415.269531	33.295052
506.469238	736.340027	26791.630859	9422.773438	33.338463
506.820160	734.110840	26781.375000	9396.620117	33.256889
507.170929	728.761169	26819.712891	9406.129883	33.258156
507.521729	722.296814	26880.718750	9417.944336	33.242249
507.872498	721.702332	26961.708984	9485.930664	33.400253
508.223236	716.724060	27156.380859	9555.775391	33.431038
508.573883	720.439209	27344.515625	9610.388672	33.390640
508.924500	722.742493	27516.673828	9651.625977	33.324276
509.275116	724.154297	27689.726563	9717.904297	33.352715
509.625702	721.405090	27900.078125	9799.414063	33.401222
509.976196	724.600098	28182.873047	9905.963867	33.437511
510.326660	723.188416	28427.404297	9996.613281	33.472973
510.677124	727.646545	28704.406250	10113.045898	33.547127
511.027557	726.754883	28919.064453	10184.227539	33.546288
511.377869	731.881836	29165.228516	10256.969727	33.499706
511.728180	730.618652	29296.818359	10269.824219	33.393330
512.078430	729.206848	29403.962891	10315.446289	33.430935
512.428650	725.714661	29437.697266	10344.200195	33.499901
512.778931	731.658875	29540.830078	10396.881836	33.549118
513.129028	735.002502	29604.134766	10401.934570	33.485355
513.479126	737.603027	29655.406250	10417.242188	33.472939
513.829285	726.977844	29606.662109	10403.718750	33.507088
514.179382	714.197754	29554.501953	10393.984375	33.563400
514.529297	711.225647	29508.734375	10386.034180	33.595993
514.879272	718.210144	29544.398438	10395.694336	33.571850
515.229187	728.240906	29500.115234	10369.761719	33.510227
515.579163	729.801270	29490.677734	10342.270508	33.422028
515.928955	726.383362	29474.328125	10346.059570	33.462132
516.278748	726.383362	29672.791016	10441.687500	33.563072
516.628540	724.228577	29966.431641	10545.859375	33.587177
516.978333	723.931396	30431.867188	10690.972656	33.550095
517.327942	726.011902	30947.083984	10853.844727	33.512486
517.677612	730.915833	31584.673828	11037.296875	33.403973
518.027222	737.380188	32163.789063	11261.989258	33.489700
518.376831	738.197510	32894.925781	11519.819336	33.528355
518.726379	733.070618	33538.019531	11773.637695	33.655190
519.075867	732.699158	34102.050781	11929.004883	33.552662
519.425293	735.745544	34466.656250	12060.965820	33.575199
519.774658	738.271790	34599.285156	12140.469727	33.673531
520.124084	735.225403	34616.152344	12212.023438	33.873920
520.473389	731.138855	34338.187500	12152.433594	33.984821
520.822693	732.476257	34022.996094	12023.963867	33.918026
521.171997	730.172852	33578.218750	11831.520508	33.796066
521.521240	730.172852	33130.394531	11683.286133	33.805672
521.870361	724.897278	32700.851563	11535.870117	33.809692
522.219482	730.247131	32342.861328	11434.965820	33.862175
522.568604	724.674500	32123.224609	11322.249023	33.751793
522.917664	730.395813	32003.224609	11274.546875	33.716656
523.266724	730.544373	32046.171875	11267.190430	33.646610
523.615662	732.179016	32312.025391	11333.096680	33.568619
523.964600	726.086182	32748.630859	11472.339844	33.558399
524.313538	716.203918	33350.332031	11652.671875	33.512363
524.662354	714.049133	34048.332031	11901.215820	33.560547
525.011169	713.306152	34883.566406	12194.859375	33.601009
525.359985	715.906738	35910.875000	12535.166992	33.582241
525.708740	715.906738	37138.875000	12925.329102	33.521217
526.057434	719.547607	38507.605469	13381.250977	33.507153
526.406067	720.216309	40075.914063	13919.574219	33.538616
526.754700	723.114075	41785.250000	14509.092773	33.573456
527.103333	725.417480	43710.437500	15172.020508	33.608459
527.451782	721.850891	45821.449219	15948.187500	33.761581
527.800293	724.674500	47939.000000	16776.439453	33.997658
528.148743	724.228577	50049.269531	17646.748047	34.308174
528.497131	723.188477	51871.917969	18483.916016	34.723690
528.845642	727.646667	53445.949219	19270.187500	35.172874
529.193909	725.640381	54641.847656	19975.617188	35.703506
529.542175	732.476257	55430.644531	20498.041016	36.135696
529.890503	727.349304	55683.125000	20774.076172	36.477924
530.238770	730.767273	55412.589844	20734.250000	36.581593
530.586914	722.445374	54653.511719	20417.421875	36.518795
530.934998	724.600159	53440.519531	19788.080078	36.162663
531.283142	721.256531	51910.699219	19021.869141	35.750759
531.631226	729.727051	50089.542969	18145.914063	35.284142
531.979248	727.720886	48230.488281	17334.304688	34.959194
532.327148	728.315247	46617.605469	16589.345703	34.563686
532.675110	727.349304	45429.652344	16083.492188	34.352016
533.023071	724.525818	44913.621094	15853.303711	34.236454
533.370850	730.395752	44747.324219	15787.991211	34.208645
533.718689	728.686768	45005.683594	15831.085938	34.108906
534.066467	732.401855	45214.468750	15879.085938	34.051212
534.414246	724.600098	45308.984375	15942.094727	34.131893
534.761963	725.714661	45100.714844	15906.207031	34.209560
535.109619	723.336975	44760.406250	15833.687500	34.312798
535.457153	722.593933	44113.375000	15613.083008	34.317173
535.804749	718.581543	43341.746094	15344.180664	34.313736
536.152344	722.668213	42452.117188	15003.726563	34.222973
536.499817	722.222473	41557.066406	14693.511719	34.214138
536.847229	726.160461	40605.769531	14358.925781	34.184803
537.194641	721.850891	39757.824219	14078.879883	34.217232
537.542114	723.188416	39137.996094	13833.605469	34.128548
537.889404	723.114075	38667.953125	13648.518555	34.063667
538.236694	722.891174	38248.511719	13494.710938	34.034931
538.583984	725.714661	37890.078125	13383.406250	34.058678
538.931213	719.101746	37629.574219	13300.409180	34.086010
539.278381	718.655945	37458.531250	13221.425781	34.030518
539.625488	714.049133	37448.421875	13214.664063	34.029751
539.972595	717.467102	37776.691406	13305.016602	33.966038
540.319641	715.163757	38449.355469	13524.432617	33.946053
540.666687	714.197754	39466.484375	13818.968750	33.816772
541.013611	713.900574	40733.941406	14236.921875	33.790627
541.360596	710.854187	42116.714844	14682.515625	33.743198
541.707458	710.185364	43577.652344	15208.281250	33.820740
542.054260	715.312317	44794.656250	15666.282227	33.918312
542.401062	718.284424	45790.316406	16061.944336	34.042530
542.747864	719.919128	46294.531250	16292.803711	34.170086
543.094666	718.358704	46236.875000	16353.507813	34.348988
543.441284	721.702332	45567.855469	16175.032227	34.458542
543.787903	724.823059	44523.894531	15822.243164	34.469727
544.134460	723.411316	43236.828125	15340.019531	34.381165
544.481079	725.937500	41834.214844	14854.971680	34.370289
544.827637	730.618652	40256.914063	14285.960938	34.294491
545.174072	728.389587	38614.605469	13707.960938	34.259350
545.520508	726.977783	37213.769531	13203.371094	34.194271
545.866943	724.154297	36077.386719	12780.663086	34.102985
546.213318	733.665100	35291.859375	12497.421875	34.040424
546.559631	730.024231	34611.988281	12216.407227	33.901173
546.905823	729.949951	33986.140625	12049.598633	34.037716
547.252136	718.135803	33530.144531	11855.667969	33.943466
547.598389	715.460876	33034.695313	11710.109375	34.018902
547.944458	712.711731	32626.474609	11572.203125	34.027611
548.290588	720.810730	32093.869141	11419.140625	34.100372
548.636658	728.018066	31547.005859	11217.257813	34.034992
548.982727	734.185242	30856.134766	10978.523438	34.009544
549.328735	730.172852	30136.439453	10760.000000	34.107788
549.674622	730.767273	29358.416016	10516.434570	34.182575
550.020569	724.154297	28655.365234	10257.193359	34.130417
550.366455	728.315247	27916.500000	9992.230469	34.073311
550.712280	727.275085	27246.658203	9779.352539	34.133816
551.058044	735.374023	26740.062500	9601.100586	34.092800
551.403748	736.711487	26361.193359	9432.729492	33.936363
551.749512	735.225403	26134.642578	9321.870117	33.806461
552.095154	728.241028	25939.228516	9260.348633	33.842812
552.440735	727.869446	25869.384766	9278.404297	34.009624
552.786316	727.274963	25883.578125	9264.806641	33.937943
553.131897	726.160461	25906.015625	9265.995117	33.915344
553.477417	725.937561	25949.630859	9250.391602	33.795425
553.822815	726.977844	25916.640625	9238.131836	33.788284
554.168213	726.829285	25882.978516	9212.942383	33.733753
554.513672	718.953125	25730.140625	9164.645508	33.767658
554.859009	718.507324	25531.232422	9124.225586	33.876644
555.204285	722.668274	25322.812500	9037.291992	33.799088
555.549500	723.039734	25089.056641	8973.316406	33.859764
555.894714	728.389587	24840.068359	8881.479492	33.813862
556.239990	730.470032	24527.031250	8802.940430	33.922844
556.585022	732.699219	24260.732422	8706.867188	33.892200
556.930115	732.104675	23995.099609	8603.214844	33.835327
557.275146	719.621826	23735.705078	8537.753906	33.968124
557.620178	723.931396	23518.818359	8445.172852	33.872688
557.965149	718.507324	23363.150391	8399.105469	33.917950
558.310059	720.662109	23167.884766	8351.105469	33.992817
558.654968	719.919006	23029.458984	8309.717773	34.020420
558.999756	721.256531	22900.099609	8279.998047	34.080864
559.344604	725.640381	22914.662109	8237.571289	33.854267
559.689331	721.256531	22872.976563	8208.815430	33.801254
560.033997	722.148132	22811.380859	8186.228027	33.790581
560.378723	722.742615	22757.958984	8163.268066	33.766518
560.723389	725.417480	22759.072266	8171.664063	33.794876
561.067932	728.018066	22819.927734	8182.513184	33.743099
561.412476	729.355530	22824.312500	8183.330078	33.736092
561.757019	727.943665	22821.562500	8178.946777	33.724682
562.101501	724.897278	22823.492188	8157.250000	33.632690
562.445862	725.714600	22784.781250	8152.048828	33.665676
562.790222	732.476257	22750.007813	8132.433105	33.609386
563.134644	729.429871	22750.156250	8135.182129	33.630825
563.478943	727.869446	22769.771484	8147.516113	33.661552
563.823181	722.816895	22799.716797	8171.070313	33.737766
564.167358	723.931396	22826.833984	8181.398438	33.739761
564.511536	722.148193	22886.873047	8194.920898	33.714710
564.855774	727.052063	22899.281250	8177.237793	33.601429
565.199768	717.764343	22967.193359	8199.899414	33.628437
565.543823	718.878845	23097.818359	8234.895508	33.585224
565.887817	717.838623	23335.958984	8327.774414	33.645306
566.231812	732.922058	23515.400391	8397.395508	33.641964
566.575745	734.185059	23690.976563	8470.881836	33.701126
566.919617	734.779602	23871.755859	8513.679688	33.621075
567.263428	734.036560	23994.798828	8554.100586	33.619122
567.607239	732.699158	24116.435547	8572.082031	33.524937
567.950989	727.349304	24109.599609	8601.059570	33.673878
568.294678	725.640320	24143.037109	8573.641602	33.513554
568.638367	729.132568	24070.591797	8541.023438	33.467876
568.981995	734.110840	23934.171875	8476.157227	33.370804
569.325623	727.795166	23731.916016	8434.547852	33.501617
569.669128	719.770508	23530.705078	8378.672852	33.575577
570.012573	715.832458	23415.240234	8329.707031	33.542171
570.356140	721.107910	23377.419922	8311.280273	33.501358
570.699524	733.367859	23365.234375	8316.554688	33.506680
571.042908	737.677429	23427.351563	8340.778320	33.509079
571.386230	740.649597	23567.931641	8367.377930	33.410587
571.729492	735.299744	23761.564453	8386.995117	33.230293
572.072815	731.138733	23945.240234	8423.550781	33.136806
572.416016	727.720886	24047.630859	8472.590820	33.211407
572.759094	726.234863	24193.412109	8531.809570	33.261669
573.102234	731.138733	24291.343750	8556.776367	33.215492
573.445374	731.213074	24358.662109	8568.217773	33.169067
573.788391	727.200745	24302.638672	8547.709961	33.172276
574.131409	718.433044	24271.056641	8559.821289	33.293056
574.474365	726.977844	24189.474609	8531.735352	33.264820
574.817261	734.036621	24067.693359	8506.917969	33.311886
575.160156	739.386292	23866.333984	8431.352539	33.259758
575.502930	734.408020	23672.328125	8346.647461	33.186268
575.845703	731.584656	23463.017578	8259.340820	33.116066
576.188477	732.104675	23221.830078	8184.667969	33.137638
576.531250	724.302917	22959.689453	8117.572266	33.250015
576.873901	723.039795	22722.218750	8037.548340	33.249008
577.216431	716.129578	22494.181641	7951.876953	33.224953
577.559082	720.290527	22228.697266	7847.406738	33.136421
577.901611	725.937500	21924.130859	7749.402344	33.132374
578.244080	733.293457	21578.103516	7650.356934	33.183624
578.586487	730.172852	21255.480469	7552.722656	33.239693
578.928955	730.470032	20886.419922	7455.015137	33.362579
579.271301	725.417480	20567.291016	7314.359375	33.207256
579.613647	725.268860	20181.660156	7187.005371	33.211384
579.955872	719.324646	19897.005859	7046.795410	32.993931
580.298157	719.844727	19590.134766	6952.208496	33.027390
580.640320	724.302917	19373.171875	6895.738281	33.092815
580.982483	725.937561	19147.587891	6851.156738	33.250111
581.324524	725.789001	18981.373047	6796.470215	33.253830
581.666626	719.250305	18819.021484	6725.585449	33.184589
582.008728	714.717957	18724.138672	6678.328613	33.113842
582.350647	716.055359	18583.705078	6655.443359	33.241013
582.692566	729.727051	18511.927734	6627.579590	33.167168
583.034424	733.145020	18392.894531	6576.607910	33.089161
583.376343	729.206848	18326.171875	6526.453613	32.944584
583.718201	720.587830	18208.402344	6484.472656	32.959435
584.059937	722.371094	18155.869141	6462.775879	32.927441
584.401611	725.937561	18055.115234	6447.841797	33.018902
584.743347	727.126404	18001.841797	6426.962402	32.995255
585.085022	721.182129	17908.664063	6398.950684	33.034325
585.426514	723.559875	17852.640625	6368.263672	32.953922
585.768127	725.194580	17770.388672	6354.665527	33.026733
586.109619	737.825989	17702.474609	6334.900879	32.992577
586.451172	736.042786	17631.812500	6303.470703	32.951607
586.792542	730.470032	17595.404297	6265.576660	32.820210
587.133850	728.612488	17556.396484	6248.338379	32.801266
587.475220	731.881775	17571.404297	6248.636230	32.760750
587.816589	733.739441	17579.355469	6248.784668	32.738758
588.157776	729.058289	17593.623047	6261.118652	32.802868
588.498962	730.693054	17647.490234	6279.917480	32.803047
588.840210	733.293640	17694.970703	6305.626465	32.852486
589.181335	735.671204	17787.476563	6326.133301	32.785164
589.522400	735.299744	17794.833984	6328.585938	32.786861
589.863403	731.658875	17860.294922	6327.917480	32.671944
590.204407	728.984070	17823.365234	6325.093750	32.736546
590.545410	721.776672	17896.849609	6354.963379	32.798618
590.886353	720.439209	17892.244141	6353.700684	32.805298
591.227112	722.816895	17916.986328	6338.244629	32.658905
591.567932	725.194580	17817.716797	6296.041504	32.592304
591.908752	723.262695	17680.333984	6275.459473	32.742664
592.249512	718.730286	17621.039063	6272.933105	32.860615
592.590149	719.696106	17530.908203	6231.100098	32.784092
592.930786	719.844788	17491.455078	6194.989746	32.645317
593.271423	713.231873	17390.181641	6133.541504	32.501804
593.612000	714.643616	17334.974609	6114.148438	32.487350
593.952576	723.782898	17339.580078	6115.039551	32.446575
594.292969	734.705322	17396.869141	6133.912109	32.403996
594.633484	732.922058	17472.210938	6150.927246	32.366997
594.973877	728.538147	17554.017578	6154.642578	32.249332
595.314209	728.612488	17673.867188	6181.837891	32.181435
595.654480	730.321472	17859.847656	6231.620605	32.115891
595.994812	732.401917	18048.207031	6284.523926	32.063900
596.335022	729.652771	18266.433594	6345.303223	32.022129
596.675171	724.897461	18480.126953	6397.910156	31.951220
597.015320	725.640442	18680.595703	6465.005371	31.965353
597.355408	729.727051	18764.781250	6499.407715	31.991478
597.695496	734.482361	18812.410156	6529.871094	32.057816
598.035461	733.739258	18756.681641	6521.400879	32.112747
598.375366	733.590637	18722.726563	6517.314453	32.151203
598.715271	739.014832	18600.794922	6480.980469	32.146664
599.055176	733.070618	18403.298828	6436.918457	32.279423
599.395081	723.262695	18152.080078	6378.219238	32.446014
599.734802	717.615723	17838.150391	6281.923340	32.500782
600.074524	722.816833	17512.333984	6168.982910	32.437893
600.414246	727.423645	17154.195313	6032.786621	32.297050
600.753906	725.343201	16839.820313	5915.388184	32.207344
601.093506	721.850891	16567.203125	5811.735840	32.122257
601.433044	721.850891	16377.805664	5719.823730	31.923780
601.772583	720.736389	16235.812500	5694.783691	32.059444
602.112122	720.885010	16212.409180	5683.266113	32.032875
602.451538	716.724060	16236.036133	5697.458496	32.093781
602.790894	715.535156	16373.050781	5708.231934	31.886902
603.130310	714.420715	16585.183594	5761.283691	31.799749
603.469604	718.061523	16796.576172	5830.236816	31.795073
603.808838	722.668274	17097.130859	5904.094238	31.643333
604.148010	724.005676	17350.501953	5968.589355	31.543528
604.487305	725.789001	17637.013672	6048.539063	31.474657
604.826416	728.092346	17829.533203	6113.033691	31.488232
605.165527	730.692932	18013.505859	6184.363770	31.555460
605.504456	734.928223	18116.193359	6223.893066	31.579777
605.843445	732.401917	18167.908203	6248.189941	31.635378
606.182434	733.590759	18141.826172	6228.722656	31.566275
606.521423	734.928223	18049.765625	6195.286621	31.535717
606.860229	740.798157	17829.458984	6130.791504	31.541344
607.199036	742.061279	17573.335938	6078.705566	31.706715
607.537903	738.569092	17310.158203	6004.773926	31.778515
607.876648	739.237793	17063.619141	5920.068848	31.736769
608.215271	730.544373	16787.585938	5800.589844	31.575214
608.553955	727.423584	16582.138672	5703.699219	31.386723
608.892578	725.343079	16391.105469	5641.954590	31.384436
609.231140	737.528809	16308.704102	5616.096191	31.330757
609.569641	736.860046	16245.027344	5594.103027	31.320549
609.908081	738.717590	16226.377930	5568.097656	31.182114
610.246521	729.726990	16228.606445	5554.054199	31.126940
610.584961	729.504089	16221.325195	5554.796875	31.147358
610.923340	721.405090	16199.034180	5559.849609	31.260889
611.261597	724.080017	16119.825195	5537.707520	31.265959
611.599854	731.658875	15975.233398	5487.330566	31.197880
611.938110	734.482422	15838.590820	5455.231445	31.254734
612.276245	737.231628	15604.092773	5402.699707	31.381662
612.614319	726.606384	15321.816406	5325.053223	31.506548
612.952393	724.377258	15012.715820	5213.227539	31.416180
613.290466	715.609558	14761.127930	5128.299316	31.417067
613.628479	717.689941	14519.569336	5028.734375	31.235199
613.966370	713.677673	14280.983398	4947.817871	31.208408
614.304260	714.272034	14041.875977	4871.509277	31.192684
614.642151	714.940735	13858.793945	4819.273926	31.226254
614.979980	713.826172	13678.312500	4761.838379	31.223854
615.317749	719.844727	13534.834961	4701.430176	31.069750
615.655396	720.885010	13434.601563	4659.449219	30.978857
615.993164	724.674377	13392.843750	4649.864746	30.984671
616.330811	728.018066	13366.911133	4634.483887	30.908293
616.668396	731.658875	13316.459961	4624.304199	30.931322
617.005859	732.327637	13290.750000	4614.570801	30.913464
617.343445	732.922058	13268.682617	4605.059570	30.888731
617.680908	737.157288	13259.468750	4604.093750	30.880373
618.018311	738.866211	13260.657227	4587.895508	30.738647
618.355652	735.448242	13260.211914	4587.672852	30.756865
618.692993	725.937561	13270.614258	4597.480957	30.862041
619.030273	720.141907	13264.522461	4594.286133	30.883503
619.367554	721.553711	13262.738281	4582.769043	30.788282
619.704712	724.154297	13239.555664	4579.351074	30.803621
620.041870	729.504150	13205.301758	4568.205566	30.769186
620.379028	721.405090	13150.540039	4557.208496	30.861387
620.716064	719.473145	13099.346680	4518.051270	30.683498
621.053040	721.330750	13032.473633	4481.939941	30.546387
621.389954	728.092285	12975.484375	4461.209473	30.480913
621.726929	726.903503	12925.032227	4446.646484	30.494373
622.063843	725.194580	12878.964844	4454.150879	30.681477
622.400635	721.776611	12857.863281	4432.900391	30.579245
622.737427	719.770508	12837.429688	4410.386230	30.456507
623.074219	721.033630	12793.887695	4384.975098	30.348593
623.410889	721.479492	12724.117188	4377.990723	30.464231
623.747559	720.810730	12689.790039	4366.993652	30.463608
624.084167	716.798401	12672.700195	4343.365723	30.332865
624.420715	719.398926	12682.062500	4320.926270	30.106400
624.757324	724.228699	12696.922852	4315.501953	29.995531
625.093750	724.451599	12750.272461	4315.799316	29.863638
625.430176	721.999573	12816.179688	4327.093262	29.808502
625.766602	726.457703	12880.153320	4328.802246	29.639912
626.102905	726.011902	12951.038086	4347.972168	29.627422
626.439209	717.838623	13025.192383	4370.931641	29.682198
626.775452	713.157532	13134.566406	4399.166504	29.674644
627.111694	716.946960	13228.114258	4422.349609	29.616762
627.447876	719.398926	13311.333008	4424.207031	29.422075
627.783997	723.782776	13360.668945	4414.993652	29.209814
628.120056	715.089355	13387.269531	4409.197754	29.151325
628.456055	717.912903	13362.971680	4407.414551	29.177420
628.792053	711.597168	13309.622070	4411.501465	29.368923
629.128052	713.826233	13251.890625	4397.978027	29.383738
629.463928	710.631165	13180.335938	4368.183105	29.331503
629.799744	716.203918	13071.854492	4320.852051	29.174088
630.135559	717.838562	12923.843750	4286.449707	29.236521
630.471375	721.776672	12784.079102	4242.017090	29.183819
630.807068	714.940857	12631.387695	4201.001953	29.254198
631.142700	724.451477	12506.113281	4146.240723	29.043350
631.478333	730.321472	12359.959961	4103.738770	29.007069
631.813965	730.024231	12251.179688	4065.621826	28.951937
632.149475	723.485596	12123.750977	4020.668701	28.921986
632.484924	725.343201	12025.375000	3979.281982	28.795835
632.820435	734.408020	11942.156250	3949.263916	28.684227
633.155884	733.219238	11866.961914	3922.143311	28.641979
633.491150	731.287354	11833.303711	3915.530518	28.681665
633.826477	725.789001	11749.934570	3890.787842	28.709698
634.161804	722.445313	11711.520508	3868.496826	28.628902
634.497009	718.804504	11634.171875	3827.927490	28.483908
634.832153	719.176086	11583.645508	3789.736328	28.262403
635.167297	728.463867	11513.058594	3774.578369	28.245052
635.502380	721.776672	11432.067383	3751.692627	28.289764
635.837463	716.575500	11361.257813	3739.581299	28.399210
636.172424	713.008972	11286.434570	3701.018555	28.259617
636.507324	715.237976	11198.534180	3675.978516	28.242458
636.842224	725.045898	11104.020508	3635.260498	28.039520
637.177124	721.925293	10982.833008	3615.199219	28.197056
637.511963	729.281250	10859.194336	3584.437744	28.185400
637.846741	727.349304	10721.882813	3547.880859	28.220743
638.181396	733.665039	10616.149414	3491.856445	27.909899
638.516113	737.380188	10530.627930	3446.680420	27.664982
638.850769	735.745544	10445.253906	3410.049072	27.543139
639.185303	729.281250	10352.671875	3386.718018	27.614349
639.519836	724.525818	10274.729492	3367.696533	27.676588
639.854370	719.473206	10183.632813	3356.477295	27.863058
640.188843	723.782776	10073.739258	3327.870361	27.851336
640.523254	724.748718	10016.674805	3292.427979	27.633446
640.857605	730.618652	9938.583008	3263.747070	27.510187
641.191895	721.107910	9876.168945	3235.586182	27.465446
641.526184	717.838623	9783.885742	3222.137695	27.622833
641.860413	716.426941	9749.780273	3195.834229	27.447250
642.194580	727.052185	9710.102539	3172.726318	27.225428
642.528748	727.869446	9662.697266	3135.574951	26.947418
642.862793	735.819824	9586.760742	3117.816406	26.912354
643.196838	735.002502	9535.788086	3100.503906	26.878300
643.530823	735.225403	9493.139648	3086.906494	26.852070
643.864746	734.705261	9440.829102	3070.857178	26.833431
644.198669	732.104675	9396.099609	3041.135986	26.650883
644.532532	728.240967	9358.427734	3018.844971	26.541767
644.866333	721.776611	9334.354492	2996.777344	26.414864
645.200073	725.417480	9308.125000	2994.845703	26.441870
645.533813	730.321472	9277.958008	2991.055908	26.448648
645.867554	725.045898	9263.915039	2979.093018	26.397490
646.201172	712.637390	9265.028320	2977.309814	26.479992
646.534729	711.671387	9262.725586	2982.510986	26.556252
646.868225	715.980957	9269.933594	2982.436768	26.496004
647.201782	725.863281	9253.883789	2964.678467	26.252460
647.535217	728.612488	9249.277344	2946.028564	26.023979
647.868591	727.720886	9248.682617	2943.576416	26.004757
648.201965	731.064514	9250.317383	2953.161865	26.083242
648.535278	721.405090	9235.977539	2951.378174	26.190079
648.868591	721.479431	9213.983398	2946.920166	26.204765
649.201782	726.754883	9183.742188	2922.994873	25.969532
649.534912	730.321472	9155.432617	2895.577148	25.700024
649.868103	729.355469	9130.615234	2869.942627	25.479359
650.201172	727.274963	9086.182617	2852.852783	25.428896
650.534180	734.779602	9049.179688	2855.602295	25.507826
650.867188	746.445129	9014.703125	2841.558838	25.339241
651.200134	741.912598	9017.229492	2839.701172	25.349951
651.533020	738.643311	8993.081055	2806.116455	25.046808
651.865845	728.240967	8933.788086	2781.076416	25.017656
652.198608	722.668274	8878.877930	2754.996094	24.917553
652.531433	725.417480	8860.748047	2748.011719	24.861856
652.864136	729.801453	8864.389648	2750.017822	24.834892
653.196777	857.899231	8997.911133	2875.143799	24.781839
653.529358	857.453369	8948.946289	2867.119141	24.836773
653.861938	855.001404	8893.516602	2843.267822	24.734249
654.194519	730.024231	8685.245117	2687.603760	24.607483
654.526978	727.720886	8635.165039	2669.028076	24.550373
654.859375	730.767273	8580.551758	2650.898193	24.460938
655.191833	726.754883	8525.123047	2641.610107	24.554564
655.524170	726.680603	8469.247070	2607.505127	24.292004
655.856445	718.804504	8409.062500	2591.976074	24.357721
656.188660	722.593933	8394.871094	2578.452881	24.189154
656.520874	715.758057	8361.062500	2563.146729	24.163702
656.853088	721.256531	8370.202148	2552.298584	23.938488
657.185181	716.649719	8356.232422	2539.741455	23.863762
657.517212	719.027405	8383.948242	2548.137451	23.863392
657.849243	714.346375	8417.086914	2545.908447	23.778055
658.181274	725.417480	8455.500977	2543.382080	23.518045
658.513123	723.931458	8504.465820	2552.075439	23.496382
658.844971	732.327637	8595.116211	2565.747070	23.317675
659.176819	722.073792	8692.080078	2590.787354	23.446827
659.508667	726.829285	8806.061523	2605.722168	23.255833
659.840393	723.485596	8876.203125	2595.765869	22.965105
660.172058	720.885010	8927.917969	2590.489990	22.780521
660.503662	723.559875	8941.515625	2581.425049	22.607388
660.835266	720.885010	8955.410156	2592.496094	22.728828
661.166931	720.513489	8917.664063	2583.431396	22.726410
661.498413	715.089355	8868.624023	2573.623291	22.794212
661.829773	712.860352	8761.034180	2555.716553	22.897818
662.161194	723.782898	8642.446289	2526.961182	22.771244
662.492615	723.782776	8509.073242	2486.169189	22.637388
662.823975	722.965515	8341.297852	2443.073486	22.578535
663.155212	721.999512	8213.571289	2406.145264	22.480539
663.486450	727.275085	8067.121094	2377.241455	22.479576
663.817627	732.773438	7960.347656	2335.928955	22.181101
664.148743	739.089172	7827.568848	2303.607178	22.071280
664.479858	739.980774	7729.935059	2274.257568	21.949741
664.810913	742.284180	7637.279297	2254.121582	21.926592
665.141907	733.962219	7585.416016	2218.753662	21.671190
665.472778	731.956116	7508.066895	2184.054199	21.429668
665.803711	723.485657	7470.395996	2167.410400	21.401276
666.134583	721.033630	7415.411621	2159.385742	21.485970
666.465454	719.844788	7396.390625	2157.156494	21.527775
666.796143	719.027527	7337.617188	2144.748047	21.541151
667.126831	722.593933	7331.821777	2138.580811	21.424391
667.457458	724.154297	7300.464844	2124.092041	21.287586
667.788147	722.371094	7296.081543	2113.392334	21.160366
668.118774	717.244141	7248.453125	2096.154053	21.112629
668.449219	716.798340	7240.279785	2097.194336	21.160419
668.779663	719.398926	7239.834473	2092.736084	21.062046
669.110107	721.182190	7235.302246	2090.878662	21.026577
669.440552	718.432922	7229.877441	2063.089355	20.650663
669.770874	722.519714	7202.014160	2049.491943	20.479563
670.101135	722.073792	7183.289551	2039.832642	20.394905
670.431396	725.194580	7157.135254	2035.374512	20.369902
670.761597	725.863281	7111.959473	2020.216797	20.268307
671.091797	724.080017	7069.606934	2002.384155	20.144966
671.421875	723.559875	7003.551270	1985.666016	20.097261
671.751892	722.668274	6973.533203	1974.594727	20.028053
672.081909	727.646545	6932.889160	1954.533081	19.771772
672.411865	728.018066	6904.877441	1952.898438	19.830149
672.741821	728.018066	6862.673340	1936.477539	19.698898
673.071716	734.631042	6814.599121	1931.944946	19.692766
673.401550	731.807556	6768.828613	1908.242554	19.487013
673.731262	733.739319	6746.538574	1886.397461	19.170076
674.060974	732.030457	6720.755371	1866.930176	18.950605
674.390625	729.058350	6699.356934	1866.410034	19.050163
674.720276	730.692932	6650.911621	1874.063110	19.312971
675.049927	721.999573	6617.846191	1865.890015	19.401630
675.379395	732.104736	6587.679688	1854.001465	19.159462
675.708923	720.662109	6539.828613	1822.199829	18.929476
676.038330	718.730225	6487.445313	1811.203125	18.937891
676.367737	712.711731	6442.491699	1794.707886	18.883730
676.697083	719.324646	6426.888184	1793.221802	18.815336
677.026428	723.559875	6402.442871	1783.191040	18.659147
677.355652	717.689941	6383.792969	1768.924805	18.553049
677.684875	721.033508	6388.101563	1766.026978	18.439754
678.013977	719.176025	6390.330566	1763.352173	18.412056
678.343079	725.863281	6408.609863	1761.494751	18.224136
678.672180	723.262695	6409.501465	1756.888062	18.177664
679.001221	723.188416	6473.550781	1759.191284	18.016308
679.330139	719.473206	6499.630859	1760.454468	18.009563
679.659058	725.417480	6541.685547	1754.064331	17.685684
679.987976	729.058289	6555.729004	1741.730103	17.379938
680.316772	730.247131	6605.066406	1736.231812	17.123671
680.645630	723.708496	6635.084473	1743.290527	17.247795
680.974304	721.702332	6674.390625	1740.541382	17.115612
681.302979	722.148193	6706.267090	1747.823120	17.139948
681.631653	725.045959	6755.157715	1749.086304	16.982111
681.960266	721.999512	6774.699219	1754.064453	17.051315
682.288757	723.262695	6773.138672	1749.234741	16.958563
682.617249	721.851013	6737.845215	1745.965332	17.023193
682.945679	724.823059	6715.851563	1744.627930	17.022202
683.274109	722.519592	6682.489746	1735.414185	16.994961
683.602478	725.045959	6630.105469	1723.080078	16.901339
683.930725	722.445313	6549.710449	1695.216675	16.693445
684.259033	726.011902	6450.367676	1680.653320	16.676836
684.587280	726.011902	6365.439941	1667.947388	16.702677
684.915344	734.779602	6301.836426	1657.545044	16.575464
685.243469	738.346191	6244.549316	1640.529785	16.384859
685.571533	737.157410	6189.713379	1612.963501	16.062304
685.899536	729.727051	6131.980469	1601.669556	16.140348
686.227539	729.206970	6087.101563	1581.904907	15.914795
686.555420	728.463867	6055.448730	1563.106323	15.668197
686.883301	730.321472	6039.250488	1551.886719	15.475160
687.211121	725.194519	6040.588379	1547.577148	15.471715
687.538940	719.398926	6055.597656	1554.561523	15.650890
687.866638	713.974854	6056.191895	1554.933105	15.741747
688.194336	720.736389	6044.377441	1541.855835	15.424020
688.521973	721.330811	6028.476563	1534.202515	15.316552
688.849609	727.869446	6025.355957	1524.320313	15.034506
689.177063	726.531982	5999.572754	1523.948853	15.122523
689.504578	728.166687	5932.403809	1506.116211	14.948387
689.832031	728.018066	5852.751465	1498.908813	15.042553
690.159485	722.148193	5780.380371	1481.521973	15.012631
690.486816	733.144958	5720.121094	1468.667603	14.748871
690.814087	734.482422	5644.777832	1457.596558	14.726489
691.141296	737.603088	5562.599121	1449.200195	14.748138
691.468506	731.510254	5482.946777	1436.866089	14.845107
691.795715	728.240967	5401.956543	1416.209839	14.719955
692.122803	729.875671	5345.857910	1403.058228	14.583734
692.449829	724.451477	5302.316406	1391.838501	14.578566
692.776855	724.897278	5254.613770	1377.795410	14.413665
693.103821	719.993347	5185.512207	1364.495239	14.432855
693.430664	722.891113	5121.612793	1352.086548	14.304052
693.757568	723.188293	5070.417969	1339.232300	14.170957
694.084351	725.045898	5030.962891	1324.520264	13.922107
694.411133	718.730225	4988.758789	1318.650513	14.049562
694.737854	726.383362	4961.415527	1300.000488	13.544576
695.064575	724.971680	4940.090820	1294.799316	13.518661
695.391174	734.036621	4920.549316	1290.341064	13.288015
695.717773	727.572205	4905.242676	1295.690796	13.598933
696.044250	723.262695	4912.970215	1291.307007	13.558090
696.370789	720.810730	4919.509277	1287.369019	13.493664
696.697205	716.872620	4939.273438	1282.910767	13.405600
697.023621	724.748718	4967.136719	1284.545410	13.195320
697.349915	720.959290	5023.458008	1281.499023	13.028237
697.676208	723.485596	5101.699219	1291.901367	12.982823
698.002380	715.535217	5191.382324	1300.223267	13.063182
698.328674	718.358704	5299.567383	1309.436768	12.902230
698.654724	712.934570	5407.604004	1308.916626	12.694867
698.980896	716.946960	5507.392090	1306.613281	12.309217
699.306946	709.367981	5573.373047	1318.873169	12.530932
699.632935	712.488770	5629.248535	1330.910278	12.577826
699.958862	716.129578	5641.730957	1336.111450	12.586927
700.284729	718.804504	5646.561035	1321.028198	12.221052
700.610596	721.776672	5595.068848	1312.929077	12.130453
700.936340	721.033630	5517.423340	1300.520508	12.081731
701.262146	736.785828	5412.656250	1289.672241	11.824245
701.587830	734.556641	5290.650879	1264.557861	11.632797
701.913513	734.630920	5156.683105	1252.149414	11.703130
702.239075	729.801270	5021.229492	1238.254883	11.848121
702.564697	731.064453	4890.976563	1226.366333	11.906547
702.890137	732.922058	4776.030273	1199.840332	11.548498
703.215698	728.538269	4666.730957	1174.874634	11.333533
703.541016	723.782898	4564.490234	1159.642456	11.348419
703.866455	722.668274	4484.392090	1156.447510	11.531395
704.191711	720.142029	4405.334473	1148.125610	11.613602
704.517029	730.247131	4360.900879	1139.729370	11.278471
704.842163	733.367859	4303.093262	1122.416870	10.898570
705.167419	735.671204	4267.428223	1120.633667	10.900026
705.492493	730.767273	4229.533691	1115.432495	10.994310
705.817566	724.897278	4203.081543	1114.169189	11.191813
706.142578	726.309082	4180.270996	1109.859741	11.104658
706.467590	731.956116	4158.945801	1100.720459	10.760591
706.792480	728.538147	4144.011230	1097.822632	10.812103
707.117371	728.463867	4132.865723	1096.485229	10.810163
707.442200	723.188416	4142.376465	1090.764038	10.750378
707.766907	725.863281	4149.881348	1084.596802	10.476975
708.091675	717.764343	4159.689453	1068.770386	10.197957
708.416321	713.454773	4148.395020	1072.336792	10.447985
708.741028	717.541321	4147.131836	1071.222290	10.312630
709.065552	720.736328	4169.794434	1076.349243	10.310435
709.390137	720.959290	4177.150879	1070.925171	10.125766
709.714600	715.832458	4204.643066	1068.918945	10.120541
710.039063	710.854187	4228.047852	1070.256348	10.218435
710.363403	716.649719	4266.982422	1072.856934	10.033066
710.687744	717.987244	4309.260254	1068.696045	9.765585
711.012085	725.120300	4353.693359	1067.953003	9.448141
711.336304	722.668274	4392.851074	1073.748657	9.565746
711.660461	730.693054	4418.262207	1089.946655	9.742288
711.984619	732.327637	4435.426270	1095.965210	9.819818
712.308716	736.265625	4452.144531	1095.667969	9.672069
712.632751	731.138855	4451.847656	1089.500854	9.631552
712.956726	735.894104	4416.405273	1075.086060	9.215893
713.280701	731.213074	4382.820313	1060.819946	9.026351
713.604553	734.482422	4335.860840	1054.355591	8.881965
713.928467	728.538147	4287.712402	1055.172974	9.177264
714.252258	727.572266	4221.731934	1051.532104	9.271466
714.575989	719.027405	4162.513184	1048.188354	9.558946
714.899719	720.885010	4115.182129	1045.439331	9.561753
715.223267	721.330811	4087.690186	1036.968750	9.376240
715.546936	724.897278	4077.436279	1023.520020	8.907360
715.870422	725.640381	4053.956299	1019.507629	8.829308
716.193970	729.727051	4034.117920	1017.575745	8.711097
716.517395	730.172852	4006.699951	1021.959656	8.905368
716.840820	734.779602	3978.167725	1014.380676	8.620647
717.164124	733.442139	3936.557861	1014.009277	8.759194
717.487488	727.795166	3893.165283	1007.396301	8.833126
717.810730	727.052063	3860.249268	1001.674988	8.764942
718.133972	730.990173	3808.534424	990.455261	8.430914
718.457092	739.534973	3754.739502	983.990967	8.107443
718.780212	738.197571	3693.365234	978.566895	8.133864
719.103210	728.538147	3653.018799	971.359558	8.303061
719.426208	717.467102	3607.025391	964.226379	8.539688
719.749207	707.510559	3586.740967	963.854980	8.903227
720.072083	717.764343	3550.927002	959.693909	8.539206
720.394958	725.491882	3506.196533	950.851868	8.104421
720.717773	728.835449	3441.033203	935.099670	7.605058
721.040527	722.816895	3397.863281	934.133789	7.899560
721.363281	723.857117	3369.925537	930.938782	7.826014
721.685913	727.423645	3346.000000	931.087402	7.777652
722.008545	728.018066	3314.124023	925.960449	7.654071
722.331055	726.903503	3286.929443	919.198914	7.511464
722.653503	724.971680	3257.951172	919.050293	7.662068
722.976013	725.566101	3249.852539	929.155518	8.065227
723.298401	728.241028	3238.929688	930.344299	8.049714
723.620789	726.086182	3230.162109	927.000732	8.023500
723.943115	719.844727	3206.236328	917.638611	7.955058
724.265381	724.154297	3182.831299	912.808899	7.673013
724.587585	721.479431	3189.889893	907.607727	7.540411
724.909790	733.665039	3196.874756	897.725525	6.660435
725.231873	733.367859	3202.670654	905.304382	6.962958
725.553894	737.008728	3195.834717	911.248535	7.086301
725.875916	768.661682	3217.902344	956.498962	7.669205
726.197937	761.974426	3239.227295	957.018982	7.873421
726.519775	765.020813	3243.387939	949.811584	7.456150
726.841675	722.222412	3225.852539	909.316650	7.472919
727.163513	720.290527	3227.710205	904.189758	7.334202
727.485291	716.724060	3247.697998	907.013367	7.518423
727.806946	718.061462	3280.390869	911.842957	7.562708
728.128662	721.033630	3307.065674	910.654114	7.332488
728.450256	724.748718	3330.470703	905.898743	6.952009
728.771790	729.727051	3334.186279	904.932861	6.727148
729.093323	723.559875	3326.830078	913.106201	7.281085
729.414795	721.107910	3316.130615	913.923523	7.430209
729.736145	715.683777	3311.078125	903.743958	7.245920
730.057495	720.439209	3317.468018	895.719238	6.749252
730.378845	719.250427	3323.114990	889.700867	6.546056
730.700134	714.272156	3319.102539	891.409729	6.800350
731.021301	719.176086	3317.393555	885.093994	6.385836
731.342468	724.674500	3314.644531	886.728699	6.256991
731.663574	737.603088	3332.402588	885.391296	5.695554
731.984680	731.881775	3347.188721	892.747253	6.150922
732.305664	730.544250	3357.888672	900.474792	6.467768
732.626648	729.949890	3357.443115	898.245605	6.405182
732.947571	736.042786	3363.758545	892.301453	5.946559
733.268433	735.745605	3353.207764	892.004211	5.969851
733.589233	735.819824	3335.151611	891.707031	5.997203
733.909973	734.779602	3319.994141	892.821533	6.113300
734.230713	736.860107	3308.923096	888.437683	5.893229
734.551331	726.754944	3278.607422	883.013489	6.123338
734.871948	717.467102	3233.877686	873.948547	6.218438
735.192505	713.751953	3176.813232	875.657532	6.573348
735.513062	720.885010	3146.051514	875.954773	6.394190
735.833435	731.213135	3088.987061	870.976501	5.927768
736.153931	738.420471	3058.002930	862.060120	5.330255
736.474304	736.637207	3001.681641	864.958008	5.665267
736.794617	728.389587	2982.436768	862.951843	5.969807
737.114807	722.073792	2954.127686	857.750671	6.078567
737.434998	728.092346	2942.684814	848.016907	5.415197
737.755188	729.578430	2935.552002	854.258301	5.651920
738.075256	725.714661	2941.347656	852.846619	5.737952
738.395325	720.810730	2971.811768	854.778503	5.951476
738.715271	721.553711	2992.022217	855.149963	5.884083
739.035278	724.897400	3010.597656	854.778503	5.682333
739.355164	719.844727	3020.702881	855.818787	5.909711
739.675049	723.188416	3026.052734	857.824951	5.846482
739.994873	721.627991	3021.297119	858.790833	5.964460
740.314636	719.621887	3006.510742	852.623718	5.815841
740.634277	719.993408	2990.535889	844.078857	5.465014
740.953979	721.330872	2961.334961	840.215149	5.307324
741.273499	731.064453	2925.000977	836.128479	4.788836
741.593140	720.736389	2894.759766	830.110046	5.030933
741.912598	717.318420	2862.809570	822.605408	4.907361
742.232117	719.547546	2828.035889	826.023254	5.049860
742.551453	727.275085	2777.584229	830.035645	5.011954
742.870850	733.293640	2745.708252	831.670410	4.888494
743.190063	729.950012	2716.284424	825.503235	4.810530
743.509338	730.470032	2693.250732	810.419861	4.073294
743.828552	726.829163	2677.646973	809.156677	4.220154
744.147705	724.897278	2661.226074	813.689148	4.585578
744.466797	722.296692	2632.099609	824.685852	5.361242
744.785828	724.080017	2606.836670	828.252441	5.532974
745.104858	723.262634	2580.533447	825.800476	5.520888
745.423706	725.863281	2572.583252	820.970764	5.150076
745.742615	728.538147	2561.363525	813.763428	4.649940
746.061401	732.476257	2561.735107	811.608643	4.325926
746.380249	730.915833	2546.205811	811.682922	4.449266
746.698975	723.708496	2533.574219	815.026611	5.045574
747.017639	719.324646	2514.032471	814.506348	5.303465
747.336304	711.745789	2510.986084	814.134949	5.690689
747.654907	709.739563	2503.184326	810.494080	5.617932
747.973389	716.426819	2502.812744	811.311462	5.311542
748.291931	729.578430	2508.088135	811.237122	4.591411
748.610352	737.157410	2516.484375	811.088562	4.155007
748.928711	735.968445	2526.738281	805.887390	3.904407
749.247070	725.937561	2524.360596	804.401306	4.362919
749.565308	714.717834	2517.673584	800.537537	4.759945
749.883545	712.191589	2506.379639	802.320801	5.023398
750.201782	715.312317	2501.772705	798.902832	4.679114
750.519836	722.891174	2502.590088	798.828613	4.266870
750.837952	724.748779	2494.119629	793.553040	3.888628
751.155884	727.200684	2471.457275	795.187744	3.897767
751.473877	730.247131	2457.116943	798.754211	3.967125
751.791809	724.600098	2443.147705	799.868835	4.379788
752.109619	727.497986	2432.299561	800.314636	4.271268
752.427490	722.296692	2413.129639	799.720215	4.579017
752.745300	728.835388	2405.550537	799.200012	4.196576
753.062988	729.801270	2411.791992	802.840820	4.342447
753.380615	733.293518	2413.426514	799.348633	3.931541
753.698303	727.572205	2415.581299	798.234070	4.186107
754.015808	725.491699	2410.157471	791.175354	3.898913
754.333374	724.748718	2403.693115	795.707825	4.226412
754.650757	722.519714	2401.835449	804.104004	4.858187
754.968262	722.371094	2401.760986	802.692322	4.782763
755.285583	721.033691	2393.588135	795.336243	4.442460
755.602905	726.160461	2377.835938	791.621155	3.963290
755.920105	722.222473	2359.928711	791.323975	4.219408
756.237305	722.593994	2361.935059	793.181580	4.305851
756.554443	724.377197	2355.247803	792.810059	4.196094
756.871582	725.417480	2360.968994	785.082520	3.648007
757.188599	725.937561	2356.510742	779.584167	3.290046
757.505615	722.593994	2360.894531	772.079590	3.020545
757.822510	721.628113	2371.222656	778.915466	3.472814
758.139465	719.101746	2379.544678	792.884338	4.443549
758.456238	724.451477	2395.445313	794.593262	4.197608
758.773010	732.327637	2400.943604	796.971008	3.874071
759.089783	731.658936	2425.166504	798.382751	3.939977
759.406433	724.748718	2453.550293	799.645813	4.332313
759.723145	723.039795	2465.512939	800.983398	4.473159
760.039673	732.550537	2470.788574	789.689270	3.287164
760.356201	730.544373	2453.476074	790.878235	3.501814
760.672668	732.476257	2455.333496	790.655273	3.376891
760.989136	726.457703	2451.097900	793.998840	3.916245
761.305481	723.262695	2456.076416	791.695496	3.949230
761.621826	719.844727	2453.550049	786.940125	3.870058
761.938049	725.491699	2462.540771	786.940125	3.537518
762.254333	734.185242	2485.723389	784.710938	2.884647
762.570496	732.030457	2531.419678	792.884277	3.381916
762.886597	735.522644	2611.146240	789.317810	2.868122
763.202637	741.095276	2735.008789	794.593323	2.683068
763.518677	742.284180	2876.630127	794.073242	2.426461
763.834656	739.906494	3025.755615	801.503418	2.694706
764.150574	736.785828	3140.181641	803.361023	2.770047
764.466370	741.689758	3206.533936	799.645935	2.351312
764.782288	735.894226	3229.196045	795.559265	2.393013
765.097961	732.624817	3205.642334	795.039246	2.523817
765.413696	730.990234	3156.602539	793.478760	2.576196
765.729309	731.956116	3058.597412	794.296082	2.679397
766.044861	725.937561	2940.901611	783.522156	2.599798
766.360474	721.850891	2814.364258	783.150696	2.929482
766.675903	724.897278	2689.906982	775.274597	2.563719
766.991394	735.374023	2575.183838	781.961853	2.532209
767.306763	737.751648	2483.048096	775.051697	2.137176
767.622131	730.544373	2411.346191	778.543945	2.855755
767.937378	726.383362	2353.761719	768.810242	2.607069
768.252625	728.909668	2307.694092	771.708191	2.710853
768.567810	732.476257	2260.065674	765.912415	2.188818
768.882996	734.853943	2213.849609	774.828796	2.702838
769.197998	733.367859	2180.636475	776.834961	3.003389
769.513062	735.002502	2154.853271	771.485168	2.569472
769.828064	729.875671	2131.076172	768.736023	2.773361
770.142944	731.213135	2107.522217	769.776184	2.801918
770.457825	726.977844	2073.491699	771.113708	3.277787
770.772705	722.296692	2054.990234	770.147705	3.590549
771.087402	719.176025	2016.278687	763.831970	3.442746
771.402100	725.714661	1992.798950	766.581238	3.225245
771.716736	732.030457	1962.037598	764.203430	2.615674
772.031372	731.807434	1963.969360	764.723633	2.671418
772.345947	727.126465	1956.687866	768.290222	3.347841
772.660461	727.275085	1953.492798	765.540955	3.120642
772.974854	729.206848	1926.892578	763.088928	2.828962
773.289246	733.070618	1915.226929	761.751465	2.426147
773.603638	730.990173	1890.186890	767.844299	3.179281
773.917908	724.600098	1884.317017	772.302490	4.113279
774.232178	721.182129	1864.552612	769.850525	4.256573
774.546265	727.646545	1863.512329	762.123047	3.035262
774.860474	725.120300	1844.936523	750.606018	2.275884
775.174561	728.389587	1838.174927	745.627747	1.553288
775.488586	729.132568	1832.602173	745.702087	1.501584
775.802551	729.578369	1808.973999	751.051819	1.989396
776.116516	725.714661	1789.209473	756.773254	2.920427
776.430359	715.386536	1762.906372	757.962097	4.064416
776.744202	717.615662	1764.095215	755.955872	3.663733
777.057922	714.940735	1762.980591	750.531738	3.395959
777.371704	718.433044	1755.550415	750.234558	3.066337
777.685303	717.690002	1749.903320	760.339783	4.131876
777.998962	721.330811	1741.655884	759.373840	3.728521
778.312500	720.587830	1745.073730	749.937317	2.864802
778.626038	728.463867	1741.655884	739.534973	1.092696
778.939453	732.327637	1741.730103	739.534973	0.714020
779.252869	732.773438	1738.535034	748.674255	1.580973
779.566223	726.903503	1740.244141	756.624573	2.932979
779.879578	719.027405	1734.968750	754.469910	3.488637
780.192749	723.262695	1721.519897	748.302673	2.508369
780.505920	719.101746	1713.272095	736.191406	1.718987
780.819031	719.473206	1701.234985	741.541199	2.247795
781.132141	724.302979	1712.528931	750.011658	2.601498
781.445190	732.253357	1708.368164	758.333557	2.671837
781.758118	735.151184	1701.755249	759.448059	2.513633
782.071045	729.727051	1679.538696	761.454346	3.340378
782.383911	728.686768	1666.535645	770.667786	4.476309
782.696838	726.754944	1669.359253	763.980652	3.949240
783.009583	725.045959	1666.089844	755.732971	3.260954
783.322266	719.621826	1659.848633	741.764099	2.354993
783.634888	717.318420	1638.375000	741.021057	2.573418
783.947510	714.717834	1625.223511	743.695862	3.182630
784.260132	715.237976	1621.508423	743.844543	3.156516
784.572571	712.265869	1609.619751	755.584290	4.827351
784.885010	715.312256	1605.533203	748.971375	3.780985
785.197449	721.776611	1585.991577	748.822815	3.129569
785.509766	733.962219	1583.093750	739.906555	0.700049
785.822083	728.909668	1575.515015	743.918884	1.772871
786.134277	726.977783	1572.839966	743.473083	1.950117
786.446533	720.884949	1571.056641	738.791992	2.106286
786.758606	724.971680	1561.397461	733.739441	1.048241
787.070740	726.606262	1571.056763	733.739319	0.844698
787.382690	726.011902	1574.846313	737.008606	1.295506
787.694641	722.371033	1590.746948	742.135559	2.276033
788.006653	717.467102	1608.059570	743.844543	2.961786
788.318481	721.107910	1639.712524	753.132385	3.486209
788.630310	720.216309	1681.396362	756.921814	3.818796
788.942017	715.906738	1709.259766	756.847473	4.121469
789.253784	715.089355	1716.095703	750.457458	3.533255
789.565430	724.971680	1701.978149	750.903259	2.654187
789.877014	735.374023	1678.944336	742.729980	0.779588
790.188538	738.271790	1664.306641	734.928223	-0.361063
790.500061	737.974609	1644.541992	731.584656	-0.704852
790.811462	738.940613	1629.384277	733.887939	-0.567433
791.122925	743.324402	1600.926392	735.076843	-0.961700
791.434204	740.129395	1587.031860	736.711487	-0.403577
791.745483	735.671204	1567.341675	743.918884	0.991701
792.056702	728.463867	1560.877319	741.838379	1.606715
792.367920	725.863281	1532.419312	741.838379	1.980656
792.678955	721.330811	1520.010742	743.101501	2.725834
792.990112	722.296692	1512.654785	749.491516	3.440823
793.301086	724.228577	1512.506226	739.014893	1.875775
793.612122	730.544250	1498.834473	732.922058	0.309493
793.922974	722.222412	1485.311401	729.058289	0.895816
794.233826	720.216309	1477.583984	739.386414	2.531149
794.544556	719.770508	1471.639648	739.683594	2.648478
794.855286	722.371094	1468.890503	738.643311	2.179745
795.166016	717.467041	1471.713989	735.225403	2.354449
795.476624	717.689941	1483.528198	736.934387	2.512860
795.787292	726.829163	1494.970703	745.479187	2.427941
796.097778	728.686768	1515.255371	743.993164	1.945971
796.408264	721.033630	1543.044556	745.553528	2.982916
796.718689	719.770508	1557.087769	743.250183	2.804155
797.029053	727.126465	1567.490234	742.507080	1.830233
797.339355	735.596985	1553.744141	742.209778	0.808264
797.649658	734.928223	1546.388306	739.757813	0.595173
797.959839	731.807556	1526.995239	741.689758	1.242751
798.270020	731.584656	1510.351563	739.683594	1.039969
798.580078	727.869446	1499.726196	739.163513	1.463234
798.890137	730.098572	1487.912109	739.237793	1.205999
799.200195	724.674500	1478.921387	737.974609	1.763363
799.510071	724.228577	1459.676880	739.014893	2.010517
799.820007	717.987122	1450.611938	732.550537	1.987841
800.129883	719.324646	1439.169312	736.340027	2.363757
800.439575	719.696106	1444.296265	740.055115	2.809689
800.749329	722.965515	1443.701782	745.776367	3.164937
801.058960	727.349365	1444.593628	738.197571	1.512484
801.368591	727.274963	1441.621460	733.367859	0.852933
801.678162	728.315247	1434.488281	739.386414	1.567770
801.987671	726.977783	1432.779297	747.708252	2.937153
802.297119	721.107910	1423.045532	748.748535	3.937761
802.606506	717.838562	1413.609253	745.107666	3.919266
802.915894	713.528992	1397.559937	737.231628	3.465141
803.225159	728.166687	1391.467163	734.779602	0.996971
803.534424	736.562927	1390.426758	729.652649	-1.056838
803.843628	745.479248	1389.906738	725.566101	-3.090052
804.152771	735.448303	1380.618774	720.736328	-2.280324
804.461792	721.850891	1370.216431	724.971619	0.481322
804.770874	717.541321	1375.714844	732.178955	2.223978
805.079773	719.398926	1393.399048	736.860046	2.590670
805.388733	727.943665	1412.271973	734.631042	0.977218
805.697571	727.795105	1425.423462	731.733154	0.564491
806.006470	728.761047	1423.565918	731.361633	0.374290
806.315125	728.983948	1425.349121	730.841553	0.266757
806.623901	726.606262	1414.352173	734.705322	1.177624
806.932495	724.822998	1407.516479	735.671204	1.589030
807.241150	727.052185	1401.275024	740.129395	1.939597
807.549622	728.612488	1404.024292	750.829041	3.289334
807.858154	728.983948	1397.188354	752.092102	3.458246
808.166565	727.943787	1393.770386	749.194336	3.191604
808.474915	728.538269	1378.984009	734.631042	0.936707
808.783264	736.414246	1376.829468	737.380188	0.150831
809.091492	732.550537	1361.003052	735.894104	0.532032
809.399719	733.739319	1353.052612	733.442139	-0.047985
809.707825	730.692932	1347.702759	732.030457	0.216775
810.015930	725.491699	1346.365234	734.631042	1.472014
810.323975	721.999512	1341.015503	743.993164	3.553002
810.632080	713.751953	1334.625488	736.711487	3.697940
810.939880	721.182190	1329.201416	729.726990	1.405350
811.247864	732.624817	1326.600708	727.572205	-0.850643
811.555664	733.070740	1324.817505	730.990173	-0.351597
811.863464	727.646545	1315.826782	732.030457	0.745335
812.171143	718.210144	1307.653687	732.624817	2.445471
812.478882	721.999512	1293.090210	733.293518	1.977620
812.786438	722.965515	1290.266846	734.185242	1.977737
813.094055	721.702332	1294.279175	733.293518	2.024390
813.401489	712.711731	1294.502075	731.510254	3.231151
813.708984	714.123474	1297.176880	734.630920	3.517250
814.016357	718.061523	1283.653809	727.646484	1.694677
814.323730	725.789001	1287.220337	726.457703	0.119106
814.630981	725.194580	1274.737427	723.114075	-0.378588
814.938232	722.742615	1281.276245	732.773438	1.795921
815.245361	722.445374	1267.753052	735.671204	2.425389
815.552490	718.433044	1281.201782	737.380188	3.366773
815.859619	718.655945	1281.424683	736.562805	3.181922
816.166565	727.497986	1293.164551	739.014832	2.035978
816.473572	731.584534	1281.870605	738.420410	1.242241
816.780457	726.829285	1286.774414	739.683594	2.295637
817.087341	718.953125	1286.625854	739.237793	3.573303
817.394043	724.080078	1297.474121	741.764099	3.084096
817.700806	723.485657	1305.052979	740.575195	2.938531
818.007507	726.532043	1316.495605	747.559753	3.564239
818.314209	723.782898	1326.006226	745.256348	3.565696
818.620667	726.903503	1326.526367	740.575195	2.280048
818.927246	727.126465	1334.328247	730.395752	0.538419
819.233704	726.754944	1346.216675	726.531982	-0.035993
819.540161	731.138855	1382.401978	722.965515	-1.254998
819.846497	729.429871	1421.633911	723.931458	-0.794334
820.152832	728.835449	1480.110352	725.863281	-0.395617
820.458984	728.240967	1535.391602	731.138733	0.359012
820.765259	722.593933	1597.211304	731.881836	1.061939
821.071350	720.364807	1687.191895	740.723816	2.105755
821.377502	713.454773	1844.639282	741.987000	2.522332
821.683472	716.946960	2144.673584	741.764099	1.738228
821.989441	714.197754	2659.443115	740.129395	1.333078
822.295349	717.467102	3376.315674	748.525574	1.168117
822.601196	724.748718	4171.652344	755.287109	0.885966
822.907043	733.813660	4845.949219	767.101318	0.809498
823.212769	733.145020	5235.815430	770.593506	0.831695
823.518494	724.674500	5296.446777	776.017639	1.123047
823.824097	720.216309	5065.736816	770.667786	1.161000
824.129700	719.993347	4701.355957	766.135315	1.158949
824.435242	727.720886	4320.183105	765.020813	1.038283
824.740723	734.333801	3988.792969	762.197327	0.856165
825.046082	738.494690	3683.854736	755.510071	0.577701
825.351501	726.457764	3363.461670	754.246887	1.053814
825.656799	723.634277	3038.906982	748.897156	1.091141
825.962036	716.649841	2743.776611	745.925049	1.444173
826.267212	727.423645	2531.567871	739.460693	0.667189
826.572449	730.098572	2424.497559	740.129395	0.591999
826.877502	725.194580	2434.751465	740.278015	0.882301
827.182495	717.095520	2540.707275	744.587585	1.507561
827.487488	707.287598	2679.876221	746.147949	1.970018
827.792419	720.439209	2798.612061	748.376953	1.344342
828.097290	717.021301	2824.766602	743.844543	1.272604
828.402100	720.662109	2752.247070	745.330566	1.214247
828.706848	724.377197	2608.917236	750.160339	1.368140
829.011597	730.470032	2442.850586	749.045715	1.084787
829.316223	734.556641	2290.009766	743.547363	0.578013
829.620789	724.451477	2150.172119	740.500916	1.125707
829.925354	725.789001	2013.380859	741.466858	1.217611
830.229797	720.736328	1890.112671	740.575256	1.696539
830.534302	721.850891	1746.931274	736.562927	1.435208
830.838562	722.371094	1629.087280	733.070618	1.180030
831.142944	720.216309	1526.103516	735.002502	1.834772
831.447144	722.073792	1458.265137	737.751709	2.129598
831.751404	721.925232	1405.658813	738.866272	2.477725
832.055542	726.309082	1370.959473	741.095398	2.293695
832.359619	720.439148	1357.659302	742.730042	3.498146
832.663635	714.792175	1369.919312	740.500916	3.924237
832.967651	720.587830	1399.268921	734.556702	2.058238
833.271545	730.395752	1466.512695	723.485596	-0.938731
833.575439	735.819824	1558.871094	722.445374	-1.624984
833.879211	725.045959	1690.684082	724.600159	-0.046166
834.183044	718.210144	1810.014282	731.584656	1.224992
834.486694	707.956360	1907.870972	738.346191	2.532666
834.790344	715.237976	1942.347290	739.460754	1.973971
835.093933	714.346375	1931.796265	736.860107	1.849253
835.397522	717.021301	1888.849487	734.185120	1.464704
835.700928	721.256531	1820.416626	735.968445	1.338469
836.004395	727.423645	1760.900269	741.838379	1.394781
836.307739	736.340027	1673.668945	743.621643	0.776847
836.611023	727.200684	1602.635376	739.460693	1.400448
836.914307	725.343201	1516.295776	737.305847	1.512435
837.217529	720.736389	1456.407593	735.596924	2.019997
837.520691	724.377258	1389.089478	735.596985	1.687907
837.823730	723.262695	1330.761841	735.151123	1.956946
838.126831	726.086243	1281.424805	731.064453	0.896428
838.429749	727.720886	1242.936035	727.126404	-0.115385
838.732727	725.937561	1211.505859	720.439148	-1.132367
839.035522	730.470032	1186.242920	719.250305	-2.461692
839.338379	734.779602	1169.896240	718.210144	-3.808050
839.641113	738.420410	1177.623779	715.238037	-5.278277
839.943848	741.318298	1200.583374	719.250427	-4.805040
840.246460	731.658936	1226.886597	723.485596	-1.650421
840.549072	723.782898	1253.709839	729.355469	1.051573
840.851563	713.751953	1267.455811	732.030457	3.301133
841.154053	720.885071	1279.195679	735.448425	2.608468
841.456482	724.377258	1262.923340	733.888000	1.766003
841.758850	728.984070	1241.747070	734.853943	1.144754
842.061157	724.005676	1219.084839	730.915833	1.395768
842.363403	725.640381	1197.834106	737.751709	2.564907
842.665588	719.027527	1173.685913	735.374023	3.595336
842.967712	721.107910	1154.144165	738.197510	3.946459
843.269775	723.559875	1130.738647	737.603088	3.448906
843.571777	726.829285	1108.670776	732.253357	1.420504
843.873840	728.240967	1080.435913	727.943787	-0.084379
844.175659	725.789001	1064.163574	726.606262	0.241525
844.477600	727.720886	1046.999756	729.801270	0.651588
844.779297	730.692932	1034.442505	731.956116	0.415863
845.081116	728.612488	1020.919434	733.145020	1.550607
845.382751	726.234802	1013.191895	733.813721	2.641133
845.684387	718.878845	1015.198059	726.829285	2.683066
845.985962	719.027405	1005.984558	723.336975	1.501817
846.287537	724.748718	1000.560364	723.114075	-0.592667
846.588989	725.714661	990.381042	729.801331	1.544083
846.890381	733.442139	995.284973	728.612549	-1.844461
847.191711	725.045898	998.257141	734.110901	3.317946
847.493042	729.801270	985.922852	731.510315	0.667279
847.794250	724.525879	976.263489	736.042786	4.574965
848.095459	727.572266	967.198486	735.002502	3.100761
848.396606	725.937561	965.341003	744.661865	7.821234
848.697693	725.640442	962.888977	744.364685	7.892248
848.998657	729.504089	959.099426	736.265625	2.944979
849.299622	731.064453	958.133606	730.767273	-0.130877
849.600464	736.117126	958.282227	728.761047	-3.311087
849.901367	732.104736	957.985046	730.321472	-0.789473
850.202087	725.566101	955.978760	723.559875	-0.870710
850.502808	716.129578	953.675476	722.519592	2.690013
850.803467	715.386658	951.743591	716.649719	0.534387
851.104065	718.804504	956.721863	724.228699	2.279865
851.404663	727.720886	953.303894	721.776611	-2.635072
851.705139	728.761047	958.430847	726.309082	-1.067605
852.005615	732.773438	952.709473	721.330811	-5.202707
852.306030	733.665039	957.241943	713.751953	-8.906593
852.606384	734.556641	957.019043	713.974792	-9.251832
852.906616	730.024231	959.025208	717.467102	-5.483439
853.206909	729.504089	956.498962	729.949951	0.196419
853.506958	730.767273	944.833435	732.773438	0.937170
853.807129	726.234863	944.981995	728.538269	1.052999
854.107178	721.182190	943.718933	729.355469	3.672777
854.407166	722.668274	943.347351	731.287415	3.905735
854.707092	733.665039	942.232910	732.996338	-0.320616
855.007019	725.491699	931.607605	729.132629	1.766448
855.306763	728.240967	941.564148	722.816895	-2.542655
855.606567	722.445313	937.848938	723.782776	0.620910
855.906250	726.977844	943.124512	725.343079	-0.756322
856.205933	726.829285	934.282410	727.126465	0.143252
856.505493	729.578430	936.585754	719.696106	-4.773901
856.805054	727.869446	939.632263	717.392822	-4.947339
857.104492	728.983948	945.799316	717.764343	-5.174727
857.403931	727.943787	944.981995	726.011902	-0.890113
857.703308	742.804260	939.037781	729.355469	-6.853463
858.002563	737.008728	933.836609	726.829285	-5.171749
858.301819	735.745605	935.991394	726.457764	-4.638221
858.601013	728.686768	939.929443	721.925293	-3.200809
858.900208	727.497986	943.124329	716.724121	-4.996544
859.199219	728.389465	943.644531	717.021301	-5.281253
859.498291	727.126465	949.291565	718.284363	-3.979969
859.797302	729.281250	955.087219	723.114014	-2.731210
860.096191	726.680664	945.130615	720.216248	-2.959221
860.395020	723.114075	938.369080	719.250305	-1.794973
860.693787	723.708496	927.297913	727.275085	1.751854
860.992554	724.228699	930.864502	731.138733	3.344064
861.291260	728.018066	925.143127	732.401917	2.223893
861.589844	715.237976	923.731384	727.720886	5.987196
861.888428	712.711731	921.502380	722.668274	4.768673
862.186890	718.655945	923.062683	726.309082	3.744073
862.485413	729.652649	919.719055	723.114075	-3.440152
862.783813	735.671204	919.496155	725.491699	-5.537608
863.082153	726.829163	926.480652	722.445374	-2.195721
863.380371	728.538147	932.499207	730.395752	0.910765
863.678589	718.358704	933.242188	733.516418	7.053923
863.976746	714.569275	927.372314	735.671204	9.916179
864.274902	712.414551	933.093506	734.556702	10.033648
864.572937	718.953125	929.378418	734.779602	7.521186
864.870911	716.203918	934.356689	737.603088	9.809258
865.168884	718.061523	935.099792	730.098572	5.546049
865.466736	714.717834	946.839600	723.039795	3.585170
865.764587	724.674500	941.935608	714.049133	-4.890597
866.062317	724.080017	935.396973	718.210144	-2.777758
866.360107	728.835449	934.876770	722.445313	-3.101386
866.657715	729.281250	936.883057	724.377197	-2.362240
866.955322	726.309082	939.780823	718.730286	-3.550257
867.252808	724.600098	937.105957	715.460938	-4.300663
867.550293	720.364929	938.369080	720.959290	0.272637
867.847717	729.281250	935.471252	731.064453	0.864835
868.145081	731.213074	930.270020	732.401917	0.597238
868.442383	732.996338	935.174011	733.962219	0.477739
868.739624	723.485596	937.848938	724.005676	0.242616
869.036804	722.668213	941.935547	726.383362	1.694347
869.333984	723.708496	936.511475	721.925232	-0.837988
869.631042	725.120300	940.226563	729.429871	2.003461
869.928101	718.507324	945.799316	730.321472	5.197784
870.224976	722.668274	949.663086	728.909668	2.749576
870.521851	725.045898	942.307068	732.179016	3.283200
870.818726	732.253357	936.362854	734.259460	0.982857
871.115479	727.052063	936.288574	734.408020	3.515618
871.412231	732.699158	943.941833	728.240967	-2.110459
871.708862	730.470032	941.712708	725.343201	-2.426986
872.005493	731.138855	943.050110	721.330811	-4.628374
872.302063	724.748779	942.455627	720.736389	-1.843024
872.598572	726.531982	943.198730	718.581604	-3.669404
872.895020	730.692932	944.090332	722.445313	-3.864911
873.191406	734.259460	940.672546	720.439209	-6.695434
873.487671	732.179016	944.833313	723.485596	-4.088053
873.783997	735.151184	942.678650	726.532043	-4.153253
874.080200	736.414307	945.725037	734.408142	-0.958462
874.376343	734.408142	954.344177	738.271912	1.756770
874.672424	730.024231	953.155273	738.271790	3.696285
874.968445	720.141907	958.728027	737.603210	7.318659
875.264465	721.999512	960.065430	732.401917	4.369548
875.560364	722.742615	967.049988	726.457703	1.520661
875.856201	732.401917	964.375061	721.776611	-4.580403
876.152039	735.671204	949.143066	718.804504	-7.901134
876.447754	733.888000	950.777649	716.649719	-7.947950
876.743469	731.956116	952.932434	712.860352	-8.641543
877.039063	734.482422	962.888977	716.872620	-7.709850
877.334595	731.956238	954.344055	723.411316	-3.842352
877.630127	727.052063	945.427795	727.126465	0.034071
877.925537	721.702332	946.393738	723.485596	0.793650
878.221008	721.999512	959.916809	727.126465	2.154931
878.516296	721.256531	974.108643	731.956055	4.231534
878.811646	718.655945	981.984802	741.764099	8.775397
879.106812	719.919006	981.613281	737.380188	6.672359
879.401978	722.371033	991.718445	733.888000	4.275878
879.697083	727.795105	1010.665527	728.018066	0.078821
879.992126	727.572266	1044.176147	729.578430	0.633651
880.287109	729.132568	1081.699097	732.104736	0.843009
880.582031	727.497864	1141.141235	728.538269	0.251522
880.876892	726.829285	1255.641602	730.395752	0.674430
881.171753	726.457703	1465.695679	730.990173	0.613127
881.466492	733.293640	1784.157227	732.476257	-0.077782
881.761230	736.711487	2160.574707	728.835388	-0.553150
882.055786	731.807556	2526.812744	728.166687	-0.202833
882.350403	717.318420	2775.057861	733.293518	0.776342
882.644958	717.689941	2875.738281	737.751709	0.929626
882.939453	729.504089	2826.475342	738.346130	0.421658
883.233826	735.299744	2706.847900	735.448303	0.007535
883.528137	733.145020	2567.381836	735.819824	0.145827
883.822449	730.024231	2455.630615	734.482422	0.258355
884.116577	725.714661	2333.699707	735.745544	0.623817
884.410828	727.497986	2222.468506	732.550537	0.337970
884.704956	718.804504	2075.720703	725.417480	0.487353
884.999023	721.107910	1916.044312	725.640442	0.379312
885.292969	721.553711	1722.411499	727.126465	0.556798
885.586914	722.965515	1553.001099	729.726990	0.814601
885.880798	722.593994	1423.491333	722.296692	-0.042417
886.174622	718.655945	1331.133179	722.073792	0.558037
886.468384	715.386536	1251.034912	722.816833	1.387160
886.762085	718.135803	1192.187134	729.132568	2.319741
887.055664	712.711670	1156.521851	728.018066	3.448861
887.349304	712.563171	1128.138184	732.104736	4.702295
887.642822	714.717834	1108.447998	732.550537	4.529169
887.936340	717.318420	1080.881714	731.584656	3.924003
888.229736	720.364929	1057.550659	727.572266	2.137497
888.523071	716.203918	1037.711792	728.018066	3.674606
888.816284	714.494934	1023.742920	732.327637	5.766473
889.109619	719.844788	1019.359070	734.853943	5.011165
889.402710	726.309082	1012.448914	732.253357	2.077402
889.695862	732.550598	998.479980	722.371094	-3.827898
889.988892	735.968445	989.860840	719.621826	-6.438404
890.281921	743.175720	986.145691	721.107910	-9.082525
>>>>>End Processed Spectral Data<<<<<
