Jaz Data File
++++++++++++++++++++++++++++++++++++
Date: Fri Jun 04 16:53:08 2021
User: jaz
Dark Spectrum Present: Yes
Reference Spectrum Present: Yes
Processed Spectrum Present: Yes
Spectrometers: JAZA3586
Integration Time (usec): 24600 (JAZA3586)
Spectra Averaged: 10 (JAZA3586)
Boxcar Smoothing: 1 (JAZA3586)
Correct for Electrical Dark: No (JAZA3586)
Strobe/Lamp Enabled: Yes (JAZA3586)
Correct for Detector Non-linearity: No (JAZA3586)
Correct for Stray Light: No (JAZA3586)
Number of Pixels in Processed Spectrum: 2048
>>>>>Begin Processed Spectral Data<<<<<
W	D	R	S	P
191.335022	0.000000	0.000000	0.000000	0.000000
191.713211	227.812149	233.756348	235.093796	122.500061
192.091385	455.401367	470.633423	467.809937	81.463524
192.469528	695.027649	713.083191	703.052307	44.444294
192.847641	705.281433	715.386536	707.956299	26.470446
193.225739	723.634216	724.748718	726.309082	240.005478
193.603790	731.584534	727.275085	747.559631	-370.699371
193.981842	739.757813	742.507080	756.178772	597.284851
194.359863	740.649475	740.798096	758.259277	11848.829102
194.737854	744.141785	746.890930	749.937317	210.812134
195.115829	742.284241	741.243958	751.126221	-849.958923
195.493774	742.655762	746.445129	745.850769	84.315048
195.871704	739.609314	740.055176	746.519470	1549.842529
196.249603	745.256348	746.222229	747.931152	276.928925
196.627457	745.702148	748.674133	748.451355	92.504059
197.005310	744.439026	752.835144	747.113831	31.857635
197.383133	741.689758	753.875427	748.377014	54.878036
197.760910	735.076843	761.602844	748.599915	50.980438
198.138687	738.049011	765.838196	754.246887	58.288418
198.516449	736.191345	752.983826	745.702148	56.637276
198.894180	749.788757	743.398743	744.364685	84.883568
199.271866	750.085999	743.472961	738.048889	182.020889
199.649536	751.274902	751.497742	744.364685	-3100.986084
200.027191	749.342957	753.132385	746.742371	-68.627388
200.404816	752.760925	750.457520	751.794922	41.938049
200.782410	750.308899	760.265381	750.977600	6.716239
201.159988	742.952881	773.119812	748.748535	19.211945
201.537537	735.671204	777.206482	745.330566	23.255804
201.915070	735.151184	784.116699	743.175781	16.388262
202.292557	731.064453	777.578064	743.175781	26.038246
202.670029	735.522644	780.772949	746.593750	24.466368
203.047485	736.042786	774.234375	750.160339	36.965084
203.424911	739.832214	775.571777	753.429688	38.045998
203.802292	732.030457	776.686340	745.256348	29.617353
204.179688	728.686768	769.924805	737.900330	22.342388
204.557037	725.566101	758.184998	739.757874	43.507824
204.934357	724.451477	759.225281	744.736145	58.333187
205.311661	722.816895	760.116882	742.135559	51.792683
205.688934	724.377258	763.163269	739.312073	38.505672
206.066177	725.120300	758.036377	743.027161	54.401562
206.443390	730.544434	759.002258	748.376953	62.662975
206.820587	728.761169	761.825745	745.181946	49.662746
207.197769	722.965515	764.203430	734.779602	28.648603
207.574921	721.553711	757.813477	730.692932	25.204855
207.952042	718.210144	756.847473	727.720886	24.615423
208.329147	721.330811	761.602844	734.333801	32.287891
208.706223	727.126465	778.543884	750.754700	45.953754
209.083267	733.813721	777.875183	747.708252	31.534431
209.460297	745.404968	764.426453	746.742371	7.031009
209.837280	734.853943	752.686523	730.618652	-23.750296
210.214264	733.219238	755.510071	733.888000	3.000167
210.591217	719.547546	763.460449	728.612488	20.643002
210.968124	720.513489	763.831970	729.429749	20.583038
211.345016	714.123474	763.906250	728.389587	28.656725
211.721893	713.677551	762.123047	730.321472	34.355972
212.098724	713.528992	764.723633	729.949951	32.075542
212.475555	717.764221	758.482239	737.008728	47.262878
212.852356	718.507324	753.875427	735.299805	47.479168
213.229126	714.420593	755.435730	732.773438	44.746513
213.605865	713.900574	759.076599	722.816895	19.736841
213.982590	721.553711	764.352051	724.302917	6.423629
214.359283	731.733215	758.630676	720.959290	-40.055550
214.735931	737.900330	759.002258	723.559875	-67.958023
215.112579	735.299744	759.448059	718.433044	-69.846275
215.489197	728.909668	757.664856	726.680603	-7.751871
215.865799	715.906738	747.559631	725.045898	28.873064
216.242355	709.516663	740.129395	730.024231	66.990326
216.618896	705.950134	738.866211	728.984070	69.977768
216.995407	700.154541	745.776367	728.463867	62.052155
217.371902	698.594238	745.479187	734.110901	75.752800
217.748367	703.200989	746.445129	731.807556	66.151314
218.124802	713.008850	748.302734	734.110901	59.789539
218.501236	716.426819	754.915588	726.011902	24.903584
218.877609	716.724060	761.825745	724.451599	17.133593
219.253983	721.553711	768.141541	720.736328	-1.754499
219.630295	725.863220	773.416992	719.844727	-12.656185
220.006592	727.423584	768.810242	723.634277	-9.155866
220.382889	724.897278	761.231445	726.606384	4.703855
220.759140	723.634094	762.048767	726.680603	7.930586
221.135391	721.999512	764.946533	728.166687	14.359961
221.511581	719.250305	757.962097	735.596924	42.226460
221.887772	714.792175	749.342957	742.284180	79.569847
222.263931	707.287598	745.404846	743.621643	95.321793
222.640060	707.436218	755.881592	738.271912	63.650440
223.016159	711.968689	757.219055	731.733215	43.678158
223.392212	718.953125	762.866028	732.030457	29.780157
223.768265	726.829163	756.030212	728.240967	4.834772
224.144302	725.714661	758.853699	728.909668	9.641219
224.520294	732.104675	760.191162	724.451477	-27.248684
224.896286	724.080078	766.061035	727.869385	9.026251
225.272217	725.417480	767.101318	732.996338	18.181765
225.648148	720.513489	765.020813	737.677429	38.564304
226.024048	723.931396	771.633789	739.683594	33.021816
226.399902	724.005676	766.358215	740.872498	39.824818
226.775772	721.033630	769.033203	738.569031	36.532410
227.151581	722.965515	763.534729	743.472961	50.549282
227.527374	724.674500	762.717468	739.312073	38.476421
227.903137	724.302979	759.745361	732.253357	22.431839
228.278870	721.776672	766.135437	727.720886	13.400314
228.654572	716.946960	772.153992	729.281250	22.341881
229.030273	719.027405	773.119812	734.556702	28.708830
229.405930	718.730164	768.215820	731.436035	25.675867
229.781555	712.637390	773.045471	732.922058	33.579395
230.157181	708.699402	778.469666	741.615417	47.177715
230.532761	705.429993	778.618164	742.432800	50.558453
230.908325	713.900574	770.073425	734.705261	37.036907
231.283859	718.284424	765.763855	734.556702	34.272266
231.659332	720.885010	767.398499	736.637207	33.865868
232.034821	718.432922	766.283997	741.021057	47.205074
232.410263	717.095520	760.042664	734.333801	40.138367
232.785690	724.377197	762.791809	741.912781	45.648212
233.161087	725.789001	770.965088	744.736145	41.940647
233.536469	723.411316	775.125977	742.061279	36.063202
233.911804	717.318420	764.054871	731.361633	30.047667
234.287140	717.764343	755.658691	727.572266	25.882282
234.662430	718.655945	761.602844	732.179016	31.487886
235.037704	714.346375	766.729797	732.253357	34.184444
235.412933	710.779785	777.206543	735.076843	36.577213
235.788162	711.299988	767.101318	732.253235	37.549728
236.163345	718.581726	767.621399	729.206848	21.666380
236.538513	722.371094	756.773193	729.281189	20.086260
236.913635	728.463867	759.448059	718.804504	-31.175133
237.288742	724.674500	762.717468	719.250305	-14.258073
237.663834	728.612549	767.844299	722.445313	-15.720013
238.038879	728.389648	769.627625	732.624817	10.270069
238.413910	733.219238	771.633789	738.494690	13.732951
238.788910	730.247070	770.370605	735.596924	13.333455
239.163879	721.925232	776.834961	735.968445	25.575090
239.538834	719.919006	779.658508	731.510254	19.402987
239.913757	715.386536	777.578064	730.470032	24.253298
240.288651	724.005676	777.503662	731.881836	14.722348
240.663528	716.946960	767.472839	730.024231	25.882322
241.038361	717.318420	772.674011	731.287415	25.235020
241.413177	712.117188	772.674011	726.383362	23.558327
241.787979	715.460876	777.652344	727.349426	19.116047
242.162735	724.748718	775.868958	723.782898	-1.889311
242.537476	723.485596	767.324219	722.742615	-1.694809
242.912170	726.903564	772.674011	724.080078	-6.168798
243.286865	717.615723	778.618225	726.309082	14.250824
243.661514	722.222473	795.039063	728.612488	8.775493
244.036148	727.275085	798.308411	729.429749	3.033313
244.410751	724.971680	802.320801	729.206848	5.475393
244.785339	716.798340	791.323975	725.268799	11.365832
245.159882	710.705505	785.676941	729.504150	25.074409
245.534378	718.433044	780.624329	721.702332	5.256825
245.908890	725.417480	791.769836	719.770508	-8.510584
246.283356	724.748718	791.769836	711.968750	-19.068569
246.657791	712.860291	796.227966	718.061523	6.238908
247.032196	712.042969	794.518982	732.550537	24.864887
247.406586	710.556946	803.955383	738.791992	30.230747
247.780960	717.987244	811.088562	742.284180	26.097305
248.155289	720.810730	816.661194	735.002502	14.806159
248.529602	720.885071	813.020447	736.117004	16.532124
248.903870	724.600159	798.605652	735.151123	14.257002
249.278122	727.572205	786.494324	733.887939	10.718784
249.652344	734.185120	787.831787	733.739441	-0.830767
250.026550	732.624756	794.890442	729.652649	-4.773266
250.400711	728.463867	803.435364	735.002502	8.721495
250.774857	722.668274	797.788330	728.315247	7.517263
251.148987	726.754883	800.240295	724.525879	-3.033260
251.523071	720.513489	798.382813	721.627991	1.431247
251.897125	717.541321	803.732605	726.606262	10.517237
252.271164	715.460938	803.658203	734.185242	21.230028
252.645187	718.358704	800.834717	732.476257	17.117163
253.019165	718.878845	801.800598	732.401917	16.308231
253.393112	715.386536	806.184509	734.928223	21.522161
253.767044	712.265869	811.014160	737.157410	25.207060
254.140930	713.231750	811.905762	734.631042	21.686857
254.514801	708.699402	804.475586	729.355530	21.567081
254.888657	707.436218	806.481750	731.733215	24.531139
255.262466	707.584778	808.190674	738.569031	30.797651
255.636276	714.569336	814.209167	743.324463	28.859068
256.010010	725.045959	819.707520	745.404846	21.507027
256.383759	726.977783	818.147278	738.346191	12.469531
256.757446	725.268860	815.695251	739.386414	15.612206
257.131134	726.457703	807.967834	727.795166	1.640855
257.504791	732.922058	807.744873	727.349304	-7.447934
257.878418	729.727051	818.221619	727.497986	-2.518872
258.252014	721.033630	830.630127	735.151123	12.881335
258.625580	713.083191	857.527771	736.934387	16.512352
258.999115	723.336975	870.010559	739.906555	11.296908
259.372650	727.572266	890.369446	743.398743	9.721592
259.746124	730.915833	907.979309	748.525635	9.945474
260.119598	730.172852	925.589050	739.163391	4.600714
260.493042	724.674377	937.700378	733.070618	3.941416
260.866425	719.547546	929.527039	726.829285	3.467833
261.239838	716.798340	920.462097	729.652649	6.311535
261.613159	716.575439	903.892578	736.117004	10.432343
261.986511	723.782776	898.617004	734.110840	5.907347
262.359802	720.587830	898.171204	741.838379	11.966519
262.733063	726.457703	888.586243	738.717712	7.561907
263.106293	723.336975	890.815369	744.587585	12.688568
263.479523	724.080078	880.413025	738.494812	9.220535
263.852692	720.216309	882.121887	736.117004	9.820969
264.225861	717.021301	872.165344	737.305908	13.074693
264.598969	716.798340	875.731934	740.055115	14.633014
264.972076	717.318420	881.378906	747.039551	18.115959
265.345154	720.884949	885.539795	745.404968	14.891769
265.718201	720.290527	884.425293	737.380188	10.411969
266.091217	722.296692	894.679016	735.671326	7.758704
266.464203	723.782898	904.189880	735.076843	6.260260
266.837158	725.640381	917.192871	742.209900	8.650120
267.210114	720.662109	921.502380	737.900330	8.583050
267.583038	718.730164	932.944885	740.129395	9.989617
267.955902	725.789001	940.672424	736.860046	5.152117
268.328766	732.030457	944.313293	741.169617	4.305181
268.701569	735.448303	944.536133	741.392517	2.842927
269.074371	728.389587	953.898254	737.677429	4.118618
269.447144	730.098450	965.192383	735.596985	2.338867
269.819885	727.126465	967.793030	735.596924	3.519583
270.192596	719.844727	974.926086	737.528809	6.932722
270.565277	716.501160	986.888855	734.853943	6.787581
270.937927	712.488770	1007.470642	733.367859	7.078093
271.310577	719.919128	1027.829590	736.265625	5.308847
271.683136	716.129639	1046.999634	734.779602	5.636644
272.055725	719.324707	1070.330688	734.333740	4.276005
272.428284	714.866455	1080.287476	732.847717	4.920697
272.800812	714.272034	1081.104614	738.643372	6.643722
273.173279	706.841797	1075.829224	739.014832	8.719276
273.545776	706.990417	1074.714478	746.742371	10.810267
273.918152	706.544617	1070.925049	743.250183	10.073419
274.290558	719.324646	1062.974609	743.993164	7.178385
274.662964	722.668274	1060.076904	735.596985	3.831767
275.035278	724.674500	1062.231812	733.219238	2.531345
275.407593	720.736389	1069.587524	732.624817	3.407880
275.779907	722.519714	1082.070557	730.470032	2.211180
276.152161	725.714661	1096.633911	732.030457	1.702742
276.524384	719.547546	1100.348999	734.705322	3.980493
276.896606	716.278259	1099.308716	743.398743	7.080503
277.268799	713.008850	1101.612183	745.925049	8.470386
277.640930	718.730225	1120.262085	740.575256	5.440423
278.013031	721.405090	1126.280640	739.163513	4.386144
278.385162	727.423645	1124.051636	734.705322	1.835896
278.757233	720.290527	1112.088867	731.436035	2.844705
279.129272	720.885010	1121.451050	721.850891	0.241129
279.501282	714.940735	1126.503540	720.290527	1.299873
279.873230	721.405090	1142.181396	726.011902	1.094836
280.245178	721.627991	1153.772705	730.618652	2.080475
280.617126	732.922058	1182.527832	727.943848	-1.107239
280.988983	735.819824	1211.357300	728.761047	-1.484379
281.360870	737.083008	1240.558228	729.058289	-1.593866
281.732697	730.024231	1264.335083	736.488586	1.209849
282.104492	731.881836	1286.031372	736.414307	0.817915
282.476288	725.120300	1307.802124	736.191406	1.900026
282.848053	727.572266	1337.597534	733.590820	0.986607
283.219757	718.358704	1344.433350	732.847839	2.314282
283.591461	728.240967	1338.712036	734.036621	0.949374
283.963135	723.857117	1319.319092	728.389587	0.761169
284.334747	733.442200	1323.703003	723.485535	-1.686825
284.706360	726.234802	1343.616211	722.816895	-0.553614
285.077942	718.655823	1375.789185	729.058289	1.583007
285.449524	711.968689	1407.739380	735.894104	3.438693
285.821014	713.380432	1428.395508	731.064453	2.473238
286.192535	727.349365	1448.234375	736.785828	1.309011
286.563995	730.024231	1464.655273	731.436035	0.192179
286.935425	731.584534	1477.732544	741.689758	1.354319
287.306824	727.423645	1477.583984	732.327637	0.653726
287.678223	721.999512	1468.593384	734.705322	1.701837
288.049561	723.708496	1459.082520	732.699219	1.222605
288.420898	724.600159	1445.708008	733.590820	1.246785
288.792145	725.714661	1431.813354	727.869446	0.305168
289.163452	725.268860	1439.689453	719.101746	-0.863233
289.534668	724.005676	1458.933960	729.132629	0.697613
289.905914	731.807434	1497.497070	739.312073	0.980115
290.277039	730.470032	1524.617554	744.959045	1.824474
290.648193	727.275085	1567.267212	743.324402	1.910651
291.019318	723.931396	1603.675781	742.655762	2.128387
291.390381	724.823059	1622.845703	740.649597	1.762376
291.761475	731.584534	1625.372070	740.352356	0.980974
292.132507	732.996399	1606.573364	734.185242	0.136089
292.503510	726.457703	1592.604492	736.711426	1.183832
292.874481	727.052063	1575.737793	728.315247	0.148840
293.245422	719.844727	1582.053589	731.807434	1.387449
293.616364	719.324646	1606.647827	731.510315	1.373307
293.987213	713.083191	1643.724976	733.665039	2.211576
294.358093	717.689941	1684.962891	731.510254	1.428791
294.728943	724.228699	1731.848022	729.801331	0.553049
295.099731	726.531982	1778.807129	739.683594	1.249826
295.470490	727.646484	1814.398071	744.438965	1.545200
295.841248	726.680603	1831.562134	751.497742	2.246135
296.211975	727.497864	1847.537231	742.061279	1.300259
296.582642	731.807434	1883.351196	739.237732	0.645247
296.953308	724.822998	1932.688110	730.841553	0.498280
297.323883	720.885010	1981.281860	733.219238	0.978599
297.694519	716.129639	2010.185669	732.550537	1.268948
298.065063	721.479431	2014.866821	737.900330	1.269604
298.435608	728.389587	2000.229126	734.928223	0.514108
298.806122	725.194519	1953.790039	737.008606	0.961593
299.176575	720.959290	1911.065918	733.665039	1.067614
299.547028	708.699402	1871.239624	736.562805	2.396769
299.917450	714.494934	1845.308105	733.144958	1.649258
300.287872	721.553711	1829.927368	740.352356	1.696057
300.658234	731.584656	1815.289917	740.055115	0.781620
301.028564	724.971680	1811.871704	741.764099	1.544983
301.398865	719.027405	1805.036011	732.624817	1.252054
301.769135	715.386536	1811.723267	734.036560	1.701122
302.139374	715.460938	1829.333008	736.934387	1.927820
302.509583	714.643555	1839.735352	745.404846	2.734114
302.879791	717.392761	1835.500122	746.370850	2.591709
303.249939	720.290527	1818.336304	743.695984	2.131556
303.620087	723.039795	1810.757324	744.364746	1.960523
303.990173	716.872620	1802.658203	746.222351	2.703087
304.360260	723.336975	1796.862671	750.457520	2.526306
304.730286	726.903503	1796.342407	740.946777	1.313144
305.100281	727.349365	1810.311401	743.770264	1.516295
305.470276	719.919128	1833.419556	741.392578	1.928463
305.840179	715.535156	1838.694946	747.485352	2.844671
306.210144	717.912903	1843.301758	740.426575	2.000524
306.579987	721.479492	1844.936523	739.089172	1.567455
306.949890	718.730286	1864.552368	735.819824	1.491465
307.319702	725.268860	1883.351074	738.420471	1.135637
307.689484	724.451477	1908.985718	736.414307	1.009918
308.059265	728.538147	1936.923462	744.216064	1.297427
308.429016	722.445313	1974.520508	745.404846	1.833718
308.798737	725.120178	2012.340698	744.959045	1.541218
309.168396	727.423584	2054.693359	742.507080	1.136430
309.538055	730.841553	2085.157471	743.472961	0.932678
309.907684	726.903503	2120.525391	744.884766	1.290254
310.277313	725.120300	2145.788330	738.569031	0.946648
310.646851	726.903503	2160.723145	737.677429	0.751414
311.016388	725.640381	2176.103760	743.101563	1.203835
311.385895	722.668213	2179.967529	747.411072	1.697857
311.755371	726.680664	2209.985840	742.358459	1.056950
312.124817	723.039795	2198.543213	736.637207	0.921544
312.494232	731.807556	2200.920654	736.637146	0.328742
312.863617	725.268860	2176.920898	739.906433	1.008339
313.232971	727.943787	2170.531006	747.336731	1.344317
313.602295	721.256531	2157.825439	746.370789	1.748211
313.971619	718.581604	2158.642578	738.123230	1.357000
314.340820	718.953125	2167.038818	734.779602	1.092924
314.710083	730.618652	2188.735352	736.637207	0.412762
315.079285	730.544250	2212.958008	740.055115	0.641580
315.448486	737.751709	2256.350830	741.021057	0.215287
315.817596	725.417480	2253.155518	741.318176	1.040800
316.186707	731.881775	2239.186768	745.553528	0.907033
316.555786	724.005676	2196.165283	741.020996	1.155807
316.924866	723.931396	2165.849854	740.723816	1.164589
317.293884	717.615723	2137.986328	739.609314	1.548440
317.662872	720.885010	2133.454102	745.033386	1.709536
318.031830	725.194580	2139.621338	745.256348	1.418367
318.400757	725.120300	2152.549805	743.472961	1.285714
318.769684	723.039795	2168.004639	743.844543	1.439810
319.138550	721.776672	2195.868164	743.547363	1.476889
319.507416	732.550537	2220.759766	750.680420	1.218235
319.876190	730.618652	2229.601807	744.587585	0.931894
320.244995	733.070618	2225.738037	745.776428	0.851215
320.613770	720.959290	2201.589600	745.702148	1.671103
320.982483	719.324646	2194.531006	750.680359	2.125514
321.351166	711.448547	2178.184326	747.708252	2.472136
321.719818	720.959290	2177.441406	739.089172	1.244772
322.088440	726.086182	2167.633057	737.454529	0.788621
322.457062	722.891174	2195.422607	738.569031	1.064687
322.825623	715.386536	2224.326416	748.451355	2.191262
323.194183	718.210144	2265.861572	745.999329	1.795571
323.562653	729.058289	2304.796143	748.079834	1.207152
323.931183	727.572266	2363.272461	745.776428	1.112928
324.299591	722.965515	2415.061279	748.525635	1.510560
324.668060	722.073914	2481.636475	736.414307	0.814998
325.036407	722.965515	2527.184326	730.841553	0.436535
325.404755	719.398926	2564.187012	729.281189	0.535686
325.773102	716.203918	2558.614258	735.076843	1.024361
326.141388	714.569275	2571.097168	733.516418	1.020569
326.509674	717.689941	2575.927002	733.739441	0.863695
326.877899	719.621826	2592.793457	738.643372	1.015473
327.246124	719.324707	2599.480713	734.333801	0.798290
327.614288	718.730286	2601.338135	728.389648	0.513084
327.982422	716.798340	2592.644775	717.764343	0.051497
328.350525	713.008972	2571.691406	720.884949	0.423740
328.718628	709.293762	2549.623291	731.213074	1.191054
329.086700	707.733398	2543.159180	740.054993	1.760986
329.454712	712.934570	2553.561768	742.061218	1.582431
329.822693	715.535156	2574.589600	734.036560	0.995205
330.190674	721.553711	2598.589111	738.494812	0.902546
330.558563	719.919006	2604.830322	747.336731	1.454590
330.926483	728.538147	2623.257568	748.302734	1.043141
331.294312	725.268860	2641.907471	742.581360	0.903274
331.662231	732.476257	2689.535400	734.779602	0.117694
332.029999	728.240906	2738.723877	734.853943	0.328928
332.397766	729.578369	2785.088867	734.408142	0.234967
332.765503	730.247131	2825.806641	740.278015	0.478673
333.133240	729.801270	2875.069580	739.906494	0.471047
333.500916	727.869446	2931.836914	739.014832	0.505696
333.868561	726.977844	2969.731201	739.014832	0.536706
334.236176	726.606262	2979.836182	746.668030	0.890356
334.603790	728.835449	2976.195313	751.869141	1.024922
334.971344	716.946960	2976.864014	747.485352	1.351306
335.338867	714.420654	2983.254639	748.525574	1.503191
335.706360	714.420654	2985.037842	747.559753	1.459475
336.073853	722.371033	2984.888916	743.993164	0.955667
336.441284	724.005676	2986.746338	738.420410	0.637048
336.808655	718.953125	2983.105713	735.671204	0.738381
337.176086	720.141907	2943.353516	745.479248	1.139673
337.543396	721.256531	2877.892822	750.085999	1.336779
337.910706	720.810730	2811.391846	749.120056	1.354137
338.277954	723.411316	2826.401123	741.021057	0.837367
338.645264	718.210144	2888.444092	734.779602	0.763487
339.012421	724.897400	3024.566406	734.928223	0.436186
339.379669	721.627991	3144.936768	741.466797	0.818666
339.746796	726.532043	3270.657227	741.912659	0.604554
340.113953	720.959290	3336.712158	748.376953	1.048175
340.481018	715.683838	3368.291016	744.884766	1.100839
340.848114	715.386536	3358.037109	750.383240	1.324303
341.215118	720.662109	3339.833008	743.770264	0.882270
341.582153	724.377258	3353.356201	742.358459	0.683961
341.949066	722.816895	3378.544678	733.665039	0.408481
342.316010	724.971680	3415.696045	738.643311	0.508102
342.682922	736.637207	3437.615234	738.866211	0.082526
343.049835	744.290344	3440.141357	739.683594	-0.170883
343.416656	741.020996	3481.379639	739.460693	-0.056938
343.783478	732.773438	3527.967529	737.528809	0.170127
344.150269	735.225403	3643.434326	741.838379	0.227390
344.516998	730.321472	3749.760986	742.878601	0.415876
344.883728	728.315247	3853.933594	744.587585	0.520612
345.250427	724.377197	3931.654297	742.952942	0.579175
345.617065	729.875671	3971.331787	740.278015	0.320916
345.983704	733.887939	3978.687500	741.169617	0.224411
346.350281	725.566101	3960.186279	750.754700	0.778719
346.716827	718.507324	3918.576904	755.510010	1.156309
347.083405	703.944031	3888.929932	760.488281	1.775338
347.449860	708.625000	3838.626953	756.401672	1.526410
347.816376	711.299988	3789.661377	758.333557	1.527877
348.182770	714.717834	3742.479248	754.989929	1.330095
348.549194	714.123474	3723.383545	753.206726	1.298766
348.915558	716.872620	3742.999268	748.525635	1.045991
349.281921	722.296692	3774.281006	751.274841	0.949485
349.648193	719.919006	3814.032471	747.188171	0.881324
350.014526	719.696106	3860.026367	745.627747	0.825762
350.380737	728.389587	3907.431641	741.392578	0.409022
350.746948	728.166687	3976.607422	739.980774	0.363685
351.113159	731.064453	4026.687500	731.435974	0.011273
351.479309	726.754944	4061.386719	735.151123	0.251787
351.845428	725.640381	4066.811279	734.110840	0.253518
352.211517	721.628113	4090.736328	736.488586	0.441080
352.577576	723.857178	4130.934082	731.881836	0.235529
352.943604	728.686829	4177.447754	737.083008	0.243455
353.309601	727.646545	4233.694824	743.770264	0.459883
353.675537	720.142029	4314.833496	746.742371	0.739990
354.041473	721.999573	4426.807129	749.863098	0.752091
354.407379	715.535217	4538.039063	751.051941	0.929148
354.773254	718.433044	4645.703125	753.058105	0.881657
355.139038	718.358704	4738.284668	754.544128	0.900151
355.504913	722.519714	4839.187988	750.531738	0.680454
355.870636	728.166687	4935.335449	752.835205	0.586345
356.236389	719.621887	5037.724609	745.330566	0.595370
356.602081	725.789001	5152.225098	749.863037	0.543869
356.967804	717.912903	5290.056152	748.748535	0.674424
357.333405	726.977844	5431.677734	752.686584	0.546448
357.699036	719.770447	5594.103516	750.383240	0.628041
358.064606	715.906738	5751.402344	744.364685	0.565147
358.430176	714.940735	5869.840332	737.008728	0.428097
358.795654	716.798340	5904.763184	729.355469	0.242043
359.161163	721.628113	5881.878418	729.206848	0.146868
359.526581	722.073914	5857.432129	730.915833	0.172177
359.892029	724.822998	5874.224121	740.500916	0.304461
360.257416	724.451599	5962.718750	743.250061	0.358868
360.622772	719.324646	6160.290527	747.559631	0.518933
360.988098	717.764343	6441.674316	748.079773	0.529628
361.353394	716.352539	6748.692871	745.627747	0.485304
361.718658	720.364807	7013.879395	747.559631	0.432109
362.083893	734.036621	7220.367188	744.736145	0.164955
362.449097	737.751770	7347.498535	752.983704	0.230447
362.814209	734.036621	7372.241699	745.776428	0.176852
363.179382	725.268860	7190.942871	752.612305	0.422902
363.544434	723.336975	6863.788574	751.869202	0.464660
363.909546	725.937561	6474.962402	760.488342	0.600985
364.274536	720.662109	6182.357910	760.265442	0.725111
364.639587	727.720886	5956.774902	760.414063	0.625222
365.004517	730.544373	5828.974121	755.658691	0.492589
365.369507	726.160461	5739.514160	750.903320	0.493539
365.734344	719.473206	5704.442871	748.525635	0.582801
366.099274	712.042969	5662.312988	751.423401	0.795521
366.464081	724.302917	5635.192871	749.120056	0.505349
366.828918	720.959290	5621.817871	742.804260	0.445738
367.193665	719.473206	5625.459473	741.392578	0.446788
367.558411	713.677734	5643.812012	745.033386	0.636000
367.923126	717.244202	5645.595215	743.844543	0.539741
368.287781	725.417480	5625.310547	747.633972	0.453408
368.652435	727.795166	5577.904785	741.838379	0.289544
369.017059	724.897400	5551.007813	744.959045	0.415690
369.381653	722.073914	5520.915527	742.581360	0.427342
369.746185	716.724060	5498.772949	746.890930	0.630836
370.110687	720.142029	5512.518066	748.599915	0.593816
370.475220	714.569275	5574.858887	751.051941	0.750627
370.839661	716.649719	5646.040527	747.559753	0.627056
371.204041	709.962585	5718.114746	745.033386	0.700274
371.568451	718.210144	5768.640137	741.020996	0.451662
371.932770	719.621887	5823.400879	744.067383	0.478969
372.297150	721.182190	5852.378906	746.222229	0.487996
372.661377	713.974854	5880.316895	750.085938	0.698968
373.025696	707.882019	5898.372559	756.030273	0.927624
373.389862	713.974854	5889.902344	756.030273	0.812519
373.754059	720.439209	5883.437988	759.745300	0.761303
374.118225	725.863281	5906.620605	753.280945	0.529221
374.482361	720.810730	5960.936035	755.881592	0.669275
374.846436	720.959290	6026.768066	746.445129	0.480338
375.210510	720.513489	6113.554199	748.079773	0.511146
375.574524	726.680664	6223.893066	742.061279	0.279789
375.938538	728.835449	6378.740234	735.968445	0.126250
376.302460	729.058289	6518.949219	742.432800	0.230998
376.666412	729.281189	6685.685059	746.445129	0.288159
377.030304	730.618652	6841.645996	748.897156	0.299107
377.394196	737.305908	7020.195313	742.952881	0.089879
377.757996	734.482422	7163.079590	741.541199	0.109803
378.121796	720.736389	7226.013672	749.863037	0.447739
378.485565	713.008972	7218.286621	744.810486	0.488857
378.849304	717.912903	7128.007813	739.163513	0.331518
379.212982	725.268860	6988.542480	734.853821	0.153034
379.576630	724.748718	6807.912598	740.278015	0.255283
379.940277	715.238037	6667.108887	751.126160	0.602972
380.303864	715.683838	6580.546387	757.367676	0.710739
380.667450	715.758118	6573.784668	756.624573	0.697615
381.030945	723.039795	6572.224609	757.739197	0.593235
381.394501	725.863281	6608.558105	754.692688	0.490071
381.757935	724.302979	6632.632324	755.510071	0.528188
382.121399	720.067688	6641.919922	759.002258	0.657473
382.484741	718.804504	6668.817871	763.534729	0.751767
382.848145	715.163635	6682.935059	766.061035	0.852871
383.211487	714.866455	6736.285156	763.906250	0.814423
383.574768	709.145081	6836.816406	755.807312	0.761500
383.938019	718.210022	6955.626465	749.788757	0.506279
384.301270	720.959290	7095.910156	748.228455	0.427755
384.664459	727.869446	7151.711426	755.287170	0.426812
385.027649	729.132629	7211.079590	752.315125	0.357647
385.390778	727.572266	7262.942871	742.878601	0.234208
385.753876	724.674377	7306.410156	744.587585	0.302553
386.116943	717.912903	7343.264160	754.841309	0.557380
386.479980	717.764221	7360.501953	768.438721	0.762856
386.842987	719.919006	7413.925781	768.438721	0.724823
387.205994	721.107910	7461.182129	772.376770	0.760657
387.568909	724.897278	7515.794922	776.537781	0.760437
387.931793	720.364807	7561.639160	781.144531	0.888427
388.294678	717.764221	7616.771973	780.624451	0.911149
388.657471	711.522888	7630.369629	786.197083	1.079287
389.020294	710.779846	7651.992188	794.816223	1.210687
389.383057	718.358704	7665.662598	806.035950	1.262033
389.745819	718.210144	7693.601074	815.472351	1.394362
390.108521	722.445313	7696.350098	832.190430	1.573654
390.471191	721.702332	7751.482910	852.698059	1.863440
390.833801	729.132629	7873.414063	872.536804	2.007258
391.196442	733.293640	8062.216797	888.734802	2.120928
391.558960	731.510254	8251.093750	910.059753	2.374460
391.921509	726.680664	8436.478516	928.783997	2.621383
392.284027	719.621887	8611.165039	954.864258	2.980943
392.646484	716.946960	8707.312500	979.235535	3.282560
393.008911	726.234863	8699.511719	1009.625305	3.554253
393.371307	733.590820	8640.811523	1038.083374	3.850816
393.733673	735.819824	8573.344727	1067.209961	4.228250
394.096008	725.714661	8554.843750	1100.794922	4.790830
394.458344	716.649719	8556.329102	1137.946167	5.373899
394.820587	716.129639	8594.819336	1182.379150	5.917856
395.182831	720.067688	8641.183594	1219.827759	6.309213
395.545013	724.154297	8600.911133	1253.561157	6.721128
395.907196	725.863281	8514.571289	1276.669312	7.071854
396.269287	729.058289	8346.573242	1305.350098	7.565351
396.631409	728.463867	8225.831055	1336.260132	8.106796
396.993469	722.816833	8100.185059	1377.126587	8.869148
397.355530	718.655945	8030.711426	1415.318237	9.527585
397.717499	712.637390	8000.024902	1466.067017	10.338817
398.079468	718.061523	7967.926270	1505.150391	10.856601
398.441376	715.163635	7987.765625	1548.840210	11.463250
398.803284	721.702332	7984.644531	1585.322876	11.890780
399.165131	724.302979	8040.148438	1633.248047	12.424334
399.526978	723.931396	8039.257324	1677.606812	13.036676
399.888763	722.073914	8040.148926	1722.634155	13.672451
400.250519	716.946960	8029.672363	1759.637085	14.258572
400.612244	721.627991	8067.937988	1808.750977	14.798219
400.973938	722.371094	8098.328125	1849.543335	15.281709
401.335602	726.011902	8112.148438	1897.914429	15.866245
401.697205	725.045898	8122.402344	1944.650757	16.487036
402.058807	724.748718	8189.646484	1999.040405	17.070452
402.420349	721.925232	8296.196289	2062.049072	17.693106
402.781860	715.832336	8416.640625	2123.645996	18.281376
403.143341	718.581604	8552.541016	2189.032715	18.770216
403.504822	720.439148	8695.796875	2258.579834	19.286163
403.866241	726.160461	8881.627930	2333.774170	19.712099
404.227631	718.061523	9036.102539	2392.993408	20.136133
404.588959	717.467102	9221.042969	2460.014404	20.491936
404.950287	719.176025	9366.006836	2516.781738	20.789185
405.311554	730.098633	9478.649414	2585.660400	21.209932
405.672821	730.247253	9530.883789	2638.489502	21.683001
406.034027	725.417480	9512.382813	2676.681396	22.206347
406.395203	721.702332	9427.975586	2684.111572	22.540174
406.756348	720.290527	9332.570313	2683.665771	22.797394
407.117493	719.770508	9259.976563	2687.975098	23.046335
407.478516	719.696106	9255.220703	2723.343018	23.474211
407.839600	720.959290	9253.511719	2761.237549	23.911699
408.200592	719.398926	9244.446289	2791.850342	24.310146
408.561554	717.541321	9219.036133	2817.856445	24.705244
408.922485	712.563049	9246.454102	2849.880859	25.045057
409.283417	720.439148	9276.100586	2892.679443	25.389507
409.644257	720.884949	9389.412109	2939.192627	25.590363
410.005096	724.005676	9488.680664	2985.854736	25.806423
410.365906	720.216248	9602.660156	3026.870117	25.968683
410.726715	724.897278	9701.780273	3080.665283	26.242607
411.087433	721.479431	9792.058594	3126.584229	26.515448
411.448120	714.643555	9863.166016	3168.342529	26.820713
411.808807	710.779785	9877.952148	3186.843750	27.010118
412.169434	709.813965	9836.862305	3206.682373	27.356798
412.530029	713.826172	9798.670898	3225.109375	27.642555
412.890564	715.237976	9763.081055	3237.963867	27.882071
413.251099	721.702393	9739.303711	3246.880127	28.002764
413.611572	726.309143	9764.418945	3275.263672	28.202299
413.972076	728.761047	9810.485352	3308.254150	28.403120
414.332489	733.367859	9881.221680	3342.879639	28.525946
414.692871	733.665039	10022.694336	3388.427002	28.579542
415.053223	721.999573	10160.451172	3438.655518	28.782858
415.413574	717.615723	10383.953125	3514.667236	28.935999
415.773834	718.655945	10528.545898	3584.511963	29.213947
416.134094	724.080017	10698.550781	3655.025391	29.384470
416.494263	723.039856	10823.602539	3690.987549	29.383986
416.854462	717.244202	11072.516602	3765.438721	29.436161
417.214630	713.454773	11340.824219	3848.955078	29.504011
417.574738	716.724121	11634.541992	3964.346924	29.746078
417.934784	713.529053	11936.805664	4058.934814	29.807747
418.294861	721.553711	12295.465820	4179.379395	29.876032
418.654846	717.541321	12759.116211	4321.669434	29.930704
419.014832	725.937561	13188.957031	4460.169434	29.962498
419.374756	726.977844	13673.855469	4605.654297	29.958393
419.734680	733.219238	14153.034180	4750.470215	29.935221
420.094543	730.395752	14662.825195	4929.540039	30.139355
420.454376	726.829163	15142.894531	5093.823242	30.292553
420.814148	721.999512	15613.304688	5261.449707	30.483898
421.173920	719.919128	16106.304688	5419.343262	30.542744
421.533691	727.275085	16547.810547	5571.812500	30.621832
421.893341	728.092346	16913.380859	5695.229004	30.689207
422.253021	728.389587	17128.486328	5762.324219	30.694540
422.612640	719.398926	17195.062500	5792.119629	30.789173
422.972260	717.318542	17112.955078	5791.080078	30.945805
423.331757	714.494934	17018.962891	5790.187988	31.130688
423.691315	716.575439	17007.447266	5795.761230	31.178106
424.050781	724.302917	17158.208984	5856.837402	31.231373
424.410248	732.550537	17304.361328	5897.109863	31.164728
424.769653	736.265686	17446.947266	5971.560547	31.329033
425.128998	730.544373	17451.257813	5986.792969	31.435553
425.488373	730.470032	17344.927734	5992.439941	31.671030
425.847656	735.076843	17134.353516	5940.948730	31.744522
426.206940	733.516418	16917.318359	5910.558594	31.989035
426.566193	725.491760	16592.837891	5825.928223	32.144234
426.925385	718.655945	16248.742188	5734.015137	32.294472
427.284576	713.231873	15763.916992	5564.902344	32.235546
427.643677	711.299988	15407.413086	5459.243652	32.307480
428.002777	703.349548	15061.829102	5361.684082	32.443089
428.361847	705.652893	14736.086914	5269.325684	32.526955
428.720856	715.312317	14431.074219	5170.428711	32.481728
429.079865	715.460938	14183.645508	5106.454590	32.602715
429.438812	714.569336	14023.078125	5079.259766	32.796238
429.797760	715.386536	13928.045898	5062.690430	32.902565
430.156616	720.662109	13767.551758	5005.997559	32.845650
430.515503	724.674500	13684.257813	4978.653809	32.824970
430.874268	716.798340	13642.945313	4974.864258	32.941494
431.233093	715.980957	13667.687500	5006.294434	33.125465
431.591827	720.067688	13740.504883	5023.012695	33.047623
431.950562	722.742493	13731.514648	5041.142578	33.196060
432.309204	717.838562	13814.808594	5051.841797	33.091652
432.667877	716.129639	13917.643555	5098.207031	33.193748
433.026459	723.782898	14078.210938	5132.534668	33.013409
433.385010	728.389587	14207.051758	5189.450684	33.097210
433.743561	731.510254	14368.882813	5248.447266	33.121754
434.102051	723.262695	14487.171875	5316.805664	33.373825
434.460510	734.259521	14663.641602	5385.981934	33.395039
434.818939	733.367859	14753.698242	5410.204590	33.357536
435.177338	733.739319	14825.770508	5420.681152	33.259521
435.535675	721.999512	14773.015625	5418.748535	33.426403
435.894012	716.203918	14697.003906	5413.102051	33.595345
436.252289	714.866455	14687.343750	5430.488770	33.749363
436.610535	717.689941	14692.620117	5416.147949	33.620621
436.968719	716.426819	14805.262695	5452.333496	33.614605
437.326935	722.371033	14910.772461	5487.627441	33.585575
437.685028	723.336914	15027.799805	5542.537109	33.690186
438.043152	730.024170	15131.897461	5590.313965	33.747623
438.401215	733.144958	15346.409180	5665.730957	33.754169
438.759277	729.355469	15591.756836	5746.349609	33.756283
439.117249	721.033630	15954.057617	5882.769043	33.885166
439.475250	719.176025	16259.885742	5980.774902	33.856873
439.833130	721.850891	16671.970703	6132.426270	33.921844
440.191071	725.937561	16969.033203	6202.716797	33.717583
440.548889	722.593933	17250.935547	6311.199219	33.812256
440.906708	718.655945	17557.583984	6410.615723	33.802391
441.264496	723.262695	17786.361328	6508.398438	33.904369
441.622223	719.250305	17979.251953	6583.666504	33.976913
441.979950	716.724121	17990.546875	6611.307129	34.124371
442.337616	719.101746	17957.406250	6622.601563	34.246407
442.695251	720.810730	17800.255859	6586.267578	34.342197
443.052887	730.692871	17596.296875	6518.429199	34.316807
443.410461	718.061523	17433.720703	6481.054688	34.476612
443.768005	721.776611	17322.044922	6434.392090	34.412788
444.125458	725.491760	17208.734375	6403.482422	34.447052
444.482941	733.516541	17241.873047	6403.259766	34.344685
444.840393	734.036621	17359.046875	6459.283691	34.437557
445.197754	727.349365	17687.912109	6572.520996	34.463314
445.555084	725.714661	17960.900391	6669.337891	34.485401
445.912415	727.423645	18352.029297	6798.698730	34.447720
446.269714	724.451477	18621.453125	6910.970215	34.567345
446.626953	723.857117	18976.693359	7041.000488	34.609108
446.984161	717.838562	19285.646484	7156.912598	34.678699
447.341309	720.439209	19537.603516	7241.765625	34.656265
447.698456	723.411316	19677.068359	7298.681641	34.691303
448.055542	728.166687	19721.279297	7355.375000	34.892693
448.412598	732.847717	19696.685547	7349.802246	34.892487
448.769653	732.922058	19526.681641	7341.851563	35.165554
449.126617	729.875671	19226.869141	7232.032715	35.152508
449.483582	723.559875	18941.845703	7165.457031	35.359512
449.840515	719.473328	18613.576172	7036.393066	35.301685
450.197388	716.872620	18350.841797	6958.301270	35.394352
450.554230	714.123474	18143.236328	6893.435059	35.453964
450.911041	716.203918	17994.335938	6850.189941	35.501438
451.267822	715.312317	17855.091797	6816.085938	35.594234
451.624573	720.513489	17644.220703	6759.764160	35.685150
451.981262	712.414551	17537.001953	6733.089844	35.784981
452.337921	710.928467	17388.025391	6694.229004	35.877350
452.694580	709.293762	17338.615234	6671.269531	35.852188
453.051147	715.238037	17306.369141	6691.479980	36.020706
453.407715	717.838623	17248.857422	6652.099609	35.897732
453.764221	720.513489	17268.919922	6670.452637	35.954754
454.120728	718.730225	17061.466797	6585.747559	35.899849
454.477142	723.411316	16993.478516	6601.054199	36.125500
454.833557	722.593933	16784.912109	6534.850098	36.185661
455.189911	729.281250	16638.906250	6500.745605	36.276558
455.546265	728.761047	16449.062500	6434.764160	36.297031
455.902557	732.476257	16347.491211	6394.937988	36.262932
456.258820	730.767273	16341.397461	6389.885254	36.251698
456.615051	730.544373	16441.408203	6413.290527	36.170807
456.971252	721.553711	16418.451172	6413.662109	36.262634
457.327393	714.494934	16588.677734	6466.788574	36.236786
457.683502	715.089355	16796.798828	6540.719238	36.225193
458.039612	722.519714	17250.269531	6706.935059	36.208290
458.395630	720.141907	17698.388672	6889.199219	36.335068
458.751648	717.615723	18156.615234	7062.399902	36.382729
459.107605	716.724060	18813.298828	7299.870605	36.377861
459.463562	730.544373	19462.705078	7526.494141	36.279583
459.819458	731.361633	20101.486328	7759.953125	36.285728
460.175323	735.745544	20652.812500	7950.466309	36.223812
460.531158	727.646545	21158.814453	8150.191406	36.329517
460.886932	723.188477	21447.035156	8293.745117	36.530651
461.242676	717.021301	21531.962891	8365.148438	36.743446
461.598419	718.135803	21283.568359	8314.028320	36.935246
461.954102	716.055359	20847.857422	8195.589844	37.152832
462.309723	712.785950	20175.419922	7981.895996	37.349052
462.665344	712.340149	19538.496094	7734.021484	37.297478
463.020905	723.039734	19019.861328	7518.914551	37.142380
463.376373	723.114075	18599.828125	7371.795410	37.191853
463.731873	717.244141	18275.646484	7288.057129	37.422615
464.087341	711.894348	18008.601563	7183.884766	37.417469
464.442749	715.312317	17880.652344	7119.018066	37.306023
464.798126	722.816895	17796.095703	7044.641113	37.027592
465.153503	727.572266	17878.943359	7084.244629	37.062183
465.508820	727.497864	17942.398438	7110.250488	37.076904
465.864105	725.937561	18096.427734	7192.726563	37.228592
466.219330	720.810730	18362.876953	7287.388184	37.221138
466.574524	723.634094	18563.644531	7361.468262	37.207569
466.929657	730.618652	18728.224609	7435.027344	37.251671
467.284790	733.962219	18844.656250	7515.720215	37.446152
467.639893	733.293518	18976.025391	7602.208496	37.652885
467.994934	725.566101	19131.761719	7678.443359	37.774658
468.349945	720.587830	19186.373047	7682.976074	37.704262
468.704926	718.730225	19129.011719	7694.789551	37.892193
469.059875	714.049133	18902.166016	7603.917480	37.881149
469.414764	719.473206	18664.769531	7528.500000	37.943237
469.769653	719.621887	18504.943359	7433.764160	37.751030
470.124451	719.993408	18460.806641	7407.460938	37.695385
470.479248	714.272034	18297.341797	7351.660156	37.748745
470.834015	712.414490	18190.716797	7343.709473	37.940155
471.188721	716.946960	18201.861328	7375.288574	38.080494
471.543365	721.553711	18329.216797	7422.247559	38.055553
471.898010	722.965515	18502.492188	7446.321777	37.815159
472.252625	720.513489	18641.140625	7501.603027	37.839577
472.607178	718.878845	18901.125000	7601.465332	37.853336
472.961700	720.662109	19088.443359	7695.384277	37.972588
473.316193	728.463867	19372.056641	7799.630859	37.928131
473.670654	728.018066	19514.197266	7869.623535	38.015209
474.025055	721.107910	19741.119141	7949.127441	38.002182
474.379456	715.535156	19908.447266	8016.594238	38.040394
474.733795	717.764343	20046.949219	8065.337402	38.012844
475.088104	722.296814	20184.259766	8129.386719	38.059315
475.442383	720.513489	20222.525391	8134.438965	38.016209
475.796570	714.494934	20321.423828	8175.230957	38.051525
476.150787	710.259705	20495.810547	8245.223633	38.083164
476.504944	720.364929	20729.046875	8347.093750	38.117100
476.859070	729.281250	21023.955078	8463.599609	38.110088
477.213135	737.380188	21324.287109	8567.549805	38.034706
477.567200	730.767273	21723.960938	8719.349609	38.053204
477.921173	727.869446	22134.408203	8859.261719	37.985554
478.275146	716.872742	22579.406250	9042.417969	38.081337
478.629089	718.953125	22896.531250	9169.030273	38.101894
478.983002	718.284424	23329.494141	9334.354492	38.105305
479.336823	721.330811	23668.912109	9477.683594	38.158062
479.690643	724.080078	24107.296875	9640.332031	38.130989
480.044403	718.655945	24575.625000	9828.020508	38.183243
480.398163	724.228699	25257.126953	10081.393555	38.141296
480.751862	715.980957	26127.882813	10411.147461	38.152065
481.105499	711.002686	27231.279297	10845.075195	38.212543
481.459137	708.550781	28680.927734	11376.786133	38.138466
481.812744	717.021301	30518.654297	12041.499023	37.999519
482.166290	730.470032	32763.931641	12853.479492	37.844833
482.519806	734.482361	35505.183594	13854.708008	37.733562
482.873291	732.401855	38694.777344	15122.609375	37.906498
483.226715	732.847717	42302.621094	16522.398438	37.983250
483.580139	730.172852	45790.609375	18016.107422	38.361664
483.933502	724.451477	49108.675781	19497.478516	38.799896
484.286804	716.426819	51761.062500	20921.267578	39.582687
484.640106	714.494934	53774.593750	22106.171875	40.315941
484.993347	716.129639	54840.390625	22926.552734	41.035984
485.346558	721.850891	55034.324219	23191.662109	41.371365
485.699738	719.919128	54350.957031	22903.888672	41.364048
486.052887	724.377197	53019.894531	22201.578125	41.068916
486.405975	724.748718	51417.042969	21347.169922	40.681572
486.759064	723.262695	49846.128906	20487.042969	40.233364
487.112061	718.061523	48611.140625	19754.419922	39.747620
487.464996	712.117371	47915.894531	19281.705078	39.339199
487.817963	715.386536	47776.425781	19162.003906	39.197216
488.170868	715.460938	47816.402344	19172.775391	39.186722
488.523743	716.055359	47902.519531	19261.642578	39.302769
488.876587	720.290588	47686.968750	19217.060547	39.382748
489.229401	724.228699	47258.093750	19106.351563	39.502682
489.582153	717.095520	46388.156250	18778.376953	39.546444
489.934845	711.968689	45325.175781	18372.685547	39.586296
490.287537	710.333984	44272.828125	17911.560547	39.486324
490.640198	715.832458	43422.363281	17569.771484	39.464546
490.992798	718.358704	42808.917969	17275.826172	39.337723
491.345337	719.844910	42628.730469	17183.544922	39.284508
491.697876	726.680664	42745.093750	17180.943359	39.159645
492.050354	729.355530	43172.335938	17361.351563	39.186684
492.402832	724.377258	43438.417969	17461.435547	39.183975
492.755219	723.411316	43265.808594	17450.812500	39.319363
493.107605	723.782776	42554.953125	17215.419922	39.424274
493.459930	723.634216	41241.203125	16786.470703	39.644127
493.812225	730.618652	39500.964844	16119.305664	39.691898
494.164490	730.024231	37490.476563	15350.570313	39.772484
494.516724	728.686768	35486.457031	14538.589844	39.731846
494.868896	719.250305	33689.445313	13818.151367	39.729523
495.221039	717.615723	32265.585938	13227.667969	39.654064
495.573120	728.092346	31122.212891	12764.166992	39.600006
495.925201	730.321472	30505.353516	12518.225586	39.589897
496.277222	730.841492	30159.548828	12359.959961	39.516239
496.629211	720.662109	30147.806641	12325.855469	39.437035
496.981140	714.866455	30137.109375	12294.351563	39.356232
497.333069	708.996582	30245.070313	12317.163086	39.301655
497.684967	717.021301	30323.384766	12338.190430	39.252266
498.036804	716.501160	30364.548828	12379.874023	39.339432
498.388580	718.210144	30251.537109	12346.065430	39.371979
498.740326	707.584778	30042.599609	12297.100586	39.507446
499.092072	711.077087	29740.033203	12174.797852	39.490639
499.443756	712.860352	29411.099609	12071.739258	39.580406
499.795410	717.615723	29090.927734	11950.403320	39.589268
500.147003	718.210144	28750.771484	11831.296875	39.643497
500.498566	718.655945	28391.812500	11694.356445	39.661903
500.850098	719.919006	27986.640625	11536.018555	39.667767
501.201599	716.575439	27647.521484	11414.085938	39.722004
501.553009	714.569275	27288.416016	11282.199219	39.767029
501.904449	715.238037	27052.208984	11215.846680	39.870220
502.255859	720.959290	26829.302734	11118.065430	39.822926
502.607178	721.702332	26765.625000	11079.129883	39.769077
502.958405	725.417480	26692.804688	11027.118164	39.671692
503.309692	725.566101	26650.228516	11002.672852	39.642200
503.660919	725.640381	26601.931641	11004.307617	39.722336
504.012115	725.863281	26664.867188	11024.221680	39.702213
504.363251	720.736328	26739.248047	11058.920898	39.733959
504.714294	723.262695	26847.134766	11098.226563	39.714497
505.065369	720.290527	26861.322266	11154.695313	39.915810
505.416443	724.302917	26867.416016	11186.719727	40.019783
505.767395	726.829285	26904.718750	11185.753906	39.953278
506.118317	720.141907	26887.554688	11135.377930	39.802319
506.469238	715.386536	26915.640625	11125.867188	39.734272
506.820160	710.482605	26896.990234	11152.765625	39.876579
507.170929	720.810730	26932.876953	11190.807617	39.943424
507.521729	727.646545	27030.437500	11207.004883	39.841240
507.872498	730.098450	27080.962891	11233.606445	39.860199
508.223236	729.578430	27270.513672	11303.153320	39.838745
508.573883	720.364807	27376.021484	11386.594727	40.014881
508.924500	721.627991	27575.599609	11483.708008	40.076309
509.275116	717.764343	27754.296875	11532.895508	40.001915
509.625702	722.593994	28013.984375	11642.567383	40.012524
509.976196	720.364929	28302.501953	11744.882813	39.969772
510.326660	719.770508	28551.265625	11861.166992	40.031612
510.677124	722.891113	28804.712891	11949.140625	39.976929
511.027557	722.445313	29004.662109	12014.229492	39.925385
511.377869	722.073914	29217.984375	12114.390625	39.978779
511.728180	723.708496	29340.880859	12183.937500	40.046684
512.078430	719.844788	29480.421875	12253.485352	40.102257
512.428650	720.067688	29596.333984	12318.499023	40.165970
512.778931	712.042969	29734.685547	12367.166992	40.158730
513.129028	723.634216	29793.830078	12406.398438	40.188118
513.479126	725.417480	29807.947266	12420.590820	40.213745
513.829285	731.881836	29757.197266	12431.215820	40.307343
514.179382	726.829163	29688.767578	12413.309570	40.351170
514.529297	724.525696	29584.443359	12383.069336	40.397011
514.879272	724.897278	29573.447266	12373.781250	40.379440
515.229187	721.776611	29480.494141	12343.539063	40.411270
515.579163	726.234802	29538.525391	12361.223633	40.382034
515.928955	724.600098	29535.625000	12358.698242	40.380714
516.278748	717.912903	29804.380859	12430.622070	40.268585
516.628540	711.374268	30066.146484	12534.200195	40.275654
516.978333	710.408386	30555.580078	12715.499023	40.224567
517.327942	719.993408	31088.037109	12933.799805	40.219276
517.677612	720.439209	31709.353516	13164.807617	40.157482
518.027222	718.581604	32332.607422	13416.694336	40.166073
518.376831	712.563171	33026.519531	13722.299805	40.260426
518.726379	716.352539	33713.222656	13961.555664	40.140785
519.075867	722.742493	34272.652344	14178.593750	40.106968
519.425293	727.052063	34653.968750	14328.538086	40.090546
519.774658	728.686829	34802.652344	14471.941406	40.333595
520.124084	724.600159	34757.699219	14527.667969	40.557777
520.473389	718.878906	34467.621094	14456.635742	40.705982
520.822693	715.609558	34089.863281	14343.100586	40.832348
521.171997	717.021240	33657.570313	14153.554688	40.790249
521.521240	719.844727	33229.214844	13957.840820	40.720554
521.870361	718.135742	32823.375000	13766.065430	40.641125
522.219482	719.101746	32466.945313	13640.047852	40.698658
522.568604	724.748718	32231.478516	13562.104492	40.744804
522.917664	726.309082	32088.671875	13486.389648	40.685966
523.266724	726.383362	32173.078125	13471.899414	40.530540
523.615662	723.485596	32415.755859	13551.479492	40.476730
523.964600	730.247131	32853.468750	13724.159180	40.450214
524.313538	723.114075	33369.722656	13948.850586	40.511822
524.662354	724.154297	34054.496094	14233.578125	40.531906
525.011169	714.346375	34932.535156	14543.049805	40.413311
525.359985	720.810730	36002.492188	14969.397461	40.385227
525.708740	724.302917	37282.652344	15466.854492	40.326088
526.057434	732.030457	38654.800781	16049.609375	40.391510
526.406067	727.497986	40217.160156	16673.603516	40.380455
526.754700	726.754883	41854.792969	17322.191406	40.350666
527.103333	728.018066	43783.394531	18124.958984	40.405968
527.451782	730.692932	45926.511719	19027.587891	40.483601
527.800293	729.652771	48109.152344	20040.187500	40.757153
528.148743	728.835449	50213.187500	21100.115234	41.167114
528.497131	733.070618	52009.378906	22120.515625	41.710190
528.845642	718.953125	53560.519531	23097.224609	42.349751
529.193909	716.203918	54727.667969	23937.216797	42.992748
529.542175	711.671387	55507.031250	24617.828125	43.628067
529.890503	721.405090	55802.160156	24943.943359	43.976410
530.238770	718.953125	55556.000000	24891.041016	44.079849
530.586914	717.615723	54788.300781	24459.859375	43.909641
530.934998	718.284424	53497.511719	23691.791016	43.527554
531.283142	713.380432	51917.980469	22802.833984	43.139587
531.631226	713.529053	50084.417969	21789.123047	42.688301
531.979248	715.312256	48289.484375	20845.478516	42.313225
532.327148	720.290527	46704.093750	19958.232422	41.836342
532.675110	724.302917	45583.902344	19299.759766	41.407990
533.023071	721.702332	45033.468750	18975.132813	41.193192
533.370850	725.343079	44908.046875	18894.214844	41.122135
533.718689	730.098572	45118.843750	18997.345703	41.152882
534.066467	737.751770	45379.792969	19089.855469	41.109463
534.414246	740.649597	45451.718750	19126.263672	41.120941
534.761963	742.507080	45341.230469	19108.431641	41.180382
535.109619	742.061279	44932.417969	19015.775391	41.352268
535.457153	735.819885	44332.269531	18774.662109	41.376862
535.804749	725.268860	43502.753906	18413.626953	41.349689
536.152344	719.101807	42613.132813	18030.224609	41.321217
536.499817	721.033630	41679.667969	17680.927734	41.407375
536.847229	723.782776	40795.832031	17287.494141	41.334824
537.194641	726.531982	39982.964844	16903.421875	41.208252
537.542114	724.377197	39376.285156	16611.337891	41.102657
537.889404	724.674500	38812.699219	16426.697266	41.225616
538.236694	728.686768	38361.089844	16251.566406	41.248707
538.583984	724.822998	37935.105469	16093.226563	41.301498
538.931213	722.148132	37733.816406	16001.760742	41.283230
539.278381	716.946960	37568.566406	15945.661133	41.324406
539.625488	719.993347	37569.316406	15898.627930	41.191082
539.972595	719.324646	37863.105469	15948.335938	41.000164
540.319641	718.953125	38562.519531	16170.128906	40.829067
540.666687	724.822998	39601.421875	16534.287109	40.665760
541.013611	726.903503	40894.878906	17050.468750	40.638256
541.360596	721.182312	42318.964844	17609.818359	40.599850
541.707458	721.405090	43731.828125	18254.023438	40.763653
542.054260	717.392822	44878.988281	18809.955078	40.968998
542.401062	723.114075	45824.343750	19317.517578	41.228153
542.747864	718.358704	46370.917969	19606.630859	41.373959
543.094666	721.405090	46319.125000	19702.257813	41.626762
543.441284	719.176086	45637.699219	19479.423828	41.765060
543.787903	720.364929	44561.644531	19080.121094	41.877781
544.134460	713.603333	43309.125000	18493.427734	41.741062
544.481079	714.271973	41910.894531	17864.974609	41.631336
544.827637	715.906738	40306.179688	17174.033203	41.571136
545.174072	725.343079	38691.136719	16485.916016	41.512562
545.520508	728.092346	37330.652344	15882.801758	41.403416
545.866943	727.126465	36236.027344	15414.471680	41.362431
546.213318	722.519714	35416.390625	15046.301758	41.286205
546.559631	725.937683	34731.324219	14737.500000	41.203949
546.905823	721.107910	34176.578125	14459.682617	41.065258
547.252136	719.993408	33711.519531	14264.562500	41.054691
547.598389	713.454773	33172.972656	14079.920898	41.178879
547.944458	710.185364	32731.908203	13935.328125	41.300533
548.290588	720.364929	32193.734375	13713.682617	41.283527
548.636658	720.736328	31625.390625	13489.882813	41.317875
548.982727	724.525818	30912.234375	13199.655273	41.325195
549.328735	719.993347	30201.826172	12930.530273	41.417160
549.674622	725.045959	29446.986328	12622.174805	41.421745
550.020569	731.064453	28714.955078	12331.502930	41.453987
550.366455	732.476257	27964.720703	12017.573242	41.440201
550.712280	728.909668	27347.638672	11755.656250	41.424767
551.058044	726.011902	26865.412109	11506.742188	41.243221
551.403748	725.937500	26474.431641	11353.157227	41.273170
551.749512	724.451477	26215.857422	11237.023438	41.239674
552.095154	721.182190	26037.158203	11163.538086	41.248085
552.440735	719.101746	25974.296875	11119.031250	41.179367
552.786316	720.810608	25939.974609	11082.473633	41.086464
553.131897	728.389587	25973.333984	11092.207031	41.053040
553.477417	724.451477	26031.958984	11092.653320	40.968880
553.822815	721.925232	26038.349609	11108.109375	41.025482
554.168213	719.473206	25967.015625	11079.948242	41.035576
554.513672	727.423584	25843.154297	11043.316406	41.073433
554.859009	730.247070	25666.166016	10985.062500	41.124676
555.204285	729.578369	25480.927734	10920.418945	41.172871
555.549500	724.377197	25213.958984	10821.671875	41.230980
555.894714	722.519714	24973.587891	10703.456055	41.156689
556.239990	719.770447	24627.787109	10590.144531	41.284786
556.585022	722.222412	24374.562500	10469.847656	41.212097
556.930115	726.383484	24099.716797	10351.929688	41.181740
557.275146	733.590759	23844.484375	10248.202148	41.169376
557.620178	731.658936	23635.474609	10156.810547	41.151009
557.965149	729.132568	23445.703125	10087.634766	41.196808
558.310059	721.182190	23293.978516	10016.304688	41.178425
558.654968	717.021240	23134.302734	9968.007813	41.267208
558.999756	712.934570	23023.960938	9947.127930	41.388474
559.344604	715.981018	23005.906250	9888.577148	41.151306
559.689331	714.792175	22947.056641	9859.153320	41.131039
560.033997	719.176086	22890.958984	9812.194336	41.011669
560.378723	718.358704	22828.619141	9837.976563	41.246094
560.723389	721.776672	22827.357422	9821.926758	41.166756
561.067932	716.055359	22863.541016	9836.045898	41.178444
561.412476	713.157532	22846.900391	9822.151367	41.154335
561.757019	712.860352	22849.724609	9817.247070	41.127720
562.101501	715.015137	22823.195313	9828.541992	41.222424
562.445862	719.770508	22854.701172	9800.157227	41.022884
562.790222	717.764343	22817.843750	9799.191406	41.092281
563.134644	713.231873	22800.310547	9776.827148	41.035740
563.478943	715.386658	22784.484375	9780.616211	41.076576
563.823181	723.262695	22786.117188	9778.312500	41.042057
564.167358	737.825989	22835.601563	9776.231445	40.901878
564.511536	726.606262	22902.552734	9810.262695	40.961750
564.855774	725.491699	22950.771484	9827.723633	40.954411
565.199768	715.312317	23051.529297	9878.175781	41.022449
565.543823	718.433044	23172.271484	9933.604492	41.040520
565.887817	723.411316	23455.437500	10021.727539	40.904037
566.231812	726.680664	23636.216797	10069.207031	40.780079
566.575745	724.674500	23821.677734	10132.514648	40.731861
566.919617	715.683777	23944.197266	10191.956055	40.795864
567.263428	715.163635	24088.273438	10255.559570	40.817829
567.607239	725.566101	24193.634766	10310.022461	40.840412
567.950989	727.200745	24220.681641	10333.056641	40.887325
568.294678	726.234863	24225.806641	10354.975586	40.974110
568.638367	722.148193	24076.681641	10316.338867	41.080635
568.981995	721.182312	23905.193359	10255.334961	41.123825
569.325623	723.634277	23698.037109	10180.364258	41.162029
569.669128	716.575439	23597.353516	10100.117188	41.010590
570.012573	719.696106	23480.476563	10026.631836	40.890228
570.356140	719.176025	23437.603516	9985.245117	40.786579
570.699524	721.033508	23446.818359	9976.700195	40.727600
571.042908	719.250305	23577.068359	10011.548828	40.652607
571.386230	716.501160	23707.248047	10035.622070	40.534225
571.729492	728.166687	23818.257813	10095.881836	40.570278
572.072815	733.888000	23941.228516	10164.016602	40.634251
572.416016	740.426575	24045.251953	10215.879883	40.658760
572.759094	732.847717	24221.869141	10262.691406	40.571480
573.102234	733.293640	24289.783203	10263.955078	40.458748
573.445374	727.720886	24329.609375	10281.638672	40.479465
573.788391	724.822998	24289.708984	10248.351563	40.414063
574.131409	715.609436	24245.421875	10229.924805	40.435150
574.474365	713.603333	24190.884766	10207.485352	40.438591
574.817261	717.244141	24081.734375	10183.485352	40.515507
575.160156	718.358704	23922.724609	10140.315430	40.604244
575.502930	715.089355	23725.380859	10031.684570	40.488823
575.845703	712.934570	23498.978516	9946.682617	40.523701
576.188477	713.157532	23255.265625	9850.237305	40.533390
576.531250	723.039734	23005.087891	9759.737305	40.555954
576.873901	726.754883	22751.865234	9653.113281	40.528099
577.216431	728.092346	22503.843750	9527.764648	40.410416
577.559082	722.816895	22234.494141	9424.928711	40.452965
577.901611	723.782776	21915.662109	9308.125000	40.507694
578.244080	719.696106	21595.787109	9174.454102	40.499714
578.586487	728.018066	21231.779297	9042.269531	40.549885
578.928955	732.996338	20909.675781	8886.010742	40.408108
579.271301	740.426575	20575.611328	8784.438477	40.554256
579.613647	736.117004	20253.212891	8644.452148	40.520039
579.955872	725.268860	19950.949219	8532.999023	40.610943
580.298157	715.981018	19630.556641	8393.086914	40.588306
580.640320	717.541443	19371.091797	8300.951172	40.653973
580.982483	719.176025	19157.619141	8204.655273	40.597134
581.324524	733.590759	18971.564453	8114.228516	40.468517
581.666626	728.240967	18860.037109	8046.761719	40.362907
582.008728	726.829163	18747.839844	8011.096191	40.420971
582.350647	723.857117	18688.916016	7986.576660	40.426918
582.692566	731.361633	18548.041016	7927.357422	40.389095
583.034424	728.909668	18447.361328	7872.373535	40.316525
583.376343	726.829285	18339.621094	7814.789063	40.243252
583.718201	718.730286	18290.431641	7803.123535	40.317059
584.059937	726.160461	18215.611328	7754.529297	40.186329
584.401611	719.770508	18132.763672	7708.461426	40.134922
584.743347	719.844727	18063.289063	7650.876953	39.963409
585.085022	718.953125	17938.162109	7628.363281	40.126175
585.426514	722.148132	17871.884766	7622.047363	40.233269
585.768127	727.052063	17773.285156	7596.338379	40.297974
586.109619	726.234863	17702.400391	7549.528809	40.193375
586.451172	724.748779	17642.662109	7526.196777	40.202641
586.792542	722.296692	17616.060547	7506.878418	40.160275
587.133850	722.519714	17615.318359	7498.630371	40.112423
587.475220	725.417480	17589.535156	7486.445313	40.091206
587.816589	717.095520	17591.763672	7480.353027	40.079350
588.157776	719.027527	17650.462891	7486.000000	39.966915
588.498962	717.912903	17720.677734	7496.179199	39.865669
588.840210	726.903564	17778.708984	7506.283691	39.757549
589.181335	724.228699	17829.681641	7520.698730	39.732769
589.522400	720.736389	17882.583984	7523.447754	39.638573
589.863403	716.352539	17903.240234	7550.345215	39.762833
590.204407	723.336975	17892.613281	7556.289063	39.797558
590.545410	727.349304	17921.146484	7572.710449	39.812969
590.886353	733.887939	17945.962891	7543.955078	39.565639
591.227112	724.674500	17942.919922	7543.806641	39.604107
591.567932	719.696106	17879.908203	7514.679688	39.597313
591.908752	712.860352	17799.810547	7489.268066	39.658382
592.249512	715.460876	17752.333984	7460.066895	39.588287
592.590149	712.414490	17631.591797	7424.699219	39.672642
592.930786	717.838562	17515.826172	7396.315918	39.757603
593.271423	714.123352	17424.212891	7350.248535	39.713280
593.612000	722.519592	17393.226563	7309.084473	39.509811
593.952576	721.033508	17414.253906	7313.021973	39.489014
594.292969	724.971619	17479.566406	7309.678223	39.300900
594.633484	723.114075	17538.861328	7334.124512	39.314400
594.973877	722.891113	17634.488281	7342.892090	39.144741
595.314209	722.519592	17721.718750	7402.186035	39.294006
595.654480	730.024231	17897.744141	7463.039551	39.219040
595.994812	721.628113	18108.318359	7528.203125	39.148197
596.335022	717.689941	18327.509766	7581.626465	38.977890
596.675171	710.631165	18531.470703	7640.623047	38.887009
597.015320	717.838562	18690.775391	7695.384277	38.822514
597.355408	717.912903	18792.421875	7730.604004	38.798790
597.695496	714.494934	18874.005859	7781.649902	38.917095
598.035461	716.278137	18881.806641	7789.303223	38.936520
598.375366	720.810730	18823.330078	7784.546875	39.020737
598.715271	726.977844	18697.089844	7743.680176	39.046516
599.055176	732.550537	18447.730469	7654.294434	39.072392
599.395081	736.191406	18236.189453	7578.654297	39.099792
599.734802	734.110840	17923.154297	7449.887207	39.070099
600.074524	727.943787	17613.607422	7348.687500	39.209259
600.414246	726.829285	17227.904297	7189.902832	39.167595
600.753906	723.782776	16910.705078	7060.690918	39.148323
601.093506	724.674500	16641.060547	6940.097168	39.050465
601.433044	724.377258	16447.056641	6872.407715	39.102943
601.772583	731.138733	16323.860352	6797.139160	38.902767
602.112122	725.194580	16307.960938	6778.638184	38.847038
602.451538	723.039795	16347.118164	6776.557129	38.744797
602.790894	714.420715	16438.734375	6818.611816	38.820080
603.130310	715.312317	16608.888672	6872.556152	38.740456
603.469604	712.785950	16799.919922	6930.660645	38.651226
603.808838	716.278259	17073.353516	7011.799316	38.488060
604.148010	722.148132	17379.257813	7104.528809	38.316257
604.487305	726.234802	17683.453125	7210.633301	38.239754
604.826416	727.720886	17926.792969	7302.396973	38.226925
605.165527	726.754883	18061.654297	7382.347168	38.394180
605.504456	725.194519	18203.869141	7453.306152	38.493263
605.843445	721.479431	18267.843750	7472.550781	38.475613
606.182434	719.919006	18267.398438	7467.052246	38.450729
606.521423	715.163635	18129.568359	7417.417969	38.486843
606.860229	722.816833	17888.380859	7359.833496	38.664715
607.199036	716.946960	17596.816406	7271.562012	38.830959
607.537903	724.228699	17341.736328	7170.138672	38.789871
607.876648	720.290527	17088.437500	7051.699707	38.681282
608.215271	725.417480	16865.455078	6946.784668	38.546177
608.553955	721.107910	16632.960938	6828.196777	38.380753
608.892578	722.816833	16468.529297	6761.250000	38.349697
609.231140	723.411316	16358.635742	6701.882324	38.237194
609.569641	729.058289	16298.450195	6679.442871	38.218479
609.908081	730.395752	16328.096680	6663.244629	38.036686
610.246521	739.683594	16310.116211	6644.298340	37.921970
610.584961	727.275085	16327.725586	6642.440918	37.916637
610.923340	721.553711	16254.538086	6627.431641	38.021526
611.261597	708.847961	16163.293945	6604.693848	38.149834
611.599854	714.643555	16033.858398	6561.821777	38.168915
611.938110	720.587830	15878.043945	6516.942871	38.240948
612.276245	730.321533	15723.272461	6453.785645	38.174366
612.614319	726.977844	15445.975586	6365.142578	38.305355
612.952393	724.005798	15143.042969	6250.865234	38.330296
613.290466	714.346375	14826.067383	6123.658691	38.332054
613.628479	718.878906	14538.218750	5990.805176	38.148899
613.966370	718.730225	14285.367188	5882.323730	38.060970
614.304260	719.844788	14067.882813	5808.986816	38.126518
614.642151	717.095520	13881.308594	5724.876465	38.040867
614.979980	712.637390	13735.750000	5649.830078	37.911007
615.317749	721.107910	13590.933594	5583.998047	37.785206
615.655396	723.708496	13531.640625	5554.054199	37.713707
615.993164	723.336914	13470.860352	5541.645996	37.798000
616.330811	715.015076	13453.101563	5524.778809	37.758919
616.668396	712.117249	13396.632813	5519.578125	37.900234
617.005859	722.816895	13382.885742	5496.098145	37.703442
617.343445	727.200745	13370.031250	5488.445313	37.659641
617.680908	728.389587	13378.651367	5467.937500	37.466007
618.018311	719.398926	13359.479492	5476.333496	37.633739
618.355652	720.959290	13323.963867	5466.376953	37.653065
618.692993	725.343201	13269.945313	5484.729980	37.939716
619.030273	725.045959	13277.672852	5464.667969	37.758011
619.367554	726.086182	13296.249023	5443.937500	37.532143
619.704712	718.804504	13284.360352	5415.851074	37.380333
620.041870	718.655945	13239.409180	5409.906738	37.467804
620.379028	711.448547	13188.584961	5409.089355	37.649990
620.716064	712.488770	13157.301758	5398.761719	37.656437
621.053040	720.587708	13093.104492	5376.544922	37.631447
621.389954	721.330811	13029.500977	5345.188965	37.567390
621.726929	727.497986	12962.332031	5318.663574	37.525360
622.063843	722.222473	12937.960938	5292.657715	37.414318
622.400635	721.776611	12917.825195	5279.803223	37.372974
622.737427	725.566101	12891.151367	5242.057129	37.125145
623.074219	727.720886	12831.932617	5225.264648	37.156849
623.410889	731.436035	12769.145508	5188.559082	37.026340
623.747559	724.823059	12743.437500	5184.472656	37.106186
624.084167	721.627991	12710.817383	5151.407715	36.948116
624.420715	715.683838	12719.139648	5152.373535	36.961765
624.757324	714.272034	12720.847656	5152.745605	36.967026
625.093750	714.866516	12776.872070	5185.586426	37.064480
625.430176	721.553711	12840.476563	5208.100586	37.021004
625.766602	726.086182	12905.639648	5229.500000	36.975197
626.102905	732.327637	13010.925781	5248.595703	36.781628
626.439209	729.504150	13104.622070	5270.663574	36.695885
626.775452	725.714661	13246.243164	5298.824219	36.524891
627.111694	713.900574	13312.446289	5311.307129	36.491566
627.447876	716.352539	13358.366211	5308.260254	36.322598
627.783997	716.352539	13388.903320	5312.421387	36.267906
628.120056	719.473206	13406.514648	5315.319824	36.224731
628.456055	716.872620	13408.593750	5329.585449	36.344269
628.792053	713.826233	13394.403320	5310.191895	36.247292
629.128052	712.191589	13320.249023	5288.496094	36.296665
629.463928	711.671448	13204.856445	5262.564453	36.427006
629.799744	712.488770	13062.864258	5232.620605	36.599148
630.135559	720.587830	12942.790039	5182.466309	36.506336
630.471375	724.971680	12815.508789	5101.327637	36.196537
630.807068	727.200684	12648.848633	5049.761719	36.258083
631.142700	723.708496	12515.846680	5014.021973	36.382828
631.478333	712.265930	12380.468750	4981.254395	36.586510
631.813965	718.581604	12279.565430	4915.942383	36.306263
632.149475	722.222412	12161.497070	4863.707520	36.204090
632.484924	735.522644	12072.854492	4807.088379	35.912907
632.820435	731.436035	11993.647461	4781.900391	35.965092
633.155884	729.504150	11911.765625	4737.913086	35.846138
633.491150	720.884949	11858.491211	4729.070801	35.987858
633.826477	721.850891	11760.559570	4689.839844	35.946133
634.161804	712.340149	11697.551758	4663.238770	35.965611
634.497009	709.145203	11632.610352	4627.573730	35.871662
634.832153	710.854187	11592.562500	4608.403320	35.817440
635.167297	714.792175	11526.209961	4583.512207	35.783649
635.502380	713.306091	11454.507813	4564.267578	35.852238
635.837463	702.012146	11383.622070	4529.865723	35.835922
636.172424	703.349609	11316.824219	4501.704590	35.788044
636.507324	714.197754	11235.165039	4456.676758	35.571625
636.842224	725.268860	11129.210938	4428.664551	35.596081
637.177124	728.909668	11003.936523	4380.814453	35.541557
637.511963	720.364929	10889.733398	4343.959961	35.632450
637.846741	715.163757	10786.600586	4295.440918	35.548824
638.181396	716.055359	10676.557617	4243.502441	35.414349
638.516113	724.748779	10581.451172	4188.444824	35.140518
638.850769	732.699219	10490.950195	4155.379883	35.074734
639.185303	727.052185	10406.393555	4122.687012	35.081257
639.519836	723.708496	10292.933594	4097.720703	35.258991
639.854370	720.142029	10206.592773	4061.089600	35.218098
640.188843	724.748779	10122.110352	4037.015625	35.246777
640.523254	729.504150	10056.724609	4012.644287	35.199554
640.857605	730.990234	9983.685547	3967.170654	34.975544
641.191895	730.767273	9914.137695	3929.870361	34.835827
641.526184	725.491760	9843.328125	3884.843506	34.650238
641.860413	718.135803	9788.416992	3872.880859	34.781116
642.194580	716.278259	9764.343750	3854.602295	34.685028
642.528748	716.649719	9725.631836	3845.314453	34.728283
642.862793	716.724060	9655.490234	3820.125732	34.718456
643.196838	716.946960	9575.911133	3794.936768	34.744354
643.530823	708.104980	9502.203125	3765.067139	34.761520
643.864746	716.352539	9440.829102	3744.336914	34.706776
644.198669	718.507324	9385.696289	3716.993896	34.595837
644.532532	724.971680	9341.412109	3699.978516	34.527100
644.866333	719.696106	9361.028320	3679.322266	34.249653
645.200073	711.820068	9346.985352	3668.697021	34.242275
645.533813	717.095520	9331.084961	3659.409180	34.157387
645.867554	714.569275	9282.787109	3641.873291	34.164677
646.201172	718.061523	9295.790039	3641.501953	34.081757
646.534729	722.965515	9291.852539	3635.706299	33.992054
646.868225	725.120300	9298.985352	3644.548096	34.050312
647.201782	717.244141	9281.598633	3645.217041	34.187901
647.535217	715.981018	9302.477539	3651.978760	34.193199
647.868591	719.473328	9290.366211	3652.127686	34.216438
648.201965	727.720886	9293.115234	3637.861328	33.975555
648.535278	722.593933	9264.286133	3626.641357	33.998501
648.868591	724.005676	9263.914063	3612.598389	33.824635
649.201782	730.544373	9226.911133	3603.310303	33.811695
649.534912	731.287415	9206.775391	3595.211670	33.790672
649.868103	723.188416	9144.659180	3567.719482	33.777130
650.201172	717.838623	9116.274414	3546.468750	33.680443
650.534180	711.522888	9088.411133	3528.041748	33.622494
650.867188	712.786072	9072.362305	3546.023193	33.892113
651.200134	716.426819	9038.406250	3544.313721	33.980942
651.533020	722.593933	8990.629883	3524.921143	33.893505
651.865845	725.714661	8954.072266	3483.906006	33.520557
652.198608	726.383484	8896.414063	3461.392334	33.476112
652.531433	729.504150	8885.862305	3446.531982	33.311775
652.864136	725.566101	8856.512695	3426.098389	33.213009
653.196777	794.370422	8915.805664	3543.868164	33.854828
653.529358	797.639709	8867.286133	3535.843506	33.932140
653.861938	801.280579	8814.829102	3514.666992	33.859989
654.194519	735.894226	8691.487305	3347.262939	32.824310
654.526978	739.237793	8651.141602	3306.322266	32.445850
654.859375	739.312073	8583.897461	3287.375244	32.481808
655.191833	730.692932	8549.791016	3284.774658	32.664661
655.524170	720.513489	8492.800781	3265.827393	32.748585
655.856445	719.547607	8464.491211	3242.273438	32.572556
656.188660	729.801331	8422.288086	3225.332764	32.441154
656.520874	729.578430	8382.758789	3211.140625	32.425243
656.853088	727.349304	8395.835938	3207.797119	32.345985
657.185181	724.674500	8395.464844	3191.970459	32.164818
657.517212	719.919006	8435.737305	3194.719727	32.074379
657.849243	724.600159	8460.107422	3215.375732	32.199253
658.181274	721.405090	8517.692383	3233.282471	32.218895
658.513123	731.956055	8565.914063	3247.846436	32.115189
658.844971	730.915833	8664.588867	3256.316650	31.831423
659.176819	735.968445	8757.988281	3282.694580	31.746693
659.508667	730.098572	8864.983398	3289.976318	31.467903
659.840393	730.841553	8920.636719	3295.251221	31.312258
660.172058	725.417480	8985.799805	3295.177002	31.109447
660.503662	723.114075	9006.678711	3304.390625	31.161423
660.835266	720.290527	9006.233398	3305.059326	31.194624
661.166931	716.798340	8936.611328	3300.824219	31.436556
661.498413	724.674500	8890.320313	3303.795898	31.585026
661.829773	724.228699	8791.275391	3288.118164	31.782255
662.161194	734.036621	8692.377930	3232.391357	31.392908
662.492615	725.491760	8540.056641	3167.896484	31.254520
662.823975	731.287354	8389.147461	3109.197266	31.051884
663.155212	726.234802	8227.019531	3070.857422	31.258364
663.486450	730.841553	8071.801270	3018.250977	31.159540
663.817627	727.943787	7956.781250	2977.384033	31.117592
664.148743	723.411316	7829.203125	2938.524170	31.173342
664.479858	719.844727	7755.568848	2915.341553	31.204987
664.810913	722.593933	7654.889160	2889.038330	31.251472
665.141907	727.497986	7582.890137	2859.317139	31.096968
665.472778	725.417480	7495.509766	2829.076172	31.072821
665.803711	720.587830	7469.578125	2807.454102	30.921162
666.134583	718.061523	7449.813965	2789.992920	30.778484
666.465454	729.727051	7427.746094	2782.042236	30.640629
666.796143	731.658875	7381.752441	2760.569092	30.509497
667.126831	731.287415	7365.628906	2745.039795	30.353464
667.457458	725.491760	7347.498535	2728.618896	30.249550
667.788147	719.919128	7332.267090	2724.829346	30.320698
668.118774	716.055359	7292.737793	2707.888428	30.286287
668.449219	714.346375	7265.394531	2710.191895	30.466047
668.779663	719.919006	7263.313965	2692.804932	30.150801
669.110107	727.200745	7258.781250	2690.352783	30.056311
669.440552	723.411316	7248.676270	2662.192139	29.711908
669.770874	726.160461	7209.816406	2650.526611	29.680265
670.101135	725.789001	7189.308594	2641.015869	29.631330
670.431396	723.931396	7160.924316	2636.483398	29.711885
670.761597	717.912903	7128.380371	2610.403076	29.521877
671.091797	718.358704	7097.990234	2598.291748	29.467739
671.421875	722.891113	7048.876465	2586.848877	29.465097
671.751892	729.132568	7006.672363	2580.979248	29.499559
672.081909	723.857117	6952.208496	2574.812256	29.718218
672.411865	724.228577	6927.836426	2551.629883	29.457073
672.741821	727.423645	6880.060059	2532.311035	29.335188
673.071716	729.058350	6846.029785	2502.069824	28.985119
673.401550	728.241028	6807.169434	2489.661133	28.975834
673.731262	727.497864	6796.841309	2482.602295	28.917536
674.060974	726.606262	6754.786621	2473.388916	28.976950
674.390625	731.436035	6722.093262	2458.156982	28.823565
674.720276	725.640381	6661.610840	2439.804199	28.877565
675.049927	726.309082	6639.765625	2420.039551	28.641970
675.379395	727.200684	6604.620605	2404.287598	28.534407
675.708923	725.640381	6570.515625	2389.798584	28.472092
676.038330	722.891174	6519.767090	2375.829346	28.514294
676.367737	720.959290	6474.367676	2358.145264	28.455935
676.697083	724.080017	6459.135254	2348.783203	28.329338
677.026428	733.219238	6440.634277	2334.294189	28.052542
677.355652	729.206848	6410.021484	2322.480225	28.046568
677.684875	732.773438	6402.665527	2315.867432	27.921061
678.013977	725.045898	6395.384277	2312.597900	27.997482
678.343079	726.309082	6420.720703	2316.981689	27.933924
678.672180	722.371094	6422.875488	2308.437256	27.823259
679.001221	721.182190	6472.138184	2315.570068	27.723877
679.330139	725.491760	6514.342285	2321.439941	27.569345
679.659058	723.782776	6530.837402	2324.858154	27.571213
679.987976	729.949951	6557.215332	2323.817627	27.351896
680.316772	726.160461	6591.468750	2315.792969	27.102285
680.645630	727.126465	6651.356934	2338.455078	27.198952
680.974304	719.250305	6695.417969	2340.386963	27.126696
681.302979	719.473328	6731.380859	2364.312500	27.359686
681.631653	718.804504	6763.925293	2362.009277	27.182333
681.960266	726.680664	6776.408203	2378.801514	27.309013
682.288757	725.937561	6796.023926	2367.433350	27.042379
682.617249	723.485596	6797.064453	2352.201416	26.816410
682.945679	718.135742	6764.742188	2326.492432	26.599329
683.274109	719.027405	6713.696777	2314.826904	26.620310
683.602478	723.857117	6644.966309	2300.858154	26.633539
683.930725	725.714661	6566.057129	2278.938477	26.594740
684.259033	723.411316	6470.280762	2244.016357	26.459709
684.587280	724.674500	6393.674316	2213.180908	26.256947
684.915344	723.336975	6333.936035	2191.707275	26.171364
685.243469	727.646545	6264.313965	2174.989502	26.141050
685.571533	724.302917	6197.961426	2158.493896	26.201687
685.899536	731.658936	6138.445313	2132.265137	25.904598
686.227539	729.801270	6105.826172	2112.574951	25.721117
686.555420	728.761047	6081.603516	2097.194336	25.564611
686.883301	722.965515	6076.328125	2094.147705	25.613472
687.211121	719.176025	6074.693359	2089.763916	25.592072
687.538940	718.135742	6076.402344	2084.340088	25.497133
687.866638	719.844727	6065.182129	2080.178955	25.448988
688.194336	720.513489	6054.854004	2070.742432	25.312016
688.521973	718.210144	6027.733887	2058.259766	25.238602
688.849609	713.454773	6032.191895	2058.556885	25.289875
689.177063	719.101746	5996.824219	2048.303223	25.185131
689.504578	723.857117	5948.230469	2046.445679	25.315737
689.832031	729.949951	5864.267578	2022.743042	25.179455
690.159485	726.309082	5795.166504	2006.322144	25.252497
690.486816	723.485657	5726.659668	1971.250977	24.939476
690.814087	716.352539	5662.015625	1948.663086	24.916994
691.141296	716.352539	5561.039063	1923.474609	24.916412
691.468506	714.569275	5486.067871	1904.824585	24.945107
691.795715	718.953125	5395.640625	1881.196289	24.851847
692.122803	713.826172	5355.740234	1861.208862	24.717878
692.449829	720.141907	5298.824219	1851.921021	24.718445
692.776855	723.559875	5252.607910	1817.370239	24.150999
693.103821	732.550598	5199.109863	1805.630493	24.024754
693.430664	730.618652	5137.587402	1774.051758	23.676889
693.757568	722.519714	5089.067871	1780.516113	24.229580
694.084351	711.597168	5026.207520	1763.500854	24.380039
694.411133	707.733398	5006.294434	1761.346069	24.510822
694.737854	710.259766	4963.124512	1736.083008	24.120758
695.064575	715.981018	4951.458984	1725.086304	23.825062
695.391174	716.055359	4914.010254	1711.563354	23.714117
695.717773	711.151367	4909.478027	1712.529175	23.851831
696.044250	715.460876	4911.410156	1707.030762	23.631599
696.370789	715.832458	4924.115723	1706.659180	23.544678
696.697205	730.915833	4965.650879	1702.052368	22.932640
697.023621	726.606262	5017.811035	1701.309448	22.713976
697.349915	736.637207	5071.086426	1698.708862	22.195938
697.676208	729.132568	5106.156738	1720.999634	22.660761
698.002380	733.962219	5175.258301	1731.996460	22.471689
698.328674	725.640320	5269.474121	1757.556641	22.710255
698.654724	729.206848	5375.355957	1755.699097	22.093399
698.980896	725.789001	5467.937500	1772.045532	22.062923
699.306946	731.807556	5570.846191	1781.556274	21.693333
699.632935	727.943848	5653.248047	1797.234253	21.710140
699.958862	729.206848	5687.947266	1806.001953	21.715096
700.284729	721.405090	5664.393066	1803.772949	21.897038
700.610596	720.216248	5610.673340	1797.977173	22.038042
700.936340	714.940735	5530.945801	1774.943481	22.010000
701.262146	720.587708	5424.098145	1746.039673	21.801842
701.587830	719.398926	5284.929688	1714.832520	21.803240
701.913513	724.228699	5148.212891	1679.167358	21.585489
702.239075	715.609558	5014.319336	1649.446167	21.723648
702.564697	712.042969	4897.143555	1618.387695	21.656462
702.890137	714.346375	4763.547363	1591.490112	21.662144
703.215698	720.290588	4661.752441	1561.694702	21.347513
703.541016	726.457703	4573.406738	1528.927124	20.859892
703.866455	723.188416	4516.193848	1514.066528	20.850962
704.191711	720.885010	4439.884766	1501.806641	20.998163
704.517029	717.095520	4367.291016	1491.255737	21.208733
704.842163	720.810730	4303.315918	1476.840942	21.103395
705.167419	723.485657	4262.152832	1465.992676	20.982674
705.492493	725.268860	4235.329590	1460.419922	20.944113
705.817566	723.559875	4210.215332	1445.187866	20.696854
706.142578	723.931458	4187.106934	1424.754761	20.236437
706.467590	724.897278	4156.494141	1413.757813	20.074051
706.792480	725.714661	4145.794434	1411.157227	20.041712
707.117371	729.801270	4146.983887	1413.832153	20.017393
707.442200	732.401855	4152.630371	1418.438965	20.058224
707.766907	727.720886	4147.875488	1413.757935	20.058657
708.091675	721.628113	4146.983887	1414.277954	20.221252
708.416321	713.900574	4158.500488	1400.234741	19.924932
708.741028	711.522766	4163.775391	1394.141968	19.773153
709.065552	704.241211	4178.264648	1386.265747	19.632122
709.390137	708.179199	4190.599121	1387.380371	19.503712
709.714600	716.278137	4209.397949	1396.148071	19.463116
710.039063	717.689941	4228.345215	1397.336914	19.359547
710.363403	717.838623	4259.700684	1399.417358	19.243515
710.687744	718.730225	4311.415527	1401.943726	19.016792
711.012085	722.593994	4360.455566	1416.284180	19.068624
711.336304	726.903503	4402.138672	1427.058105	19.050608
711.660461	723.411316	4439.513184	1426.389282	18.917080
711.984619	728.240967	4467.599609	1421.708374	18.545090
712.308716	725.343201	4490.559082	1420.073608	18.451277
712.632751	722.816895	4467.822754	1425.646118	18.767107
712.956726	726.160461	4426.213379	1424.680298	18.878645
713.280701	730.767273	4377.693359	1416.804199	18.811375
713.604553	735.448303	4324.121094	1396.965332	18.433474
713.928467	729.206848	4279.613770	1382.773560	18.408220
714.252258	721.553711	4222.177734	1367.392944	18.449261
714.575989	720.513489	4179.453613	1358.476563	18.443888
714.899719	722.816895	4134.648926	1352.978271	18.469883
715.223267	722.371094	4102.550781	1341.312866	18.310913
715.546936	719.770447	4065.250732	1327.715332	18.172127
715.870422	721.702209	4036.866943	1313.449219	17.849701
716.193970	723.857117	4008.631836	1304.755737	17.684580
716.517395	723.559875	3982.328857	1305.573120	17.859911
716.840820	719.919128	3943.171143	1290.861206	17.713232
717.164124	720.662109	3903.121826	1280.458862	17.590065
717.487488	725.045898	3875.778564	1268.867554	17.260164
717.810730	727.423645	3852.224609	1269.239014	17.339195
718.133972	730.915833	3800.955811	1267.455688	17.476641
718.457092	730.767273	3761.129639	1251.480591	17.183203
718.780212	730.024231	3710.529297	1239.220825	17.084238
719.103210	726.457703	3668.548096	1228.595459	17.067381
719.426208	724.823059	3615.570313	1223.840210	17.262566
719.749207	727.349304	3561.403564	1214.626587	17.193647
720.072083	726.903564	3524.549561	1199.022949	16.875595
720.394958	723.114075	3485.912109	1184.682495	16.706556
720.717773	718.210144	3441.405029	1169.004761	16.553888
721.040527	717.021301	3397.194580	1154.664307	16.328907
721.363281	716.203918	3355.733643	1153.252563	16.557821
721.685913	716.203918	3338.198486	1147.531250	16.450352
722.008545	720.662109	3321.554688	1154.367065	16.675236
722.331055	720.141907	3297.480469	1145.673706	16.510511
722.653503	721.702332	3285.592529	1137.574707	16.220366
722.976013	727.423645	3258.174561	1127.543823	15.810334
723.298401	734.556702	3254.162109	1122.788452	15.408434
723.620789	727.646667	3242.645264	1121.228027	15.649367
723.943115	721.256531	3227.487549	1108.002197	15.431366
724.265381	719.844788	3213.295654	1104.510132	15.427027
724.587585	724.302917	3195.091553	1108.596680	15.553486
724.909790	717.764221	3202.001709	1114.838013	15.983728
725.231873	711.671387	3204.676514	1114.243652	16.148071
725.553894	714.420715	3204.379150	1109.042480	15.848528
725.875916	766.209656	3254.087646	1135.791382	14.855300
726.197937	773.045471	3254.161865	1140.100952	14.793964
726.519775	773.937195	3261.740479	1138.169067	14.640702
726.841675	727.943787	3221.617188	1109.859741	15.315396
727.163513	723.708496	3244.725586	1100.348999	14.940022
727.485291	716.872620	3258.545898	1109.265259	15.438358
727.806946	710.333984	3284.180420	1112.757446	15.635100
728.128662	711.448547	3288.415283	1114.094971	15.624820
728.450256	714.866516	3310.483398	1100.720581	14.865602
728.771790	721.776611	3321.777344	1096.931152	14.429017
729.093323	726.086243	3334.706055	1100.571899	14.355700
729.414795	724.302917	3332.403076	1097.525513	14.310133
729.736145	721.850891	3322.372070	1090.764038	14.186123
730.057495	715.312317	3322.446289	1085.859985	14.212835
730.378845	716.129639	3343.919922	1087.568970	14.135045
730.700134	718.804504	3349.269531	1095.073608	14.304280
731.021301	721.182190	3342.433594	1093.364380	14.198645
731.342468	720.810730	3323.486328	1100.497559	14.588327
731.663574	719.473328	3331.510986	1098.565796	14.513286
731.984680	726.309082	3348.971924	1095.222168	14.066356
732.305664	725.640381	3358.780273	1092.175781	13.920089
732.626648	728.983948	3363.758545	1083.928101	13.471519
732.947571	725.268860	3369.776611	1084.745483	13.593328
733.268433	728.315247	3376.984375	1072.411133	12.991275
733.589233	715.535156	3361.455078	1067.358521	13.296825
733.909973	710.111084	3343.771240	1061.860107	13.355900
734.230713	714.717957	3319.177002	1061.042847	13.297383
734.551331	722.445313	3300.303955	1064.609375	13.273190
734.871948	723.782776	3250.075439	1054.430054	13.088241
735.192505	720.810608	3198.657959	1047.519775	13.185202
735.513062	722.222473	3147.612061	1033.402222	12.830093
735.833435	724.228699	3110.014648	1035.928467	13.064868
736.153931	723.634216	3066.027344	1033.476563	13.227598
736.474304	720.810730	3024.120850	1027.309448	13.306881
736.794617	719.919128	2985.780518	1014.157898	12.985736
737.114807	720.662109	2960.963623	1001.006348	12.513683
737.434998	724.600159	2949.966797	995.879395	12.190316
737.755188	726.457703	2953.458984	1002.715149	12.404908
738.075256	728.018066	2970.845703	1009.551086	12.552593
738.395325	724.674500	2979.613281	1007.396240	12.537890
738.715271	726.532043	3005.619141	996.993896	11.867113
739.035278	723.782776	3016.319092	988.671936	11.554415
739.355164	726.309082	3039.352783	995.210632	11.625442
739.675049	727.200684	3034.820313	998.554199	11.759023
739.994873	724.005798	3032.888428	1011.928772	12.470230
740.314636	724.302917	3025.978516	1003.309631	12.121896
740.634277	723.336975	3013.346924	994.913513	11.859185
740.953979	728.166687	2992.764893	982.059082	11.211367
741.273499	733.442200	2969.582275	981.984802	11.114804
741.593140	727.572266	2921.731689	982.579163	11.622077
741.912598	728.092346	2874.251953	978.789734	11.681209
742.232117	722.891174	2824.097900	976.486389	12.069027
742.551453	724.823059	2803.070313	973.737122	11.977115
742.870850	722.965515	2773.423828	966.529785	11.878529
743.190063	718.210144	2745.485596	954.418457	11.651516
743.509338	718.284424	2715.021484	943.718933	11.290145
743.828552	717.169861	2685.597656	944.090332	11.528007
744.147705	718.432922	2652.458740	943.273010	11.625495
744.466797	718.878906	2619.616943	939.706543	11.617994
744.785828	713.380432	2597.771729	929.749939	11.482196
745.104858	718.953125	2580.162109	923.954346	11.014412
745.423706	719.993347	2573.326172	920.907959	10.840720
745.742615	726.680603	2559.877441	918.753174	10.477466
746.061401	717.392761	2552.670166	917.267090	10.890688
746.380249	719.473328	2535.654541	921.502380	11.123838
746.698975	717.838623	2533.276855	921.873840	11.238896
747.017639	727.497986	2516.484619	915.781006	10.524563
747.336304	727.275085	2499.023438	913.477600	10.509536
747.654907	732.996338	2491.816162	908.722229	9.991125
747.973389	735.745544	2488.620850	912.734558	10.097069
748.291931	733.590759	2494.490967	906.864563	9.840070
748.610352	729.578369	2500.063721	907.459167	10.047008
748.928711	726.829285	2514.106934	905.304382	9.985864
749.247070	724.674500	2531.642334	908.870911	10.193674
749.565308	727.720886	2523.766357	903.595398	9.792320
749.883545	730.692932	2506.453857	901.069153	9.594547
750.201782	732.104675	2483.939941	897.725525	9.454134
750.519836	731.584534	2478.738770	900.251770	9.653826
750.837952	728.315247	2472.943115	902.852356	10.004260
751.155884	731.733154	2462.169434	900.028809	9.725620
751.473877	725.640320	2438.912598	903.000977	10.352159
751.791809	722.965393	2422.640137	903.000977	10.592355
752.109619	722.965515	2424.274658	897.576843	10.263351
752.427490	725.194519	2428.064453	898.171326	10.157958
752.745300	728.983948	2434.974365	898.691406	9.947738
753.062988	731.287354	2427.544189	903.372498	10.144994
753.380615	727.795166	2417.216064	894.307556	9.856181
753.698303	722.965515	2410.157227	888.140381	9.789929
754.015808	715.832336	2391.433350	885.465515	10.123721
754.333374	715.609436	2387.346680	884.499512	10.102669
754.650757	713.231750	2385.265869	883.979431	10.211973
754.968262	717.244141	2393.364990	879.298401	9.668411
755.285583	720.587708	2394.553711	879.372742	9.485559
755.602905	722.668274	2388.460938	876.400574	9.228777
755.920105	714.420654	2376.646729	878.035217	9.843100
756.237305	708.253479	2360.225830	874.542969	10.066118
756.554443	706.470276	2352.498291	877.886658	10.413940
756.871582	712.934570	2356.585205	875.806152	9.909137
757.188599	729.504150	2368.250732	868.895996	8.506003
757.505615	730.692871	2380.287598	861.242859	7.914064
757.822510	731.361633	2379.247314	860.722656	7.850121
758.139465	715.535156	2389.055420	870.976563	9.288289
758.456238	715.906738	2397.228760	876.029114	9.523600
758.773010	712.117371	2423.457275	879.224121	9.764673
759.089783	718.507324	2435.865967	874.468750	9.081470
759.406433	724.748779	2438.986572	873.428467	8.673224
759.723145	727.052185	2447.977295	865.700989	8.056643
760.039673	730.915833	2458.082764	863.620544	7.683375
760.356201	727.349365	2461.426270	862.431702	7.789870
760.672668	724.748779	2455.927734	866.369812	8.180612
760.989136	718.284424	2455.705078	861.614441	8.249586
761.305481	714.346375	2449.834961	864.363525	8.644088
761.621826	714.717834	2447.754639	858.493652	8.296178
761.938049	722.445374	2456.225098	858.642273	7.855490
762.254333	724.228577	2481.859375	848.091309	7.047142
762.570496	725.120300	2528.967529	858.642273	7.402067
762.886597	724.377258	2602.898682	869.193176	7.709037
763.202637	726.829285	2727.132568	880.041443	7.659447
763.518677	724.154358	2879.750244	881.750427	7.311021
763.834656	719.176086	3021.965576	889.998047	7.418045
764.150574	721.850891	3137.283936	904.115540	7.545837
764.466370	727.423645	3207.648438	914.146301	7.528457
764.782288	730.618652	3238.855469	915.632507	7.376252
765.097961	733.293457	3222.509033	919.421875	7.477393
765.413696	741.689758	3168.045166	913.106140	7.064768
765.729309	742.209961	3071.377686	912.140320	7.295754
766.044861	738.643372	2952.864502	896.759583	7.140940
766.360474	728.389587	2822.686279	890.815369	7.755624
766.675903	729.578430	2700.680908	879.372742	7.599519
766.991394	729.132629	2603.195557	881.081726	8.108004
767.306763	734.110840	2506.825195	869.564758	7.641046
767.622131	724.897400	2432.671143	862.580261	8.062126
767.937378	728.463867	2352.349854	846.605225	7.275225
768.252625	725.566101	2308.214111	847.645508	7.713617
768.567810	732.104675	2265.787109	839.174988	6.981257
768.882996	719.919006	2230.270508	831.596008	7.394106
769.197998	722.222412	2185.317139	825.428894	7.053985
769.513062	724.302917	2145.490967	825.206055	7.099915
769.828064	732.550537	2114.506592	822.902649	6.537987
770.142944	726.680664	2092.810303	819.781921	6.814965
770.457825	721.479492	2071.337158	816.289734	7.023721
770.772705	715.312317	2052.241211	808.487976	6.969380
771.087402	720.141907	2029.058594	802.840881	6.318123
771.402100	725.045898	1997.851563	800.686096	5.942792
771.716736	731.584656	1979.350098	805.144226	5.895305
772.031372	729.727051	1962.260376	807.447693	6.305764
772.345947	728.315247	1963.375000	815.992493	7.099028
772.660461	725.343201	1948.068481	816.809814	7.480553
772.974854	731.510254	1930.161743	812.425964	6.750562
773.289246	733.590759	1905.716187	810.048279	6.522981
773.603638	732.327637	1893.159180	807.521973	6.477627
773.917908	724.674377	1886.323242	803.583984	6.792896
774.232178	717.095520	1877.704102	800.686096	7.202305
774.546265	718.210144	1861.506226	794.667542	6.687453
774.860474	724.600159	1847.388672	793.924622	6.174311
775.174561	732.179016	1831.710571	783.150696	4.635764
775.488586	730.247070	1821.308228	785.974182	5.107606
775.802551	729.355469	1814.472290	791.992737	5.772398
776.116516	724.897400	1807.710938	792.289978	6.223840
776.430359	726.977783	1799.240356	799.943115	6.804801
776.744202	720.885010	1777.543945	800.240295	7.510019
777.057922	723.262695	1773.902954	798.457031	7.157001
777.371704	729.132629	1773.605835	798.234131	6.615920
777.685303	732.179016	1764.169434	791.769836	5.774358
777.998962	732.847717	1747.525757	792.587097	5.887521
778.312500	723.634094	1721.891235	785.677002	6.215123
778.626038	728.761047	1728.281250	784.265320	5.553092
778.939453	723.336975	1724.937866	792.735779	6.928788
779.252869	727.275085	1748.120117	795.782166	6.710821
779.566223	713.306152	1738.460815	796.302246	8.095959
779.879578	715.981018	1747.674194	787.534485	6.935538
780.192749	706.990417	1735.339966	787.311707	7.810699
780.505920	715.237976	1736.974609	787.608887	7.083127
780.819031	717.467102	1717.804565	792.884277	7.539173
781.132141	728.463867	1699.823242	785.825500	5.905295
781.445190	731.138855	1692.096069	781.218750	5.211459
781.758118	730.321472	1681.470581	782.110413	5.444881
782.071045	722.742615	1675.303345	780.698669	6.084237
782.383911	717.838623	1659.328491	786.048401	7.244876
782.696838	711.968689	1657.247925	784.859619	7.711048
783.009583	716.055359	1649.520508	782.556335	7.124098
783.322266	721.850891	1646.696899	777.800964	6.049664
783.634888	724.897400	1633.545410	769.404724	4.898192
783.947510	720.364929	1621.211060	769.107422	5.410746
784.260132	715.089355	1600.629272	768.067200	5.982547
784.572571	718.432922	1601.743774	762.940430	5.038714
784.885010	723.336975	1600.183594	765.912415	4.855517
785.197449	726.011902	1610.511597	764.723633	4.376681
785.509766	718.284424	1599.068848	772.525391	6.158257
785.822083	720.513489	1599.366211	761.974426	4.717621
786.134277	715.683838	1589.929688	767.918640	5.974841
786.446533	727.423645	1581.533569	768.810242	4.845582
786.758606	726.531982	1584.951294	784.636719	6.768806
787.070740	735.522644	1586.140137	777.875244	4.979042
787.382690	734.853943	1592.307251	774.085754	4.575387
787.694641	734.853821	1601.743774	765.466614	3.531336
788.006653	730.692932	1614.598145	762.345886	3.581035
788.318481	733.739319	1649.520508	756.773193	2.515216
788.630310	733.293518	1668.318970	757.144714	2.550861
788.942017	732.699158	1689.272461	760.711243	2.928378
789.253784	727.572266	1691.352905	767.175598	4.109165
789.565430	725.491760	1691.129883	778.692444	5.509381
789.877014	718.284424	1683.699707	781.293152	6.526593
790.188538	711.968750	1675.823608	778.841125	6.938013
790.500061	709.665344	1652.715454	767.027039	6.082571
790.811462	714.049133	1637.186157	764.054871	5.416935
791.122925	717.095520	1612.740601	759.522400	4.737019
791.434204	716.501160	1589.186523	758.779358	4.844610
791.745483	717.467041	1560.282837	755.138489	4.469713
792.056702	709.293762	1540.741211	760.562683	6.166225
792.367920	707.956360	1526.549438	758.556458	6.181349
792.678955	707.362000	1510.500000	759.893982	6.540842
792.990112	717.838623	1504.778809	760.636963	5.438576
793.301086	724.080078	1498.091431	761.900085	4.886234
793.612122	728.092285	1498.537109	761.454285	4.330225
793.922974	732.104675	1485.459961	755.807312	3.146276
794.233826	734.185242	1476.617798	759.968262	3.472776
794.544556	730.841553	1483.082397	764.723633	4.504153
794.855286	723.188416	1489.323730	773.268372	6.536698
795.166016	721.479431	1502.029663	768.290100	5.997137
795.476624	721.553711	1505.521851	763.088928	5.298075
795.787292	726.011902	1507.379272	756.921875	3.955882
796.097778	728.835388	1502.921265	763.980530	4.540212
796.408264	724.080017	1508.865356	770.890686	5.964774
796.718689	719.027405	1520.233765	767.101257	6.000184
797.029053	717.838562	1538.437866	759.596680	5.088734
797.339355	724.377258	1545.199341	754.841370	3.711415
797.649658	733.590820	1543.118774	753.503906	2.459839
797.959839	730.544373	1532.270874	750.085938	2.437435
798.270020	731.436035	1511.465942	743.621582	1.562190
798.580078	732.253235	1497.571289	750.606140	2.398076
798.890137	736.117004	1478.921265	750.234558	1.900575
799.200195	731.138733	1476.320679	758.630859	3.689317
799.510071	721.553711	1467.181641	753.132385	4.235178
799.820007	718.655945	1469.262085	756.104492	4.989108
800.129883	719.101746	1453.286987	753.058044	4.625031
800.439575	725.789001	1461.460327	750.457458	3.353190
800.749329	722.593994	1453.361328	746.296570	3.243519
801.058960	726.383362	1445.485229	748.302734	3.048160
801.368591	716.649719	1428.321289	753.578186	5.188976
801.678162	719.919128	1417.324341	762.271667	6.072874
801.987671	721.182190	1411.380249	753.429504	4.672183
802.297119	726.680603	1406.030273	750.828918	3.554622
802.606506	732.996277	1406.699219	739.832214	1.014681
802.915894	728.835388	1403.504028	741.689758	1.905286
803.225159	721.256531	1397.782715	743.250183	3.250968
803.534424	718.730225	1382.996582	750.011658	4.709170
803.843628	721.627991	1379.504272	751.720520	4.574193
804.152771	727.869446	1379.727173	743.101501	2.336715
804.461792	724.005676	1395.479370	746.222168	3.308617
804.770874	722.073792	1393.027344	746.816650	3.687716
805.079773	723.782898	1390.575562	748.822815	3.755278
805.388733	719.250305	1390.723999	742.358459	3.441409
805.697571	722.445313	1402.686890	742.655762	2.971069
806.006470	717.838562	1409.299805	750.606140	4.738889
806.315125	719.473206	1406.179077	751.274902	4.631051
806.623901	717.615662	1416.284180	757.962097	5.774761
806.932495	717.169861	1427.875366	751.646301	4.851017
807.241150	717.467102	1421.485352	748.822815	4.453821
807.549622	713.974915	1416.655640	748.748535	4.948709
807.858154	718.730225	1398.897339	757.813477	5.746125
808.166565	724.005676	1405.361694	761.751526	5.539813
808.474915	728.315247	1388.866577	759.225281	4.679430
808.783264	724.005676	1386.042969	755.955872	4.826042
809.091492	720.067688	1370.736694	750.234558	4.636285
809.399719	719.770447	1370.067871	744.513245	3.804843
809.707825	729.281250	1355.578735	745.702148	2.621901
810.015930	730.915833	1344.730591	753.281006	3.643636
810.323975	729.727051	1342.427246	749.788757	3.274310
810.632080	725.789001	1339.975220	741.243958	2.516331
810.939880	720.810730	1339.009277	734.705322	2.247594
811.247864	727.572266	1327.640991	740.055115	2.080237
811.555664	724.525879	1315.604004	745.404846	3.532353
811.863464	724.748718	1313.969360	751.646301	4.564942
812.171143	717.615723	1302.675293	747.485352	5.105400
812.478882	724.451477	1307.727905	742.358459	3.070068
812.786438	732.104675	1308.693726	741.318298	1.597953
813.094055	733.962219	1309.659668	745.330566	1.974709
813.401489	731.138855	1300.074585	750.383118	3.382502
813.708984	722.816895	1296.285278	748.302734	4.444158
814.016357	723.039856	1291.678589	748.748535	4.521092
814.323730	718.433105	1296.879761	751.943542	5.793177
814.630981	710.928467	1289.523804	747.782532	6.369575
814.938232	706.990417	1285.362915	743.770264	6.359197
815.245361	703.944031	1275.257690	736.191345	5.644415
815.552490	718.507324	1277.115234	740.426575	3.923906
815.859619	718.581604	1277.115112	742.432800	4.270325
816.166565	722.445313	1284.396851	744.661865	3.953464
816.473572	719.324646	1278.749756	736.042786	2.988450
816.780457	719.398926	1277.040894	736.562927	3.077961
817.087341	722.222412	1274.217407	732.476135	1.857575
817.394043	723.262634	1283.876709	745.627747	3.989395
817.700806	728.463867	1301.486450	737.751709	1.620851
818.007507	725.714661	1312.706177	740.872375	2.582272
818.314209	725.343201	1322.662720	733.293518	1.330999
818.620667	722.519714	1322.959961	737.305847	2.462548
818.927246	724.005676	1335.739868	741.243958	2.817936
819.233704	725.714661	1350.674927	745.776367	3.210077
819.540161	722.148193	1381.436157	753.429504	4.744711
819.846497	714.049133	1418.290405	751.571960	5.328121
820.152832	706.395996	1472.382813	752.686523	6.043254
820.458984	712.414551	1534.945679	751.126160	4.706400
820.765259	719.993408	1598.251587	749.788757	3.392550
821.071350	722.073914	1686.300171	747.931152	2.681657
821.377502	715.386658	1843.450562	750.754700	3.135287
821.683472	714.346375	2149.652100	765.540955	3.566807
821.989441	724.302917	2670.811279	786.791504	3.210291
822.295349	729.206848	3390.953125	803.063782	2.774755
822.601196	726.531982	4195.577637	813.391907	2.503856
822.907043	720.364807	4861.329590	822.308289	2.461829
823.212769	718.730164	5260.409668	835.311218	2.566915
823.518494	725.937500	5311.455566	840.066589	2.488903
823.824097	722.148132	5085.352539	839.100586	2.680426
824.129700	714.346375	4702.544922	825.726074	2.792732
824.435242	710.185364	4325.532715	818.444519	2.994433
824.740723	714.272156	3991.468018	807.001892	2.829545
825.046082	722.073914	3680.734131	805.070007	2.805192
825.351501	719.844727	3351.572998	791.472595	2.721704
825.656799	718.804504	3037.123779	782.036133	2.727477
825.962036	717.169861	2759.380127	770.444885	2.608695
826.267212	722.816895	2545.388428	767.324219	2.442007
826.572449	720.216309	2433.191162	763.534851	2.528849
826.877502	727.943787	2439.952881	764.946472	2.161361
827.182495	720.439209	2545.759766	766.135315	2.503457
827.487488	728.018066	2683.888428	764.203430	1.850090
827.792419	719.993347	2787.986572	768.810242	2.360593
828.097290	727.275085	2820.531250	774.308655	2.246909
828.402100	726.606262	2763.169678	780.698730	2.656066
828.706848	726.086182	2629.721924	768.884583	2.248245
829.011597	720.216309	2459.940186	769.107422	2.810280
829.316223	715.163757	2284.883057	766.358215	3.261377
829.620789	717.987122	2132.265381	764.500671	3.288854
829.925354	722.668274	1994.805054	758.110657	2.786052
830.229797	722.668274	1872.874390	748.525574	2.248058
830.534302	718.061523	1757.853882	749.788757	3.051305
830.838562	717.615662	1640.604126	750.903320	3.606509
831.142944	714.866394	1533.682495	752.612244	4.609808
831.447144	718.655823	1454.698608	749.937317	4.249956
831.751404	723.114075	1405.138672	739.460632	2.396770
832.055542	729.058350	1376.309204	740.872375	1.825262
832.359619	729.727051	1351.046387	739.460632	1.566599
832.663635	726.977844	1359.516846	738.494812	1.820752
832.967651	725.937683	1400.680664	737.528809	1.717858
833.271545	723.559875	1477.212280	737.008789	1.784498
833.575439	720.216309	1582.796509	741.466980	2.463617
833.879211	717.467041	1702.869751	741.764099	2.465698
834.183044	721.330811	1836.911743	751.051941	2.664184
834.486694	723.559875	1926.372437	761.825867	3.181376
834.790344	728.315247	1960.922974	752.612305	1.971192
835.093933	720.810730	1931.796387	749.120056	2.337710
835.397522	716.649719	1878.818481	743.770203	2.333610
835.700928	712.637390	1804.070190	747.559631	3.199669
836.004395	718.581543	1737.049194	744.513245	2.546149
836.307739	721.627991	1668.616211	738.346191	1.765407
836.611023	722.073914	1614.449585	742.655701	2.306404
836.914307	720.736328	1539.626587	742.358459	2.640419
837.217529	726.903503	1463.689331	739.534973	1.714402
837.520691	729.949890	1395.776733	733.962219	0.602609
837.823730	729.355469	1332.470703	731.956055	0.431192
838.126831	719.101807	1281.721924	735.448303	2.905423
838.429749	716.649719	1232.384888	741.987000	4.912847
838.732727	720.142029	1209.871216	736.562805	3.353032
839.035522	721.479492	1189.437988	729.727051	1.762455
839.338379	719.250305	1181.487671	726.309082	1.527089
839.641113	715.683777	1185.574219	730.024231	3.051872
839.943848	721.850891	1207.345093	733.590820	2.418140
840.246460	725.640381	1238.923462	734.408142	1.708173
840.549072	725.491699	1259.653931	740.946777	2.893330
840.851563	716.426819	1268.570313	741.912781	4.615822
841.154053	713.231750	1260.471313	747.634033	6.286512
841.456482	723.708496	1244.570679	744.364685	3.965769
841.758850	728.686768	1226.217773	739.757874	2.225209
842.061157	731.956116	1207.790649	735.819824	0.811986
842.363403	719.621887	1186.614380	730.172852	2.259343
842.665588	720.364929	1164.026489	732.550537	2.746600
842.967712	721.330811	1145.450806	725.714661	1.033634
843.269775	726.829285	1130.070190	729.727051	0.718619
843.571777	731.435974	1109.191040	727.274963	-1.101510
843.873840	733.070618	1085.191284	736.488586	0.970681
844.175659	730.692932	1064.683716	731.956055	0.378191
844.477600	725.343201	1049.228638	728.835388	1.078217
844.779297	726.532043	1037.860474	716.724060	-3.150366
845.081116	728.166687	1025.823364	719.101746	-3.045435
845.382751	733.070618	1010.368408	724.823059	-2.974261
845.684387	725.789063	1005.018555	729.281250	1.250651
845.985962	719.324707	995.582092	733.367920	5.083380
846.287537	711.745789	993.501648	731.733215	7.093882
846.588989	714.569275	986.888733	734.036621	7.148716
846.890381	725.789001	986.368652	731.138733	2.053012
847.191711	732.550537	983.842285	734.705322	0.857483
847.493042	726.829285	982.281982	733.070740	2.443292
847.794250	727.349365	975.594727	733.888000	2.633940
848.095459	727.646545	973.365723	734.333801	2.721503
848.396606	733.813721	961.997314	732.030334	-0.781558
848.697693	728.166687	964.746582	727.572266	-0.251256
848.998657	722.668274	960.659973	731.881775	3.871354
849.299622	721.925293	962.666077	734.631042	5.277772
849.600464	717.541321	955.904480	735.151123	7.387804
849.901367	717.987122	957.316223	723.039795	2.111182
850.202087	719.547546	958.876648	721.256531	0.714073
850.502808	723.262695	960.882813	727.274963	1.688522
850.803467	723.782776	964.152039	727.200745	1.421966
851.104065	718.507324	967.049866	734.928223	6.606876
851.404663	723.114075	968.833191	726.903503	1.542179
851.705139	729.727051	960.585510	736.711426	3.025393
852.005615	733.665039	949.440125	730.767273	-1.342957
852.306030	723.262695	946.022217	730.321472	3.168788
852.606384	718.655945	939.632141	724.302917	2.555466
852.906616	713.751953	935.471191	723.262695	4.289543
853.206909	718.655945	935.396973	726.754883	3.736689
853.506958	714.643555	935.917053	722.593933	3.593010
853.807129	720.810730	940.746765	722.371094	0.709463
854.107178	726.383484	938.740540	721.627991	-2.239386
854.407166	722.073792	946.988098	725.417480	1.486650
854.707092	717.541321	943.867493	724.228577	2.954698
855.007019	710.408264	943.124512	726.457703	6.896570
855.306763	711.151367	945.353577	727.052185	6.789354
855.606567	709.516785	951.149170	725.045959	6.426777
855.906250	717.912903	945.799316	728.686829	4.727761
856.205933	721.107910	937.774658	734.705383	6.275754
856.505493	730.321472	930.270020	737.900391	3.790434
856.805054	729.281250	933.985168	735.819824	3.194162
857.104492	731.881836	932.722107	729.652649	-1.109930
857.403931	730.915833	938.740540	731.584656	0.321821
857.703308	731.064453	938.369080	726.160461	-2.365597
858.002563	730.841614	934.802490	723.337097	-3.679390
858.301819	727.572266	931.830383	724.823059	-1.345947
858.601013	719.621887	930.790222	729.132568	4.503839
858.900208	717.987244	945.353516	724.823059	3.006521
859.199219	717.392761	945.204895	717.095520	-0.130476
859.498291	716.352539	946.245117	715.089417	-0.549440
859.797302	720.216309	941.192566	727.126465	3.127104
860.096191	723.262695	934.579590	728.018066	2.250351
860.395020	725.491699	933.465088	729.206848	1.786358
860.693787	725.045898	925.440430	727.126465	1.038235
860.992554	721.850891	926.554932	733.144836	5.517207
861.291260	721.702332	916.969910	734.556641	6.582921
861.589844	724.451599	911.768738	735.076843	5.672329
861.888428	722.073792	912.214539	734.556641	6.565057
862.186890	723.931396	917.044189	739.386414	8.003103
862.485413	716.501160	920.907898	733.888000	8.506001
862.783813	712.637390	921.279480	731.064453	8.831902
863.082153	706.395996	922.988342	718.804504	5.728969
863.380371	704.166809	918.307312	720.290588	7.529533
863.678589	716.798340	914.443604	720.290710	1.766989
863.976746	725.566101	915.260986	722.816895	-1.449278
864.274902	733.367859	925.068909	726.383484	-3.643368
864.572937	728.984070	930.492981	724.674500	-2.138650
864.870911	727.349304	929.155518	728.538147	0.589101
865.168884	732.030457	931.236023	726.234802	-2.909384
865.466736	729.281250	931.384521	726.829285	-1.213224
865.764587	730.767273	936.511475	725.417480	-2.600215
866.062317	722.816895	940.375183	726.606262	1.741771
866.360107	727.646545	943.124451	729.132629	0.689669
866.657715	727.200684	938.517761	732.179016	2.355859
866.955322	730.544373	935.322693	723.559875	-3.410760
867.252808	725.566101	931.087402	715.386536	-4.953046
867.550293	721.628113	933.242188	712.637390	-4.248641
867.847717	720.216309	920.239197	716.278259	-1.968799
868.145081	717.838623	915.706726	722.519714	2.365763
868.442383	717.912903	918.753113	726.457703	4.254527
868.739624	714.272034	922.914124	730.841553	7.941599
869.036804	721.330872	934.505371	735.225403	6.517914
869.333984	724.823059	929.898621	725.417480	0.289855
869.631042	731.510254	931.236023	728.315247	-1.599697
869.928101	733.442139	921.873840	724.080017	-4.968443
870.224976	725.194519	927.149231	730.767273	2.759408
870.521851	723.262695	933.093567	726.606384	1.593516
870.818726	714.940735	940.598145	727.497986	5.564741
871.115479	720.513489	929.898621	724.600098	1.951719
871.412231	715.163757	931.904785	720.290588	2.365418
871.708862	716.649719	931.830383	723.114075	3.004153
872.005493	715.015076	938.443359	720.959290	2.660457
872.302063	717.987122	936.437195	731.064453	5.986417
872.598572	721.850891	937.625977	733.516541	5.406393
872.895020	725.640320	940.598145	740.946777	7.120679
873.191406	725.491760	944.090393	738.791931	6.084288
873.487671	719.250305	950.108948	729.949951	4.634717
873.783997	718.135925	961.625793	725.714661	3.112546
874.080200	719.696228	960.585632	732.476257	5.305351
874.376343	725.045959	960.659912	736.934387	5.045723
874.672424	718.655945	950.257507	733.516418	6.416396
874.968445	718.135803	940.598145	726.383362	3.707395
875.264465	709.591003	931.087402	725.343079	7.111662
875.560364	709.516785	933.242188	723.559875	6.276932
875.856201	717.244141	943.050110	721.033630	1.678206
876.152039	728.538147	950.480469	721.033630	-3.381291
876.447754	731.435974	947.285400	724.228577	-3.339086
876.743469	725.194519	949.885925	723.262695	-0.859767
877.039063	715.460938	943.124451	722.816833	3.231039
877.334595	720.959290	944.981995	725.863281	2.189060
877.630127	714.049133	943.347351	724.005676	4.342181
877.925537	718.210144	956.350342	724.302917	2.558482
878.221008	708.922302	962.740295	719.473206	4.156878
878.516296	709.293762	968.238708	714.123474	1.865150
878.811646	709.591003	972.473938	712.934570	1.271884
879.106812	716.724060	987.185974	715.758057	-0.357168
879.401978	722.148132	1004.870056	726.977783	1.708269
879.697083	725.640381	1016.461243	727.126465	0.510996
879.992126	724.451477	1036.374390	729.949951	1.762767
880.287109	728.018066	1075.680542	723.634277	-1.260932
880.582031	733.367859	1147.085449	731.361633	-0.484926
880.876892	734.333740	1265.895508	728.018066	-1.188136
881.171753	736.265625	1462.426147	733.219238	-0.419520
881.466492	731.138855	1772.193970	739.014893	0.756544
881.761230	730.692932	2149.874756	743.918762	0.931933
882.055786	728.240906	2521.834229	745.330566	0.952817
882.350403	720.141907	2771.268555	739.237732	0.930992
882.644958	720.513428	2876.406982	736.934387	0.761678
882.939453	713.528992	2836.060547	734.408142	0.983691
883.233826	717.615662	2727.801514	733.962341	0.813192
883.528137	709.665222	2578.601563	735.448303	1.379559
883.822449	708.476379	2450.652344	737.528809	1.667594
884.116577	709.293762	2329.761963	739.237793	1.847863
884.410828	714.569336	2210.654785	734.705322	1.345912
884.704956	720.513489	2058.854248	738.494690	1.343544
884.999023	723.262695	1881.567871	731.213074	0.686380
885.292969	721.925293	1695.959595	740.426575	1.899449
885.586914	721.182312	1534.871460	739.683594	2.273753
885.880798	724.451599	1404.321411	739.312073	2.185782
886.174622	728.018066	1314.638062	739.312012	1.925257
886.468384	726.086182	1255.270142	733.962219	1.488336
886.762085	717.615723	1217.450073	730.618652	2.601448
887.055664	716.352539	1175.617676	723.485596	1.553146
887.349304	716.946960	1134.082397	717.244141	0.071243
887.642822	713.974792	1091.655640	720.884949	1.829628
887.936340	710.705505	1072.336914	720.290527	2.650495
888.229736	708.625000	1062.900513	724.005676	4.341445
888.523071	712.488770	1054.801392	726.309082	4.037336
888.816284	718.210022	1041.501221	721.925293	1.149203
889.109619	728.018066	1020.473572	717.095520	-3.734772
889.402710	729.727051	1007.322021	720.810730	-3.211989
889.695862	734.185242	993.501709	718.210144	-6.160464
889.988892	727.498047	978.195374	721.330811	-2.460033
890.281921	723.114136	961.403015	716.872681	-2.619281
>>>>>End Processed Spectral Data<<<<<
