Jaz Data File
++++++++++++++++++++++++++++++++++++
Date: Fri Jun 04 17:07:22 2021
User: jaz
Dark Spectrum Present: Yes
Reference Spectrum Present: Yes
Processed Spectrum Present: Yes
Spectrometers: JAZA3586
Integration Time (usec): 120000 (JAZA3586)
Spectra Averaged: 10 (JAZA3586)
Boxcar Smoothing: 1 (JAZA3586)
Correct for Electrical Dark: No (JAZA3586)
Strobe/Lamp Enabled: Yes (JAZA3586)
Correct for Detector Non-linearity: No (JAZA3586)
Correct for Stray Light: No (JAZA3586)
Number of Pixels in Processed Spectrum: 2048
>>>>>Begin Processed Spectral Data<<<<<
W	D	R	S	P
191.335022	0.000000	0.000000	0.000000	0.000000
191.713211	229.818314	229.892624	225.360153	-5999.383789
192.091385	460.082428	468.552979	453.692383	-75.438370
192.469528	686.408508	696.142273	685.591125	-8.397396
192.847641	692.724304	707.659180	692.055481	-4.478265
193.225739	702.606506	714.197754	708.030579	46.794552
193.603790	719.547546	727.423584	721.405090	23.584753
193.981842	727.869446	730.915833	741.764099	456.102753
194.359863	736.340027	734.408020	742.061279	-296.130035
194.737854	738.791992	737.900208	743.695984	-549.907593
195.115829	739.163513	739.312012	734.259521	-3302.383789
195.493774	740.203796	734.631042	732.847717	132.000793
195.871704	741.615479	730.247131	732.773438	77.777718
196.249603	741.912659	727.200745	742.729980	-5.555510
196.627457	738.346191	728.166687	751.200500	-126.276375
197.005310	736.934387	731.658875	752.463684	-294.365631
197.383133	741.169678	738.346130	741.838379	-23.683016
197.760910	750.383118	746.445129	739.906555	266.038452
198.138687	758.556458	749.268738	739.163513	208.802002
198.516449	765.095154	740.203674	744.216064	83.880470
198.894180	755.064270	727.052185	732.996277	78.780258
199.271866	748.451355	730.544373	729.429871	106.223839
199.649536	735.819824	735.076843	726.309082	1280.078857
200.027191	733.144958	743.324524	739.312073	60.583275
200.404816	728.909668	743.547363	740.055115	76.142090
200.782410	730.544373	754.989929	739.237793	35.562374
201.159988	727.200684	768.513000	731.436035	10.252031
201.537537	725.566101	774.308594	734.928223	19.207310
201.915070	721.702332	775.051758	730.618652	16.713058
202.292557	726.606262	771.930969	729.504150	6.393617
202.670029	730.470032	773.194153	731.138733	1.565161
203.047485	734.259460	771.633789	733.293640	-2.584181
203.424911	728.389587	768.215820	732.476257	10.261251
203.802292	722.296692	763.163269	726.680664	10.727525
204.179688	716.872742	763.014648	728.315247	24.798510
204.557037	725.640381	759.819641	728.909668	9.565120
204.934357	727.052063	759.522461	726.086182	-2.974652
205.311661	731.658875	760.934143	732.624817	3.299517
205.688934	723.188416	759.225159	736.042725	35.670010
206.066177	728.389648	764.054871	738.420410	28.124769
206.443390	721.851013	758.184998	736.042725	39.059055
206.820587	725.045959	758.259277	731.435974	19.239315
207.197769	728.761169	754.915710	738.197510	36.079166
207.574921	732.773438	757.962097	731.733154	-4.129966
207.952042	733.219299	761.454285	732.847717	-1.316034
208.329147	719.101746	760.488342	729.429871	24.955240
208.706223	758.482178	803.212402	770.667908	27.242720
209.083267	762.717468	802.915222	766.135437	8.502885
209.460297	767.547119	795.782166	764.426453	-11.052458
209.837280	729.132629	745.702148	725.417480	-22.421585
210.214264	718.061523	745.553528	721.999512	14.324122
210.591217	714.792236	749.045715	716.129639	3.904428
210.968124	715.981018	758.630798	717.838562	4.355342
211.345016	722.519714	766.432556	730.395691	17.935474
211.721893	724.971680	778.469666	731.213074	11.666596
212.098724	721.627991	778.469543	728.092285	11.372480
212.475555	712.860168	778.692566	726.457703	20.654776
212.852356	708.922180	769.850403	729.355530	33.536755
213.229126	712.117188	770.965027	729.355530	29.293076
213.605865	719.621826	762.048645	720.885010	2.977323
213.982590	725.120300	768.364441	718.878845	-14.433065
214.359283	720.513489	757.590515	717.244141	-8.817719
214.735931	718.284424	757.218994	716.798340	-3.816875
215.112579	707.733459	751.274841	714.049133	14.504992
215.489197	701.343445	748.302734	711.894348	22.468191
215.865799	704.241211	744.216003	714.123474	24.721237
216.242355	718.284424	742.804260	710.482605	-31.818398
216.618896	730.767273	749.417297	709.888184	-111.952072
216.995407	727.423645	758.184998	704.241211	-75.362206
217.371902	721.702332	761.602844	707.584778	-35.381886
217.748367	724.005676	764.352051	715.015076	-22.283541
218.124802	723.039734	757.887695	719.324646	-10.660847
218.501236	722.593933	754.841309	719.770447	-8.755709
218.877609	714.197754	751.274841	714.346375	0.400842
219.253983	724.154297	754.767029	720.810730	-10.922145
219.630295	728.835449	757.590576	721.628113	-25.064526
220.006592	728.761047	758.927979	718.581604	-33.743717
220.382889	718.284363	751.126221	720.290588	6.108746
220.759140	717.169922	746.370850	729.132629	40.966873
221.135391	713.306152	746.965271	735.448425	65.783875
221.511581	715.906738	745.181946	723.188416	24.873188
221.887772	711.225586	747.931152	712.711731	4.048827
222.263931	717.764343	757.739197	720.810730	7.620758
222.640060	717.541321	772.599670	731.361633	25.101212
223.016159	724.748718	769.553223	735.894226	24.875864
223.392212	717.764343	758.556458	722.891113	12.568042
223.768265	719.324646	756.253113	723.039734	10.060227
224.144302	708.699402	757.293396	719.473206	22.171061
224.520294	707.807800	757.293396	722.445374	29.579462
224.896286	717.021301	761.528564	730.841553	31.051676
225.272217	722.965515	765.912415	730.172852	16.781971
225.648148	734.853943	771.336609	742.209900	20.162882
226.024048	723.634094	767.695801	733.367859	22.091211
226.399902	719.176025	770.370605	740.278015	41.219189
226.775772	702.235046	760.414063	729.429749	46.743145
227.151581	703.646790	756.401672	727.646545	45.492958
227.527374	703.721130	751.274841	722.593933	39.687340
227.903137	715.089355	760.636902	726.457703	24.959297
228.278870	718.433044	765.020813	730.990173	26.953703
228.654572	714.717957	763.609070	737.825989	47.264278
229.030273	711.002747	763.609070	729.949951	36.016972
229.405930	707.436279	760.636963	722.296875	27.933092
229.781555	708.402161	757.070374	715.386658	14.351251
230.157181	714.866516	755.807312	720.216309	13.067143
230.532761	711.597168	753.280945	719.398926	18.716534
230.908325	716.203918	762.568848	718.953125	5.929496
231.283859	715.089417	760.339783	724.971680	21.839079
231.659332	719.547546	759.671082	732.847717	33.148052
232.034821	715.535217	758.407898	737.380188	50.953125
232.410263	709.516663	755.732971	722.296692	27.652639
232.785690	702.978027	755.287109	713.826172	20.738548
233.161087	706.098816	748.377014	713.157471	16.695732
233.536469	708.773682	755.212891	721.033630	26.399994
233.911804	713.900574	747.411072	719.919006	17.959843
234.287140	713.751953	754.098328	720.364929	16.390509
234.662430	707.584778	751.943542	719.696106	27.303123
235.037704	703.795410	758.928040	723.262695	35.309917
235.412933	706.321594	760.339783	719.324707	24.071730
235.788162	715.906738	763.683411	717.392761	3.110353
236.163345	724.748779	773.416992	721.330811	-7.023000
236.538513	728.018066	774.977356	724.228699	-8.069474
236.913635	730.693054	774.531555	729.801453	-2.033832
237.288742	733.739441	767.844238	725.417480	-24.401144
237.663834	732.104736	759.373779	722.148132	-36.512482
238.038879	729.949951	753.058105	723.336975	-28.617500
238.413910	719.176025	747.039551	725.640381	23.200064
238.788910	711.522888	746.593750	728.315247	47.881226
239.163879	712.191589	752.017822	723.188293	27.611710
239.538834	713.603333	758.259277	718.432922	10.815110
239.913757	722.445374	761.157043	718.581604	-9.980891
240.288651	721.330872	759.150940	720.290527	-2.750773
240.663528	720.290527	765.243713	723.262695	6.611696
241.038361	713.900574	773.491394	717.095520	5.361474
241.413177	710.111084	772.005310	712.563171	3.961739
241.787979	708.402161	763.980652	716.649719	14.839479
242.162735	710.556946	760.339661	724.674500	28.358345
242.537476	710.854187	761.602844	731.361633	40.409832
242.912170	719.993408	775.125977	732.624817	22.910975
243.286865	717.838623	773.342712	736.414246	33.467125
243.661514	715.980957	770.965027	732.847717	30.675722
244.036148	715.609558	767.472717	732.030457	31.661970
244.410751	718.878723	774.457275	723.039856	7.486940
244.785339	723.931396	775.125977	726.160461	4.354104
245.159882	714.346375	765.838135	723.857117	18.470415
245.534378	718.581604	760.488342	725.045959	15.425575
245.908890	720.290527	768.661621	723.188293	5.990698
246.283356	720.290527	769.627625	725.194519	9.939765
246.657791	720.587830	765.243713	725.343079	10.648650
247.032196	718.061523	765.540955	724.822998	14.240850
247.406586	721.776672	764.797913	720.216309	-3.626961
247.780960	714.494934	769.627625	717.764343	5.930074
248.155289	714.494934	767.175598	721.107910	12.552947
248.529602	715.312317	774.011414	719.844727	7.721430
248.903870	719.770508	769.330383	724.080078	8.695684
249.278122	715.832336	759.671082	721.182312	12.203761
249.652344	715.535156	757.961975	722.742493	16.987690
250.026550	711.820068	763.906250	725.566101	26.390940
250.400711	717.764343	776.091980	726.903503	15.668662
250.774857	720.290588	769.999084	730.024231	19.581446
251.148987	727.795227	771.113586	727.126465	-1.543831
251.523071	722.222473	764.426331	725.640381	8.098567
251.897125	719.770447	771.039307	736.860107	33.333412
252.271164	710.705566	766.952637	733.516418	40.554737
252.645187	706.916077	769.330383	733.665039	42.857101
253.019165	703.126709	767.101318	717.987122	23.228611
253.393112	711.374268	776.091980	725.194519	21.354666
253.767044	715.980957	775.051758	723.634277	12.956182
254.140930	722.148132	772.376770	730.693054	17.012053
254.514801	718.878845	764.129211	727.943787	20.032858
254.888657	723.559875	768.958801	732.847717	20.458286
255.262466	722.296814	776.909241	721.107910	-2.176984
255.636276	726.606384	776.537781	722.371094	-8.482220
256.010010	723.782898	778.469543	716.501160	-13.315387
256.383759	728.686768	769.627502	725.417480	-7.985414
256.757446	720.216248	770.965027	719.250305	-1.903381
257.131134	718.432922	764.872070	716.501160	-4.159772
257.504791	709.591003	772.674011	719.250305	15.312050
257.878418	713.603271	777.503662	718.878845	8.255934
258.252014	725.714661	783.819397	723.857117	-3.196889
258.625580	725.491760	782.853516	720.587830	-8.549129
258.999115	723.485596	779.658508	719.398926	-7.275161
259.372650	713.677673	777.206482	718.061523	6.900570
259.746124	715.238037	782.927734	716.426819	1.756223
260.119598	717.095520	791.695496	719.398926	3.087676
260.493042	725.640320	802.766602	720.885071	-6.165536
260.866425	730.098450	797.342468	721.330811	-13.038542
261.239838	732.476257	796.525146	721.330872	-17.401373
261.613159	721.256531	789.986572	718.953125	-3.351381
261.986511	722.742493	800.240295	712.340149	-13.422760
262.359802	714.792175	795.930847	715.460876	0.824146
262.733063	716.575439	788.351868	714.792175	-2.484470
263.106293	708.625061	780.995911	717.838562	12.730956
263.479523	711.671387	783.968018	719.473206	10.791400
263.852692	704.984192	789.020569	723.559875	22.104336
264.225861	710.333984	791.918396	728.092346	21.766857
264.598969	716.129639	793.181458	725.343201	11.957618
264.972076	722.296875	792.215637	721.256531	-1.487933
265.345154	729.132629	795.262024	714.643555	-21.910189
265.718201	726.829285	792.958679	709.516663	-26.179918
266.091217	731.584534	803.286682	722.816895	-12.227861
266.464203	731.435974	801.875000	733.144958	2.426190
266.837158	730.395691	803.286804	739.163391	12.028490
267.210114	724.079895	792.958679	724.154297	0.108019
267.583038	712.934570	788.054626	720.662109	10.286919
267.955902	711.151367	792.066956	718.358704	8.907228
268.328766	718.135742	808.859375	721.999512	4.258835
268.701569	716.129578	813.243225	721.033630	5.049808
269.074371	711.522888	814.729309	720.290527	8.495246
269.447144	708.402161	802.543701	716.426819	8.524035
269.819885	715.460938	807.596375	717.838623	2.580642
270.192596	723.337097	802.915222	727.275085	4.948581
270.565277	723.262695	816.809814	743.101501	21.207287
270.937927	719.398926	818.147278	745.181946	26.109823
271.310577	717.615723	820.004883	742.358582	24.165506
271.683136	719.398926	820.970886	732.624817	13.021203
272.055725	724.154297	819.261902	727.349304	3.359360
272.428284	729.206848	829.812805	718.953125	-10.191964
272.800812	725.714661	824.463074	719.324646	-6.471005
273.173279	721.330811	831.670410	716.203918	-4.646466
273.545776	712.860291	826.989258	717.690002	4.231802
273.918152	711.448547	827.509460	721.628113	8.770882
274.290558	712.562988	822.308167	721.330811	7.989255
274.662964	713.231750	828.846863	717.764343	3.920415
275.035278	716.055359	826.394836	717.095520	0.942692
275.407593	712.488770	829.738464	727.126465	12.484207
275.779907	714.569275	833.082092	734.185242	16.551767
276.152161	708.847961	840.958191	727.052063	13.779479
276.524384	716.872620	842.147034	724.971619	6.465006
276.896606	717.244141	838.283386	727.349365	8.348718
277.268799	722.593994	847.273926	730.692871	6.495734
277.640930	717.615723	853.366699	725.937561	6.130224
278.013031	727.720886	857.750671	720.216248	-5.771477
278.385162	729.949951	852.177917	717.095520	-10.516768
278.757233	731.881836	851.211914	718.655945	-11.083451
279.129272	721.405090	852.475098	711.597168	-7.482965
279.501282	723.857117	851.583496	711.745850	-9.482197
279.873230	727.052063	845.713562	706.247375	-17.532804
280.245178	732.550537	854.184082	710.408386	-18.203983
280.617126	722.371094	863.546204	708.550781	-9.789482
280.988983	714.866455	879.967102	712.488770	-1.440143
281.360870	713.826233	889.254883	721.256531	4.235510
281.732697	711.077087	898.096924	723.039734	6.396459
282.104492	722.965515	902.852295	727.869385	2.726087
282.476288	723.782715	899.731628	715.832336	-4.518572
282.848053	736.488586	900.325989	716.946960	-11.927451
283.219757	731.213074	909.985413	708.699402	-12.593488
283.591461	733.070618	924.251465	722.148132	-5.713169
283.963135	728.835388	929.601257	711.299988	-8.734254
284.334747	730.767273	930.418640	719.176025	-5.805744
284.706360	724.600098	924.623047	713.751953	-5.423450
285.077942	727.943665	929.007019	727.646545	-0.147774
285.449524	722.519714	935.842773	723.559875	0.487599
285.821014	722.371094	932.573425	720.662109	-0.813019
286.192535	716.649719	941.638367	716.649719	0.000000
286.563995	718.210144	938.814880	723.634216	2.458729
286.935425	723.188293	948.251282	735.002441	5.249263
287.306824	726.383484	938.443359	739.014832	5.956501
287.678223	722.222473	938.963440	733.070618	5.005120
288.049561	720.885010	944.610535	725.194580	1.926276
288.420898	717.615662	948.399902	718.953125	0.579530
288.792145	722.891113	953.675476	718.507324	-1.899517
289.163452	722.965515	951.372070	713.083252	-4.326611
289.534668	725.491760	963.632019	712.117371	-5.616182
289.905914	719.324707	972.845520	712.711731	-2.608455
290.277039	727.943787	987.928955	721.702332	-2.400697
290.648193	739.089172	995.210632	730.767273	-3.249200
291.019318	737.677429	1002.195068	725.863281	-4.466299
291.390381	725.194580	1004.424133	722.445313	-0.984590
291.761475	713.157532	1006.430359	712.414490	-0.253362
292.132507	716.278259	1011.631531	715.015076	-0.427686
292.503510	713.900574	1015.198059	711.076965	-0.937150
292.874481	718.284363	1024.337280	729.652771	3.714524
293.245422	723.188416	1017.872986	733.813660	3.605633
293.616364	727.720886	1024.634644	739.014893	3.803800
293.987213	723.708496	1019.953430	729.206848	1.856016
294.358093	723.114075	1037.043091	728.240967	1.633137
294.728943	720.810730	1046.182251	729.578430	2.694674
295.099731	717.095520	1072.188354	724.823059	2.176203
295.470490	709.219482	1087.717529	727.943787	4.947001
295.841248	709.442383	1092.250122	726.680664	4.503117
296.211975	710.482605	1101.314941	734.779602	6.216732
296.582642	720.959290	1111.420044	737.974670	4.357770
296.953308	722.148132	1133.710938	731.807556	2.347011
297.323883	723.188416	1133.413696	726.606384	0.833193
297.694519	718.358704	1148.274170	718.730225	0.086417
298.065063	714.494934	1153.698242	725.937561	2.605314
298.435608	717.764343	1157.710693	725.120300	1.672012
298.806122	718.061523	1144.782104	728.612488	2.472570
299.176575	726.309082	1126.503540	723.931458	-0.594117
299.547028	723.262695	1113.277710	722.148132	-0.285774
299.917450	715.089355	1100.274780	714.346375	-0.192889
300.287872	709.219543	1100.274780	713.008972	0.969026
300.658234	713.454773	1107.704956	717.764343	1.093105
301.028564	720.439209	1107.184814	723.337097	0.749301
301.398865	724.228577	1106.887573	727.943787	0.970893
301.769135	722.222473	1100.720459	730.321472	2.139773
302.139374	726.606384	1109.042358	735.522644	2.331439
302.509583	724.154358	1119.370483	736.860046	3.214871
302.879791	721.702332	1125.166138	731.213074	2.357273
303.249939	713.974854	1123.680054	726.829163	3.137453
303.620087	711.448547	1116.769897	726.011902	3.593039
303.990173	717.912903	1117.364258	729.875671	2.994800
304.360260	724.005676	1121.079468	733.665039	2.432637
304.730286	726.011902	1127.618164	738.569031	3.126726
305.100281	714.717834	1132.522095	744.290344	7.078078
305.470276	710.705566	1134.379517	744.587463	7.997163
305.840179	710.705566	1140.398071	743.398682	7.608491
306.210144	713.677551	1148.125610	734.556641	4.805889
306.579987	717.838562	1160.014038	728.018066	2.302141
306.949890	713.157532	1164.472168	721.479431	1.843924
307.319702	718.358704	1171.308105	725.343079	1.541977
307.689484	717.169861	1182.899292	730.618652	2.887683
308.059265	725.045959	1204.447144	738.048889	2.712327
308.429016	722.593933	1220.348022	734.779602	2.448130
308.798737	721.776672	1239.592285	729.652771	1.521024
309.168396	720.364929	1248.434204	725.343262	0.942742
309.538055	718.358704	1267.158569	718.433044	0.013546
309.907684	719.844727	1272.359741	722.668274	0.511035
310.277313	714.494934	1280.904419	717.244141	0.485374
310.646851	719.621887	1293.164551	724.971680	0.932763
311.016388	713.974854	1309.808350	727.720886	2.307026
311.385895	717.838562	1319.839233	733.888000	2.666017
311.755371	714.717834	1317.015747	731.733154	2.825067
312.124817	720.067627	1321.473877	729.355530	1.544364
312.494232	720.885010	1326.823730	733.070618	2.011030
312.863617	719.250305	1321.251099	733.367859	2.345105
313.232971	724.600098	1317.461670	731.510315	1.165570
313.602295	726.234802	1308.099487	728.018066	0.306474
313.971619	724.154297	1312.483276	729.355469	0.884058
314.340820	721.627991	1308.025024	724.154358	0.430829
314.710083	721.850891	1326.154907	727.943787	1.008250
315.079285	722.222412	1347.479858	724.971680	0.439702
315.448486	725.566101	1369.696289	736.860107	1.753373
315.817596	716.649719	1372.817017	731.510254	2.264748
316.186707	720.439148	1360.408569	738.717590	2.856143
316.555786	706.841797	1348.445801	739.163391	5.037623
316.924866	712.042969	1333.139526	740.352356	4.557969
317.293884	709.962463	1328.978516	738.866272	4.669315
317.662872	716.575439	1323.182983	727.423645	1.788340
318.031830	714.569336	1328.532593	727.869446	2.166271
318.400757	719.101746	1335.071411	731.361633	1.990340
318.769684	719.027344	1350.303345	737.231628	2.883728
319.138550	720.513428	1358.996704	739.163391	2.920979
319.507416	716.426819	1368.878906	734.259460	2.733173
319.876190	710.259705	1362.191650	731.807434	3.305212
320.244995	711.597168	1369.399048	738.346130	4.066416
320.613770	716.946960	1364.643677	739.460693	3.475968
320.982483	727.349304	1370.959473	739.312073	1.858698
321.351166	723.782776	1366.798462	724.600159	0.127117
321.719818	719.473328	1366.872681	725.120300	0.872255
322.088440	714.123474	1370.513672	720.810608	1.018774
322.457062	716.426819	1381.287598	725.640381	1.385788
322.825623	717.244141	1389.237915	733.962219	2.487832
323.194183	714.643555	1404.692993	738.791992	3.499523
323.562653	708.922302	1416.358398	735.745422	3.791596
323.931183	708.773682	1445.559448	727.274963	2.511080
324.299591	714.569336	1478.178223	727.052063	1.634702
324.668060	718.581726	1511.020142	724.525818	0.750101
325.036407	712.414490	1551.589355	719.993347	0.903132
325.404755	708.625000	1563.255005	723.485596	1.738834
325.773102	708.104919	1568.679077	725.417480	2.011745
326.141388	715.980957	1568.158813	724.525879	1.002716
326.509674	716.352539	1562.957642	720.290588	0.465158
326.877899	719.621887	1569.942261	724.823059	0.611672
327.246124	717.021301	1567.638672	734.259460	2.026547
327.614288	720.810730	1576.629395	742.507080	2.535157
327.982422	717.541321	1584.802734	741.095276	2.715900
328.350525	715.460938	1585.991577	740.426575	2.867864
328.718628	708.104980	1591.712891	736.265686	3.187014
329.086700	709.739563	1582.202148	736.265686	3.040374
329.454712	703.944031	1583.167969	727.052063	2.628231
329.822693	707.584778	1595.948120	720.513489	1.455340
330.190674	705.207092	1618.907715	727.943787	2.488418
330.558563	713.603333	1642.535767	736.265686	2.439613
330.926483	713.826172	1648.480103	734.853943	2.249792
331.294312	719.770508	1646.994141	724.377258	0.496833
331.662231	726.309082	1653.532715	726.086182	-0.024040
332.029999	722.816895	1672.405762	734.185120	1.197173
332.397766	724.302917	1703.910156	740.649475	1.668685
332.765503	718.433044	1737.197632	736.265625	1.750412
333.133240	714.494934	1766.547241	733.367859	1.793915
333.500916	710.185364	1796.268188	729.504089	1.778753
333.868561	710.185364	1808.231079	730.321472	1.833813
334.236176	714.346375	1803.252808	730.767273	1.508017
334.603790	705.429993	1800.057739	730.024231	2.246813
334.971344	696.439453	1795.971191	724.154297	2.520604
335.338867	695.919250	1801.469604	722.222473	2.379197
335.706360	707.436218	1796.714233	723.931396	1.514322
336.073853	719.250305	1806.076294	725.268860	0.553774
336.441284	724.005676	1819.748047	726.457703	0.223778
336.808655	716.501160	1825.989380	727.126465	0.957676
337.176086	711.745789	1811.351685	728.018066	1.479828
337.543396	708.922302	1769.890991	730.024231	1.988930
337.910706	716.055359	1744.702148	736.785828	2.015315
338.277954	711.225647	1752.206665	739.609314	2.726627
338.645264	708.922180	1823.240234	737.751709	2.587190
339.012421	710.482605	1903.635742	727.795166	1.450992
339.379669	714.940735	1971.548462	732.327637	1.383638
339.746796	721.702332	2014.792480	732.179016	0.810205
340.113953	719.176025	2035.820190	736.488586	1.314901
340.481018	716.055359	2041.987305	728.835388	0.963853
340.848114	711.225586	2034.111328	733.516541	1.685025
341.215118	712.414551	2032.773926	736.637207	1.834550
341.582153	713.380432	2045.851196	736.562927	1.739813
341.949066	712.488770	2055.510498	736.934387	1.820195
342.316010	708.030579	2070.742676	729.504150	1.575797
342.682922	711.448547	2076.686768	731.733154	1.485792
343.049835	714.123474	2112.649170	726.606262	0.892568
343.416656	722.668213	2147.348633	732.847717	0.714511
343.783478	722.222473	2193.267822	724.897278	0.181830
344.150269	727.943787	2226.481201	721.925293	-0.401625
344.516998	722.668274	2272.251465	718.804504	-0.249343
344.883728	729.504150	2316.015625	734.333801	0.304420
345.250427	721.107910	2354.801758	735.299744	0.868696
345.617065	722.816833	2369.364990	735.671204	0.780686
345.983704	714.792175	2363.941162	729.578430	0.896599
346.350281	710.111084	2358.814209	735.002502	1.509758
346.716827	710.408203	2339.569824	733.590820	1.422978
347.083405	707.064636	2339.421143	737.825989	1.884475
347.449860	728.538269	2336.003174	750.085938	1.340475
347.816376	724.080078	2347.148682	747.485352	1.442038
348.182770	730.990173	2339.198242	740.872375	0.614485
348.549194	718.804504	2327.012451	728.240967	0.586769
348.915558	726.531982	2333.476807	739.757996	0.823053
349.281921	727.869446	2333.774170	740.946777	0.814328
349.648193	725.417480	2360.523193	739.312195	0.849775
350.014526	718.878845	2379.395752	733.070740	0.854667
350.380737	715.237976	2425.612305	734.110901	1.103438
350.746948	720.885010	2459.568604	744.884766	1.380341
351.113159	721.628113	2489.215576	746.296570	1.395600
351.479309	718.284424	2502.664307	744.736145	1.482404
351.845428	706.916016	2507.494141	732.922058	1.444316
352.211517	713.603333	2528.224365	722.371094	0.483173
352.577576	712.117249	2552.744141	714.123474	0.108997
352.943604	713.900574	2591.901611	719.101807	0.276956
353.309601	706.767517	2626.006836	727.349365	1.072396
353.675537	710.482666	2678.464600	737.974609	1.396961
354.041473	710.854187	2735.231689	730.692932	0.979992
354.407379	713.008972	2789.472900	731.956055	0.912469
354.773254	713.677673	2842.004883	719.250305	0.261832
355.139038	718.210144	2883.911377	724.897400	0.308780
355.504913	722.965515	2945.731445	727.572266	0.207253
355.870636	717.690002	3000.864014	740.055176	0.979565
356.236389	719.101746	3061.420654	733.665039	0.621747
356.602081	717.244141	3132.305420	734.036621	0.695323
356.967804	725.491760	3216.416016	715.312317	-0.408661
357.333405	724.525879	3306.619873	716.946960	-0.293518
357.699036	717.689941	3371.411865	712.488770	-0.195995
358.064606	714.717834	3452.253174	724.823059	0.369136
358.430176	706.990417	3503.967529	726.829163	0.709292
358.795654	710.779785	3555.608154	723.782776	0.457075
359.161163	710.259705	3564.004639	722.519714	0.429611
359.526581	713.900574	3563.260986	719.621887	0.200793
359.892029	717.541321	3581.317139	726.234863	0.303569
360.257416	720.290527	3622.480469	719.101746	-0.040962
360.622772	721.033630	3739.878906	720.216309	-0.027074
360.988098	717.987122	3859.283203	713.454773	-0.144283
361.353394	714.643616	4005.733643	725.268860	0.322849
361.718658	724.971680	4135.243652	731.584656	0.193913
362.083893	721.925293	4246.177246	728.835449	0.196074
362.449097	727.646545	4339.130371	722.816895	-0.133730
362.814209	719.993408	4355.328125	725.640381	0.155336
363.179382	716.129578	4294.103027	733.367859	0.481789
363.544434	711.597168	4138.810059	740.575195	0.845527
363.909546	708.104980	3942.725342	732.699158	0.760342
364.274536	707.882080	3782.825928	729.727051	0.710419
364.639587	702.978027	3654.579346	727.497986	0.830734
365.004517	706.395996	3606.505127	726.903564	0.707131
365.369507	705.207214	3575.446533	728.240967	0.802503
365.734344	708.922302	3576.561523	734.705322	0.899103
366.099274	711.820068	3574.481201	744.216003	1.131672
366.464081	716.055359	3571.806396	744.067383	0.980899
366.828918	718.358704	3575.892822	740.575195	0.777471
367.193665	710.111084	3588.375732	730.321350	0.702168
367.558411	715.238037	3597.514893	735.448303	0.701191
367.923126	713.529053	3601.898682	733.070618	0.676560
368.287781	725.045959	3595.582764	740.129395	0.525457
368.652435	719.398926	3590.456055	738.271912	0.657353
369.017059	722.965515	3582.357178	742.655762	0.688617
369.381653	719.621887	3577.601563	744.290344	0.863143
369.746185	719.250305	3561.849609	743.472961	0.852130
370.110687	711.374268	3562.666992	742.507080	1.091884
370.475220	703.795410	3567.645264	738.866211	1.224603
370.839661	710.482666	3613.044189	743.175781	1.126354
371.204041	711.002747	3675.458740	741.689758	1.035165
371.568451	714.272034	3733.340088	736.339905	0.730950
371.932770	711.374207	3775.618408	731.807434	0.666828
372.297150	713.231750	3786.837891	731.436035	0.592278
372.661377	717.764343	3806.156982	727.869446	0.327196
373.025696	713.380432	3831.642578	722.816895	0.302619
373.389862	717.690002	3850.515625	719.919128	0.071154
373.754059	716.575439	3860.175049	724.823059	0.262362
374.118225	718.507324	3882.317139	726.309082	0.246594
374.482361	713.677551	3906.242432	735.151123	0.672612
374.846436	712.785950	3954.464844	739.014893	0.809116
375.210510	706.916016	4002.093018	738.717712	0.965098
375.574524	709.145203	4094.080078	738.123230	0.856088
375.938538	706.098816	4173.509766	727.646545	0.621436
376.302460	713.008972	4258.140625	732.624817	0.553318
376.666412	720.067688	4345.892090	727.423645	0.202877
377.030304	719.770508	4441.667969	737.083008	0.465153
377.394196	719.547546	4543.834473	726.457703	0.180691
377.757996	719.844727	4610.706543	727.349365	0.192879
378.121796	724.451477	4661.084473	726.234863	0.045302
378.485565	721.256531	4664.279297	727.572266	0.160175
378.849304	713.900574	4633.740723	723.782898	0.252110
379.212982	712.414551	4571.177734	725.120300	0.329270
379.576630	718.953186	4488.924805	733.442200	0.384327
379.940277	717.095642	4406.819824	743.770264	0.722944
380.303864	719.101746	4361.272949	750.234558	0.854787
380.667450	715.758118	4348.863770	748.822815	0.910095
381.030945	719.101746	4373.606934	751.943542	0.898666
381.394501	720.810730	4406.373535	750.308838	0.800369
381.757935	729.504089	4431.488770	756.624512	0.732591
382.121399	732.922058	4442.039551	748.228333	0.412666
382.484741	729.875671	4457.940918	741.838379	0.320882
382.848145	725.120300	4497.246582	741.095276	0.423501
383.211487	716.055359	4538.707520	736.711426	0.540360
383.574768	719.101746	4594.583496	734.110840	0.387283
383.938019	721.256531	4655.362793	726.457703	0.132207
384.301270	728.240967	4732.785645	737.231628	0.224511
384.664459	718.210144	4788.142090	741.689697	0.576903
385.027649	714.792175	4835.249512	743.398682	0.694256
385.390778	708.996582	4867.794434	731.956055	0.552070
385.753876	719.696106	4902.121582	734.259460	0.348204
386.116943	716.426819	4921.218262	733.888000	0.415269
386.479980	720.959290	4944.846191	741.095398	0.476720
386.842987	712.042969	4980.511719	739.609314	0.645813
387.205994	717.021240	5023.532715	745.404846	0.659086
387.568909	716.426819	5070.269043	744.438965	0.643389
387.931793	719.027405	5103.259277	751.200500	0.733837
388.294678	712.637390	5149.327148	744.736145	0.723484
388.657471	715.163757	5178.824707	751.646301	0.817323
389.020294	722.816895	5195.023438	760.265442	0.837362
389.383057	730.024231	5209.363770	769.776123	0.887450
389.745819	723.114075	5229.573730	776.834900	1.192085
390.108521	717.095520	5250.453125	785.379700	1.506261
390.471191	705.281433	5288.273438	793.850281	1.932555
390.833801	715.312317	5364.359863	787.534485	1.553483
391.196442	710.928406	5474.253418	783.299316	1.519336
391.558960	717.392761	5571.589844	790.209473	1.500077
391.921509	712.117371	5690.102051	797.565430	1.716519
392.284027	716.798340	5802.670410	802.246399	1.680106
392.646484	718.953125	5888.787598	810.716980	1.774986
393.008911	721.479431	5902.904785	831.150208	2.116614
393.371307	717.392761	5904.316895	854.704163	2.647261
393.733673	713.008972	5889.308594	867.855713	2.991456
394.096008	708.550781	5866.051270	880.041321	3.325071
394.458344	718.655945	5853.642578	893.267273	3.400424
394.820587	719.398987	5875.115723	914.740784	3.788839
395.182831	724.451477	5910.707031	930.938782	3.981433
395.545013	712.414490	5902.459473	944.610535	4.473874
395.907196	714.271973	5874.818848	962.220215	4.804689
396.269287	710.482605	5834.175781	981.093079	5.281551
396.631409	717.244202	5773.693359	1001.526367	5.622170
396.993469	717.689941	5700.950684	1027.012207	6.207226
397.355530	717.541321	5643.737793	1052.646606	6.802516
397.717499	717.318420	5634.449707	1076.126343	7.297099
398.079468	719.398987	5616.914551	1097.971313	7.729885
398.441376	718.284424	5627.539551	1120.484985	8.192700
398.803284	713.826233	5629.025879	1136.311523	8.595486
399.165131	704.389832	5662.907715	1160.385620	9.196211
399.526978	706.618896	5658.449219	1188.323608	9.727812
399.888763	713.157532	5685.718750	1223.765747	10.268516
400.250519	713.380371	5698.424316	1246.130981	10.686979
400.612244	711.522888	5735.427246	1274.514648	11.206260
400.973938	707.882019	5731.488770	1301.932251	11.825173
401.335602	714.272034	5740.182129	1331.058960	12.272144
401.697205	718.284485	5767.376953	1363.306274	12.775005
402.058807	715.906738	5818.645996	1395.182129	13.311975
402.420349	719.547607	5888.341797	1436.568848	13.872119
402.781860	716.203918	5955.140137	1478.475586	14.550123
403.143341	720.216309	6031.151855	1522.908569	15.113953
403.504822	720.810730	6139.634277	1563.403442	15.549366
403.866241	718.730225	6273.081543	1604.418579	15.945847
404.227631	714.792175	6397.687012	1646.919922	16.402340
404.588959	708.699402	6538.045410	1701.829468	17.036732
404.950287	711.225647	6646.527344	1740.541138	17.342260
405.311554	708.699402	6729.894531	1774.943359	17.708176
405.672821	703.944031	6768.086426	1805.184570	18.159872
406.034027	701.714844	6772.395996	1832.973999	18.634798
406.395203	702.458008	6747.429688	1847.165649	18.936525
406.756348	709.739563	6707.975098	1842.930298	18.892067
407.117493	710.333984	6669.857910	1860.094238	19.292820
407.478516	717.912903	6670.006348	1891.970093	19.725113
407.839600	718.953125	6679.591797	1918.645020	20.126902
408.200592	719.547546	6698.241699	1947.846069	20.544596
408.561554	715.535217	6709.164063	1961.666138	20.790924
408.922485	719.844727	6702.923340	1990.421265	21.236166
409.283417	718.284363	6705.746582	2012.266235	21.611525
409.644257	722.148132	6752.929199	2056.625000	22.127760
410.005096	718.284424	6833.695801	2089.986816	22.430256
410.365906	717.541443	6911.119141	2106.853516	22.431494
410.726715	711.968689	6998.424316	2124.240479	22.465309
411.087433	708.476379	7070.869629	2150.617920	22.666655
411.448120	711.745789	7143.983887	2190.741455	22.993483
411.808807	712.117249	7160.330078	2224.326172	23.451599
412.169434	713.974792	7133.507324	2230.864990	23.629292
412.530029	719.027405	7114.411621	2246.096924	23.877684
412.890564	719.324707	7116.491699	2251.298096	23.947685
413.251099	720.364929	7153.717285	2290.752686	24.410099
413.611572	717.987244	7191.537109	2300.560791	24.446764
413.972076	726.680664	7230.769531	2325.600830	24.583307
414.332489	724.748779	7259.673340	2341.204346	24.735641
414.692871	724.377258	7348.910645	2376.572510	24.940554
415.053223	710.928406	7440.005859	2411.049072	25.265284
415.413574	710.854187	7607.484375	2449.166260	25.205236
415.773834	707.807800	7715.445801	2499.023438	25.560904
416.134094	716.872620	7844.138184	2534.465820	25.501972
416.494263	717.467102	7919.257813	2569.908203	25.721952
416.854462	720.959290	8098.326660	2621.994385	25.768476
417.214630	721.702332	8296.046875	2690.724609	25.995941
417.574738	718.730225	8534.485352	2755.219482	26.056208
417.934784	722.965515	8746.098633	2832.048096	26.287518
418.294861	720.364807	8980.079102	2904.567627	26.444050
418.654846	727.869446	9246.528320	2997.891846	26.647650
419.014832	726.606262	9552.878906	3082.076904	26.687038
419.374756	726.457703	9887.463867	3173.989502	26.716845
419.734680	726.457703	10241.739258	3274.966797	26.783329
420.094543	720.067688	10582.714844	3372.080322	26.889460
420.454376	717.392761	10901.769531	3471.200195	27.039528
420.814148	712.191589	11229.370117	3562.295166	27.099506
421.173920	714.866516	11599.174805	3645.662842	26.926804
421.533691	719.250305	11943.196289	3724.944092	26.779297
421.893341	710.111084	12236.989258	3803.407471	26.835508
422.253021	704.241211	12446.225586	3865.747314	26.924803
422.612640	701.269104	12561.840820	3905.499268	27.015818
422.972260	707.956360	12570.905273	3911.369385	27.003513
423.331757	706.321716	12523.945313	3922.143555	27.212084
423.691315	714.792175	12524.094727	3953.721924	27.426933
424.050781	724.228577	12599.883789	3999.195313	27.577147
424.410248	727.275085	12638.372070	4008.260498	27.545620
424.769653	715.981018	12699.746094	4008.037354	27.470970
425.128998	711.002747	12749.901367	4005.882568	27.368616
425.488373	717.912903	12747.226563	4012.346924	27.386717
425.847656	728.315247	12663.635742	3998.155273	27.396334
426.206940	734.036621	12549.284180	3965.313477	27.348362
426.566193	735.299744	12366.276367	3912.632813	27.317852
426.925385	726.309082	12150.796875	3857.500000	27.407713
427.284576	719.919006	11821.710938	3775.618408	27.524380
427.643677	709.516602	11623.694336	3716.770752	27.553648
428.002777	716.129639	11403.832031	3678.504639	27.717604
428.361847	713.306152	11186.050781	3648.783936	28.029690
428.720856	714.643555	10937.805664	3600.784180	28.231388
429.079865	711.671387	10778.426758	3555.088135	28.245611
429.438812	713.454773	10680.421875	3517.713867	28.135530
429.797760	722.965515	10604.632813	3512.289795	28.227264
430.156616	720.216309	10479.804688	3488.512695	28.364891
430.515503	716.872620	10393.018555	3483.460205	28.591835
430.874268	715.089355	10357.056641	3474.617920	28.619976
431.233093	717.095520	10401.266602	3474.023438	28.468395
431.591827	718.210144	10461.823242	3483.311279	28.378601
431.950562	714.866516	10494.145508	3489.998779	28.377678
432.309204	707.956360	10523.420898	3516.227539	28.610680
432.667877	706.470215	10595.493164	3546.692139	28.720955
433.026459	700.971863	10707.616211	3581.688477	28.788036
433.385010	712.785950	10826.649414	3619.360107	28.738516
433.743561	712.860352	10941.817383	3659.409180	28.805956
434.102051	717.318420	11065.754883	3705.476807	28.875458
434.460510	716.724060	11202.472656	3729.328125	28.730461
434.818939	719.027344	11298.916992	3738.467041	28.539425
435.177338	716.278259	11341.567383	3754.367920	28.593006
435.535675	716.798340	11352.340820	3782.528564	28.825329
435.894012	711.522888	11318.757813	3790.405029	29.026245
436.252289	716.055359	11338.745117	3796.274658	28.996605
436.610535	706.395996	11322.472656	3781.042725	28.962177
436.968719	719.621826	11427.461914	3818.342773	28.938805
437.326935	719.176025	11507.485352	3850.813232	29.028063
437.685028	725.045898	11600.140625	3885.735352	29.063559
438.043152	718.507324	11664.932617	3900.966797	29.073046
438.401215	715.460938	11825.054688	3948.297852	29.099506
438.759277	715.832458	12000.558594	3995.628906	29.064032
439.117249	717.838623	12296.803711	4089.547607	29.119261
439.475250	722.371094	12504.850586	4155.602051	29.138441
439.833130	714.866455	12797.453125	4242.908203	29.199390
440.191071	714.197754	12995.395508	4299.972656	29.197275
440.548889	708.922302	13228.930664	4360.752441	29.167952
440.906708	715.312317	13456.296875	4432.306152	29.173523
441.264496	714.717957	13653.645508	4478.670898	29.090145
441.622223	723.336975	13831.452148	4515.079102	28.926678
441.979950	724.748718	13937.926758	4534.174805	28.830505
442.337616	718.210022	14000.862305	4565.159180	28.962206
442.695251	718.953125	13931.983398	4556.168457	29.041145
443.052887	713.826233	13806.932617	4544.577637	29.257774
443.410461	719.250305	13684.554688	4513.444336	29.264212
443.768005	707.659119	13583.502930	4502.150879	29.469849
444.125458	709.219482	13503.553711	4479.711426	29.470013
444.482941	713.008972	13487.429688	4487.290039	29.545614
444.840393	726.234863	13532.828125	4514.930664	29.583946
445.197754	731.584656	13727.206055	4579.351074	29.608175
445.555084	724.525879	13923.809570	4629.951172	29.588161
445.912415	716.649719	14221.391602	4712.278809	29.586861
446.269714	706.470215	14429.067383	4774.470215	29.644533
446.626953	707.436218	14668.026367	4860.810059	29.750706
446.984161	707.584778	14931.502930	4933.626465	29.710812
447.341309	715.758118	15143.042969	4992.102539	29.640673
447.698456	726.606262	15368.924805	5052.584473	29.544352
448.055542	719.101746	15474.583008	5082.231934	29.569555
448.412598	719.696106	15530.903320	5104.597168	29.605291
448.769653	711.002686	15442.781250	5071.383301	29.598469
449.126617	715.163635	15251.897461	5021.452148	29.623495
449.483582	720.810730	15078.696289	4981.477539	29.674751
449.840515	720.439148	14827.331055	4936.004395	29.883020
450.197388	724.971619	14690.613281	4902.716309	29.914448
450.554230	720.810608	14526.403320	4857.094238	29.960928
450.911041	720.141907	14434.789063	4843.794434	30.067505
451.267822	720.810730	14322.592773	4831.757324	30.223589
451.624573	718.507324	14221.465820	4817.342285	30.355087
451.981262	722.073792	14139.807617	4788.587402	30.307009
452.337921	725.789001	14008.663086	4751.064941	30.304255
452.694580	724.897278	13916.899414	4726.916016	30.336706
453.051147	723.188416	13910.881836	4730.036621	30.383238
453.407715	722.296692	13885.023438	4736.055176	30.493368
453.764221	732.847717	13982.804688	4768.079590	30.454679
454.120728	734.110901	13850.472656	4728.996582	30.457272
454.477142	732.847717	13859.834961	4716.811035	30.349411
454.833557	719.473328	13706.176758	4686.867188	30.549662
455.189911	717.095520	13602.598633	4670.743652	30.682917
455.546265	709.962463	13405.250977	4626.236328	30.848248
455.902557	710.111145	13280.273438	4600.230469	30.947248
456.258820	711.374207	13285.401367	4608.032715	30.989740
456.615051	712.637390	13368.321289	4629.505371	30.949478
456.971252	720.439209	13369.659180	4635.152344	30.948257
457.327393	717.764343	13481.039063	4664.056152	30.919117
457.683502	724.600098	13650.674805	4744.525879	31.099356
458.039612	723.559875	13995.437500	4860.363770	31.169693
458.395630	729.132629	14336.413086	4993.588379	31.339514
458.751648	724.897278	14651.679688	5084.906250	31.306648
459.107605	716.798340	15113.694336	5227.418945	31.330507
459.463562	716.278137	15583.657227	5356.334473	31.209644
459.819458	717.318420	16059.121094	5485.101074	31.077070
460.175323	714.643555	16490.892578	5586.821777	30.882996
460.531158	712.191589	16941.169922	5719.303223	30.852907
460.886932	707.584778	17254.875000	5825.110840	30.926668
461.242676	713.008972	17491.603516	5904.019531	30.938295
461.598419	713.900574	17470.724609	5900.899902	30.954550
461.954102	714.346375	17313.130859	5856.243652	30.977552
462.309723	712.563049	16884.847656	5727.104980	31.007011
462.665344	709.293762	16388.357422	5591.354004	31.137447
463.020905	718.507324	15981.178711	5479.677246	31.194866
463.376373	728.538269	15618.135742	5380.260254	31.241423
463.731873	735.596985	15345.592773	5302.093750	31.255974
464.087341	728.686768	15084.418945	5224.744629	31.318901
464.442749	728.315247	14968.358398	5214.193359	31.501856
464.798126	727.349304	14849.995117	5191.308105	31.608519
465.153503	730.915833	14889.002930	5227.791016	31.761883
465.508820	721.107849	14883.207031	5225.115723	31.803249
465.864105	722.371094	14995.032227	5254.540039	31.754196
466.219330	715.089355	15188.070313	5304.173828	31.707943
466.574524	711.002747	15354.805664	5363.689941	31.772396
466.929657	706.395996	15500.514648	5410.575684	31.797632
467.284790	720.290527	15632.698242	5453.002441	31.736738
467.639893	730.915833	15831.309570	5501.447754	31.592102
467.994934	725.417480	16075.245117	5571.960938	31.573927
468.349945	713.751953	16213.077148	5620.257813	31.656254
468.704926	716.575439	16264.346680	5653.173828	31.751165
469.059875	722.742493	16134.167969	5639.576660	31.903822
469.414764	729.206848	15961.116211	5603.168457	31.998362
469.769653	722.965515	15811.023438	5566.388184	32.101036
470.124451	723.559875	15728.995117	5534.214844	32.059414
470.479248	708.699402	15605.726563	5480.568848	32.032360
470.834015	700.377441	15492.786133	5445.126465	32.075569
471.188721	699.931641	15530.680664	5465.708496	32.134430
471.543365	711.894348	15587.596680	5511.255371	32.263088
471.898010	722.371033	15709.825195	5531.911621	32.090443
472.252625	728.835266	15817.713867	5572.630371	32.101753
472.607178	732.253235	16022.043945	5627.390625	32.015724
472.961700	728.835388	16192.272461	5700.876465	32.153530
473.316193	731.287415	16396.900391	5784.169434	32.254604
473.670654	729.281250	16576.789063	5839.450684	32.245888
474.025055	736.191345	16826.369141	5925.642090	32.252289
474.379456	725.343201	17046.677734	5982.929199	32.212967
474.733795	723.708496	17212.597656	6057.306152	32.346619
475.088104	721.182190	17339.580078	6101.219238	32.373981
475.442383	724.080078	17354.589844	6126.928223	32.487568
475.796570	727.869446	17448.730469	6152.339844	32.441334
476.150787	731.584656	17552.085938	6188.524902	32.442196
476.504944	735.894226	17716.220703	6226.196777	32.333317
476.859070	736.934387	17886.224609	6287.347656	32.365261
477.213135	735.374023	18069.306641	6352.734375	32.406727
477.567200	722.445313	18411.396484	6444.646484	32.349014
477.921173	711.894348	18778.080078	6546.960938	32.298275
478.275146	703.275208	19240.169922	6652.099609	32.091805
478.629089	710.854187	19547.263672	6780.718262	32.224102
478.983002	718.655945	19922.267578	6914.982910	32.266468
479.336823	718.730164	20216.656250	7057.644531	32.510712
479.690643	720.810730	20566.845703	7145.989746	32.375126
480.044403	720.364929	20941.851563	7274.979004	32.414108
480.398163	729.206848	21520.818359	7452.637207	32.337227
480.751862	724.005676	22252.921875	7720.944824	32.500191
481.105499	719.398926	23140.541016	8029.300781	32.602718
481.459137	719.027405	24271.130859	8418.499023	32.691227
481.812744	722.891113	25659.625000	8926.209961	32.896523
482.166290	728.612488	27348.080078	9512.606445	32.998386
482.519806	724.897278	29367.255859	10234.753906	33.202072
482.873291	724.377258	31705.341797	10996.729492	33.156982
483.226715	724.822998	34387.449219	11860.571289	33.080452
483.580139	723.262695	37057.144531	12703.610352	32.972935
483.933502	719.993347	39977.246094	13580.010742	32.758324
484.286804	727.275085	42839.312500	14464.286133	32.620152
484.640106	725.343079	45620.015625	15317.729492	32.503605
484.993347	723.485535	47723.156250	16034.527344	32.576912
485.346558	707.584778	48929.683594	16514.078125	32.778526
485.699738	706.916016	49084.972656	16680.589844	33.018429
486.052887	706.767395	48293.871094	16516.380859	33.222473
486.405975	710.631165	46882.863281	16103.034180	33.336929
486.759064	714.049133	45068.386719	15509.578125	33.357571
487.112061	730.098572	43296.121094	14903.639648	33.297779
487.464996	727.275085	41899.453125	14333.440430	33.046986
487.817963	721.479492	41166.160156	14017.801758	32.875332
488.170868	702.086426	40982.484375	13858.125000	32.661144
488.523743	705.429993	41161.851563	13874.545898	32.551361
488.876587	708.773682	41324.277344	13874.695313	32.416000
489.229401	715.312317	41310.082031	13895.872070	32.468616
489.582153	711.002747	40843.683594	13846.386719	32.729897
489.934845	712.265930	40112.917969	13711.378906	32.992126
490.287537	713.008850	39195.722656	13486.092773	33.191742
490.640198	718.507324	38341.910156	13237.179688	33.273632
490.992798	714.272034	37521.687500	12940.933594	33.217930
491.345337	704.241211	37024.453125	12765.726563	33.208744
491.697876	701.937805	36823.312500	12614.965820	32.980549
492.050354	711.225586	37062.566406	12670.323242	32.898643
492.402832	721.479431	37355.691406	12696.774414	32.688831
492.755219	727.720886	37559.578125	12756.663086	32.659073
493.107605	723.782776	37448.421875	12687.561523	32.576977
493.459930	727.126465	36953.269531	12538.956055	32.605816
493.812225	721.256531	35934.730469	12220.122070	32.654732
494.164490	715.163757	34496.527344	11807.667969	32.836163
494.516724	705.207214	32786.671875	11276.702148	32.952034
494.868896	707.510559	31028.296875	10745.881836	33.107224
495.221039	712.488770	29513.931641	10267.373047	33.175022
495.573120	720.662109	28248.187500	9875.946289	33.258652
495.925201	734.853943	27552.193359	9640.852539	33.209854
496.277222	737.900330	27067.587891	9441.275391	33.055367
496.629211	736.934387	26927.306641	9395.653320	33.060692
496.981140	713.008972	26779.517578	9345.127930	33.115749
497.333069	717.689941	26864.890625	9366.750000	33.078342
497.684967	724.377197	26923.591797	9363.109375	32.973248
498.036804	730.247070	27043.367188	9387.702148	32.901665
498.388580	717.987122	27032.218750	9404.644531	33.011250
498.740326	711.151367	26997.818359	9404.346680	33.070740
499.092072	714.643555	26801.658203	9333.090820	33.037308
499.443756	717.764343	26573.031250	9261.463867	33.044327
499.795410	713.900574	26276.638672	9203.729492	33.211735
500.147003	711.522888	26052.466797	9136.559570	33.246738
500.498566	716.575439	25720.333984	9060.473633	33.370579
500.850098	720.142029	25409.896484	8948.648438	33.327618
501.201599	722.668274	25101.093750	8863.051758	33.391750
501.553009	714.197754	24851.958984	8784.141602	33.432858
501.904449	714.494934	24669.617188	8685.988281	33.276779
502.255859	719.324646	24497.828125	8645.864258	33.334896
502.607178	725.937561	24435.041016	8632.118164	33.346603
502.958405	726.011902	24329.312500	8635.758789	33.511192
503.309692	719.621887	24229.820313	8601.431641	33.525066
503.660919	713.751953	24186.873047	8585.233398	33.534019
504.012115	713.826233	24188.431641	8584.788086	33.529686
504.363251	712.191589	24262.587891	8604.924805	33.514229
504.714294	718.507324	24321.806641	8618.075195	33.468067
505.065369	718.135742	24390.833984	8641.554688	33.470703
505.416443	727.200745	24454.289063	8675.511719	33.498890
505.767395	729.727051	24530.748047	8689.034180	33.441032
506.118317	722.296692	24532.974609	8690.817383	33.466164
506.469238	713.306152	24578.671875	8704.564453	33.484753
506.820160	708.327820	24557.271484	8723.065430	33.606258
507.170929	720.736389	24604.898438	8748.252930	33.610207
507.521729	727.126465	24616.568359	8766.308594	33.651611
507.872498	728.463867	24709.669922	8796.996094	33.645229
508.223236	722.816895	24875.806641	8865.354492	33.712337
508.573883	718.655945	25031.546875	8893.367188	33.622952
508.924500	720.216309	25186.095703	8925.168945	33.536312
509.275116	721.627991	25287.593750	8952.585938	33.505535
509.625702	723.857117	25526.476563	9031.941406	33.496799
509.976196	714.792175	25758.820313	9117.686523	33.552490
510.326660	715.609558	26026.087891	9217.327148	33.589714
510.677124	714.643555	26258.656250	9326.551758	33.714001
511.027557	732.402039	26482.083984	9409.622070	33.698357
511.377869	728.909668	26710.937500	9496.184570	33.743614
511.728180	729.058289	26833.462891	9528.729492	33.709526
512.078430	722.073792	26955.318359	9579.849609	33.765461
512.428650	723.931396	27047.677734	9589.583984	33.679295
512.778931	728.240967	27163.068359	9635.206055	33.694054
513.129028	721.256531	27206.833984	9666.041992	33.772285
513.479126	713.306152	27283.958984	9697.768555	33.813484
513.829285	705.281494	27295.476563	9693.458008	33.802597
514.179382	708.550781	27308.626953	9708.393555	33.833897
514.529297	717.244141	27276.751953	9719.242188	33.893692
514.879272	720.959290	27306.398438	9760.703125	34.002613
515.229187	722.593933	27204.380859	9718.573242	33.970440
515.579163	723.411316	27211.216797	9734.250000	34.018822
515.928955	724.228699	27226.671875	9737.148438	34.007881
516.278748	725.863281	27430.335938	9805.804688	34.001575
516.628540	728.835449	27629.095703	9881.073242	34.022861
516.978333	732.179016	27993.921875	10001.370117	34.000729
517.327942	728.984070	28433.646484	10139.125977	33.965912
517.677612	724.154297	28965.281250	10302.442383	33.916096
518.027222	721.925293	29419.568359	10458.924805	33.929615
518.376831	721.479492	30026.173828	10652.707031	33.889545
518.726379	719.547546	30598.751953	10812.977539	33.780785
519.075867	712.711670	31072.060547	10972.356445	33.794018
519.425293	709.665283	31522.853516	11148.156250	33.876701
519.774658	713.900452	31871.259766	11262.286133	33.855198
520.124084	720.439148	32157.623047	11346.397461	33.800606
520.473389	724.823059	32137.857422	11338.149414	33.786377
520.822693	723.262695	31971.642578	11301.593750	33.852417
521.171997	722.148132	31658.755859	11209.308594	33.898869
521.521240	719.101746	31316.962891	11101.941406	33.933220
521.870361	718.730225	30860.447266	10986.028320	34.063416
522.219482	714.197754	30531.656250	10858.451172	34.021187
522.568604	716.278137	30211.931641	10761.411133	34.056316
522.917664	714.643555	30045.943359	10704.570313	34.058929
523.266724	716.129578	30007.380859	10718.167969	34.146843
523.615662	714.717834	30135.255859	10772.260742	34.185452
523.964600	709.516602	30464.041016	10891.812500	34.221001
524.313538	712.340149	30863.494141	11052.379883	34.294010
524.662354	712.042969	31427.748047	11231.079102	34.246441
525.011169	726.531982	32110.068359	11449.676758	34.168056
525.359985	727.869446	32947.609375	11748.078125	34.203281
525.708740	724.080078	33925.511719	12113.276367	34.303329
526.057434	722.742676	35071.777344	12506.039063	34.304592
526.406067	724.005798	36418.214844	12968.722656	34.304489
526.754700	727.349304	37873.136719	13516.407227	34.429359
527.103333	724.971680	39587.597656	14194.791992	34.660088
527.451782	720.439209	41453.933594	14910.847656	34.837196
527.800293	722.445374	43406.980469	15607.583008	34.872437
528.148743	717.095520	45348.957031	16292.729492	34.898014
528.497131	715.460938	47227.625000	16919.992188	34.839340
528.845642	718.730225	48994.613281	17560.406250	34.886314
529.193909	721.256531	50521.761719	18090.037109	34.876717
529.542175	721.553711	51758.160156	18587.048828	35.005260
529.890503	720.736389	52567.464844	18920.966797	35.103916
530.238770	718.507324	52871.660156	19124.333984	35.291878
530.586914	723.262695	52737.324219	19116.457031	35.361965
530.934998	724.228699	52029.957031	18898.822266	35.424103
531.283142	726.532043	50914.230469	18468.312500	35.350857
531.631226	727.497864	49142.109375	17838.597656	35.342842
531.979248	723.336914	47148.421875	17041.701172	35.149883
532.327148	718.804504	45087.707031	16237.223633	34.975891
532.675110	712.265930	43406.906250	15574.667969	34.810932
533.023071	708.773682	42296.300781	15167.710938	34.767487
533.370850	712.191589	41753.449219	14948.295898	34.687302
533.718689	710.928406	41764.144531	14881.125977	34.516655
534.066467	713.157532	42032.378906	14903.120117	34.342278
534.414246	713.454773	42280.476563	14958.846680	34.270897
534.761963	715.163635	42492.832031	15022.597656	34.246605
535.109619	715.683838	42556.585938	15071.562500	34.310635
535.457153	718.581604	42291.250000	15017.247070	34.394390
535.804749	720.662109	41665.625000	14826.588867	34.450947
536.152344	719.621826	40842.199219	14548.621094	34.466877
536.499817	713.677551	39892.757813	14263.596680	34.584576
536.847229	712.563049	38922.660156	13925.444336	34.579552
537.194641	712.488770	38019.589844	13618.351563	34.593582
537.542114	720.364929	37388.906250	13319.803711	34.360348
537.889404	718.507324	36870.945313	13150.765625	34.388435
538.236694	720.364929	36469.933594	12984.549805	34.305824
538.583984	715.163757	36193.230469	12928.301758	34.424473
538.931213	716.501160	36103.621094	12904.450195	34.441765
539.278381	716.203918	35997.140625	12922.877930	34.598495
539.625488	716.872620	35928.781250	12915.223633	34.642685
539.972595	716.872620	35981.687500	12974.666992	34.759274
540.319641	718.433044	36286.480469	13099.644531	34.809929
540.666687	720.587708	36854.519531	13300.708008	34.815250
541.013611	725.863220	37734.414063	13565.448242	34.693562
541.360596	726.977844	38782.378906	13868.453125	34.532482
541.707458	723.931458	40076.437500	14236.104492	34.336243
542.054260	724.674500	41293.957031	14588.594727	34.173443
542.401062	713.900574	42513.488281	14971.403320	34.109196
542.747864	718.358704	43351.476563	15309.406250	34.224678
543.094666	713.306152	43804.644531	15503.487305	34.322865
543.441284	724.674500	43765.417969	15513.666992	34.360447
543.787903	720.810730	43305.558594	15352.354492	34.358650
544.134460	717.764221	42400.921875	15064.432617	34.418381
544.481079	724.228699	41146.246094	14697.969727	34.569630
544.827637	730.024231	39654.621094	14213.144531	34.639072
545.174072	732.253357	38064.316406	13665.459961	34.643700
545.520508	717.838562	36657.394531	13164.213867	34.631413
545.866943	704.018250	35460.972656	12716.018555	34.559990
546.213318	711.968750	34546.457031	12410.858398	34.576820
546.559631	717.244141	33745.324219	12096.929688	34.454578
546.905823	724.377197	33065.750000	11859.011719	34.428455
547.252136	721.256531	32524.458984	11654.902344	34.379070
547.598389	723.262695	32072.250000	11477.764648	34.305740
547.944458	719.919128	31692.708984	11371.958008	34.391605
548.290588	725.714661	31299.500000	11202.174805	34.266151
548.636658	728.166687	30846.552734	11060.925781	34.307144
548.982727	735.374023	30329.107422	10865.733398	34.231434
549.328735	725.045959	29772.208984	10716.235352	34.396439
549.674622	725.343201	29126.146484	10490.281250	34.382614
550.020569	725.343201	28487.884766	10275.545898	34.399601
550.366455	721.999573	27758.679688	10008.577148	34.348068
550.712280	715.906738	27119.228516	9821.928711	34.488167
551.058044	715.609558	26539.224609	9626.586914	34.507088
551.403748	724.228577	26106.929688	9476.643555	34.481812
551.749512	726.383301	25763.578125	9350.997070	34.447201
552.095154	723.634094	25500.916016	9250.986328	34.416016
552.440735	722.296692	25368.212891	9212.274414	34.447807
552.786316	720.662109	25329.423828	9168.733398	34.329525
553.131897	722.891174	25362.267578	9170.071289	34.283253
553.477417	719.844788	25388.646484	9155.135742	34.194168
553.822815	724.600098	25389.166016	9160.411133	34.202145
554.168213	724.080078	25361.599609	9149.636719	34.198071
554.513672	723.262695	25296.140625	9136.931641	34.239655
554.859009	715.089355	25214.626953	9102.678711	34.235706
555.204285	720.662109	25138.021484	9063.297852	34.166821
555.549500	724.525879	24990.009766	9033.353516	34.241344
555.894714	722.296692	24772.974609	8976.139648	34.318546
556.239990	710.556885	24452.281250	8921.305664	34.583626
556.585022	702.680847	24206.490234	8831.175781	34.583736
556.930115	706.618835	23968.718750	8763.412109	34.634850
557.275146	709.442383	23723.818359	8643.784180	34.475590
557.620178	707.807800	23499.427734	8556.850586	34.438286
557.965149	705.504395	23314.412109	8476.528320	34.371513
558.310059	703.349548	23207.490234	8428.677734	34.328476
558.654968	711.076965	23053.087891	8392.641602	34.381706
558.999756	711.076965	22917.931641	8354.078125	34.417305
559.344604	709.516663	22840.953125	8327.551758	34.421783
559.689331	710.705566	22779.208984	8288.690430	34.338463
560.033997	712.265869	22735.742188	8262.833008	34.284176
560.378723	719.473328	22697.994141	8272.714844	34.366470
560.723389	718.210144	22719.095703	8258.821289	34.274128
561.067932	718.655945	22712.412109	8281.038086	34.384224
561.412476	721.033630	22693.015625	8269.967773	34.357090
561.757019	722.965515	22686.478516	8292.109375	34.462357
562.101501	722.519592	22727.716797	8285.124023	34.367355
562.445862	723.485535	22747.181641	8288.393555	34.348949
562.790222	716.575439	22759.740234	8282.895508	34.325020
563.134644	716.649719	22760.705078	8277.249023	34.297680
563.478943	708.253601	22774.601563	8282.301758	34.323978
563.823181	717.467102	22761.599609	8297.086914	34.383842
564.167358	723.559875	22783.666016	8300.876953	34.348507
564.511536	727.423584	22809.968750	8336.394531	34.456947
564.855774	725.714600	22804.470703	8336.542969	34.471272
565.199768	720.959290	22864.728516	8351.848633	34.460659
565.543823	716.724060	22969.718750	8328.145508	34.204033
565.887817	712.265869	23166.474609	8384.096680	34.166561
566.231812	715.609558	23345.396484	8445.469727	34.157902
566.575745	710.482605	23544.156250	8510.856445	34.161713
566.919617	704.018311	23737.861328	8551.053711	34.067413
567.263428	697.554016	23935.208984	8597.196289	33.995007
567.607239	704.538391	24105.140625	8655.375000	33.977058
567.950989	714.792175	24210.873047	8683.610352	33.915524
568.294678	724.302917	24245.869141	8718.086914	33.984913
568.638367	724.748779	24190.068359	8725.368164	34.095505
568.981995	723.857117	24066.056641	8715.634766	34.237469
569.325623	723.931458	23938.107422	8656.489258	34.171181
569.669128	724.005676	23769.365234	8589.022461	34.128418
570.012573	721.479431	23629.453125	8535.970703	34.112537
570.356140	718.210144	23518.966797	8515.834961	34.198975
570.699524	718.730225	23457.515625	8487.228516	34.164085
571.042908	717.541321	23513.541016	8495.178711	34.118431
571.386230	715.015137	23564.212891	8482.026367	33.992489
571.729492	715.386536	23709.031250	8513.828125	33.915638
572.072815	713.306152	23846.046875	8564.651367	33.940403
572.416016	711.225647	23978.083984	8630.781250	34.037926
572.759094	716.872742	24119.181641	8685.096680	34.048882
573.102234	716.426819	24194.005859	8681.827148	33.927692
573.445374	724.228699	24239.406250	8681.604492	33.839317
573.788391	721.330872	24265.560547	8680.934570	33.807022
574.131409	728.389587	24305.833984	8705.083008	33.831882
574.474365	725.194580	24319.281250	8696.092773	33.783459
574.817261	726.829285	24206.119141	8693.343750	33.929966
575.160156	725.194519	24058.849609	8609.381836	33.788910
575.502930	719.176086	23837.576172	8546.000977	33.855389
575.845703	716.129639	23644.759766	8445.990234	33.712700
576.188477	718.655945	23373.478516	8409.804688	33.949280
576.531250	726.531982	23154.212891	8329.260742	33.898861
576.873901	724.377258	22906.859375	8246.041992	33.908127
577.216431	724.377258	22711.818359	8155.095703	33.795284
577.559082	718.878906	22495.521484	8082.278809	33.813293
577.901611	713.231750	22252.328125	7999.505371	33.828129
578.244080	703.721008	21997.320313	7903.580566	33.812317
578.586487	703.795410	21710.140625	7818.503906	33.869331
578.928955	750.977600	21566.587891	7874.082520	34.220016
579.271301	755.287170	21221.898438	7772.436035	34.285835
579.613647	757.293274	20829.060547	7632.003906	34.250648
579.955872	713.900574	20368.753906	7366.966309	33.849480
580.298157	716.501160	20097.326172	7259.895996	33.762211
580.640320	717.541443	19890.169922	7197.333496	33.797096
580.982483	716.649719	19665.402344	7130.386230	33.847805
581.324524	717.021301	19486.705078	7065.593750	33.823544
581.666626	718.433105	19350.582031	6998.646973	33.706333
582.008728	720.364929	19234.892578	6951.167969	33.653591
582.350647	722.668274	19065.484375	6911.936035	33.742188
582.692566	726.086243	18980.630859	6874.487793	33.681484
583.034424	727.052185	18874.525391	6837.410645	33.670574
583.376343	713.677673	18836.408203	6800.259277	33.585346
583.718201	705.727234	18800.519531	6794.166504	33.647469
584.059937	709.442383	18725.101563	6778.339844	33.686790
584.401611	716.872620	18656.966797	6747.132813	33.613316
584.743347	726.383301	18545.365234	6713.027832	33.597004
585.085022	718.135742	18471.136719	6684.049316	33.605103
585.426514	719.101746	18391.931641	6658.267090	33.606194
585.768127	706.916077	18303.806641	6633.078125	33.677326
586.109619	709.962585	18241.763672	6598.527344	33.587906
586.451172	712.711731	18169.615234	6570.589844	33.556225
586.792542	720.290527	18141.974609	6524.968262	33.318695
587.133850	725.566101	18088.328125	6506.095215	33.292683
587.475220	722.816833	18065.220703	6510.850098	33.375034
587.816589	722.371094	18042.853516	6520.063965	33.473045
588.157776	732.104736	18112.328125	6523.704590	33.322929
588.498962	734.928223	18151.041016	6526.751465	33.255543
588.840210	731.658875	18195.250000	6548.150391	33.306389
589.181335	729.949951	18225.638672	6556.843750	33.304737
589.522400	727.646545	18284.857422	6577.351074	33.317959
589.863403	727.349365	18342.369141	6561.599121	33.120884
590.204407	720.290527	18355.373047	6562.119141	33.126179
590.545410	720.885010	18385.240234	6561.673340	33.065392
590.886353	730.618652	18388.361328	6586.787598	33.164879
591.227112	725.714661	18395.125000	6590.874512	33.193863
591.567932	720.736389	18339.025391	6574.230469	33.223965
591.908752	708.104980	18278.841797	6540.050781	33.191242
592.249512	711.745789	18265.912109	6542.800293	33.217499
592.590149	719.547546	18237.306641	6515.159668	33.084209
592.930786	724.005676	18163.966797	6499.853516	33.118465
593.271423	712.265808	18016.923828	6445.389160	33.130520
593.612000	705.652893	17905.990234	6427.408203	33.265366
593.952576	711.448547	17877.978516	6422.503906	33.268547
594.292969	718.210144	17887.636719	6427.259277	33.251255
594.633484	716.203918	17931.251953	6430.008301	33.190754
594.973877	707.362000	17988.539063	6452.225098	33.243469
595.314209	715.089417	18114.335938	6493.240723	33.209206
595.654480	719.770508	18282.259766	6541.685547	33.149715
595.994812	720.142029	18439.408203	6590.279785	33.128559
596.335022	713.454773	18631.109375	6628.471191	33.012226
596.675171	715.535217	18798.513672	6688.285156	33.029682
597.015320	719.101807	18986.869141	6734.056152	32.926598
597.355408	726.160461	19077.224609	6761.844238	32.890102
597.695496	724.302917	19174.929688	6773.361816	32.785114
598.035461	719.919128	19216.689453	6748.024902	32.590046
598.375366	710.854065	19253.767578	6750.699707	32.572258
598.715271	705.281433	19244.998047	6745.869629	32.581879
599.055176	718.507324	19116.677734	6744.234863	32.751778
599.395081	721.553711	18955.218750	6701.213379	32.794613
599.734802	730.321472	18682.007813	6631.294922	32.871418
600.074524	719.621826	18420.982422	6529.351563	32.820805
600.414246	720.439209	18041.369141	6409.649902	32.845875
600.753906	725.343201	17676.541016	6288.685059	32.819756
601.093506	728.166687	17308.373047	6164.821777	32.790031
601.433044	732.922058	17063.025391	6075.807129	32.718014
601.772583	725.714661	16902.384766	6020.452637	32.730701
602.112122	732.030334	16836.998047	6009.158203	32.767082
602.451538	727.869446	16833.951172	6004.551270	32.762043
602.790894	727.275085	16883.212891	6003.511230	32.658188
603.130310	717.912903	16992.958984	6031.894531	32.651100
603.469604	719.696106	17147.505859	6066.743652	32.548752
603.808838	727.572266	17346.341797	6118.531738	32.438980
604.148010	725.417480	17590.648438	6164.896484	32.252621
604.487305	719.027405	17824.554688	6242.542969	32.290825
604.826416	712.488770	18035.498047	6303.842285	32.277031
605.165527	715.089417	18248.673828	6381.786621	32.319103
605.504456	714.049255	18466.232422	6429.414551	32.195282
605.843445	711.002747	18640.919922	6462.553223	32.077950
606.182434	710.408386	18717.896484	6459.656250	31.926985
606.521423	723.485596	18665.958984	6455.792480	31.948254
606.860229	727.497864	18554.578125	6437.216309	32.028343
607.199036	729.727051	18369.935547	6412.324707	32.213890
607.537903	719.696106	18194.283203	6338.987793	32.156933
607.876648	718.953125	17919.662109	6265.502441	32.246052
608.215271	723.411316	17624.679688	6155.386719	32.139458
608.553955	728.463867	17313.128906	6072.092285	32.220299
608.892578	735.596924	17037.687500	5974.013184	32.133400
609.231140	730.321472	16876.376953	5921.703613	32.152634
609.569641	726.680664	16753.333984	5886.558594	32.195606
609.908081	718.135742	16774.509766	5874.967285	32.117035
610.246521	721.999512	16771.462891	5857.729004	31.999386
610.584961	717.392822	16808.687500	5842.571777	31.850630
610.923340	708.773682	16797.244141	5824.292969	31.796183
611.261597	702.457947	16773.990234	5799.921875	31.717348
611.599854	703.721008	16707.560547	5801.779297	31.855219
611.938110	709.591003	16648.119141	5791.971191	31.887388
612.276245	721.628113	16500.181641	5752.367676	31.883402
612.614319	723.485596	16288.196289	5666.919434	31.760523
612.952393	728.240967	15962.453125	5565.942871	31.755512
613.290466	715.015076	15658.183594	5480.568359	31.891182
613.628479	712.785950	15355.176758	5391.330566	31.952053
613.966370	711.299988	15091.848633	5318.217285	32.035755
614.304260	716.203918	14847.094727	5237.673340	31.997057
614.642151	718.433044	14607.840820	5158.466309	31.967043
614.979980	718.655945	14435.831055	5088.473145	31.856541
615.317749	717.169861	14226.073242	5018.703125	31.842209
615.655396	726.977783	14133.121094	4978.950684	31.716599
615.993164	718.358704	14046.334961	4953.093750	31.773277
616.330811	724.377197	14047.969727	4951.830566	31.729078
616.668396	714.123474	14017.133789	4947.595215	31.823410
617.005859	723.485596	13989.567383	4918.914551	31.625229
617.343445	717.541321	13956.948242	4887.187012	31.494202
617.680908	720.439209	13937.333008	4865.416016	31.361200
618.018311	729.652771	13967.871094	4872.920898	31.297775
618.355652	735.894226	14018.397461	4898.480957	31.338875
618.692993	742.358459	14059.559570	4899.893066	31.219282
619.030273	733.293640	14047.820313	4887.410156	31.199883
619.367554	727.126465	14041.729492	4873.069336	31.138313
619.704712	724.525879	14017.135742	4873.440918	31.212194
620.041870	720.290527	14009.778320	4885.478027	31.341970
620.379028	719.696106	13986.893555	4893.577148	31.460155
620.716064	715.535156	13932.206055	4877.453613	31.489916
621.053040	715.906738	13886.659180	4862.370605	31.482363
621.389954	716.724060	13795.339844	4829.230957	31.444510
621.726929	713.751953	13719.551758	4798.766602	31.409176
622.063843	715.535156	13649.335938	4752.550293	31.212906
622.400635	716.278259	13607.875000	4734.643555	31.170424
622.737427	716.872620	13586.996094	4728.848145	31.172783
623.074219	725.640381	13506.153320	4698.681152	31.086708
623.410889	725.343201	13462.092773	4672.824219	30.992844
623.747559	730.098572	13440.618164	4640.130859	30.762175
624.084167	723.262695	13408.148438	4639.238770	30.871197
624.420715	720.216309	13389.348633	4630.322754	30.863253
624.757324	716.501160	13384.965820	4633.814941	30.921772
625.093750	721.256531	13433.858398	4652.539063	30.924295
625.430176	721.925232	13455.256836	4657.443359	30.907213
625.766602	730.692932	13461.424805	4668.068359	30.928116
626.102905	723.411316	13539.070313	4671.634766	30.807806
626.439209	726.977783	13622.363281	4679.511230	30.650757
626.775452	719.398926	13741.543945	4698.458496	30.556101
627.111694	722.148132	13822.164063	4712.427246	30.460110
627.447876	717.764343	13880.937500	4730.779785	30.486687
627.783997	723.931396	13934.063477	4746.012207	30.446939
628.120056	720.810730	13984.664063	4757.528809	30.433975
628.456055	732.699158	14017.729492	4769.194824	30.383789
628.792053	722.668274	14023.598633	4764.438965	30.387127
629.128052	726.977844	13976.045898	4746.532227	30.338392
629.463928	722.073914	13917.495117	4713.987793	30.252266
629.799744	724.228577	13799.129883	4672.080566	30.194124
630.135559	718.581726	13672.147461	4637.083984	30.250376
630.471375	710.779846	13542.636719	4581.951660	30.168447
630.807068	717.541321	13394.997070	4544.057129	30.183626
631.142700	721.776611	13265.413086	4501.407715	30.131861
631.478333	721.553711	13098.678711	4468.417480	30.272490
631.813965	715.312256	12954.308594	4426.510254	30.322733
632.149475	706.395996	12813.430664	4378.361816	30.329191
632.484924	716.575439	12713.270508	4362.164063	30.388273
632.820435	709.591003	12661.778320	4334.375000	30.327368
633.155884	718.953125	12587.921875	4318.623047	30.328413
633.491150	717.318420	12522.979492	4293.880371	30.295313
633.826477	724.674500	12457.742188	4258.883301	30.121780
634.161804	719.547546	12391.166992	4234.437988	30.114849
634.497009	713.306152	12338.858398	4196.320313	29.959988
634.832153	710.259705	12238.921875	4161.026855	29.932070
635.167297	713.751953	12179.776367	4119.640137	29.704178
635.502380	708.327820	12093.213867	4089.101563	29.695280
635.837463	705.058533	12017.350586	4061.906982	29.674343
636.172424	704.464172	11912.805664	4033.894531	29.704933
636.507324	701.640625	11821.191406	4004.768311	29.705585
636.842224	710.036804	11721.476563	3986.935547	29.759041
637.177124	712.637390	11621.762695	3957.139893	29.741179
637.511963	718.804504	11531.411133	3921.251953	29.617720
637.846741	707.882019	11434.891602	3876.224609	29.536121
638.181396	699.040039	11298.398438	3833.946045	29.576376
638.516113	706.395935	11182.484375	3810.094727	29.626503
638.850769	713.454773	11066.795898	3782.602783	29.644035
639.185303	721.776611	10993.086914	3754.590820	29.527042
639.519836	723.039795	10903.850586	3711.569580	29.354536
639.854370	727.423645	10827.689453	3681.699951	29.249493
640.188843	723.857117	10714.674805	3659.780273	29.386215
640.523254	714.197754	10628.038086	3638.975586	29.501968
640.857605	722.593933	10533.376953	3613.118408	29.462729
641.191895	728.984070	10472.894531	3583.471680	29.295094
641.526184	729.949951	10400.003906	3558.059814	29.246061
641.860413	719.919128	10333.948242	3523.880859	29.165312
642.194580	711.820068	10280.524414	3500.550049	29.144281
642.528748	710.854065	10210.084961	3465.999268	29.003878
642.862793	712.860291	10161.194336	3461.912354	29.095627
643.196838	714.940735	10111.113281	3443.856689	29.042847
643.530823	723.336914	10054.792969	3444.748779	29.163851
643.864746	719.324646	10019.424805	3423.423584	29.076017
644.198669	721.925232	9973.133789	3403.807861	28.989536
644.532532	719.324707	9921.641602	3372.675049	28.833506
644.866333	722.891174	9845.555664	3349.640869	28.793669
645.200073	724.228699	9790.125977	3344.216797	28.899378
645.533813	720.364929	9775.860352	3347.189209	29.008068
645.867554	713.900574	9773.928711	3343.622314	29.025536
646.201172	708.625061	9787.006836	3327.201416	28.844088
646.534729	714.792175	9820.665039	3323.783203	28.651739
646.868225	719.919128	9842.956055	3311.077881	28.402369
647.201782	714.643555	9848.008789	3297.406006	28.278322
647.535217	707.436218	9858.856445	3276.303955	28.070700
647.868591	709.293762	9880.331055	3271.548828	27.938553
648.201965	717.987244	9901.952148	3279.425049	27.890326
648.535278	719.547607	9877.432617	3292.279297	28.093079
648.868591	716.724060	9848.305664	3292.725342	28.209803
649.201782	721.107910	9794.064453	3292.873779	28.345400
649.534912	726.383362	9750.522461	3267.684814	28.161154
649.868103	724.674316	9709.434570	3252.007080	28.129108
650.201172	717.987122	9690.338867	3230.905273	28.007353
650.534180	716.649719	9644.344727	3223.400635	28.078365
650.867188	719.919006	9599.317383	3212.552490	28.072100
651.200134	727.869446	9557.782227	3198.955078	27.985392
651.533020	731.956116	9530.586914	3174.732422	27.763142
651.865845	736.414307	9461.930664	3156.008057	27.730091
652.198608	735.448425	9412.965820	3154.967773	27.882620
652.531433	725.937561	9387.256836	3144.491211	27.923618
652.864136	720.364929	9377.375000	3139.884521	27.948675
653.196777	1313.226196	10037.034180	3733.563232	27.744043
653.529358	1344.284790	9984.502930	3735.197998	27.671907
653.861938	1339.380859	9936.799805	3700.572510	27.463959
654.194519	737.380188	9178.836914	3052.801514	27.429167
654.526978	708.476379	9114.416992	3002.869873	27.294907
654.859375	713.454773	9060.176758	2991.873291	27.297165
655.191833	720.959290	9016.413086	2987.935547	27.327934
655.524170	715.906738	8967.000977	2992.170654	27.587420
655.856445	715.460938	8943.075195	2981.619873	27.543329
656.188660	735.076843	8947.905273	2990.461670	27.461731
656.520874	742.729980	8928.883789	2976.790039	27.290716
656.853088	743.398682	8908.672852	2963.563721	27.190331
657.185181	723.485596	8878.209961	2928.270264	27.036900
657.517212	721.553711	8879.397461	2921.805908	26.971003
657.849243	723.708496	8898.122070	2924.332031	26.920874
658.181274	722.816895	8950.059570	2942.164795	26.975599
658.513123	714.420593	9005.563477	2945.731445	26.911982
658.844971	710.111084	9074.813477	2964.083984	26.946241
659.176819	716.129639	9124.894531	2987.415283	27.010931
659.508667	730.544434	9192.287109	3018.771240	27.042028
659.840393	737.008728	9270.899414	3021.520264	26.769871
660.172058	729.578430	9337.474609	3005.693604	26.442177
660.503662	730.024231	9396.619141	3001.681641	26.211651
660.835266	731.287415	9436.372070	3013.346924	26.215248
661.166931	735.819885	9427.826172	3009.557373	26.158951
661.498413	736.934387	9392.383789	2987.786377	26.005028
661.829773	734.853821	9276.991211	2972.034424	26.189939
662.161194	737.528809	9161.599609	2949.520752	26.257996
662.492615	719.696228	9011.731445	2914.969971	26.474485
662.823975	723.782776	8880.140625	2861.695068	26.211605
663.155212	719.027405	8739.114258	2824.543701	26.253036
663.486450	727.126465	8624.911133	2790.661377	26.128021
663.817627	713.900574	8477.272461	2759.900391	26.354525
664.148743	711.820068	8337.656250	2701.275391	26.088358
664.479858	705.504395	8203.614258	2664.792725	26.130430
664.810913	710.333984	8113.114746	2634.625732	25.994175
665.141907	712.488770	8039.554688	2621.623047	26.055918
665.472778	720.364929	7959.307129	2604.681885	26.030279
665.803711	736.488586	7919.332520	2584.025879	25.721531
666.134583	735.894104	7863.902344	2576.223877	25.818289
666.465454	736.934387	7836.856934	2568.942383	25.803213
666.796143	722.519714	7777.711426	2552.447021	25.937313
667.126831	726.903564	7763.816895	2537.437988	25.729101
667.457458	724.302917	7740.485840	2517.227539	25.554131
667.788147	719.250305	7706.083496	2518.267822	25.748684
668.118774	715.089355	7681.860840	2491.370361	25.496473
668.449219	721.330811	7661.427734	2488.472656	25.462784
668.779663	726.680603	7668.634766	2477.104248	25.215141
669.110107	720.662109	7648.796875	2469.525391	25.242916
669.440552	712.414551	7643.372559	2460.460205	25.220837
669.770874	708.699402	7613.502441	2448.274658	25.193697
670.101135	714.643555	7587.423340	2441.364502	25.124054
670.431396	718.878906	7557.478516	2422.788818	24.916065
670.761597	717.838623	7512.228027	2410.603027	24.914150
671.091797	715.460938	7478.939941	2402.206787	24.939028
671.421875	718.655945	7420.984863	2379.321533	24.777439
671.751892	729.281250	7393.343750	2365.352783	24.550663
672.081909	732.996338	7361.914063	2354.430176	24.460007
672.411865	733.070618	7338.359375	2354.058838	24.540764
672.741821	723.634216	7305.146484	2336.448975	24.505230
673.071716	711.076965	7241.097656	2331.990967	24.822496
673.401550	709.145203	7177.271484	2325.675049	24.992241
673.731262	715.981018	7112.404785	2318.839111	25.058661
674.060974	727.126465	7069.308594	2304.498779	24.871130
674.390625	725.194519	7073.990234	2285.552002	24.577219
674.720276	718.507324	7067.822754	2273.960693	24.497971
675.049927	715.683777	7044.195313	2258.356689	24.376551
675.379395	714.643555	7004.814941	2238.963867	24.233366
675.708923	719.696106	6954.511719	2217.118896	24.017117
676.038330	717.987244	6927.316895	2206.790771	23.976879
676.367737	722.073792	6846.400879	2200.623779	24.142244
676.697083	721.553711	6826.190918	2195.942627	24.151949
677.026428	721.033630	6785.175781	2190.221436	24.227463
677.355652	714.717834	6767.492188	2173.354492	24.098646
677.684875	718.061523	6760.804688	2165.106689	23.946825
678.013977	713.306152	6755.603027	2147.794434	23.740778
678.343079	718.804504	6765.411621	2149.652100	23.663647
678.672180	713.306091	6737.993652	2140.735596	23.693005
679.001221	723.634094	6761.175781	2138.729736	23.438276
679.330139	722.073792	6794.166504	2136.351807	23.291443
679.659058	713.529053	6837.931152	2134.048584	23.194418
679.987976	716.872620	6857.249512	2138.283691	23.148598
680.316772	719.770508	6896.853027	2153.069824	23.203499
680.645630	731.584656	6928.653809	2160.202881	23.053125
680.974304	725.789001	6984.604004	2166.295898	23.015648
681.302979	722.222473	7007.191895	2167.113281	22.989626
681.631653	714.346375	7024.950684	2170.902588	23.081087
681.960266	715.386658	7037.953613	2176.177979	23.104403
682.288757	714.420715	7051.773438	2164.735596	22.885187
682.617249	717.689941	7074.732910	2159.608643	22.682224
682.945679	717.764343	7044.937988	2150.766602	22.648376
683.274109	722.371094	7017.817871	2152.995605	22.724749
683.602478	724.228577	6959.118652	2140.215576	22.710697
683.930725	730.247070	6906.363281	2118.741943	22.481684
684.259033	728.018066	6849.447754	2083.373779	22.141163
684.587280	727.349304	6790.525879	2063.460938	22.036493
684.915344	724.451477	6747.578613	2047.857300	21.972071
685.243469	728.612488	6688.285156	2037.900757	21.969131
685.571533	724.600098	6613.164551	2026.681030	22.112026
685.899536	722.148132	6520.509277	2009.591431	22.203573
686.227539	715.535156	6431.049316	1993.393433	22.357714
686.555420	716.798340	6392.263184	1980.093140	22.258879
686.883301	715.460938	6378.591309	1969.765137	22.148602
687.211121	720.587830	6363.730469	1958.173828	21.930794
687.538940	725.640381	6369.972168	1956.316406	21.803749
687.866638	722.965515	6368.485840	1948.811646	21.713608
688.194336	721.999512	6376.064941	1962.483398	21.939680
688.521973	719.473328	6377.476563	1950.743530	21.761568
688.849609	720.141907	6368.263672	1948.365845	21.745705
689.177063	720.736328	6353.476563	1932.985229	21.521477
689.504578	712.042969	6303.025391	1920.948242	21.622412
689.832031	717.689941	6258.964355	1902.744141	21.385950
690.159485	715.460876	6187.781738	1879.710327	21.275242
690.486816	716.352539	6103.745605	1865.889771	21.337542
690.814087	719.770508	6034.791504	1861.877441	21.488287
691.141296	723.559875	5959.003418	1842.633179	21.374947
691.468506	733.442200	5871.326660	1811.871948	20.989761
691.795715	727.052185	5755.042969	1780.738892	20.956419
692.122803	723.931396	5676.653809	1761.568970	20.950851
692.449829	718.210144	5616.319824	1750.869141	21.082806
692.776855	716.129639	5549.150391	1723.897461	20.851719
693.103821	713.454773	5475.887207	1713.197754	20.992275
693.430664	717.615662	5402.996582	1701.383667	20.996544
693.757568	712.934570	5351.579590	1686.002930	20.977427
694.084351	711.448547	5320.966309	1661.780273	20.616728
694.411133	708.402161	5281.585449	1640.232544	20.375969
694.737854	716.203918	5250.527344	1627.229614	20.091768
695.064575	714.197754	5197.177734	1619.947876	20.204197
695.391174	712.637390	5173.772461	1619.502075	20.328115
695.717773	707.659119	5150.367676	1628.121216	20.718489
696.044250	715.758118	5144.125977	1613.557983	20.273832
696.370789	711.522888	5132.237793	1596.171021	20.011427
696.697205	712.637390	5139.445313	1585.619995	19.720362
697.023621	707.510498	5169.017090	1594.684937	19.885086
697.349915	721.405090	5217.017090	1612.814819	19.828442
697.676208	724.302917	5287.753418	1624.777710	19.732323
698.002380	721.330872	5357.523438	1637.929321	19.770500
698.328674	718.135803	5452.110840	1648.703125	19.657207
698.654724	714.643555	5525.968262	1656.058960	19.566656
698.980896	720.662109	5632.146484	1674.560425	19.421793
699.306946	718.284424	5701.396484	1691.724243	19.534777
699.632935	718.878723	5777.333984	1711.191528	19.616915
699.958862	718.507324	5795.910156	1706.659180	19.461758
700.284729	718.061523	5796.578125	1699.971802	19.334589
700.610596	719.101746	5770.720703	1683.625366	19.093355
700.936340	717.764221	5717.000000	1673.148804	19.110613
701.262146	711.299988	5637.718750	1646.771118	18.988867
701.587830	709.813965	5516.530762	1626.189331	19.064476
701.913513	713.603333	5390.810547	1607.316406	19.107836
702.239075	721.925293	5250.007324	1580.938965	18.970806
702.564697	721.182190	5125.179199	1553.521118	18.899626
702.890137	724.377197	4996.337891	1523.800171	18.713255
703.215698	719.398926	4907.991699	1499.948853	18.635136
703.541016	720.513489	4794.605957	1476.246460	18.549725
703.866455	709.219543	4709.752441	1451.800781	18.562057
704.191711	713.157532	4633.443359	1440.952637	18.564848
704.517029	706.321594	4561.741211	1426.909546	18.690260
704.842163	709.739563	4502.224609	1416.729980	18.641878
705.167419	711.225586	4435.500977	1407.070679	18.684040
705.492493	715.089355	4415.439453	1395.627930	18.391193
705.817566	707.213318	4368.257324	1382.550781	18.446581
706.142578	699.560120	4337.792969	1366.724243	18.337587
706.467590	702.086426	4320.777344	1363.900757	18.288778
706.792480	707.436218	4306.957031	1355.950317	18.016680
707.117371	711.002747	4306.437012	1362.860474	18.130152
707.442200	719.696228	4290.461426	1361.225952	17.966169
707.766907	718.061523	4288.158691	1362.414673	18.048616
708.091675	717.912903	4282.883301	1346.662598	17.636883
708.416321	713.380371	4295.812012	1337.226074	17.414030
708.741028	710.928406	4317.433594	1336.037231	17.332813
709.065552	712.042969	4336.678223	1337.969116	17.268665
709.390137	709.516663	4348.641113	1348.148560	17.549053
709.714600	720.736389	4360.380859	1346.588257	17.195412
710.039063	718.878845	4392.999512	1353.721313	17.278759
710.363403	724.525818	4434.535156	1356.396240	17.031506
710.687744	713.231750	4489.741699	1359.071045	17.101484
711.012085	710.779785	4519.388184	1365.312500	17.185614
711.336304	702.160645	4550.520996	1370.959595	17.378803
711.660461	710.631165	4581.951172	1376.012207	17.187447
711.984619	712.563049	4609.517578	1373.188599	16.952354
712.308716	717.764343	4638.198730	1361.746094	16.426287
712.632751	725.120300	4650.235840	1359.294067	16.156818
712.956726	735.596924	4654.693848	1356.693359	15.847948
713.280701	737.157288	4622.000488	1361.894531	16.081402
713.604553	734.556702	4575.709961	1356.396118	16.188873
713.928467	731.064453	4493.902832	1354.241333	16.561352
714.252258	729.206970	4430.448242	1325.411865	16.108242
714.575989	722.816895	4365.210449	1305.127197	15.987023
714.899719	718.135803	4327.167480	1285.214111	15.712755
715.223267	715.163757	4285.186523	1285.065552	15.963534
715.546936	717.912842	4228.642090	1279.492798	15.996105
715.870422	718.655945	4173.806641	1267.307129	15.879226
716.193970	716.352539	4142.896973	1257.944946	15.805790
716.517395	712.785950	4123.652344	1264.557983	16.176888
716.840820	710.259766	4108.568848	1255.790161	16.052996
717.164124	717.021240	4058.489014	1246.279419	15.839092
717.487488	723.336975	4026.538818	1221.685425	15.086830
717.810730	725.417419	3990.501953	1208.533813	14.796444
718.133972	726.383301	3942.576904	1207.270630	14.952065
718.457092	724.302917	3880.905518	1199.320190	15.048371
718.780212	720.290527	3844.719727	1196.125244	15.229493
719.103210	706.247375	3795.382813	1182.304810	15.410701
719.426208	700.377441	3746.268311	1182.750610	15.836850
719.749207	713.677551	3691.210205	1186.465942	15.878529
720.072083	721.256531	3646.628906	1172.645508	15.430138
720.394958	727.943665	3607.991455	1165.958374	15.208591
720.717773	718.655945	3557.911377	1142.478638	14.927248
721.040527	715.460938	3514.815674	1136.757324	15.049767
721.363281	713.454773	3478.704834	1127.097900	14.958616
721.685913	722.816833	3446.754639	1126.800781	14.830880
722.008545	728.389587	3435.906494	1119.742065	14.454295
722.331055	722.891113	3414.656006	1103.915527	14.155190
722.653503	719.250305	3389.095703	1095.147827	14.079373
722.976013	715.535156	3357.294189	1088.757813	14.127809
723.298401	722.222473	3333.294189	1090.912476	14.120255
723.620789	717.169922	3315.239014	1088.386353	14.288166
723.943115	721.330811	3305.579834	1089.203613	14.235191
724.265381	717.912903	3302.755859	1083.408081	14.139937
724.587585	719.473206	3311.152100	1077.389526	13.810210
724.909790	712.191589	3297.480469	1072.485474	13.936311
725.231873	712.191589	3296.143311	1064.609375	13.638715
725.553894	711.076965	3298.149170	1062.603149	13.587799
725.875916	852.400696	3461.837891	1198.577148	13.266326
726.197937	865.552307	3482.123047	1212.174683	13.247200
726.519775	860.276855	3470.754639	1212.248901	13.483050
726.841675	722.371094	3337.975586	1070.033569	13.291860
727.163513	708.030579	3339.461670	1058.368042	13.313571
727.485291	708.922302	3352.389893	1054.058472	13.056191
727.806946	712.414551	3371.708984	1065.649658	13.283039
728.128662	715.609558	3395.188477	1073.302734	13.348858
728.450256	722.668274	3417.330811	1085.414185	13.461645
728.771790	723.188416	3420.822998	1085.488403	13.430285
729.093323	722.148132	3410.717529	1087.048828	13.572300
729.414795	714.792236	3424.389404	1083.928101	13.623275
729.736145	718.061462	3436.203369	1083.408081	13.441043
730.057495	718.061462	3458.717041	1070.776611	12.869737
730.378845	727.349304	3457.677002	1066.541382	12.423127
730.700134	724.674500	3449.503906	1059.854004	12.300936
731.021301	725.566101	3433.603271	1053.463989	12.108323
731.342468	729.206848	3434.345947	1057.476318	12.135031
731.663574	732.699158	3427.956055	1052.126465	11.851460
731.984680	734.556641	3433.454346	1062.751831	12.160342
732.305664	720.662109	3428.921875	1052.720947	12.260967
732.626648	716.872742	3448.166260	1058.367798	12.503053
732.947571	714.792175	3457.305664	1055.692993	12.430233
733.268433	718.953125	3453.144775	1052.572266	12.201747
733.589233	714.049133	3434.197510	1049.005737	12.313909
733.909973	717.615662	3423.498047	1052.349487	12.370598
734.230713	724.525818	3411.832275	1056.659058	12.359337
734.551331	729.058289	3383.820313	1044.770508	11.892299
734.871948	718.581543	3340.501709	1034.665405	12.055434
735.192505	710.631165	3295.919922	1024.188721	12.128531
735.513062	715.015076	3261.963623	1021.067932	12.016453
735.833435	724.377197	3215.970459	1011.780090	11.534904
736.153931	729.206848	3166.113281	1004.647156	11.302867
736.474304	724.228577	3124.429688	999.966064	11.488099
736.794617	724.822998	3085.123291	993.204590	11.370654
737.114807	723.931396	3059.266357	992.610107	11.504932
737.434998	717.912903	3035.637939	993.873230	11.906517
737.755188	714.272034	3031.328125	997.365417	12.217804
738.075256	705.430115	3026.647217	987.780273	12.163884
738.395325	711.299988	3034.523193	984.882507	11.775990
738.715271	714.866516	3045.296875	983.396484	11.522762
739.035278	719.324707	3070.559814	983.025085	11.215398
739.355164	712.042969	3082.076904	977.600891	11.204815
739.675049	704.612610	3095.748291	967.792969	11.006500
739.994873	711.894348	3096.268555	977.080750	11.121844
740.314636	720.959290	3105.407959	980.498718	10.884672
740.634277	724.897278	3098.348877	983.545105	10.897539
740.953979	713.157532	3072.268799	967.792969	10.793701
741.273499	711.151367	3044.851318	954.269836	10.417727
741.593140	714.569275	2998.783203	953.378174	10.454752
741.912598	719.176025	2964.009766	948.102722	10.197935
742.232117	718.061523	2906.053711	944.684753	10.357589
742.551453	713.008972	2868.159424	930.715820	10.101701
742.870850	723.931396	2843.639404	940.152283	10.200503
743.190063	724.823059	2820.457031	937.625977	10.154584
743.509338	720.216309	2796.680420	938.591980	10.516708
743.828552	715.535156	2757.819580	929.452820	10.474430
744.147705	713.157532	2722.451904	931.756104	10.879370
744.466797	727.200684	2683.145508	930.270020	10.382161
744.785828	727.646484	2656.545166	927.892334	10.381356
745.104858	738.940613	2643.913818	915.632385	9.275290
745.423706	734.259460	2640.941650	913.329102	9.391688
745.742615	733.516418	2630.316406	902.109375	8.888283
746.061401	727.275085	2612.335205	908.573730	9.617659
746.380249	724.525879	2605.053467	897.428284	9.194356
746.698975	718.210022	2589.301270	903.000977	9.876105
747.017639	715.163635	2579.864746	896.982422	9.750559
747.336304	708.922180	2549.474854	902.926575	10.540551
747.654907	709.888184	2556.607910	904.041199	10.513399
747.973389	713.677551	2556.087891	909.093750	10.606551
748.291931	714.197754	2573.846436	906.344543	10.332424
748.610352	719.919128	2569.239502	897.428223	9.598613
748.928711	716.649719	2568.645264	892.672852	9.504511
749.247070	725.863281	2560.100342	890.443848	8.972699
749.565308	722.519592	2557.945313	889.254944	9.084288
749.883545	723.634094	2541.449951	883.310730	8.783982
750.201782	724.525818	2530.527588	874.617371	8.310709
750.519836	721.256531	2509.500000	874.097168	8.546970
750.837952	718.433044	2502.515869	880.561523	9.087498
751.155884	709.368103	2476.286865	892.301331	10.353234
751.473877	706.544617	2464.769775	899.657288	10.983387
751.791809	718.210144	2455.927734	887.694580	9.753279
752.109619	730.915833	2460.385986	874.765930	8.317582
752.427490	741.392578	2454.887451	869.416199	7.471491
752.745300	734.556641	2445.228271	879.149841	8.452423
753.062988	725.343079	2449.463379	887.025879	9.377698
753.380615	711.820068	2447.160156	880.041321	9.693850
753.698303	719.398926	2450.429443	878.258118	9.177146
754.015808	719.547546	2436.683350	879.446960	9.311984
754.333374	727.497986	2424.646484	874.022949	8.633597
754.650757	721.628113	2417.884766	859.682556	8.138771
754.968262	726.680603	2407.036865	853.069519	7.521555
755.285583	732.847717	2408.522705	861.465759	7.675596
755.602905	730.767273	2407.928467	860.425537	7.730817
755.920105	724.080078	2404.064697	857.304749	7.930112
756.237305	726.160461	2394.033936	851.063293	7.488747
756.554443	724.971680	2385.711914	857.304749	7.968318
756.871582	726.977844	2379.916260	855.893066	7.799154
757.188599	716.129639	2378.950195	854.109802	8.297958
757.505615	717.764343	2375.309326	851.955017	8.095749
757.822510	725.937561	2395.073975	856.636047	7.830306
758.139465	728.092346	2402.801514	855.967468	7.635661
758.456238	725.789001	2411.197510	858.568054	7.878153
758.773010	716.872742	2419.816650	853.886902	8.045724
759.089783	720.513489	2445.079590	862.803223	8.250755
759.406433	716.278320	2459.122803	864.066345	8.479702
759.723145	712.934570	2461.723633	868.598816	8.901259
760.039673	712.414551	2464.918457	864.363525	8.670393
760.356201	715.758118	2462.317871	861.540039	8.346804
760.672668	719.250305	2460.237305	857.527649	7.942468
760.989136	713.603333	2438.912842	857.230469	8.324717
761.305481	709.516663	2437.500732	852.846619	8.294634
761.621826	708.327820	2435.420166	853.069519	8.380658
761.938049	716.724060	2448.423584	854.481262	7.955029
762.254333	724.005676	2471.754395	859.088074	7.728937
762.570496	732.550537	2508.237061	866.295410	7.532009
762.886597	727.795166	2574.069092	861.911621	7.264169
763.202637	722.593994	2660.780518	869.862000	7.598237
763.518677	717.615662	2786.129150	876.995056	7.705021
763.834656	716.946960	2920.988525	890.072266	7.854902
764.150574	716.798340	3056.368164	892.524231	7.511034
764.466370	715.312256	3155.116455	895.570618	7.388231
764.782288	713.306152	3206.162109	892.524231	7.189267
765.097961	713.900574	3211.660889	898.096985	7.374463
765.413696	714.569336	3175.029297	890.443848	7.148034
765.729309	720.736389	3102.287109	878.481018	6.623610
766.044861	727.052185	3003.687500	865.329407	6.073754
766.360474	726.680664	2879.156250	857.824890	6.092716
766.675903	721.925232	2755.145264	846.605164	6.132142
766.991394	716.426819	2624.743652	838.506165	6.397226
767.306763	717.541321	2521.239990	831.670410	6.327503
767.622131	718.432922	2423.754639	834.345276	6.797096
767.937378	714.123352	2358.071045	826.989319	6.865545
768.252625	715.535156	2310.368652	820.822205	6.601758
768.567810	707.584778	2261.031982	819.261780	7.188979
768.882996	713.306152	2225.218018	822.308289	7.209556
769.197998	711.820129	2177.738525	815.620911	7.080938
769.513062	716.501160	2145.565430	810.122559	6.551238
769.828064	715.163757	2106.482178	800.240295	6.114815
770.142944	710.333984	2076.464111	805.738770	6.983580
770.457825	712.934570	2061.157471	811.831543	7.335358
770.772705	707.361877	2031.436523	810.419861	7.783396
771.087402	704.761292	2008.030884	803.806885	7.599778
771.402100	705.653015	1981.727905	799.720215	7.371604
771.716736	706.841797	1966.198608	800.017395	7.398665
772.031372	713.231750	1940.712769	792.735779	6.477007
772.345947	711.448547	1929.047241	785.974182	6.120706
772.660461	710.705505	1913.294922	780.475769	5.801670
772.974854	711.597168	1905.641968	792.884277	6.807710
773.289246	715.832336	1883.202515	795.336243	6.810514
773.603638	722.742493	1861.283081	796.227966	6.454357
773.917908	718.730225	1846.868286	783.893738	5.776200
774.232178	714.940735	1845.308105	785.751282	6.264383
774.546265	723.188416	1845.828247	785.156921	5.519892
774.860474	725.120300	1840.478516	791.621277	5.962298
775.174561	724.451477	1823.537476	788.574768	5.834238
775.488586	718.655945	1800.131958	793.032959	6.877361
775.802551	720.959290	1788.169312	791.323975	6.593331
776.116516	729.355469	1775.834961	784.933899	5.310991
776.430359	722.222473	1776.429565	777.875183	5.279106
776.744202	725.491760	1773.457397	779.658447	5.168747
777.057922	718.804443	1769.370605	780.252930	5.849083
777.371704	714.792175	1762.906250	777.726563	6.004536
777.685303	706.618896	1750.423462	768.290222	5.908321
777.998962	704.464172	1737.791992	778.915466	7.205002
778.312500	710.334045	1728.207031	779.286926	6.774213
778.626038	709.665344	1712.826172	780.550110	7.066142
778.939453	713.306152	1713.792114	779.584167	6.624582
779.252869	720.513489	1719.587891	789.020569	6.857055
779.566223	723.262695	1716.690063	782.333313	5.946144
779.879578	726.234802	1706.807983	773.639893	4.834426
780.192749	717.318420	1691.427124	771.559509	5.568279
780.505920	710.408386	1685.705933	774.754456	6.597583
780.819031	705.504333	1674.114624	771.187927	6.781220
781.132141	721.627991	1676.715210	787.385925	6.885019
781.445190	733.516418	1670.696655	791.769775	6.215812
781.758118	737.603088	1673.520142	794.221741	6.049537
782.071045	732.104675	1665.124023	774.977356	4.595047
782.383911	727.572266	1654.350098	766.506897	4.201075
782.696838	725.343201	1640.752563	761.974365	4.001616
783.009583	717.987122	1613.557983	757.813477	4.447036
783.322266	717.244141	1590.003906	761.379944	5.057039
783.634888	711.894348	1586.883179	758.928040	5.375348
783.947510	711.671387	1584.208374	752.686584	4.700683
784.260132	718.581543	1594.313477	751.349121	3.741736
784.572571	724.674500	1582.722290	757.962097	3.879457
784.885010	717.021301	1575.960571	766.952637	5.813139
785.197449	715.609558	1562.363281	776.091858	7.142844
785.509766	719.473206	1553.669922	778.915344	7.125674
785.822083	729.949951	1539.626587	774.234375	5.469396
786.134277	727.497864	1540.666992	772.376770	5.519012
786.446533	719.993347	1536.283081	767.547119	5.825600
786.758606	715.832458	1551.366577	770.147705	6.500662
787.070740	722.593994	1548.840210	771.856689	5.962229
787.382690	719.324707	1555.304565	773.342773	6.461647
787.694641	715.832458	1559.168335	768.513123	6.246700
788.006653	703.498230	1579.155762	766.655518	7.212556
788.318481	708.104980	1599.514648	762.345947	6.084853
788.630310	711.299988	1615.935547	759.150879	5.289521
788.942017	712.414490	1633.916870	747.113831	3.765518
789.253784	718.135742	1649.891724	751.794922	3.612446
789.565430	722.148132	1657.990845	762.568848	4.319178
789.877014	723.485596	1656.950562	769.924805	4.974928
790.188538	714.494934	1639.266602	770.221985	6.026033
790.500061	712.488770	1616.084106	758.333557	5.073597
790.811462	718.432922	1600.257690	758.482239	4.541641
791.122925	725.788879	1586.957397	760.042480	3.977572
791.434204	728.389587	1569.793457	757.367615	3.444009
791.745483	732.624817	1542.970215	755.732910	2.851635
792.056702	729.281189	1510.351196	741.764099	1.598181
792.367920	723.336914	1501.212280	750.829041	3.534259
792.678955	725.566101	1479.812988	746.073669	2.718946
792.990112	731.881836	1480.184448	756.104492	3.237013
793.301086	736.562927	1465.769897	753.578186	2.333392
793.612122	723.559875	1470.302368	761.825867	5.124389
793.922974	713.603333	1460.717285	762.420227	6.534063
794.233826	715.683838	1461.163086	760.859863	6.059998
794.544556	723.188416	1462.872070	765.838135	5.765941
794.855286	724.228699	1463.540649	759.076660	4.713567
795.166016	725.120300	1467.999023	759.671082	4.650931
795.476624	723.039734	1457.224976	746.667969	3.218293
795.787292	724.451477	1466.438477	741.689758	2.323259
796.097778	716.055359	1472.531250	738.643311	2.985945
796.408264	712.637390	1493.336060	741.020996	3.635667
796.718689	713.751953	1500.914917	745.479187	4.030580
797.029053	718.878845	1503.367065	748.748535	3.807538
797.339355	716.946960	1502.401001	746.222229	3.727178
797.649658	714.940735	1497.794434	753.801086	4.963935
797.959839	716.872620	1498.165894	753.801086	4.726582
798.270020	718.581543	1503.069824	757.739197	4.991490
798.580078	725.343079	1498.017212	752.017822	3.452263
798.890137	716.426819	1477.138062	742.729980	3.457706
799.200195	712.265869	1453.212524	739.237793	3.640198
799.510071	708.996582	1447.045532	738.866272	4.047115
799.820007	715.609558	1443.553223	751.274719	4.899440
800.129883	725.491760	1432.259277	753.429504	3.952890
800.439575	719.770508	1411.454468	758.036377	5.532277
800.749329	719.621887	1400.383423	757.219055	5.522810
801.058960	716.872742	1395.999634	753.058105	5.328218
801.368591	720.662109	1390.724121	739.609314	2.827679
801.678162	723.262695	1390.278320	730.470032	1.080535
801.987671	733.144958	1385.745728	731.807556	-0.204934
802.297119	740.946716	1385.745728	741.838379	0.138285
802.606506	739.386292	1381.882202	740.575195	0.185045
802.915894	719.250305	1381.361938	736.934387	2.670861
803.225159	710.259705	1369.250610	730.990173	3.145790
803.534424	708.253601	1356.098999	744.290344	5.562553
803.843628	722.296692	1351.343628	749.045715	4.252310
804.152771	723.411316	1351.566528	756.847473	5.322913
804.461792	734.408020	1349.634644	763.534851	4.734325
804.770874	726.606384	1347.702759	758.630859	5.156120
805.079773	724.748718	1346.811157	754.544128	4.789778
805.388733	708.253479	1358.476685	750.383118	6.479258
805.697571	716.278259	1366.278320	744.364685	4.320988
806.006470	721.553711	1372.296875	744.364563	3.505354
806.315125	724.080078	1379.132813	734.556641	1.599346
806.623901	717.912903	1384.408203	746.445129	4.280934
806.932495	709.888184	1386.934570	746.073547	5.344592
807.241150	718.210144	1380.098755	753.503906	5.332281
807.549622	716.501160	1373.040039	747.039551	4.651422
807.858154	721.925293	1372.742798	745.776428	3.664796
808.166565	715.386658	1364.940918	738.271790	3.523206
808.474915	721.850891	1350.674927	737.974609	2.564106
808.783264	720.439148	1352.681030	746.296570	4.089799
809.091492	720.067688	1347.628418	751.126221	4.949088
809.399719	715.609558	1351.715088	750.308899	5.454966
809.707825	715.386536	1334.699707	743.770203	4.583088
810.015930	723.039795	1330.018677	736.711426	2.252406
810.323975	724.897278	1321.102417	742.581360	2.966107
810.632080	719.101746	1310.922852	737.900391	3.176407
810.939880	712.488770	1292.867310	731.733215	3.315844
811.247864	711.745789	1293.461792	730.990173	3.308210
811.555664	710.928406	1287.146118	731.584656	3.584800
811.863464	715.980957	1283.653809	742.878662	4.738241
812.171143	709.665344	1270.947998	738.271790	5.096620
812.478882	719.621887	1270.205078	741.838379	4.035084
812.786438	715.683838	1276.149170	739.386414	4.229089
813.094055	721.033691	1258.613770	742.804382	4.049758
813.401489	713.529053	1261.734497	738.717590	4.594726
813.708984	711.448547	1258.539429	735.151123	4.332475
814.016357	719.250305	1270.353638	742.655762	4.247018
814.323730	729.875671	1265.375366	748.525635	3.482722
814.630981	733.813721	1264.855225	748.302734	2.728415
814.938232	724.228699	1263.443481	739.980774	2.921299
815.245361	721.405212	1257.127808	731.138733	1.816896
815.552490	717.318542	1253.635498	729.281189	2.230518
815.859619	715.238037	1249.326050	740.203613	4.674431
816.166565	719.101746	1250.737671	744.067444	4.696014
816.473572	714.123474	1254.973022	743.324463	5.399096
816.780457	721.405090	1264.855103	732.327637	2.009853
817.087341	720.141907	1274.663208	733.367859	2.385112
817.394043	722.445374	1274.737549	737.751709	2.771420
817.700806	721.182129	1271.988281	741.392578	3.669249
818.007507	711.671448	1281.053223	747.336731	6.263861
818.314209	719.027405	1297.028320	748.599915	5.116343
818.620667	719.176025	1309.213989	745.627747	4.483054
818.927246	724.228577	1317.833130	743.472961	3.241954
819.233704	720.885010	1334.105347	743.993164	3.768328
819.540161	711.374268	1354.092773	741.987000	4.763008
819.846497	715.163757	1386.860229	739.906555	3.683628
820.152832	718.135742	1423.119751	734.333801	2.297649
820.458984	728.538147	1470.896484	736.637207	1.090991
820.765259	727.497864	1531.973511	737.380188	1.228418
821.071350	728.538147	1613.929321	751.274841	2.567983
821.377502	722.445313	1764.392456	756.476013	3.266068
821.683472	723.337097	2009.294312	768.587341	3.518798
821.989441	715.312317	2443.370605	771.113708	3.229138
822.295349	721.925232	3021.371826	791.472656	3.024529
822.601196	716.872620	3675.086914	805.590149	2.999023
822.907043	718.135803	4255.837402	824.240051	2.999242
823.212769	715.535217	4641.170898	825.428894	2.799386
823.518494	715.386658	4797.875488	828.103821	2.760991
823.824097	721.256531	4690.879395	819.559082	2.476370
824.129700	713.603333	4468.194336	813.912048	2.671628
824.435242	714.717773	4187.404297	801.949219	2.511930
824.740723	711.448547	3939.827393	793.107239	2.529402
825.046082	717.169922	3677.167236	784.933899	2.289326
825.351501	712.860352	3395.485596	778.989746	2.465100
825.656799	710.779846	3083.636963	776.909241	2.786910
825.962036	718.061523	2791.553467	771.782410	2.590841
826.267212	718.135803	2530.082031	771.559509	2.948416
826.572449	719.770508	2386.157715	767.101318	2.840325
826.877502	711.374207	2339.644043	770.593506	3.636946
827.182495	716.798340	2418.553467	768.290100	3.025803
827.487488	712.042969	2515.221436	779.732727	3.753913
827.792419	707.659119	2608.248291	778.098145	3.706168
828.097290	700.748962	2625.486816	771.187927	3.659666
828.402100	705.652893	2586.477783	764.277771	3.116977
828.706848	712.711670	2494.045166	767.398499	3.069994
829.011597	716.872620	2384.077148	769.181824	3.137540
829.316223	712.563171	2267.422119	757.664795	2.900689
829.620789	711.225769	2155.967773	749.417175	2.643476
829.925354	718.358704	2034.631470	755.212830	2.799885
830.229797	727.795166	1910.843140	759.150879	2.650418
830.534302	734.333801	1778.212769	754.915710	1.971676
830.838562	730.395752	1644.022095	741.243958	1.187379
831.142944	726.903564	1532.419312	736.488586	1.189924
831.447144	723.559875	1441.026978	733.739441	1.418820
831.751404	723.931396	1395.925171	733.293640	1.393204
832.055542	725.714661	1357.585083	736.711487	1.740361
832.359619	721.033508	1346.885376	735.522644	2.315106
832.663635	724.525818	1338.266235	740.278015	2.566590
832.967651	725.491760	1365.163940	733.367859	1.231271
833.271545	729.504089	1409.671265	738.197571	1.278139
833.575439	727.423645	1492.295898	733.813660	0.835436
833.879211	717.244141	1590.895508	735.151062	2.049664
834.183044	712.785950	1705.396118	734.853943	2.223229
834.486694	705.429993	1785.494507	736.860046	2.910017
834.790344	721.925293	1851.178101	739.089172	1.519932
835.093933	717.318542	1851.178101	742.284180	2.201828
835.397522	718.878906	1840.924316	745.256348	2.350836
835.700928	712.711731	1771.897095	738.049011	2.392148
836.004395	728.909668	1722.337036	731.733215	0.284223
836.307739	734.185120	1663.415039	730.618652	-0.383809
836.611023	729.875549	1601.520874	733.367859	0.400657
836.914307	716.055359	1528.852661	735.448242	2.385943
837.217529	719.696106	1456.258911	733.516418	1.876325
837.520691	714.940735	1393.547485	736.637207	3.197208
837.823730	720.587830	1326.823730	733.367859	2.108095
838.126831	714.197754	1265.821167	735.671204	3.892773
838.429749	726.754944	1225.697632	738.569031	2.367825
838.732727	718.730225	1200.063110	740.649475	4.553865
839.035522	717.467041	1179.852905	738.791931	4.611925
839.338379	713.231873	1161.945923	735.374023	4.934579
839.641113	720.736511	1153.847046	725.640381	1.132244
839.943848	725.566101	1171.233765	727.943787	0.533511
840.246460	720.513489	1192.410034	717.987122	-0.535365
840.549072	717.689941	1209.128296	725.863281	1.663146
840.851563	714.494934	1218.416138	725.937561	2.270717
841.154053	708.253479	1218.118896	727.423645	3.759848
841.456482	713.306152	1213.437744	723.782776	2.094773
841.758850	712.265930	1197.016846	719.547546	1.502136
842.061157	721.405090	1182.750732	723.857117	0.531494
842.363403	713.677673	1179.481445	719.250305	1.196347
842.665588	717.244141	1158.676636	712.414490	-1.094086
842.967712	719.398926	1146.119507	710.408264	-2.106920
843.269775	719.621826	1115.135254	717.541321	-0.526026
843.571777	714.420654	1096.856812	721.107910	1.748594
843.873840	718.135742	1074.343140	724.005676	1.647898
844.175659	721.479431	1059.110962	726.457703	1.474469
844.477600	726.829285	1052.869507	733.144958	1.937084
844.779297	724.228699	1040.312378	732.773438	2.703315
845.081116	724.897400	1032.139038	729.429871	1.475214
845.382751	719.101807	1020.102051	727.572266	2.814104
845.684387	710.111145	1006.578918	730.470032	6.867150
845.985962	708.327820	1000.411865	732.996399	8.445713
846.287537	705.801575	995.582214	729.578430	8.205122
846.588989	702.457947	997.068298	722.073792	6.658233
846.890381	702.160706	986.963074	723.411316	7.461529
847.191711	707.807800	971.879578	724.154297	6.190172
847.493042	717.987122	970.913635	730.618652	4.994151
847.794250	721.033630	972.548340	733.665039	5.022135
848.095459	724.748718	973.068359	731.436035	2.693028
848.396606	724.748718	955.904480	732.401917	3.310840
848.697693	721.702332	948.102722	723.708496	0.886114
848.998657	722.816895	940.969727	726.977844	1.907355
849.299622	724.674377	950.777649	724.451477	-0.098583
849.600464	727.720886	952.932434	731.287415	1.583635
849.901367	718.432922	956.944763	724.154297	2.398780
850.202087	714.272034	952.412292	725.937561	4.898595
850.502808	713.380432	953.080872	724.897278	4.804683
850.803467	714.643555	956.424561	733.739319	7.897959
851.104065	730.247253	959.396667	738.717590	3.696425
851.404663	732.104736	949.142883	739.980774	3.628872
851.705139	738.940613	946.170898	736.785828	-1.039802
852.005615	726.011902	940.895325	727.943848	0.899067
852.306030	722.371094	943.718933	730.247253	3.558273
852.606384	725.120300	936.139954	730.990234	2.781700
852.906616	731.510254	934.282410	740.798157	4.580462
853.206909	727.869446	931.681824	737.231628	4.593530
853.506958	716.649719	941.787048	743.250183	11.815217
853.807129	712.637390	933.093567	733.665039	9.538244
854.107178	719.621887	936.734436	729.875671	4.722796
854.407166	725.268860	935.396973	719.547546	-2.722774
854.707092	724.748718	939.780823	724.748779	0.000028
855.007019	716.055359	933.465088	720.290527	1.948012
855.306763	716.872620	926.109131	720.141907	1.562484
855.606567	713.157532	930.790222	715.981018	1.297363
855.906250	718.953125	930.195801	715.906738	-1.442127
856.205933	716.872620	926.109070	711.597168	-2.521287
856.505493	717.764221	927.372253	707.659119	-4.820952
856.805054	718.878845	935.396973	710.482605	-3.877846
857.104492	712.934631	935.619934	717.615723	2.102111
857.403931	714.792175	928.115234	725.417480	4.980852
857.703308	709.368103	922.691162	722.593994	6.199935
858.002563	714.272034	927.075012	717.021240	1.291902
858.301819	710.705566	934.059570	716.055359	2.395208
858.601013	717.541443	932.053284	719.101807	0.727402
858.900208	715.683838	920.016296	718.210144	1.236370
859.199219	716.426819	921.428040	714.494934	-0.942377
859.498291	721.033508	922.022461	716.352539	-2.328969
859.797302	722.222412	938.220459	730.470032	3.818377
860.096191	727.423645	934.505310	741.615540	6.853284
860.395020	718.581726	934.356689	741.838440	10.778226
860.693787	716.426941	923.880066	730.915833	6.984176
860.992554	713.826233	923.508484	719.027405	2.480502
861.291260	716.798340	921.056458	717.392761	0.291015
861.589844	717.244141	933.836609	715.386536	-0.857650
861.888428	716.352539	927.892395	711.597168	-2.247979
862.186890	725.343201	937.700378	706.247375	-8.992314
862.485413	728.018066	934.059509	710.482727	-8.510589
862.783813	724.451477	938.146179	715.832458	-4.033333
863.082153	714.569275	930.715881	727.200684	5.843908
863.380371	719.919128	922.988464	730.618652	5.268902
863.678589	725.863281	925.589050	724.228577	-0.818475
863.976746	729.058289	926.629333	721.479309	-3.836078
864.274902	727.720886	929.229797	724.674377	-1.511848
864.572937	719.919128	932.945007	738.123230	8.545488
864.870911	720.290527	935.917175	744.141785	11.061368
865.168884	711.745789	933.910950	728.761047	7.658833
865.466736	713.974854	925.291809	721.182190	3.410676
865.764587	718.135742	917.118591	716.649719	-0.746810
866.062317	725.268799	928.412537	728.835388	1.755697
866.360107	734.630920	927.446533	732.030334	-1.348742
866.657715	722.965393	931.458923	727.795105	2.316480
866.955322	720.662109	924.920227	722.371094	0.836679
867.252808	712.711731	927.966614	712.563171	-0.069016
867.550293	721.851013	936.808655	713.974854	-3.664052
867.847717	717.095520	932.201965	716.129639	-0.449025
868.145081	717.392822	930.641602	724.971680	3.553998
868.442383	711.448547	929.972839	724.080017	5.780350
868.739624	721.553711	934.653870	726.977844	2.545345
869.036804	718.878845	931.830383	727.200745	3.907884
869.333984	718.878845	932.647705	721.330811	1.147017
869.631042	710.705566	930.492920	711.002747	0.135213
869.928101	718.210144	929.378418	710.111084	-3.835358
870.224976	715.906738	918.158691	717.912903	0.991914
870.521851	734.185120	934.059570	732.847717	-0.669121
870.818726	728.909668	945.725098	733.665039	2.193281
871.115479	732.773438	954.046936	733.219238	0.201470
871.412231	717.467041	939.112122	723.782898	2.849536
871.708862	716.203918	930.641602	719.473206	1.524586
872.005493	716.055359	933.316589	715.089355	-0.444628
872.302063	724.228699	933.613708	721.627991	-1.242070
872.598572	732.550537	933.242188	722.519714	-4.998127
872.895020	732.624817	929.155518	720.959290	-5.935728
873.191406	728.538269	934.728210	716.575439	-5.801849
873.487671	719.770508	944.684814	716.426819	-1.486650
873.783997	724.005676	944.387695	715.163635	-4.012143
874.080200	716.055359	944.016113	711.002747	-2.216439
874.376343	719.547546	941.266846	710.705505	-3.987944
874.672424	718.135742	956.944641	723.634216	2.302458
874.968445	724.600159	968.758789	726.829285	0.912983
875.264465	724.080078	971.136536	731.584534	3.037547
875.560364	718.210144	959.619629	725.120300	2.862421
875.856201	709.145203	946.542419	722.742615	5.727705
876.152039	710.259766	942.678711	722.073914	5.083126
876.447754	713.900574	942.604431	718.433044	1.981808
876.743469	714.569275	952.486633	722.371094	3.279214
877.039063	713.677673	952.709534	730.247131	6.931903
877.334595	715.089417	956.944824	728.463867	5.529937
877.630127	723.634094	952.115051	728.241028	2.016331
877.925537	723.336914	952.338074	720.141907	-1.395193
878.221008	715.386536	953.526855	725.714661	4.336991
878.516296	707.584717	953.972656	726.086121	7.509054
878.811646	702.903748	958.728027	718.432922	6.070251
879.106812	709.070801	971.582458	711.597168	0.962383
879.401978	710.482605	984.659668	709.591003	-0.325192
879.697083	711.299988	1009.551025	711.002747	-0.099661
879.992126	709.070984	1025.303223	712.563171	1.104311
880.287109	711.374268	1064.312134	709.591003	-0.505263
880.582031	712.934570	1121.079468	715.089355	0.527946
880.876892	719.993347	1236.322876	717.615723	-0.460486
881.171753	725.045959	1416.135376	721.405090	-0.526830
881.466492	734.631042	1685.111328	723.336975	-1.188249
881.761230	728.835449	2002.978394	727.275085	-0.122464
882.055786	730.693054	2330.133301	731.287415	0.037161
882.350403	723.782898	2584.545654	735.002502	0.602957
882.644958	722.965515	2725.052490	737.528809	0.727406
882.939453	711.225647	2750.240967	734.110840	1.122365
883.233826	704.464111	2704.544922	726.977844	1.125641
883.528137	703.349609	2650.229248	723.931396	1.057168
883.822449	706.024414	2579.641846	726.457703	1.090580
884.116577	705.058533	2501.103760	732.550537	1.530697
884.410828	707.436218	2385.489014	724.525879	1.018422
884.704956	705.801575	2228.561279	722.593933	1.102758
884.999023	711.448547	2029.578735	719.398926	0.603156
885.292969	711.374268	1815.066895	730.618652	1.743636
885.586914	714.123535	1616.901489	732.327637	2.016454
885.880798	713.603333	1467.850220	734.185242	2.728803
886.174622	716.649658	1351.715088	728.835388	1.918815
886.468384	712.637390	1273.994507	730.915833	3.256117
886.762085	709.888245	1214.700928	726.383484	3.267596
887.055664	709.665344	1177.178101	730.024231	4.354723
887.349304	715.460938	1147.977051	725.417480	2.302005
887.642822	719.844788	1116.026855	727.795166	2.006749
887.936340	715.981018	1089.129272	722.742615	1.812040
888.229736	713.529053	1063.346313	718.804504	1.508059
888.523071	708.922302	1049.526001	719.770447	3.184976
888.816284	710.631165	1034.368164	729.429871	5.806783
889.109619	716.278137	1027.680786	732.773438	5.297097
889.402710	715.015076	1011.780090	731.064453	5.408110
889.695862	712.340149	992.461426	720.662109	2.970842
889.988892	706.767517	981.241699	719.473328	4.629146
890.281921	709.516724	983.916626	717.987183	3.086903
>>>>>End Processed Spectral Data<<<<<
