Jaz Data File
++++++++++++++++++++++++++++++++++++
Date: Fri Jun 04 17:07:44 2021
User: jaz
Dark Spectrum Present: Yes
Reference Spectrum Present: Yes
Processed Spectrum Present: Yes
Spectrometers: JAZA3586
Integration Time (usec): 120000 (JAZA3586)
Spectra Averaged: 10 (JAZA3586)
Boxcar Smoothing: 1 (JAZA3586)
Correct for Electrical Dark: No (JAZA3586)
Strobe/Lamp Enabled: Yes (JAZA3586)
Correct for Detector Non-linearity: No (JAZA3586)
Correct for Stray Light: No (JAZA3586)
Number of Pixels in Processed Spectrum: 2048
>>>>>Begin Processed Spectral Data<<<<<
W	D	R	S	P
191.335022	0.000000	0.000000	0.000000	0.000000
191.713211	229.818314	229.892624	229.966919	199.979462
192.091385	460.082428	468.552979	455.401367	-55.262768
192.469528	686.408508	696.142273	685.516907	-9.159884
192.847641	692.724304	707.659180	694.581848	12.437626
193.225739	702.606506	714.197754	717.318420	126.922607
193.603790	719.547546	727.423584	730.767273	142.453949
193.981842	727.869446	730.915833	736.488464	282.925964
194.359863	736.340027	734.408020	737.974548	-84.602264
194.737854	738.791992	737.900208	744.736145	-666.545776
195.115829	739.163513	739.312012	747.039551	5303.781250
195.493774	740.203796	734.631042	742.581360	-42.664066
195.871704	741.615479	730.247131	742.284180	-5.882132
196.249603	741.912659	727.200745	737.974609	26.767756
196.627457	738.346191	728.166687	736.414307	18.978182
197.005310	736.934387	731.658875	739.312073	-45.070229
197.383133	741.169678	738.346130	739.832214	47.368195
197.760910	750.383118	746.445129	751.869202	-37.737137
198.138687	758.556458	749.268738	740.872498	190.401520
198.516449	765.095154	740.203674	741.541199	94.626579
198.894180	755.064270	727.052185	729.429871	91.511932
199.271866	748.451355	730.544373	732.699158	87.966789
199.649536	735.819824	735.076843	732.327637	470.023834
200.027191	733.144958	743.324524	735.076843	18.978067
200.404816	728.909668	743.547363	732.922058	27.411352
200.782410	730.544373	754.989929	740.723877	41.641533
201.159988	727.200684	768.513000	743.101563	38.489437
201.537537	725.566101	774.308594	745.107727	40.091560
201.915070	721.702332	775.051758	743.621643	41.086311
202.292557	726.606262	771.930969	745.999329	42.786964
202.670029	730.470032	773.194153	750.754700	47.478256
203.047485	734.259460	771.633789	743.250183	24.055878
203.424911	728.389587	768.215820	732.476257	10.261251
203.802292	722.296692	763.163269	729.504150	17.636560
204.179688	716.872742	763.014648	727.943848	23.993603
204.557037	725.640381	759.819641	730.767273	15.000009
204.934357	727.052063	759.522461	729.281250	6.865290
205.311661	731.658875	760.934143	731.138733	-1.776727
205.688934	723.188416	759.225159	722.965515	-0.618536
206.066177	728.389648	764.054871	715.015076	-37.500320
206.443390	721.851013	758.184998	710.185364	-32.106716
206.820587	725.045959	758.259277	716.278137	-26.398514
207.197769	728.761169	754.915710	718.878845	-37.784355
207.574921	732.773438	757.962097	717.021240	-62.536861
207.952042	733.219299	761.454285	714.643555	-65.789818
208.329147	719.101746	760.488342	720.364807	3.051861
208.706223	758.482178	803.212402	772.302429	30.896896
209.083267	762.717468	802.915222	770.147644	18.484056
209.460297	767.547119	795.782166	770.667786	11.052458
209.837280	729.132629	745.702148	722.445374	-40.358780
210.214264	718.061523	745.553528	724.674500	24.054180
210.591217	714.792236	749.045715	724.674500	28.850393
210.968124	715.981018	758.630798	730.024231	32.926811
211.345016	722.519714	766.432556	737.454590	34.010269
211.721893	724.971680	778.469666	731.138855	11.527864
212.098724	721.627991	778.469543	729.355530	13.594877
212.475555	712.860168	778.692566	726.754883	21.106195
212.852356	708.922180	769.850403	729.949951	34.512367
213.229126	712.117188	770.965027	731.064453	32.197044
213.605865	719.621826	762.048645	727.349304	18.213663
213.982590	725.120300	768.364441	722.742493	-5.498566
214.359283	720.513489	757.590515	720.736389	0.601182
214.735931	718.284424	757.218994	726.160461	20.228907
215.112579	707.733459	751.274841	731.287415	54.095562
215.489197	701.343445	748.302734	724.971680	50.316422
215.865799	704.241211	744.216003	717.467041	33.085426
216.242355	718.284424	742.804260	719.993347	6.969554
216.618896	730.767273	749.417297	722.148132	-46.215172
216.995407	727.423645	758.184998	718.581543	-28.744192
217.371902	721.702332	761.602844	711.002686	-26.815811
217.748367	724.005676	764.352051	710.556885	-33.333332
218.124802	723.039734	757.887695	709.219421	-39.658882
218.501236	722.593933	754.841309	713.008850	-29.723606
218.877609	714.197754	751.274841	714.940735	2.003882
219.253983	724.154297	754.767029	725.491699	4.368778
219.630295	728.835449	757.590576	726.606262	-7.752312
220.006592	728.761047	758.927979	730.618652	6.157753
220.382889	718.284363	751.126221	727.200745	27.149445
220.759140	717.169922	746.370850	731.361633	48.600208
221.135391	713.306152	746.965271	731.064453	52.759258
221.511581	715.906738	745.181946	729.058289	44.923851
221.887772	711.225586	747.931152	723.411316	33.198589
222.263931	717.764343	757.739197	725.640320	19.702328
222.640060	717.541321	772.599670	728.018066	19.028440
223.016159	724.748718	769.553223	727.497864	6.135869
223.392212	717.764343	758.556458	726.011902	20.218512
223.768265	719.324646	756.253113	730.767273	30.985926
224.144302	708.699402	757.293396	728.389587	40.519791
224.520294	707.807800	757.293396	727.572266	39.939835
224.896286	717.021301	761.528564	726.680664	21.702890
225.272217	722.965515	765.912415	730.395752	17.300985
225.648148	734.853943	771.336609	728.463867	-17.515375
226.024048	723.634094	767.695801	718.061523	-12.647197
226.399902	719.176025	770.370605	716.575500	-5.079688
226.775772	702.235046	760.414063	716.129639	23.882481
227.151581	703.646790	756.401672	724.748718	39.999954
227.527374	703.721130	751.274841	728.389587	51.874935
227.903137	715.089355	760.636902	725.640381	23.164860
228.278870	718.433044	765.020813	723.188293	10.207076
228.654572	714.717957	763.609070	711.820007	-5.927354
229.030273	711.002747	763.609070	710.036804	-1.836172
229.405930	707.436279	760.636963	712.414490	9.357418
229.781555	708.402161	757.070374	721.405090	26.717501
230.157181	714.866516	755.807312	724.525879	23.593491
230.532761	711.597168	753.280945	724.377258	30.659626
230.908325	716.203918	762.568848	720.513428	9.294761
231.283859	715.089417	760.339783	725.491699	22.988283
231.659332	719.547546	759.671082	721.553711	4.999969
232.034821	715.535217	758.407898	719.175964	8.491998
232.410263	709.516663	755.732971	718.730164	19.935606
232.785690	702.978027	755.287109	719.027405	30.681818
233.161087	706.098816	748.377014	724.377258	43.233730
233.536469	708.773682	755.212891	728.686829	42.880032
233.911804	713.900574	747.411072	726.457703	37.472225
234.287140	713.751953	754.098328	733.665100	49.355480
234.662430	707.584778	751.943542	726.680664	43.048733
235.037704	703.795410	758.928040	727.497864	42.991699
235.412933	706.321594	760.339783	715.237976	16.506258
235.788162	715.906738	763.683411	712.785950	-6.532034
236.163345	724.748779	773.416992	720.513489	-8.702375
236.538513	728.018066	774.977356	724.377258	-7.753116
236.913635	730.693054	774.531555	718.135742	-28.644484
237.288742	733.739441	767.844238	726.086182	-22.440418
237.663834	732.104736	759.373779	724.971680	-26.158075
238.038879	729.949951	753.058105	737.083008	30.868137
238.413910	719.176025	747.039551	720.810730	5.866826
238.788910	711.522888	746.593750	726.234802	41.949108
239.163879	712.191589	752.017822	726.086182	34.888042
239.538834	713.603333	758.259277	733.962341	45.590813
239.913757	722.445374	761.157043	725.789001	8.637260
240.288651	721.330872	759.150940	722.593933	3.339659
240.663528	720.290527	765.243713	722.445374	4.793534
241.038361	713.900574	773.491394	727.423645	22.693213
241.413177	710.111084	772.005310	734.185242	38.895645
241.787979	708.402161	763.980652	730.841553	40.374237
242.162735	710.556946	760.339661	732.624817	44.328381
242.537476	710.854187	761.602844	722.593994	23.133238
242.912170	719.993408	775.125977	725.640442	10.242646
243.286865	717.838623	773.342712	726.309143	15.261074
243.661514	715.980957	770.965027	730.247253	25.946236
244.036148	715.609558	767.472717	725.417480	18.911156
244.410751	718.878723	774.457275	729.727051	19.518909
244.785339	723.931396	775.125977	723.931396	0.000000
245.159882	714.346375	765.838135	724.302979	19.336306
245.534378	718.581604	760.488342	719.919128	3.191669
245.908890	720.290527	768.661621	718.804504	-3.072130
246.283356	720.290527	769.627625	723.411316	6.325440
246.657791	720.587830	765.243713	715.683899	-10.981601
247.032196	718.061523	765.540955	722.222473	8.763689
247.406586	721.776672	764.797913	715.312317	-15.025963
247.780960	714.494934	769.627625	717.689941	5.795123
248.155289	714.494934	767.175598	718.804504	8.180554
248.529602	715.312317	774.011414	721.330811	10.253128
248.903870	719.770508	769.330383	730.767273	22.188847
249.278122	715.832336	759.671082	727.126465	25.762892
249.652344	715.535156	757.961975	723.634216	19.089481
250.026550	711.820068	763.906250	715.535217	7.132696
250.400711	717.764343	776.091980	721.107910	5.732389
250.774857	720.290588	769.999084	727.720886	14.947742
251.148987	727.795227	771.113586	724.302917	-8.061962
251.523071	722.222473	764.426331	719.473206	-6.514256
251.897125	719.770447	771.039307	717.392761	-4.637680
252.271164	710.705566	766.952637	721.702332	19.550823
252.645187	706.916077	769.330383	729.875549	36.785591
253.019165	703.126709	767.101318	729.578430	41.347218
253.393112	711.374268	776.091980	733.442200	34.098751
253.767044	715.980957	775.051758	723.411316	12.578734
254.140930	722.148132	772.376770	733.888000	23.372858
254.514801	718.878845	764.129211	734.333740	34.154186
254.888657	723.559875	768.958801	735.522644	26.350334
255.262466	722.296814	776.909241	728.463867	11.292399
255.636276	726.606384	776.537781	733.962219	14.731883
256.010010	723.782898	778.469543	736.042786	22.418430
256.383759	728.686768	769.627502	734.853943	15.063665
256.757446	720.216248	770.965027	721.553772	2.635580
257.131134	718.432922	764.872070	717.392761	-2.239837
257.504791	709.591003	772.674011	711.522766	3.062255
257.878418	713.603271	777.503662	713.380371	-0.348825
258.252014	725.714661	783.819397	719.993347	-9.846553
258.625580	725.491760	782.853516	730.321472	8.419743
258.999115	723.485596	779.658508	724.302917	1.455011
259.372650	713.677673	777.206482	718.581604	7.719223
259.746124	715.238037	782.927734	709.368103	-8.671828
260.119598	717.095520	791.695496	722.742493	7.569671
260.493042	725.640320	802.766602	719.398926	-8.092435
260.866425	730.098450	797.342468	716.872620	-19.668411
261.239838	732.476257	796.525146	711.002747	-33.526749
261.613159	721.256531	789.986572	716.872620	-6.378450
261.986511	722.742493	800.240295	720.364929	-3.067911
262.359802	714.792175	795.930847	724.748718	12.271020
262.733063	716.575439	788.351868	722.742615	8.592201
263.106293	708.625061	780.995911	725.714661	23.613928
263.479523	711.671387	783.968018	729.429871	24.563362
263.852692	704.984192	789.020569	734.333801	34.924885
264.225861	710.333984	791.918396	737.305908	33.060143
264.598969	716.129639	793.181458	733.293640	22.275921
264.972076	722.296875	792.215637	729.355530	10.095509
265.345154	729.132629	795.262024	730.841614	2.584304
265.718201	726.829285	792.958679	725.268860	-2.359654
266.091217	731.584534	803.286682	736.934387	7.461218
266.464203	731.435974	801.875000	736.637207	7.384022
266.837158	730.395691	803.286804	737.528809	9.785991
267.210114	724.079895	792.958679	721.776672	-3.343878
267.583038	712.934570	788.054626	716.872742	5.242503
267.955902	711.151367	792.066956	717.838623	8.264484
268.328766	718.135742	808.859375	730.470032	13.595454
268.701569	716.129578	813.243225	731.584656	15.914425
269.074371	711.522888	814.729309	736.934387	24.622013
269.447144	708.402161	802.543701	728.315247	21.152285
269.819885	715.460938	807.596375	728.909668	14.596697
270.192596	723.337097	802.915222	729.132629	7.282821
270.565277	723.262695	816.809814	733.293640	10.722879
270.937927	719.398926	818.147278	735.002502	15.801354
271.310577	717.615723	820.004883	732.030457	14.078379
271.683136	719.398926	820.970886	729.429871	9.875703
272.055725	724.154297	819.261902	726.829285	2.812591
272.428284	729.206848	829.812805	727.869446	-1.329347
272.800812	725.714661	824.463074	736.414246	10.835196
273.173279	721.330811	831.670410	741.095398	17.912506
273.545776	712.860291	826.989258	736.934387	21.093765
273.918152	711.448547	827.509460	729.355469	15.428899
274.290558	712.562988	822.308167	722.519714	9.072586
274.662964	713.231750	828.846863	720.662109	6.426806
275.035278	716.055359	826.394836	718.953125	2.626228
275.407593	712.488770	829.738464	718.358704	5.006353
275.779907	714.569275	833.082092	724.600098	8.463914
276.152161	708.847961	840.958191	727.720886	14.285741
276.524384	716.872620	842.147034	734.556641	14.116227
276.896606	717.244141	838.283386	725.937683	7.182416
277.268799	722.593994	847.273926	726.754883	3.337256
277.640930	717.615723	853.366699	722.445313	3.557683
278.013031	727.720886	857.750671	725.640320	-1.600069
278.385162	729.949951	852.177917	721.107910	-7.234057
278.757233	731.881836	851.211914	722.073792	-8.219255
279.129272	721.405090	852.475098	722.519592	0.850310
279.501282	723.857117	851.583496	724.377258	0.407231
279.873230	727.052063	845.713562	723.411316	-3.068179
280.245178	732.550537	854.184082	723.931396	-7.086154
280.617126	722.371094	863.546204	716.501160	-4.157910
280.988983	714.866455	879.967102	716.575439	1.035117
281.360870	713.826233	889.254883	719.621887	3.303710
281.732697	711.077087	898.096924	725.045898	7.469160
282.104492	722.965515	902.852295	727.646545	2.602209
282.476288	723.782715	899.731628	723.485535	-0.168901
282.848053	736.488586	900.325989	718.655945	-10.884354
283.219757	731.213074	909.985413	715.832336	-8.603533
283.591461	733.070618	924.251465	722.742493	-5.402280
283.963135	728.835388	929.601257	732.401917	1.776461
284.334747	730.767273	930.418640	737.974609	3.609961
284.706360	724.600098	924.623047	733.739441	4.569147
285.077942	727.943665	929.007019	735.596985	3.806422
285.449524	722.519714	935.842773	733.367859	5.085313
285.821014	722.371094	932.573425	730.915833	4.065007
286.192535	716.649719	941.638367	726.829163	4.524426
286.563995	718.210144	938.814880	723.188293	2.256592
286.935425	723.188293	948.251282	724.005676	0.363180
287.306824	726.383484	938.443359	723.559875	-1.331515
287.678223	722.222473	938.963440	729.429749	3.325294
288.049561	720.885010	944.610535	732.327576	5.114555
288.420898	717.615662	948.399902	730.247070	5.473254
288.792145	722.891113	953.675476	724.823059	0.837122
289.163452	722.965515	951.372070	722.445313	-0.227753
289.534668	725.491760	963.632019	721.033630	-1.872061
289.905914	719.324707	972.845520	718.432922	-0.351760
290.277039	727.943787	987.928955	719.844727	-3.115201
290.648193	739.089172	995.210632	726.531982	-4.902826
291.019318	737.677429	1002.195068	728.315247	-3.539341
291.390381	725.194580	1004.424133	722.891296	-0.824871
291.761475	713.157532	1006.430359	721.182190	2.736243
292.132507	716.278259	1011.631531	722.593933	2.138346
292.503510	713.900574	1015.198059	730.767273	5.598022
292.874481	718.284363	1024.337280	738.048889	6.457879
293.245422	723.188416	1017.872986	739.089172	5.395856
293.616364	727.720886	1024.634644	734.185242	2.177183
293.987213	723.708496	1019.953430	727.572266	1.304248
294.358093	723.114075	1037.043091	725.937683	0.899442
294.728943	720.810730	1046.182251	721.999512	0.365361
295.099731	717.095520	1072.188354	719.547546	0.690531
295.470490	709.219482	1087.717529	719.250305	2.650165
295.841248	709.442383	1092.250122	726.457703	4.444873
296.211975	710.482605	1101.314941	723.708496	3.384032
296.582642	720.959290	1111.420044	718.284363	-0.685069
296.953308	722.148132	1133.710938	720.439148	-0.415243
297.323883	723.188416	1133.413696	730.618652	1.811258
297.694519	718.358704	1148.274170	736.265625	4.165219
298.065063	714.494934	1153.698242	736.637146	5.041449
298.435608	717.764343	1157.710693	729.504150	2.668463
298.806122	718.061523	1144.782104	723.411316	1.253699
299.176575	726.309082	1126.503540	723.337097	-0.742635
299.547028	723.262695	1113.277710	721.330872	-0.495320
299.917450	715.089355	1100.274780	723.411316	2.160508
300.287872	709.219543	1100.274780	717.838562	2.204041
300.658234	713.454773	1107.704956	726.680664	3.354695
301.028564	720.439209	1107.184814	726.457703	1.556189
301.398865	724.228577	1106.887573	731.807434	1.980577
301.769135	722.222473	1100.720459	734.779602	3.317621
302.139374	726.606384	1109.042358	742.952942	4.274325
302.509583	724.154358	1119.370483	740.129395	4.042101
302.879791	721.702332	1125.166138	726.160461	1.104964
303.249939	713.974854	1123.680054	723.114075	2.230682
303.620087	711.448547	1116.769897	719.027405	1.869839
303.990173	717.912903	1117.364258	720.810730	0.725452
304.360260	724.005676	1121.079468	725.714661	0.430395
304.730286	726.011902	1127.618164	734.631042	2.146167
305.100281	714.717834	1132.522095	730.618652	3.805806
305.470276	710.705566	1134.379517	726.309082	3.682907
305.840179	710.705566	1140.398071	724.154297	3.129850
306.210144	713.677551	1148.125610	733.293640	4.515175
306.579987	717.838562	1160.014038	735.076843	3.898516
306.949890	713.157532	1164.472168	730.470032	3.836016
307.319702	718.358704	1171.308105	728.835388	2.312992
307.689484	717.169861	1182.899292	720.885010	0.797705
308.059265	725.045959	1204.447144	727.126465	0.433980
308.429016	722.593933	1220.348022	725.343262	0.552347
308.798737	721.776672	1239.592285	727.200745	1.047491
309.168396	720.364929	1248.434204	720.810730	0.084421
309.538055	718.358704	1267.158569	717.764343	-0.108302
309.907684	719.844727	1272.359741	721.776611	0.349653
310.277313	714.494934	1280.904419	722.593933	1.429884
310.646851	719.621887	1293.164551	726.011902	1.114131
311.016388	713.974854	1309.808350	728.983948	2.519008
311.385895	717.838562	1319.839233	732.030457	2.357455
311.755371	714.717834	1317.015747	732.401917	2.936102
312.124817	720.067627	1321.473877	722.445313	0.395354
312.494232	720.885010	1326.823730	716.946960	-0.649909
312.863617	719.250305	1321.251099	718.432922	-0.135778
313.232971	724.600098	1317.461670	725.120300	0.087744
313.602295	726.234802	1308.099487	723.857117	-0.408632
313.971619	724.154297	1312.483276	720.216309	-0.669351
314.340820	721.627991	1308.025024	722.519714	0.152068
314.710083	721.850891	1326.154907	721.553711	-0.049177
315.079285	722.222412	1347.479858	724.674500	0.392172
315.448486	725.566101	1369.696289	725.640381	0.011532
315.817596	716.649719	1372.817017	732.847717	2.468577
316.186707	720.439148	1360.408569	731.881836	1.788005
316.555786	706.841797	1348.445801	732.401855	3.983775
316.924866	712.042969	1333.139526	731.361633	3.110412
317.293884	709.962463	1328.978516	735.819824	4.177171
317.662872	716.575439	1323.182983	731.510254	2.462023
318.031830	714.569336	1328.532593	731.658875	2.783479
318.400757	719.101746	1335.071411	731.435974	2.002409
318.769684	719.027344	1350.303345	734.928223	2.518847
319.138550	720.513428	1358.996704	729.578430	1.419771
319.507416	716.426819	1368.878906	724.525879	1.241326
319.876190	710.259705	1362.191650	720.439148	1.561427
320.244995	711.597168	1369.399048	733.367859	3.309612
320.613770	716.946960	1364.643677	734.631042	2.730303
320.982483	727.349304	1370.959473	732.030457	0.727327
321.351166	723.782776	1366.798462	723.559875	-0.034665
321.719818	719.473328	1366.872681	723.634094	0.642689
322.088440	714.123474	1370.513672	725.714661	1.765899
322.457062	716.426819	1381.287598	726.829285	1.564608
322.825623	717.244141	1389.237915	725.566101	1.238398
323.194183	714.643555	1404.692993	725.566101	1.582864
323.562653	708.922302	1416.358398	729.504089	2.909349
323.931183	708.773682	1445.559448	729.206848	2.773285
324.299591	714.569336	1478.178223	733.367859	2.461800
324.668060	718.581726	1511.020142	728.538147	1.256428
325.036407	712.414490	1551.589355	729.801270	2.071890
325.404755	708.625000	1563.255005	726.457703	2.086599
325.773102	708.104919	1568.679077	726.086182	2.089449
326.141388	715.980957	1568.158813	731.658875	1.839747
326.509674	716.352539	1562.957642	730.024231	1.614884
326.877899	719.621887	1569.942261	734.556702	1.756375
327.246124	717.021301	1567.638672	735.448303	2.166309
327.614288	720.810730	1576.629395	744.364563	2.752199
327.982422	717.541321	1584.802734	734.259460	1.927693
328.350525	715.460938	1585.991577	734.185242	2.150907
328.718628	708.104980	1591.712891	728.538147	2.312470
329.086700	709.739563	1582.202148	731.881836	2.537905
329.454712	703.944031	1583.167969	725.194519	2.416960
329.822693	707.584778	1595.948120	726.086121	2.082632
330.190674	705.207092	1618.907715	733.442139	3.090186
330.558563	713.603333	1642.535767	732.104675	1.991678
330.926483	713.826172	1648.480103	728.686768	1.589957
331.294312	719.770508	1646.994141	727.572266	0.841411
331.662231	726.309082	1653.532715	730.321472	0.432732
332.029999	722.816895	1672.405762	727.349365	0.477309
332.397766	724.302917	1703.910156	729.727051	0.553705
332.765503	718.433044	1737.197632	730.618652	1.196116
333.133240	714.494934	1766.547241	735.448303	1.991666
333.500916	710.185364	1796.268188	729.429871	1.771919
333.868561	710.185364	1808.231079	726.160461	1.454866
334.236176	714.346375	1803.252808	723.485657	0.839308
334.603790	705.429993	1800.057739	729.058289	2.158569
334.971344	696.439453	1795.971191	729.727051	3.027434
335.338867	695.919250	1801.469604	734.779602	3.515023
335.706360	707.436218	1796.714233	728.761169	1.957714
336.073853	719.250305	1806.076294	731.584656	1.134897
336.441284	724.005676	1819.748047	724.674500	0.061038
336.808655	716.501160	1825.989380	723.931458	0.669705
337.176086	711.745789	1811.351685	718.358704	0.601390
337.543396	708.922302	1769.890991	716.055359	0.672315
337.910706	716.055359	1744.702148	714.866516	-0.115573
338.277954	711.225647	1752.206665	715.312317	0.392579
338.645264	708.922180	1823.240234	722.965515	1.260263
339.012421	710.482605	1903.635742	726.457703	1.338898
339.379669	714.940735	1971.548462	730.247131	1.218073
339.746796	721.702332	2014.792480	734.259521	0.971099
340.113953	719.176025	2035.820190	736.042725	1.281037
340.481018	716.055359	2041.987305	740.649597	1.854864
340.848114	711.225586	2034.111328	731.436035	1.527755
341.215118	712.414551	2032.773926	726.754944	1.086098
341.582153	713.380432	2045.851196	723.782898	0.780690
341.949066	712.488770	2055.510498	728.538269	1.195029
342.316010	708.030579	2070.742676	732.179016	1.772087
342.682922	711.448547	2076.686768	728.092346	1.219113
343.049835	714.123474	2112.649170	728.240967	1.009455
343.416656	722.668213	2147.348633	738.643311	1.121311
343.783478	722.222473	2193.267822	738.569031	1.111220
344.150269	727.943787	2226.481201	735.968445	0.535499
344.516998	722.668274	2272.251465	722.891113	0.014381
344.883728	729.504150	2316.015625	727.795166	-0.107720
345.250427	721.107910	2354.801758	728.315247	0.441168
345.617065	722.816833	2369.364990	730.395752	0.460291
345.983704	714.792175	2363.941162	728.761047	0.847035
346.350281	710.111084	2358.814209	730.544373	1.239355
346.716827	710.408203	2339.569824	732.847839	1.377373
347.083405	707.064636	2339.421143	731.138855	1.474814
347.449860	728.538269	2336.003174	741.541199	0.808909
347.816376	724.080078	2347.148682	738.791992	0.906426
348.182770	730.990173	2339.198242	732.922058	0.120127
348.549194	718.804504	2327.012451	719.844788	0.064686
348.915558	726.531982	2333.476807	721.405090	-0.319046
349.281921	727.869446	2333.774170	732.104675	0.263729
349.648193	725.417480	2360.523193	736.785706	0.695259
350.014526	718.878845	2379.395752	737.528748	1.123138
350.380737	715.237976	2425.612305	736.191345	1.225075
350.746948	720.885010	2459.568604	737.305847	0.944441
351.113159	721.628113	2489.215576	733.367859	0.664168
351.479309	718.284424	2502.664307	733.367859	0.845304
351.845428	706.916016	2507.494141	725.714661	1.044034
352.211517	713.603333	2528.224365	720.810730	0.397185
352.577576	712.117249	2552.744141	720.587830	0.460201
352.943604	713.900574	2591.901611	724.080017	0.542036
353.309601	706.767517	2626.006836	738.197510	1.637628
353.675537	710.482666	2678.464600	725.268860	0.751338
354.041473	710.854187	2735.231689	725.566101	0.726738
354.407379	713.008972	2789.472900	717.318420	0.207538
354.773254	713.677673	2842.004883	726.309082	0.593490
355.139038	718.210144	2883.911377	726.977783	0.404841
355.504913	722.965515	2945.731445	731.138733	0.367705
355.870636	717.690002	3000.864014	736.340027	0.816846
356.236389	719.101746	3061.420654	736.562927	0.745466
356.602081	717.244141	3132.305420	738.123230	0.864537
356.967804	725.491760	3216.416016	737.528809	0.483236
357.333405	724.525879	3306.619873	740.055115	0.601420
357.699036	717.689941	3371.411865	734.928223	0.649589
358.064606	714.717834	3452.253174	728.686768	0.510274
358.430176	706.990417	3503.967529	725.120300	0.648196
358.795654	710.779785	3555.608154	722.891113	0.425731
359.161163	710.259705	3564.004639	729.875671	0.687376
359.526581	713.900574	3563.260986	730.098572	0.568478
359.892029	717.541321	3581.317139	743.324463	0.900320
360.257416	720.290527	3622.480469	740.203796	0.686146
360.622772	721.033630	3739.878906	741.838379	0.689162
360.988098	717.987122	3859.283203	725.714661	0.245998
361.353394	714.643616	4005.733643	720.662109	0.182872
361.718658	724.971680	4135.243652	724.005676	-0.028326
362.083893	721.925293	4246.177246	725.194519	0.092764
362.449097	727.646545	4339.130371	721.850891	-0.160478
362.814209	719.993408	4355.328125	723.559875	0.098106
363.179382	716.129578	4294.103027	727.869446	0.328115
363.544434	711.597168	4138.810059	733.219238	0.630894
363.909546	708.104980	3942.725342	725.045959	0.523739
364.274536	707.882080	3782.825928	729.504089	0.703168
364.639587	702.978027	3654.579346	737.231628	1.160509
365.004517	706.395996	3606.505127	744.661865	1.319463
365.369507	705.207214	3575.446533	742.284180	1.291773
365.734344	708.922302	3576.561523	739.534973	1.067522
366.099274	711.820068	3574.481201	740.500916	1.001895
366.464081	716.055359	3571.806396	737.974609	0.767548
366.828918	718.358704	3575.892822	735.002502	0.582453
367.193665	710.111084	3588.375732	730.024231	0.691846
367.558411	715.238037	3597.514893	736.488525	0.737281
367.923126	713.529053	3601.898682	740.872375	0.946670
368.287781	725.045959	3595.582764	737.305969	0.427098
368.652435	719.398926	3590.456055	733.813660	0.502071
369.017059	722.965515	3582.357178	737.825989	0.519708
369.381653	719.621887	3577.601563	747.113831	0.961936
369.746185	719.250305	3561.849609	745.404846	0.920092
370.110687	711.374268	3562.666992	739.237793	0.977224
370.475220	703.795410	3567.645264	736.785828	1.151960
370.839661	710.482666	3613.044189	741.541199	1.070039
371.204041	711.002747	3675.458740	736.042786	0.844676
371.568451	714.272034	3733.340088	730.990173	0.553752
371.932770	711.374207	3775.618408	725.937500	0.475265
372.297150	713.231750	3786.837891	727.497864	0.464149
372.661377	717.764343	3806.156982	724.377197	0.214120
373.025696	713.380432	3831.642578	720.513428	0.228749
373.389862	717.690002	3850.515625	722.519592	0.154161
373.754059	716.575439	3860.175049	729.949951	0.425452
374.118225	718.507324	3882.317139	736.265686	0.561297
374.482361	713.677551	3906.242432	739.312073	0.802944
374.846436	712.785950	3954.464844	729.504089	0.515725
375.210510	706.916016	4002.093018	727.275085	0.617845
375.574524	709.145203	4094.080078	726.754883	0.520237
375.938538	706.098816	4173.509766	732.922058	0.773581
376.302460	713.008972	4258.140625	733.219238	0.570085
376.666412	720.067688	4345.892090	732.476257	0.342228
377.030304	719.770508	4441.667969	731.658875	0.319417
377.394196	719.547546	4543.834473	723.336975	0.099089
377.757996	719.844727	4610.706543	723.708496	0.099304
378.121796	724.451477	4661.084473	720.439148	-0.101923
378.485565	721.256531	4664.279297	724.451477	0.081028
378.849304	713.900574	4633.740723	729.206848	0.390482
379.212982	712.414551	4571.177734	736.340027	0.620030
379.576630	718.953186	4488.924805	735.299622	0.433596
379.940277	717.095642	4406.819824	735.225403	0.491358
380.303864	719.101746	4361.272949	739.683594	0.565098
380.667450	715.758118	4348.863770	745.702148	0.824199
381.030945	719.101746	4373.606934	740.055176	0.573359
381.394501	720.810730	4406.373535	744.587585	0.645135
381.757935	729.504089	4431.488770	754.841309	0.684423
382.121399	732.922058	4442.039551	756.327393	0.631022
382.484741	729.875671	4457.940918	745.256287	0.412563
382.848145	725.120300	4497.246582	731.361633	0.165459
383.211487	716.055359	4538.707520	733.367859	0.452892
383.574768	719.101746	4594.583496	735.522644	0.423712
383.938019	721.256531	4655.362793	741.689758	0.519387
384.301270	728.240967	4732.785645	739.534912	0.282028
384.664459	718.210144	4788.142090	738.866211	0.507529
385.027649	714.792175	4835.249512	730.841553	0.389505
385.390778	708.996582	4867.794434	735.299744	0.632470
385.753876	719.696106	4902.121582	738.643372	0.453021
386.116943	716.426819	4921.218262	743.695984	0.648526
386.479980	720.959290	4944.846191	747.262451	0.622724
386.842987	712.042969	4980.511719	743.621643	0.739813
387.205994	717.021240	5023.532715	750.680420	0.781588
387.568909	716.426819	5070.269043	746.073547	0.680933
387.931793	719.027405	5103.259277	752.983704	0.774510
388.294678	712.637390	5149.327148	752.463623	0.897656
388.657471	715.163757	5178.824707	759.745300	0.998766
389.020294	722.816895	5195.023438	767.844238	1.006826
389.383057	730.024231	5209.363770	780.475769	1.126317
389.745819	723.114075	5229.573730	788.723389	1.455895
390.108521	717.095520	5250.453125	796.450867	1.750476
390.471191	705.281433	5288.273438	796.227966	1.984436
390.833801	715.312317	5364.359863	793.255859	1.676549
391.196442	710.928406	5474.253418	801.354797	1.898388
391.558960	717.392761	5571.589844	818.221619	2.077148
391.921509	712.117371	5690.102051	842.592834	2.621050
392.284027	716.798340	5802.670410	855.893066	2.734924
392.646484	718.953125	5888.787598	875.508972	3.028256
393.008911	721.479431	5902.904785	886.877258	3.192130
393.371307	717.392761	5904.316895	904.932800	3.615631
393.733673	713.008972	5889.308594	913.477722	3.872819
394.096008	708.550781	5866.051270	933.762268	4.366679
394.458344	718.655945	5853.642578	951.297668	4.530522
394.820587	719.398987	5875.115723	969.353271	4.848100
395.182831	724.451477	5910.707031	989.563660	5.111823
395.545013	712.414490	5902.459473	1004.646973	5.630635
395.907196	714.271973	5874.818848	1033.550781	6.186918
396.269287	710.482605	5834.175781	1066.987061	6.957959
396.631409	717.244202	5773.693359	1097.896973	7.528065
396.993469	717.689941	5700.950684	1118.107300	8.035248
397.355530	717.541321	5643.737793	1136.460083	8.503900
397.717499	717.318420	5634.449707	1168.038696	9.166326
398.079468	719.398987	5616.914551	1204.372925	9.902448
398.441376	718.284424	5627.539551	1223.097046	10.282877
398.803284	713.826233	5629.025879	1243.530273	10.776857
399.165131	704.389832	5662.907715	1262.106079	11.247640
399.526978	706.618896	5658.449219	1294.204712	11.866034
399.888763	713.157532	5685.718750	1329.127075	12.387370
400.250519	713.380371	5698.424316	1366.129883	13.094157
400.612244	711.522888	5735.427246	1408.259399	13.868427
400.973938	707.882019	5731.488770	1431.664917	14.407634
401.335602	714.272034	5740.182129	1455.664673	14.751410
401.697205	718.284485	5767.376953	1482.487915	15.135462
402.058807	715.906738	5818.645996	1511.168823	15.585003
402.420349	719.547607	5888.341797	1545.719604	15.983845
402.781860	716.203918	5955.140137	1581.607788	16.518696
403.143341	720.216309	6031.151855	1640.604126	17.330051
403.504822	720.810730	6139.634277	1693.507446	17.950329
403.866241	718.730225	6273.081543	1729.990234	18.206625
404.227631	714.792175	6397.687012	1763.500610	18.453772
404.588959	708.699402	6538.045410	1818.559082	19.039179
404.950287	711.225647	6646.527344	1866.781616	19.469202
405.311554	708.699402	6729.894531	1906.384766	19.891155
405.672821	703.944031	6768.086426	1932.687988	20.262451
406.034027	701.714844	6772.395996	1953.046997	20.612715
406.395203	702.458008	6747.429688	1974.520508	21.043316
406.756348	709.739563	6707.975098	1977.567017	21.136673
407.117493	710.333984	6669.857910	2005.356079	21.730295
407.478516	717.912903	6670.006348	2012.489258	21.749935
407.839600	718.953125	6679.591797	2027.721313	21.956844
408.200592	719.547546	6698.241699	2041.021484	22.103052
408.561554	715.535217	6709.164063	2071.485596	22.623196
408.922485	719.844727	6702.923340	2099.572021	23.060492
409.283417	718.284363	6705.746582	2124.389160	23.484152
409.644257	722.148132	6752.929199	2152.178467	23.712189
410.005096	718.284424	6833.695801	2191.038818	24.082672
410.365906	717.541443	6911.119141	2212.066162	24.130232
410.726715	711.968689	6998.424316	2239.409912	24.297335
411.087433	708.476379	7070.869629	2252.189697	24.263094
411.448120	711.745789	7143.983887	2288.300781	24.510208
411.808807	712.117249	7160.330078	2326.492432	25.036011
412.169434	713.974792	7133.507324	2339.197998	25.316845
412.530029	719.027405	7114.411621	2352.795654	25.546053
412.890564	719.324707	7116.491699	2346.405518	25.434397
413.251099	720.364929	7153.717285	2367.804932	25.607798
413.611572	717.987244	7191.537109	2394.033691	25.890684
413.972076	726.680664	7230.769531	2416.101563	25.974751
414.332489	724.748779	7259.673340	2440.398682	26.253551
414.692871	724.377258	7348.910645	2459.122803	26.186684
415.053223	710.928406	7440.005859	2492.930908	26.482121
415.413574	710.854187	7607.484375	2539.072754	26.508865
415.773834	707.807800	7715.445801	2579.344727	26.707100
416.134094	716.872620	7844.138184	2630.241943	26.845770
416.494263	717.467102	7919.257813	2671.182861	27.128195
416.854462	720.959290	8098.326660	2734.860352	27.298372
417.214630	721.702332	8296.046875	2779.962158	27.174097
417.574738	718.730225	8534.485352	2833.088623	27.052517
417.934784	722.965515	8746.098633	2881.311279	26.901531
418.294861	720.364807	8980.079102	2972.034424	27.260868
418.654846	727.869446	9246.528320	3053.544922	27.300957
419.014832	726.606262	9552.878906	3138.324219	27.324310
419.374756	726.457703	9887.463867	3226.595703	27.291086
419.734680	726.457703	10241.739258	3349.417969	27.565767
420.094543	720.067688	10582.714844	3465.107422	27.832687
420.454376	717.392761	10901.769531	3546.468750	27.778585
420.814148	712.191589	11229.370117	3623.669189	27.683065
421.173920	714.866516	11599.174805	3718.405273	27.595127
421.533691	719.250305	11943.196289	3825.995361	27.679615
421.893341	710.111084	12236.989258	3916.719482	27.818533
422.253021	704.241211	12446.225586	3985.003174	27.940439
422.612640	701.269104	12561.840820	3999.195313	27.805796
422.972260	707.956360	12570.905273	3992.210938	27.684977
423.331757	706.321716	12523.945313	3984.334717	27.738342
423.691315	714.792175	12524.094727	4012.792725	27.927139
424.050781	724.228577	12599.883789	4058.934814	28.080187
424.410248	727.275085	12638.372070	4075.058350	28.106422
424.769653	715.981018	12699.746094	4099.949707	28.237944
425.128998	711.002747	12749.901367	4108.717285	28.222803
425.488373	717.912903	12747.226563	4114.290527	28.234177
425.847656	728.315247	12663.635742	4101.955566	28.266024
426.206940	734.036621	12549.284180	4067.627930	28.214315
426.566193	735.299744	12366.276367	4027.875977	28.308681
426.925385	726.309082	12150.796875	3955.059570	28.261663
427.284576	719.919006	11821.710938	3877.041748	28.437956
427.643677	709.516602	11623.694336	3815.147461	28.455015
428.002777	716.129639	11403.832031	3770.194092	28.575500
428.361847	713.306152	11186.050781	3711.272217	28.626366
428.720856	714.643555	10937.805664	3655.767822	28.769222
429.079865	711.671387	10778.426758	3613.266846	28.823540
429.438812	713.454773	10680.421875	3583.397217	28.794542
429.797760	722.965515	10604.632813	3559.992188	28.710001
430.156616	720.216309	10479.804688	3531.087891	28.801130
430.515503	716.872620	10393.018555	3530.642334	29.079449
430.874268	715.089355	10357.056641	3531.087891	29.205645
431.233093	717.095520	10401.266602	3541.416016	29.164299
431.591827	718.210144	10461.823242	3552.115967	29.084751
431.950562	714.866516	10494.145508	3569.576904	29.191420
432.309204	707.956360	10523.420898	3580.276611	29.263212
432.667877	706.470215	10595.493164	3611.855225	29.379898
433.026459	700.971863	10707.616211	3634.814697	29.318947
433.385010	712.785950	10826.649414	3664.833008	29.188126
433.743561	712.860352	10941.817383	3688.164307	29.087070
434.102051	717.318420	11065.754883	3736.906982	29.179176
434.460510	716.724060	11202.472656	3781.711670	29.230030
434.818939	719.027344	11298.916992	3808.609375	29.202404
435.177338	716.278259	11341.567383	3813.141357	29.146152
435.535675	716.798340	11352.340820	3824.138428	29.216562
435.894012	711.522888	11318.757813	3832.311279	29.421316
436.252289	716.055359	11338.745117	3832.831299	29.340742
436.610535	706.395996	11322.472656	3828.373291	29.408014
436.968719	719.621826	11427.461914	3860.546631	29.332945
437.326935	719.176025	11507.485352	3894.502686	29.433033
437.685028	725.045898	11600.140625	3924.075195	29.416105
438.043152	718.507324	11664.932617	3933.585938	29.371037
438.401215	715.460938	11825.054688	3976.087158	29.349644
438.759277	715.832458	12000.558594	4035.157959	29.414318
439.117249	717.838623	12296.803711	4131.899902	29.485031
439.475250	722.371094	12504.850586	4204.939453	29.557177
439.833130	714.866455	12797.453125	4297.520508	29.651382
440.191071	714.197754	12995.395508	4353.470703	29.632885
440.548889	708.922302	13228.930664	4413.284668	29.587538
440.906708	715.312317	13456.296875	4461.284180	29.400961
441.264496	714.717957	13653.645508	4504.305176	29.288263
441.622223	723.336975	13831.452148	4561.369629	29.279821
441.979950	724.748718	13937.926758	4591.462402	29.264071
442.337616	718.210022	14000.862305	4619.103027	29.368330
442.695251	718.953125	13931.983398	4604.093750	29.403858
443.052887	713.826233	13806.932617	4581.505859	29.539818
443.410461	719.250305	13684.554688	4556.094238	29.593164
443.768005	707.659119	13583.502930	4536.255371	29.734720
444.125458	709.219482	13503.553711	4525.184570	29.825430
444.482941	713.008972	13487.429688	4539.747559	29.956259
444.840393	726.234863	13532.828125	4574.744141	30.050999
445.197754	731.584656	13727.206055	4641.468262	30.086161
445.555084	724.525879	13923.809570	4685.678711	30.010363
445.912415	716.649719	14221.391602	4760.427246	29.943390
446.269714	706.470215	14429.067383	4822.543457	29.994854
446.626953	707.436218	14668.026367	4912.450195	30.120605
446.984161	707.584778	14931.502930	4987.272461	30.087965
447.341309	715.758118	15143.042969	5048.795410	30.033628
447.698456	726.606262	15368.924805	5105.785156	29.907686
448.055542	719.101746	15474.583008	5128.373535	29.882265
448.412598	719.696106	15530.903320	5142.119629	29.858629
448.769653	711.002686	15442.781250	5122.949707	29.948503
449.126617	715.163635	15251.897461	5067.371094	29.939377
449.483582	720.810730	15078.696289	5034.380859	30.043213
449.840515	720.439148	14827.331055	4974.938477	30.159014
450.197388	724.971619	14690.613281	4942.394043	30.198559
450.554230	720.810608	14526.403320	4907.397461	30.325296
450.911041	720.141907	14434.789063	4864.748047	30.220287
451.267822	720.810730	14322.592773	4856.425781	30.404951
451.624573	718.507324	14221.465820	4816.451172	30.348488
451.981262	722.073792	14139.807617	4828.636719	30.605490
452.337921	725.789001	14008.663086	4792.600098	30.616951
452.694580	724.897278	13916.899414	4777.070313	30.716892
453.051147	723.188416	13910.881836	4753.665527	30.562410
453.407715	722.296692	13885.023438	4755.225098	30.639006
453.764221	732.847717	13982.804688	4781.528809	30.556183
454.120728	734.110901	13850.472656	4761.764160	30.707094
454.477142	732.847717	13859.834961	4753.591309	30.629601
454.833557	719.473328	13706.176758	4720.972168	30.812275
455.189911	717.095520	13602.598633	4701.876465	30.924528
455.546265	709.962463	13405.250977	4681.814453	31.286034
455.902557	710.111145	13280.273438	4644.663574	31.300730
456.258820	711.374207	13285.401367	4646.520996	31.295834
456.615051	712.637390	13368.321289	4663.238770	31.216024
456.971252	720.439209	13369.659180	4677.133301	31.280144
457.327393	717.764343	13481.039063	4727.064941	31.412790
457.683502	724.600098	13650.674805	4781.899902	31.388493
458.039612	723.559875	13995.437500	4886.369629	31.365641
458.395630	729.132629	14336.413086	4983.186035	31.263067
458.751648	724.897278	14651.679688	5086.764160	31.319990
459.107605	716.798340	15113.694336	5239.381348	31.413597
459.463562	716.278137	15583.657227	5393.337402	31.458532
459.819458	717.318420	16059.121094	5538.673828	31.426264
460.175323	714.643555	16490.892578	5637.422363	31.203733
460.531158	712.191589	16941.169922	5760.467285	31.106554
460.886932	707.584778	17254.875000	5866.422363	31.176327
461.242676	713.008972	17491.603516	5955.660156	31.246071
461.598419	713.900574	17470.724609	5955.883301	31.282675
461.954102	714.346375	17313.130859	5905.580566	31.274784
462.309723	712.563049	16884.847656	5797.990234	31.445324
462.665344	709.293762	16388.357422	5647.898438	31.498083
463.020905	718.507324	15981.178711	5520.320801	31.461159
463.376373	728.538269	15618.135742	5424.173340	31.536348
463.731873	735.596985	15345.592773	5355.814453	31.623672
464.087341	728.686768	15084.418945	5277.202148	31.684317
464.442749	728.315247	14968.358398	5242.651855	31.701706
464.798126	727.349304	14849.995117	5223.927246	31.839489
465.153503	730.915833	14889.002930	5258.105957	31.976000
465.508820	721.107849	14883.207031	5248.372559	31.967468
465.864105	722.371094	14995.032227	5272.149414	31.877575
466.219330	715.089355	15188.070313	5322.378418	31.833727
466.574524	711.002747	15354.805664	5394.823730	31.985003
466.929657	706.395996	15500.514648	5447.429688	32.046745
467.284790	720.290527	15632.698242	5511.478516	32.128868
467.639893	730.915833	15831.309570	5551.304688	31.922272
467.994934	725.417480	16075.245117	5638.090332	32.004742
468.349945	713.751953	16213.077148	5667.217285	31.959232
468.704926	716.575439	16264.346680	5707.860840	32.102898
469.059875	722.742493	16134.167969	5687.725098	32.216244
469.414764	729.206848	15961.116211	5673.978516	32.463242
469.769653	722.965515	15811.023438	5633.558105	32.546223
470.124451	723.559875	15728.995117	5596.183594	32.472389
470.479248	708.699402	15605.726563	5541.050781	32.438362
470.834015	700.377441	15492.786133	5521.286621	32.590427
471.188721	699.931641	15530.680664	5531.242676	32.576313
471.543365	711.894348	15587.596680	5551.899902	32.536316
471.898010	722.371033	15709.825195	5553.830566	32.236691
472.252625	728.835266	15817.713867	5605.100098	32.316944
472.607178	732.253235	16022.043945	5662.536621	32.245590
472.961700	728.835388	16192.272461	5744.120605	32.433186
473.316193	731.287415	16396.900391	5805.643066	32.391682
473.670654	729.281250	16576.789063	5864.193848	32.402020
474.025055	736.191345	16826.369141	5931.585938	32.289230
474.379456	725.343201	17046.677734	5986.644531	32.235729
474.733795	723.708496	17212.597656	6062.878906	32.380413
475.088104	721.182190	17339.580078	6121.726563	32.497383
475.442383	724.080078	17354.589844	6160.141113	32.687279
475.796570	727.869446	17448.730469	6180.871582	32.611969
476.150787	731.584656	17552.085938	6240.611328	32.751858
476.504944	735.894226	17716.220703	6281.031738	32.656250
476.859070	736.934387	17886.224609	6341.885254	32.683281
477.213135	735.374023	18069.306641	6395.829590	32.655342
477.567200	722.445313	18411.396484	6517.611816	32.761505
477.921173	711.894348	18778.080078	6629.437500	32.754799
478.275146	703.275208	19240.169922	6759.615723	32.671818
478.629089	710.854187	19547.263672	6848.481934	32.583851
478.983002	718.655945	19922.267578	6967.886719	32.541958
479.336823	718.730164	20216.656250	7075.253906	32.601025
479.690643	720.810730	20566.845703	7196.292969	32.628593
480.044403	720.364929	20941.851563	7326.619629	32.669483
480.398163	729.206848	21520.818359	7517.726563	32.650280
480.751862	724.005676	22252.921875	7760.176270	32.682419
481.105499	719.398926	23140.541016	8064.817871	32.761127
481.459137	719.027405	24271.130859	8441.532227	32.789024
481.812744	722.891113	25659.625000	8933.713867	32.926613
482.166290	728.612488	27348.080078	9529.622070	33.062305
482.519806	724.897278	29367.255859	10255.187500	33.273411
482.873291	724.377258	31705.341797	11054.313477	33.342850
483.226715	724.822998	34387.449219	11953.598633	33.356804
483.580139	723.262695	37057.144531	12822.124023	33.299114
483.933502	719.993347	39977.246094	13730.101563	33.140648
484.286804	727.275085	42839.312500	14590.676758	32.920280
484.640106	725.343079	45620.015625	15462.768555	32.826672
484.993347	723.485535	47723.156250	16152.519531	32.827961
485.346558	707.584778	48929.683594	16668.552734	33.098866
485.699738	706.916016	49084.972656	16802.595703	33.270622
486.052887	706.767395	48293.871094	16655.251953	33.514297
486.405975	710.631165	46882.863281	16233.583008	33.619671
486.759064	714.049133	45068.386719	15656.698242	33.689262
487.112061	730.098572	43296.121094	15039.317383	33.616528
487.464996	727.275085	41899.453125	14501.812500	33.455933
487.817963	721.479492	41166.160156	14189.963867	33.301003
488.170868	702.086426	40982.484375	14051.909180	33.142231
488.523743	705.429993	41161.851563	14036.824219	32.952480
488.876587	708.773682	41324.277344	14066.098633	32.887257
489.229401	715.312317	41310.082031	14092.476563	32.952927
489.582153	711.002747	40843.683594	14019.958008	33.162388
489.934845	712.265930	40112.917969	13863.997070	33.379475
490.287537	713.008850	39195.722656	13598.586914	33.484066
490.640198	718.507324	38341.910156	13355.914063	33.589218
490.992798	714.272034	37521.687500	13051.421875	33.518108
491.345337	704.241211	37024.453125	12887.137695	33.543022
491.697876	701.937805	36823.312500	12758.965820	33.379208
492.050354	711.225586	37062.566406	12816.773438	33.301517
492.402832	721.479431	37355.691406	12867.002930	33.153500
492.755219	727.720886	37559.578125	12920.351563	33.103493
493.107605	723.782776	37448.421875	12863.731445	33.056683
493.459930	727.126465	36953.269531	12700.489258	33.051720
493.812225	721.256531	35934.730469	12409.965820	33.193855
494.164490	715.163757	34496.527344	11978.713867	33.342495
494.516724	705.207214	32786.671875	11454.879883	33.507423
494.868896	707.510559	31028.296875	10884.532227	33.564503
495.221039	712.488770	29513.931641	10379.792969	33.565350
495.573120	720.662109	28248.187500	9979.822266	33.636005
495.925201	734.853943	27552.193359	9710.624023	33.470024
496.277222	737.900330	27067.587891	9550.425781	33.469921
496.629211	736.934387	26927.306641	9465.051758	33.325668
496.981140	713.008972	26779.517578	9428.940430	33.437283
497.333069	717.689941	26864.890625	9443.504883	33.371887
497.684967	724.377197	26923.591797	9482.215820	33.427868
498.036804	730.247070	27043.367188	9513.422852	33.379452
498.388580	717.987122	27032.218750	9509.484375	33.409664
498.740326	711.151367	26997.818359	9491.356445	33.401741
499.092072	714.643555	26801.658203	9443.801758	33.461697
499.443756	717.764343	26573.031250	9379.084961	33.499249
499.795410	713.900574	26276.638672	9281.672852	33.516647
500.147003	711.522888	26052.466797	9182.331055	33.427361
500.498566	716.575439	25720.333984	9078.083008	33.441006
500.850098	720.142029	25409.896484	8991.594727	33.501560
501.201599	722.668274	25101.093750	8941.737305	33.714520
501.553009	714.197754	24851.958984	8864.388672	33.765312
501.904449	714.494934	24669.617188	8814.011719	33.811207
502.255859	719.324646	24497.828125	8745.058594	33.752056
502.607178	725.937561	24435.041016	8724.700195	33.737095
502.958405	726.011902	24329.312500	8688.217773	33.733444
503.309692	719.621887	24229.820313	8674.396484	33.835419
503.660919	713.751953	24186.873047	8679.078125	33.933819
504.012115	713.826233	24188.431641	8703.225586	34.034222
504.363251	712.191589	24262.587891	8715.709961	33.984646
504.714294	718.507324	24321.806641	8731.238281	33.947506
505.065369	718.135742	24390.833984	8744.538086	33.905735
505.416443	727.200745	24454.289063	8764.154297	33.872482
505.767395	729.727051	24530.748047	8785.405273	33.845936
506.118317	722.296692	24532.974609	8786.890625	33.869652
506.469238	713.306152	24578.671875	8834.073242	34.027416
506.820160	708.327820	24557.271484	8846.036133	34.121883
507.170929	720.736389	24604.898438	8878.358398	34.154945
507.521729	727.126465	24616.568359	8870.481445	34.087673
507.872498	728.463867	24709.669922	8914.618164	34.135704
508.223236	722.816895	24875.806641	8958.159180	34.096573
508.573883	718.655945	25031.546875	9014.034180	34.119259
508.924500	720.216309	25186.095703	9065.526367	34.109997
509.275116	721.627991	25287.593750	9121.551758	34.193340
509.625702	723.857117	25526.476563	9200.386719	34.175945
509.976196	714.792175	25758.820313	9279.518555	34.198681
510.326660	715.609558	26026.087891	9355.827148	34.136921
510.677124	714.643555	26258.656250	9419.800781	34.079052
511.027557	732.402039	26482.083984	9481.844727	33.978836
511.377869	728.909668	26710.937500	9599.243164	34.140270
511.728180	729.058289	26833.462891	9670.350586	34.252045
512.078430	722.073792	26955.318359	9714.487305	34.278694
512.428650	723.931396	27047.677734	9695.540039	34.081806
512.778931	728.240967	27163.068359	9725.707031	34.036407
513.129028	721.256531	27206.833984	9769.545898	34.163078
513.479126	713.306152	27283.958984	9822.820313	34.284119
513.829285	705.281494	27295.476563	9815.613281	34.261997
514.179382	708.550781	27308.626953	9820.665039	34.255970
514.529297	717.244141	27276.751953	9822.670898	34.283115
514.879272	720.959290	27306.398438	9863.909180	34.390820
515.229187	722.593933	27204.380859	9851.278320	34.471558
515.579163	723.411316	27211.216797	9881.963867	34.576488
515.928955	724.228699	27226.671875	9890.211914	34.585426
516.278748	725.863281	27430.335938	9940.885742	34.507412
516.628540	728.835449	27629.095703	9988.663086	34.422821
516.978333	732.179016	27993.921875	10104.353516	34.378487
517.327942	728.984070	28433.646484	10267.670898	34.429897
517.677612	724.154297	28965.281250	10432.028320	34.374954
518.027222	721.925293	29419.568359	10605.450195	34.440201
518.376831	721.479492	30026.173828	10792.840820	34.367741
518.726379	719.547546	30598.751953	10966.858398	34.295795
519.075867	712.711670	31072.060547	11144.442383	34.360851
519.425293	709.665283	31522.853516	11296.168945	34.357056
519.774658	713.900452	31871.259766	11416.539063	34.350277
520.124084	720.439148	32157.623047	11495.820313	34.275909
520.473389	724.823059	32137.857422	11510.308594	34.334427
520.822693	723.262695	31971.642578	11496.339844	34.475636
521.171997	722.148132	31658.755859	11405.541992	34.533176
521.521240	719.101746	31316.962891	11267.338867	34.473774
521.870361	718.730225	30860.447266	11137.829102	34.567039
522.219482	714.197754	30531.656250	10998.660156	34.491413
522.568604	716.278137	30211.931641	10916.184570	34.581047
522.917664	714.643555	30045.943359	10844.036133	34.534412
523.266724	716.129578	30007.380859	10877.398438	34.690456
523.615662	714.717834	30135.255859	10936.914063	34.745106
523.964600	709.516602	30464.041016	11056.764648	34.775379
524.313538	712.340149	30863.494141	11198.385742	34.778255
524.662354	712.042969	31427.748047	11386.668945	34.752991
525.011169	726.531982	32110.068359	11647.397461	34.798069
525.359985	727.869446	32947.609375	11937.698242	34.791805
525.708740	724.080078	33925.511719	12285.731445	34.822750
526.057434	722.742676	35071.777344	12668.910156	34.778759
526.406067	724.005798	36418.214844	13159.979492	34.840309
526.754700	727.349304	37873.136719	13710.562500	34.952045
527.103333	724.971680	39587.597656	14370.741211	35.112835
527.451782	720.439209	41453.933594	15100.096680	35.301800
527.800293	722.445374	43406.980469	15831.534180	35.397102
528.148743	717.095520	45348.957031	16544.466797	35.462044
528.497131	715.460938	47227.625000	17188.597656	35.416836
528.845642	718.730225	48994.613281	17799.736328	35.382069
529.193909	721.256531	50521.761719	18358.193359	35.415180
529.542175	721.553711	51758.160156	18842.275391	35.505344
529.890503	720.736389	52567.464844	19239.351563	35.718002
530.238770	718.507324	52871.660156	19430.607422	35.879135
530.586914	723.262695	52737.324219	19413.146484	35.932365
530.934998	724.228699	52029.957031	19144.169922	35.902309
531.283142	726.532043	50914.230469	18716.558594	35.845490
531.631226	727.497864	49142.109375	18069.083984	35.818909
531.979248	723.336914	47148.421875	17334.603516	35.780796
532.327148	718.804504	45087.707031	16531.687500	35.639565
532.675110	712.265930	43406.906250	15881.093750	35.528648
533.023071	708.773682	42296.300781	15399.090820	35.323853
533.370850	712.191589	41753.449219	15128.628906	35.126694
533.718689	710.928406	41764.144531	15084.864258	35.012936
534.066467	713.157532	42032.378906	15132.195313	34.896683
534.414246	713.454773	42280.476563	15239.265625	34.945515
534.761963	715.163635	42492.832031	15295.215820	34.899151
535.109619	715.683838	42556.585938	15348.194336	34.971786
535.457153	718.581604	42291.250000	15286.671875	35.042469
535.804749	720.662109	41665.625000	15103.960938	35.128372
536.152344	719.621826	40842.199219	14850.291992	35.218750
536.499817	713.677551	39892.757813	14511.543945	35.217430
536.847229	712.563049	38922.660156	14162.543945	35.200069
537.194641	712.488770	38019.589844	13799.575195	35.079342
537.542114	720.364929	37388.906250	13554.226563	34.999649
537.889404	718.507324	36870.945313	13355.765625	34.955479
538.236694	720.364929	36469.933594	13239.481445	35.018929
538.583984	715.163757	36193.230469	13151.879883	35.054661
538.931213	716.501160	36103.621094	13145.043945	35.121655
539.278381	716.203918	35997.140625	13129.440430	35.183975
539.625488	716.872620	35928.781250	13136.721680	35.271725
539.972595	716.872620	35981.687500	13192.149414	35.375984
540.319641	718.433044	36286.480469	13321.065430	35.432457
540.666687	720.587708	36854.519531	13494.414063	35.351330
541.013611	725.863220	37734.414063	13782.041992	35.278816
541.360596	726.977844	38782.378906	14114.992188	35.180325
541.707458	723.931458	40076.437500	14555.457031	35.147762
542.054260	724.674500	41293.957031	14921.398438	34.993778
542.401062	713.900574	42513.488281	15311.784180	34.923512
542.747864	718.358704	43351.476563	15581.578125	34.863083
543.094666	713.306152	43804.644531	15778.926758	34.962063
543.441284	724.674500	43765.417969	15774.690430	34.966904
543.787903	720.810730	43305.558594	15654.765625	35.068790
544.134460	717.764221	42400.921875	15334.297852	35.065804
544.481079	724.228699	41146.246094	14913.520508	35.102882
544.827637	730.024231	39654.621094	14384.411133	35.079071
545.174072	732.253357	38064.316406	13839.402344	35.109631
545.520508	717.838562	36657.394531	13356.954102	35.167702
545.866943	704.018250	35460.972656	12910.766602	35.120304
546.213318	711.968750	34546.457031	12581.085938	35.079937
546.559631	717.244141	33745.324219	12294.277344	35.052094
546.905823	724.377197	33065.750000	12043.282227	34.998222
547.252136	721.256531	32524.458984	11828.695313	34.925533
547.598389	723.262695	32072.250000	11645.911133	34.842110
547.944458	719.919128	31692.708984	11551.472656	34.971191
548.290588	725.714661	31299.500000	11424.859375	34.994503
548.636658	728.166687	30846.552734	11280.639648	35.036648
548.982727	735.374023	30329.107422	11074.671875	34.937454
549.328735	725.045959	29772.208984	10892.333008	35.002686
549.674622	725.343201	29126.146484	10665.561523	34.999783
550.020569	725.343201	28487.884766	10454.021484	35.042465
550.366455	721.999573	27758.679688	10173.528320	34.958168
550.712280	715.906738	27119.228516	9953.146484	34.985146
551.058044	715.609558	26539.224609	9752.678711	34.995369
551.403748	724.228577	26106.929688	9589.285156	34.925583
551.749512	726.383301	25763.578125	9475.900391	34.946075
552.095154	723.634094	25500.916016	9388.594727	34.971394
552.440735	722.296692	25368.212891	9376.706055	35.114983
552.786316	720.662109	25329.423828	9351.294922	35.071381
553.131897	722.891174	25362.267578	9383.393555	35.149029
553.477417	719.844788	25388.646484	9377.225586	35.094452
553.822815	724.600098	25389.166016	9350.774414	34.973953
554.168213	724.080078	25361.599609	9302.998047	34.820541
554.513672	723.262695	25296.140625	9271.493164	34.787258
554.859009	715.089355	25214.626953	9244.670898	34.815277
555.204285	720.662109	25138.021484	9213.686523	34.782730
555.549500	724.525879	24990.009766	9171.408203	34.810280
555.894714	722.296692	24772.974609	9137.154297	34.988026
556.239990	710.556885	24452.281250	9066.938477	35.197029
556.585022	702.680847	24206.490234	8978.741211	35.211571
556.930115	706.618835	23968.718750	8863.422852	35.064781
557.275146	709.442383	23723.818359	8760.513672	34.982792
557.620178	707.807800	23499.427734	8707.610352	35.099754
557.965149	705.504395	23314.412109	8670.086914	35.227631
558.310059	703.349548	23207.490234	8642.965820	35.280689
558.654968	711.076965	23053.087891	8579.363281	35.217445
558.999756	711.076965	22917.931641	8521.629883	35.171810
559.344604	709.516663	22840.953125	8485.221680	35.134209
559.689331	710.705566	22779.208984	8470.956055	35.164371
560.033997	712.265869	22735.742188	8440.045898	35.088829
560.378723	719.473328	22697.994141	8415.452148	35.015907
560.723389	718.210144	22719.095703	8393.606445	34.886765
561.067932	718.655945	22712.412109	8418.200195	35.007866
561.412476	721.033630	22693.015625	8416.715820	35.024979
561.757019	722.965515	22686.478516	8426.820313	35.075695
562.101501	722.519592	22727.716797	8413.148438	34.949146
562.445862	723.485535	22747.181641	8438.114258	35.028767
562.790222	716.575439	22759.740234	8422.211914	34.957035
563.134644	716.649719	22760.705078	8425.705078	34.971130
563.478943	708.253601	22774.601563	8397.322266	34.845226
563.823181	717.467102	22761.599609	8411.514648	34.902927
564.167358	723.559875	22783.666016	8425.036133	34.911331
564.511536	727.423584	22809.968750	8429.643555	34.879223
564.855774	725.714600	22804.470703	8435.811523	34.920883
565.199768	720.959290	22864.728516	8452.157227	34.913647
565.543823	716.724060	22969.718750	8490.200195	34.932270
565.887817	712.265869	23166.474609	8553.803711	34.922352
566.231812	715.609558	23345.396484	8599.723633	34.839542
566.575745	710.482605	23544.156250	8646.756836	34.756889
566.919617	704.018311	23737.861328	8697.208984	34.701939
567.263428	697.554016	23935.208984	8733.914063	34.583351
567.607239	704.538391	24105.140625	8805.245117	34.617516
567.950989	714.792175	24210.873047	8827.832031	34.529335
568.294678	724.302917	24245.869141	8883.782227	34.689354
568.638367	724.748779	24190.068359	8860.004883	34.669273
568.981995	723.857117	24066.056641	8828.723633	34.721951
569.325623	723.931458	23938.107422	8787.040039	34.733555
569.669128	724.005676	23769.365234	8754.198242	34.845161
570.012573	721.479431	23629.453125	8695.127930	34.807304
570.356140	718.210144	23518.966797	8641.480469	34.750034
570.699524	718.730225	23457.515625	8610.942383	34.708153
571.042908	717.541321	23513.541016	8624.167969	34.684273
571.386230	715.015137	23564.212891	8650.174805	34.728397
571.729492	715.386536	23709.031250	8698.396484	34.718330
572.072815	713.306152	23846.046875	8754.420898	34.760754
572.416016	711.225647	23978.083984	8780.129883	34.679821
572.759094	716.872742	24119.181641	8794.024414	34.514339
573.102234	716.426819	24194.005859	8807.324219	34.462231
573.445374	724.228699	24239.406250	8810.296875	34.386593
573.788391	721.330872	24265.560547	8803.980469	34.329639
574.131409	728.389587	24305.833984	8821.442383	34.325401
574.474365	725.194580	24319.281250	8848.561523	34.429676
574.817261	726.829285	24206.119141	8838.084961	34.546429
575.160156	725.194519	24058.849609	8793.131836	34.576401
575.502930	719.176086	23837.576172	8717.120117	34.595577
575.845703	716.129639	23644.759766	8653.071289	34.615852
576.188477	718.655945	23373.478516	8547.190430	34.555710
576.531250	726.531982	23154.212891	8457.730469	34.471680
576.873901	724.377258	22906.859375	8360.987305	34.426308
577.216431	724.377258	22711.818359	8279.106445	34.359291
577.559082	718.878906	22495.521484	8198.860352	34.348644
577.901611	713.231750	22252.328125	8115.863281	34.368347
578.244080	703.721008	21997.320313	8017.932129	34.349339
578.586487	703.795410	21710.140625	7890.800781	34.213497
578.928955	750.977600	21566.587891	7816.943848	33.945518
579.271301	755.287170	21221.898438	7708.164063	33.971802
579.613647	757.293274	20829.060547	7613.650879	34.159210
579.955872	713.900574	20368.753906	7489.566406	34.473248
580.298157	716.501160	20097.326172	7389.480469	34.430836
580.640320	717.541443	19890.169922	7317.926270	34.426083
580.982483	716.649719	19665.402344	7227.277344	34.359135
581.324524	717.021301	19486.705078	7178.906250	34.427242
581.666626	718.433105	19350.582031	7116.714844	34.340012
582.008728	720.364929	19234.892578	7070.869629	34.300117
582.350647	722.668274	19065.484375	7021.904297	34.341705
582.692566	726.086243	18980.630859	7008.010254	34.412930
583.034424	727.052185	18874.525391	6980.740723	34.460381
583.376343	713.677673	18836.408203	6958.375488	34.457821
583.718201	705.727234	18800.519531	6919.292969	34.338974
584.059937	709.442383	18725.101563	6885.931152	34.284000
584.401611	716.872620	18656.966797	6848.408203	34.177834
584.743347	726.383301	18545.365234	6796.544434	34.065701
585.085022	718.135742	18471.136719	6765.485840	34.063820
585.426514	719.101746	18391.931641	6732.643066	34.027042
585.768127	706.916077	18303.806641	6715.331543	34.144756
586.109619	709.962585	18241.763672	6689.251465	34.105389
586.451172	712.711731	18169.615234	6666.960449	34.108273
586.792542	720.290527	18141.974609	6645.338379	34.009617
587.133850	725.566101	18088.328125	6632.335449	34.019756
587.475220	722.816833	18065.220703	6626.613770	34.042553
587.816589	722.371094	18042.853516	6621.041016	34.056038
588.157776	732.104736	18112.328125	6642.515137	34.006527
588.498962	734.928223	18151.041016	6640.657715	33.909573
588.840210	731.658875	18195.250000	6653.289063	33.908432
589.181335	729.949951	18225.638672	6656.111816	33.872128
589.522400	727.646545	18284.857422	6707.083496	34.056873
589.863403	727.349365	18342.369141	6733.461426	34.096542
590.204407	720.290527	18355.373047	6719.640625	34.019405
590.545410	720.885010	18385.240234	6708.718750	33.897835
590.886353	730.618652	18388.361328	6722.241699	33.931988
591.227112	725.714661	18395.125000	6726.922363	33.963825
591.567932	720.736389	18339.025391	6698.092285	33.926994
591.908752	708.104980	18278.841797	6655.368652	33.847549
592.249512	711.745789	18265.912109	6665.845703	33.918446
592.590149	719.547546	18237.306641	6658.341309	33.901562
592.930786	724.005676	18163.966797	6650.316406	33.981216
593.271423	712.265808	18016.923828	6602.093750	34.036083
593.612000	705.652893	17905.990234	6554.985840	34.007080
593.952576	711.448547	17877.978516	6522.515625	33.851147
594.292969	718.210144	17887.636719	6500.670410	33.678822
594.633484	716.203918	17931.251953	6516.423340	33.692726
594.973877	707.362000	17988.539063	6522.664063	33.651077
595.314209	715.089417	18114.335938	6558.478027	33.584148
595.654480	719.770508	18282.259766	6604.768066	33.508904
595.994812	720.142029	18439.408203	6665.994141	33.555859
596.335022	713.454773	18631.109375	6733.386719	33.597771
596.675171	715.535217	18798.513672	6789.484863	33.589321
597.015320	719.101807	18986.869141	6824.481934	33.421597
597.355408	726.160461	19077.224609	6833.992188	33.283257
597.695496	724.302917	19174.929688	6844.097656	33.168491
598.035461	719.919128	19216.689453	6842.760254	33.102219
598.375366	710.854065	19253.767578	6863.416504	33.180126
598.715271	705.281433	19244.998047	6864.011230	33.219116
599.055176	718.507324	19116.677734	6839.045410	33.267101
599.395081	721.553711	18955.218750	6786.216309	33.260799
599.734802	730.321472	18682.007813	6712.656738	33.324646
600.074524	719.621826	18420.982422	6618.886719	33.326614
600.414246	720.439209	18041.369141	6494.578125	33.336193
600.753906	725.343201	17676.541016	6368.337402	33.289650
601.093506	728.166687	17308.373047	6256.511719	33.343040
601.433044	732.922058	17063.025391	6171.287109	33.302700
601.772583	725.714661	16902.384766	6112.216309	33.297962
602.112122	732.030334	16836.998047	6085.169922	33.239059
602.451538	727.869446	16833.951172	6069.714844	33.166634
602.790894	727.275085	16883.212891	6094.531738	33.221573
603.130310	717.912903	16992.958984	6127.521973	33.238670
603.469604	719.696106	17147.505859	6162.296387	33.130405
603.808838	727.572266	17346.341797	6193.652344	32.891003
604.148010	725.417480	17590.648438	6260.375488	32.818752
604.487305	719.027405	17824.554688	6323.830078	32.766033
604.826416	712.488770	18035.498047	6386.764160	32.755714
605.165527	715.089417	18248.673828	6427.333984	32.578876
605.504456	714.049255	18466.232422	6498.664551	32.585373
605.843445	711.002747	18640.919922	6537.451172	32.495678
606.182434	710.408386	18717.896484	6573.859375	32.561184
606.521423	723.485596	18665.958984	6568.138184	32.574398
606.860229	727.497864	18554.578125	6536.039063	32.582684
607.199036	729.727051	18369.935547	6487.964844	32.642685
607.537903	719.696106	18194.283203	6448.732910	32.784962
607.876648	718.953125	17919.662109	6370.046875	32.853844
608.215271	723.411316	17624.679688	6278.579590	32.868355
608.553955	728.463867	17313.128906	6162.444824	32.765095
608.892578	735.596924	17037.687500	6077.591309	32.768768
609.231140	730.321472	16876.376953	6010.346191	32.701641
609.569641	726.680664	16753.333984	5957.220703	32.636509
609.908081	718.135742	16774.509766	5926.458984	32.437729
610.246521	721.999512	16771.462891	5904.392090	32.290131
610.584961	717.392822	16808.687500	5912.267578	32.283760
610.923340	708.773682	16797.244141	5926.087891	32.428902
611.261597	702.457947	16773.990234	5915.462402	32.436264
611.599854	703.721008	16707.560547	5893.097656	32.425819
611.938110	709.591003	16648.119141	5866.645996	32.355907
612.276245	721.628113	16500.181641	5830.014160	32.375504
612.614319	723.485596	16288.196289	5746.498047	32.271801
612.952393	728.240967	15962.453125	5637.273438	32.223736
613.290466	715.015076	15658.183594	5555.093750	32.389908
613.628479	712.785950	15355.176758	5458.352051	32.409775
613.966370	711.299988	15091.848633	5395.714355	32.574657
614.304260	716.203918	14847.094727	5299.938477	32.437691
614.642151	718.433044	14607.840820	5232.025879	32.496655
614.979980	718.655945	14435.831055	5166.714355	32.426929
615.317749	717.169861	14226.073242	5101.328125	32.453842
615.655396	726.977783	14133.121094	5073.241699	32.419941
615.993164	718.358704	14046.334961	5032.077637	32.365894
616.330811	724.377197	14047.969727	5025.093262	32.278950
616.668396	714.123474	14017.133789	4994.925781	32.179199
617.005859	723.485596	13989.567383	4972.337891	32.027939
617.343445	717.541321	13956.948242	4973.675293	32.147465
617.680908	720.439209	13937.333008	4971.669434	32.165127
618.018311	729.652771	13967.871094	4973.601074	32.058304
618.355652	735.894226	14018.397461	4956.140137	31.772974
618.692993	742.358459	14059.559570	4955.545410	31.637180
619.030273	733.293640	14047.820313	4960.746582	31.750683
619.367554	727.126465	14041.729492	4950.716309	31.721483
619.704712	724.525879	14017.135742	4946.704102	31.763351
620.041870	720.290527	14009.778320	4942.914551	31.774166
620.379028	719.696106	13986.893555	4945.440918	31.851072
620.716064	715.535156	13932.206055	4925.378906	31.852528
621.053040	715.906738	13886.659180	4900.636230	31.772898
621.389954	716.724060	13795.339844	4867.422363	31.736525
621.726929	713.751953	13719.551758	4846.023926	31.772533
622.063843	715.535156	13649.335938	4805.231934	31.620224
622.400635	716.278259	13607.875000	4804.785645	31.714514
622.737427	716.872620	13586.996094	4790.890625	31.654850
623.074219	725.640381	13506.153320	4775.807617	31.690178
623.410889	725.343201	13462.092773	4736.278809	31.491043
623.747559	730.098572	13440.618164	4707.448730	31.291798
624.084167	723.262695	13408.148438	4721.937988	31.523148
624.420715	720.216309	13389.348633	4715.919434	31.538885
624.757324	716.501160	13384.965820	4715.696777	31.568115
625.093750	721.256531	13433.858398	4694.891602	31.257450
625.430176	721.925232	13455.256836	4706.333984	31.291170
625.766602	730.692932	13461.424805	4720.972168	31.343678
626.102905	723.411316	13539.070313	4737.020996	31.318012
626.439209	726.977783	13622.363281	4751.733887	31.210823
626.775452	719.398926	13741.543945	4756.339844	31.000584
627.111694	722.148132	13822.164063	4771.646484	30.912165
627.447876	717.764343	13880.937500	4771.126465	30.793200
627.783997	723.931396	13934.063477	4789.404785	30.775419
628.120056	720.810730	13984.664063	4792.674316	30.698948
628.456055	732.699158	14017.729492	4790.222168	30.542068
628.792053	722.668274	14023.598633	4788.513184	30.568125
629.128052	726.977844	13976.045898	4783.608887	30.618237
629.463928	722.073914	13917.495117	4783.312012	30.777632
629.799744	724.228577	13799.129883	4755.299316	30.830603
630.135559	718.581726	13672.147461	4711.980957	30.828571
630.471375	710.779846	13542.636719	4643.251465	30.646164
630.807068	717.541321	13394.997070	4587.004395	30.522394
631.142700	721.776611	13265.413086	4546.955566	30.494976
631.478333	721.553711	13098.678711	4516.268066	30.659094
631.813965	715.312256	12954.308594	4459.352051	30.591070
632.149475	706.395996	12813.430664	4404.145020	30.542152
632.484924	716.575439	12713.270508	4376.727051	30.509666
632.820435	709.591003	12661.778320	4367.438965	30.604004
633.155884	718.953125	12587.921875	4341.730469	30.523102
633.491150	717.318420	12522.979492	4316.913574	30.490416
633.826477	724.674500	12457.742188	4290.685059	30.392824
634.161804	719.547546	12391.166992	4274.635254	30.459249
634.497009	713.306152	12338.858398	4238.152832	30.319820
634.832153	710.259705	12238.921875	4206.202637	30.323925
635.167297	713.751953	12179.776367	4164.667480	30.096880
635.502380	708.327820	12093.213867	4122.389160	29.987663
635.837463	705.058533	12017.350586	4106.190918	30.065811
636.172424	704.464172	11912.805664	4095.194092	30.251842
636.507324	701.640625	11821.191406	4086.649170	30.441954
636.842224	710.036804	11721.476563	4043.553955	30.273218
637.177124	712.637390	11621.762695	4006.996826	30.198200
637.511963	718.804504	11531.411133	3962.266602	29.997042
637.846741	707.882019	11434.891602	3922.960938	29.971809
638.181396	699.040039	11298.398438	3883.431641	30.043249
638.516113	706.395935	11182.484375	3861.438232	30.116604
638.850769	713.454773	11066.795898	3828.819092	30.090425
639.185303	721.776611	10993.086914	3799.469482	29.963974
639.519836	723.039795	10903.850586	3752.361572	29.755213
639.854370	727.423645	10827.689453	3719.296875	29.621729
640.188843	723.857117	10714.674805	3682.888672	29.617512
640.523254	714.197754	10628.038086	3652.573242	29.639126
640.857605	722.593933	10533.376953	3635.409180	29.689936
641.191895	728.984070	10472.894531	3602.418701	29.489542
641.526184	729.949951	10400.003906	3595.285889	29.631023
641.860413	719.919128	10333.948242	3569.502686	29.639847
642.194580	711.820068	10280.524414	3563.707031	29.804317
642.528748	710.854065	10210.084961	3533.986328	29.719589
642.862793	712.860291	10161.194336	3522.394775	29.735765
643.196838	714.940735	10111.113281	3492.525146	29.560806
643.530823	723.336914	10054.792969	3473.132080	29.468018
643.864746	719.324646	10019.424805	3444.228271	29.299721
644.198669	721.925232	9973.133789	3434.345703	29.319632
644.532532	719.324707	9921.641602	3425.132568	29.403551
644.866333	722.891174	9845.555664	3410.717529	29.463175
645.200073	724.228699	9790.125977	3388.055420	29.382935
645.533813	720.364929	9775.860352	3370.148438	29.261608
645.867554	713.900574	9773.928711	3355.957031	29.161678
646.201172	708.625061	9787.006836	3351.944336	29.116636
646.534729	714.792175	9820.665039	3361.232178	29.063000
646.868225	719.919128	9842.956055	3357.516846	28.911400
647.201782	714.643555	9848.008789	3360.340576	28.967384
647.535217	707.436218	9858.856445	3340.576172	28.773020
647.868591	709.293762	9880.331055	3349.195313	28.785202
648.201965	717.987244	9901.952148	3340.799072	28.558599
648.535278	719.547607	9877.432617	3343.250977	28.649666
648.868591	716.724060	9848.305664	3335.003662	28.672792
649.201782	721.107910	9794.064453	3327.944580	28.731941
649.534912	726.383362	9750.522461	3315.164795	28.687298
649.868103	724.674316	9709.434570	3299.189453	28.654245
650.201172	717.987122	9690.338867	3290.867432	28.675653
650.534180	716.649719	9644.344727	3285.369141	28.772482
650.867188	719.919006	9599.317383	3270.136963	28.720617
651.200134	727.869446	9557.782227	3248.218018	28.543301
651.533020	731.956116	9530.586914	3220.725830	28.285875
651.865845	736.414307	9461.930664	3202.819092	28.266577
652.198608	735.448425	9412.965820	3192.267578	28.312464
652.531433	725.937561	9387.256836	3180.156494	28.335394
652.864136	720.364929	9377.375000	3178.001709	28.388979
653.196777	1313.226196	10037.034180	3784.906250	28.332584
653.529358	1344.284790	9984.502930	3777.253174	28.158646
653.861938	1339.380859	9936.799805	3739.061523	27.911640
654.194519	737.380188	9178.836914	3088.615479	27.853430
654.526978	708.476379	9114.416992	3061.420654	27.991447
654.859375	713.454773	9060.176758	3044.776611	27.930988
655.191833	720.959290	9016.413086	3034.968750	27.894911
655.524170	715.906738	8967.000977	3001.978516	27.706287
655.856445	715.460938	8943.075195	2985.928955	27.595703
656.188660	735.076843	8947.905273	2983.997314	27.383020
656.520874	742.729980	8928.883789	2986.523438	27.409618
656.853088	743.398682	8908.672852	2977.978760	27.366871
657.185181	723.485596	8878.209961	2959.403320	27.418678
657.517212	721.553711	8879.397461	2953.979248	27.365387
657.849243	723.708496	8898.122070	2966.387695	27.435352
658.181274	722.816895	8950.059570	2966.833252	27.275438
658.513123	714.420593	9005.563477	2977.235596	27.291956
658.844971	710.111084	9074.813477	2990.387451	27.260700
659.176819	716.129639	9124.894531	3018.622314	27.382057
659.508667	730.544434	9192.287109	3031.922607	27.197451
659.840393	737.008728	9270.899414	3043.736572	27.030201
660.172058	729.578430	9337.474609	3038.015381	26.817667
660.503662	730.024231	9396.619141	3039.352783	26.646320
660.835266	731.287415	9436.372070	3045.965576	26.589956
661.166931	735.819885	9427.826172	3035.192139	26.453875
661.498413	736.934387	9392.383789	3012.529297	26.290894
661.829773	734.853821	9276.991211	2979.910889	26.282146
662.161194	737.528809	9161.599609	2961.186279	26.396473
662.492615	719.696228	9011.731445	2935.180420	26.718220
662.823975	723.782776	8880.140625	2893.496826	26.601507
663.155212	719.027405	8739.114258	2853.819092	26.618063
663.486450	727.126465	8624.911133	2819.713867	26.495878
663.817627	713.900574	8477.272461	2778.773438	26.597628
664.148743	711.820068	8337.656250	2735.974854	26.543383
664.479858	705.504395	8203.614258	2689.684326	26.462402
664.810913	710.333984	8113.114746	2668.508057	26.451872
665.141907	712.488770	8039.554688	2651.641113	26.465605
665.472778	720.364929	7959.307129	2631.282227	26.397741
665.803711	736.488586	7919.332520	2618.576416	26.202545
666.134583	735.894104	7863.902344	2593.685303	26.063259
666.465454	736.934387	7836.856934	2594.725342	26.166357
666.796143	722.519714	7777.711426	2571.840088	26.212191
667.126831	726.903564	7763.816895	2562.626465	26.087048
667.457458	724.302917	7740.485840	2552.075439	26.050810
667.788147	719.250305	7706.083496	2541.078857	26.075171
668.118774	715.089355	7681.860840	2540.113037	26.196117
668.449219	721.330811	7661.427734	2513.140869	25.818230
668.779663	726.680603	7668.634766	2499.172119	25.533033
669.110107	720.662109	7648.796875	2481.784912	25.419868
669.440552	712.414551	7643.372559	2485.871826	25.587477
669.770874	708.699402	7613.502441	2475.915283	25.594007
670.101135	714.643555	7587.423340	2473.388916	25.590015
670.431396	718.878906	7557.478516	2443.742188	25.222464
670.761597	717.838623	7512.228027	2428.138672	25.172239
671.091797	715.460938	7478.939941	2411.420654	25.075256
671.421875	718.655945	7420.984863	2406.442383	25.182087
671.751892	729.281250	7393.343750	2401.389648	25.091427
672.081909	732.996338	7361.914063	2383.556885	24.899397
672.411865	733.070618	7338.359375	2378.355713	24.908604
672.741821	723.634216	7305.146484	2353.538574	24.764891
673.071716	711.076965	7241.097656	2337.712158	24.910109
673.401550	709.145203	7177.271484	2322.480225	24.942848
673.731262	715.981018	7112.404785	2318.839600	25.058668
674.060974	727.126465	7069.308594	2303.904297	24.861755
674.390625	725.194519	7073.990234	2282.282227	24.525717
674.720276	718.507324	7067.822754	2282.653809	24.634884
675.049927	715.683777	7044.195313	2278.492920	24.694733
675.379395	714.643555	7004.814941	2274.480713	24.798008
675.708923	719.696106	6954.511719	2252.709961	24.587959
676.038330	717.987244	6927.316895	2229.824951	24.347839
676.367737	722.073792	6846.400879	2215.930420	24.392176
676.697083	721.553711	6826.190918	2200.177979	24.221329
677.026428	721.033630	6785.175781	2183.608398	24.118410
677.355652	714.717834	6767.492188	2164.586670	23.953791
677.684875	718.061523	6760.804688	2158.568359	23.838625
678.013977	713.306152	6755.603027	2154.555908	23.852680
678.343079	718.804504	6765.411621	2159.237061	23.822165
678.672180	713.306091	6737.993652	2155.595947	23.939661
679.001221	723.634094	6761.175781	2160.871826	23.805017
679.330139	722.073792	6794.166504	2160.277344	23.685469
679.659058	713.529053	6837.931152	2154.853271	23.534121
679.987976	716.872620	6857.249512	2171.719971	23.693129
680.316772	719.770508	6896.853027	2178.258545	23.611277
680.645630	731.584656	6928.653809	2198.766113	23.675407
680.974304	725.789001	6984.604004	2193.787842	23.454901
681.302979	722.222473	7007.191895	2197.428711	23.471973
681.631653	714.346375	7024.950684	2185.911865	23.318930
681.960266	715.386658	7037.953613	2195.422607	23.408781
682.288757	714.420715	7051.773438	2195.273926	23.367065
682.617249	717.689941	7074.732910	2191.781738	23.188326
682.945679	717.764343	7044.937988	2172.017090	22.984238
683.274109	722.371094	7017.817871	2171.199707	23.013912
683.602478	724.228577	6959.118652	2158.939697	23.011009
683.930725	730.247070	6906.363281	2148.686279	22.966524
684.259033	728.018066	6849.447754	2118.147705	22.709232
684.587280	727.349304	6790.525879	2096.971436	22.589182
684.915344	724.451477	6747.578613	2077.726807	22.467987
685.243469	728.612488	6688.285156	2057.293701	22.294531
685.571533	724.600098	6613.164551	2039.163940	22.324013
685.899536	722.148132	6520.509277	2027.275391	22.508553
686.227539	715.535156	6431.049316	2022.296997	22.863417
686.555420	716.798340	6392.263184	2006.990845	22.732807
686.883301	715.460938	6378.591309	1987.969360	22.470053
687.211121	720.587830	6363.730469	1972.960083	22.192818
687.538940	725.640381	6369.972168	1963.449585	21.930128
687.866638	722.965515	6368.485840	1961.666138	21.941301
688.194336	721.999512	6376.064941	1946.285522	21.653198
688.521973	719.473328	6377.476563	1944.130859	21.644693
688.849609	720.141907	6368.263672	1926.372437	21.356312
689.177063	720.736328	6353.476563	1937.815063	21.607224
689.504578	712.042969	6303.025391	1936.923462	21.908144
689.832031	717.689941	6258.964355	1929.195923	21.863310
690.159485	715.460876	6187.781738	1900.217773	21.649988
690.486816	716.352539	6103.745605	1877.332642	21.549942
690.814087	719.770508	6034.791504	1860.465820	21.461727
691.141296	723.559875	5959.003418	1851.475220	21.543835
691.468506	733.442200	5871.326660	1832.007813	21.381674
691.795715	727.052185	5755.042969	1803.995728	21.418966
692.122803	723.931396	5676.653809	1785.048462	21.424925
692.449829	718.210144	5616.319824	1757.630859	21.220852
692.776855	716.129639	5549.150391	1750.720703	21.406717
693.103821	713.454773	5475.887207	1725.606079	21.252821
693.430664	717.615662	5402.996582	1715.501099	21.297852
693.757568	712.934570	5351.579590	1690.609741	21.076740
694.084351	711.448547	5320.966309	1672.182739	20.842402
694.411133	708.402161	5281.585449	1662.226196	20.856895
694.737854	716.203918	5250.527344	1657.322266	20.755432
695.064575	714.197754	5197.177734	1653.829956	20.959991
695.391174	712.637390	5173.772461	1646.994141	20.944372
695.717773	707.659119	5150.367676	1638.077759	20.942600
696.044250	715.758118	5144.125977	1629.533081	20.634577
696.370789	711.522888	5132.237793	1621.433960	20.582895
696.697205	712.637390	5139.445313	1612.443359	20.326292
697.023621	707.510498	5169.017090	1608.653931	20.198185
697.349915	721.405090	5217.017090	1617.495972	19.932568
697.676208	724.302917	5287.753418	1631.836304	19.886999
698.002380	721.330872	5357.523438	1642.313110	19.865057
698.328674	718.135803	5452.110840	1650.932251	19.704296
698.654724	714.643555	5525.968262	1668.467773	19.824566
698.980896	720.662109	5632.146484	1686.597534	19.666874
699.306946	718.284424	5701.396484	1704.801636	19.797211
699.632935	718.878723	5777.333984	1713.494995	19.662451
699.958862	718.507324	5795.910156	1712.974976	19.586149
700.284729	718.061523	5796.578125	1700.046265	19.336054
700.610596	719.101746	5770.720703	1691.055664	19.240444
700.936340	717.764221	5717.000000	1683.699585	19.321661
701.262146	711.299988	5637.718750	1669.210571	19.444359
701.587830	709.813965	5516.530762	1647.885742	19.515852
701.913513	713.603333	5390.810547	1618.982056	19.357252
702.239075	721.925293	5250.007324	1586.140137	19.085670
702.564697	721.182190	5125.179199	1551.069336	18.843954
702.890137	724.377197	4996.337891	1521.348267	18.655861
703.215698	719.398926	4907.991699	1502.624023	18.699003
703.541016	720.513489	4794.605957	1487.912109	18.836063
703.866455	709.219543	4709.752441	1464.135132	18.870375
704.191711	713.157532	4633.443359	1454.624390	18.913591
704.517029	706.321594	4561.741211	1435.082642	18.902250
704.842163	709.739563	4502.224609	1428.841187	18.961226
705.167419	711.225586	4435.500977	1401.275024	18.528421
705.492493	715.089355	4415.439453	1381.584595	18.011681
705.817566	707.213318	4368.257324	1364.569458	17.955429
706.142578	699.560120	4337.792969	1356.024658	18.043499
706.467590	702.086426	4320.777344	1365.758301	18.340109
706.792480	707.436218	4306.957031	1360.557129	18.144663
707.117371	711.002747	4306.437012	1361.968750	18.105350
707.442200	719.696228	4290.461426	1357.807983	17.870449
707.766907	718.061523	4288.158691	1356.990723	17.896688
708.091675	717.912903	4282.883301	1364.792358	18.145437
708.416321	713.380371	4295.812012	1354.092773	17.884846
708.741028	710.928406	4317.433594	1359.739868	17.990032
709.065552	712.042969	4336.678223	1346.365356	17.500309
709.390137	709.516663	4348.641113	1354.241333	17.716476
709.714600	720.736389	4360.380859	1359.665405	17.554708
710.039063	718.878845	4392.999512	1371.479492	17.762091
710.363403	724.525818	4434.535156	1376.532227	17.574253
710.687744	713.231750	4489.741699	1370.662109	17.408411
711.012085	710.779785	4519.388184	1368.953125	17.281202
711.336304	702.160645	4550.520996	1367.244263	17.282259
711.660461	710.631165	4581.951172	1374.005859	17.135620
711.984619	712.563049	4609.517578	1373.337036	16.956163
712.308716	717.764343	4638.198730	1371.108032	16.665085
712.632751	725.120300	4650.235840	1365.981323	16.327188
712.956726	735.596924	4654.693848	1371.554077	16.227135
713.280701	737.157288	4622.000488	1364.049438	16.136871
713.604553	734.556702	4575.709961	1360.036987	16.283659
713.928467	731.064453	4493.902832	1345.027954	16.316500
714.252258	729.206970	4430.448242	1338.489258	16.461567
714.575989	722.816895	4365.210449	1323.108521	16.480692
714.899719	718.135803	4327.167480	1310.700073	16.418926
715.223267	715.163757	4285.186523	1301.189331	16.415178
715.546936	717.912842	4228.642090	1294.353394	16.419395
715.870422	718.655945	4173.806641	1283.802368	16.356636
716.193970	716.352539	4142.896973	1270.056396	16.159248
716.517395	712.785950	4123.652344	1256.161743	15.930726
716.840820	710.259766	4108.568848	1241.672729	15.637570
717.164124	717.021240	4058.489014	1237.214600	15.567810
717.487488	723.336975	4026.538818	1229.561401	15.325264
717.810730	725.417419	3990.501953	1237.809082	15.693060
718.133972	726.383301	3942.576904	1221.462402	15.393324
718.457092	724.302917	3880.905518	1214.923828	15.542688
718.780212	720.290527	3844.719727	1199.394531	15.334129
719.103210	706.247375	3795.382813	1196.645386	15.874928
719.426208	700.377441	3746.268311	1188.174805	16.014933
719.749207	713.677551	3691.210205	1178.366821	15.606521
720.072083	721.256531	3646.628906	1170.639404	15.361562
720.394958	727.943665	3607.991455	1163.729126	15.131188
720.717773	718.655945	3557.911377	1154.367188	15.345969
721.040527	715.460938	3514.815674	1149.314453	15.498340
721.363281	713.454773	3478.704834	1142.775879	15.525580
721.685913	722.816833	3446.754639	1141.735596	15.379161
722.008545	728.389587	3435.906494	1134.453857	14.997663
722.331055	722.891113	3414.656006	1121.599487	14.812155
722.653503	719.250305	3389.095703	1106.516113	14.505177
722.976013	715.535156	3357.294189	1098.491333	14.496257
723.298401	722.222473	3333.294189	1104.510010	14.641020
723.620789	717.169922	3315.239014	1097.302612	14.631354
723.943115	721.330811	3305.579834	1095.444946	14.476707
724.265381	717.912903	3302.755859	1090.541138	14.415895
724.587585	719.473206	3311.152100	1091.655640	14.360669
724.909790	712.191589	3297.480469	1087.568970	14.519747
725.231873	712.191589	3296.143311	1077.166504	14.124681
725.553894	711.076965	3298.149170	1086.900269	14.526974
725.875916	852.400696	3461.837891	1222.279785	14.174669
726.197937	865.552307	3482.123047	1226.069214	13.778221
726.519775	860.276855	3470.754639	1212.769043	13.502976
726.841675	722.371094	3337.975586	1071.222290	13.337307
727.163513	708.030579	3339.461670	1070.182129	13.762532
727.485291	708.922302	3352.389893	1071.148071	13.702675
727.806946	712.414551	3371.708984	1078.652710	13.772005
728.128662	715.609558	3395.188477	1076.126343	13.454233
728.450256	722.668274	3417.330811	1083.110718	13.376163
728.771790	723.188416	3420.822998	1084.522461	13.394477
729.093323	722.148132	3410.717529	1094.404907	13.845905
729.414795	714.792236	3424.389404	1086.157227	13.705543
729.736145	718.061462	3436.203369	1074.565918	13.115742
730.057495	718.061462	3458.717041	1066.021118	12.696220
730.378845	727.349304	3457.677002	1069.661987	12.537421
730.700134	724.674500	3449.503906	1076.497925	12.911760
731.021301	725.566101	3433.603271	1074.343140	12.879330
731.342468	729.206848	3434.345947	1077.389526	12.871156
731.663574	732.699158	3427.956055	1072.782715	12.617853
731.984680	734.556641	3433.454346	1073.154175	12.545772
732.305664	720.662109	3428.921875	1061.711548	12.592937
732.626648	716.872742	3448.166260	1066.392578	12.796862
732.947571	714.792175	3457.305664	1065.575317	12.790571
733.268433	718.953125	3453.144775	1066.021118	12.693624
733.589233	714.049133	3434.197510	1063.048950	12.830175
733.909973	717.615662	3423.498047	1065.723755	12.864864
734.230713	724.525818	3411.832275	1061.637329	12.544588
734.551331	729.058289	3383.820313	1048.337036	12.026643
734.871948	718.581543	3340.501709	1030.281616	11.888237
735.192505	710.631165	3295.919922	1022.851257	12.076797
735.513062	715.015076	3261.963623	1019.656250	11.961026
735.833435	724.377197	3215.970459	1013.117615	11.588586
736.153931	729.206848	3166.113281	1010.739929	11.552888
736.474304	724.228577	3124.429688	1006.430359	11.757422
736.794617	724.822998	3085.123291	1006.133118	11.918404
737.114807	723.931396	3059.266357	1000.486145	11.842188
737.434998	717.912903	3035.637939	996.176575	12.005897
737.755188	714.272034	3031.328125	994.764832	12.105568
738.075256	705.430115	3026.647217	988.894958	12.211906
738.395325	711.299988	3034.523193	978.715393	11.510534
738.715271	714.866516	3045.296875	976.486389	11.226247
739.035278	719.324707	3070.559814	981.390381	11.145873
739.355164	712.042969	3082.076904	983.693787	11.461896
739.675049	704.612610	3095.748291	985.699951	11.755390
739.994873	711.894348	3096.268555	983.322266	11.383612
740.314636	720.959290	3105.407959	989.935120	11.280420
740.634277	724.897278	3098.348877	984.436768	10.935107
740.953979	713.157532	3072.268799	977.006531	11.184254
741.273499	711.151367	3044.851318	967.792969	10.997198
741.593140	714.569275	2998.783203	969.799133	11.173641
741.912598	719.176025	2964.009766	972.176758	11.270355
742.232117	718.061523	2906.053711	974.703125	11.729548
742.551453	713.008972	2868.159424	961.031433	11.508360
742.870850	723.931396	2843.639404	961.031433	11.185505
743.190063	724.823059	2820.457031	949.440186	10.718337
743.509338	720.216309	2796.680420	950.629089	11.096401
743.828552	715.535156	2757.819580	935.545593	10.772762
744.147705	713.157532	2722.451904	930.195801	10.801716
744.466797	727.200684	2683.145508	929.675598	10.351770
744.785828	727.646484	2656.545166	938.889160	10.951466
745.104858	738.940613	2643.913818	940.003723	10.554643
745.423706	734.259460	2640.941650	931.458984	10.342548
745.742615	733.516418	2630.316406	917.861511	9.718741
746.061401	727.275085	2612.335205	909.019531	9.641308
746.380249	724.525879	2605.053467	900.771912	9.372159
746.698975	718.210022	2589.301270	890.518066	9.208960
747.017639	715.163635	2579.864746	889.998047	9.376001
747.336304	708.922180	2549.474854	889.477844	9.809861
747.654907	709.888184	2556.607910	899.360168	10.259921
747.973389	713.677551	2556.087891	899.657410	10.094378
748.291931	714.197754	2573.846436	906.195984	10.324435
748.610352	719.919128	2569.239502	892.450012	9.329421
748.928711	716.649719	2568.645264	897.799805	9.781345
749.247070	725.863281	2560.100342	891.261169	9.017258
749.565308	722.519592	2557.945313	896.759460	9.493158
749.883545	723.634094	2541.449951	884.202332	8.833031
750.201782	724.525818	2530.527588	885.688477	8.923727
750.519836	721.256531	2509.500000	881.453186	8.958325
750.837952	718.433044	2502.515869	890.741028	9.658072
751.155884	709.368103	2476.286865	889.106384	10.172414
751.473877	706.544617	2464.769775	893.936096	10.657991
751.791809	718.210144	2455.927734	886.282898	9.672041
752.109619	730.915833	2460.385986	878.703918	8.545280
752.427490	741.392578	2454.887451	874.617371	7.775033
752.745300	734.556641	2445.228271	874.542969	8.183121
753.062988	725.343079	2449.463379	877.440735	8.821754
753.380615	711.820068	2447.160156	872.611145	9.265681
753.698303	719.398926	2450.429443	872.388245	8.838049
754.015808	719.547546	2436.683350	877.886658	9.221118
754.333374	727.497986	2424.646484	878.035339	8.870017
754.650757	721.628113	2417.884766	876.474854	9.128734
754.968262	726.680603	2407.036865	871.570984	8.622600
755.285583	732.847717	2408.522705	874.022888	8.424973
755.602905	730.767273	2407.928467	877.738037	8.763067
755.920105	724.080078	2404.064697	877.217834	9.115426
756.237305	726.160461	2394.033936	873.428406	8.829683
756.554443	724.971680	2385.711914	861.614258	8.227812
756.871582	726.977844	2379.916260	852.623718	7.601364
757.188599	716.129639	2378.950195	847.571106	7.904729
757.505615	717.764343	2375.309326	851.732117	8.082301
757.822510	725.937561	2395.073975	851.137695	7.500893
758.139465	728.092346	2402.801514	853.143860	7.467058
758.456238	725.789001	2411.197510	854.629883	7.644490
758.773010	716.872742	2419.816650	860.648376	8.442770
759.089783	720.513489	2445.079590	866.592590	8.470484
759.406433	716.278320	2459.122803	857.602051	8.108797
759.723145	712.934570	2461.723633	852.103577	7.958021
760.039673	712.414551	2464.918457	850.394592	7.873309
760.356201	715.758118	2462.317871	849.428711	7.653365
760.672668	719.250305	2460.237305	848.834290	7.443133
760.989136	713.603333	2438.912842	849.428711	7.872522
761.305481	709.516663	2437.500732	854.778503	8.406434
761.621826	708.327820	2435.420166	859.459656	8.750652
761.938049	716.724060	2448.423584	860.499817	8.302582
762.254333	724.005676	2471.754395	863.471863	7.979762
762.570496	732.550537	2508.237061	861.540039	7.264205
762.886597	727.795166	2574.069092	856.784668	6.986477
763.202637	722.593994	2660.780518	863.917725	7.291544
763.518677	717.615662	2786.129150	880.264343	7.863071
763.834656	716.946960	2920.988525	889.775085	7.841419
764.150574	716.798340	3056.368164	894.084656	7.577731
764.466370	715.312256	3155.116455	896.090820	7.409552
764.782288	713.306152	3206.162109	903.669678	7.636363
765.097961	713.900574	3211.660889	907.161926	7.737386
765.413696	714.569336	3175.029297	897.576904	7.437942
765.729309	720.736389	3102.287109	886.208557	6.948085
766.044861	727.052185	3003.687500	872.016785	6.367494
766.360474	726.680664	2879.156250	867.484192	6.541469
766.675903	721.925232	2755.145264	857.007568	6.643764
766.991394	716.426819	2624.743652	847.050964	6.844992
767.306763	717.541321	2521.239990	842.072754	6.904226
767.622131	718.432922	2423.754639	836.871582	6.945238
767.937378	714.123352	2358.071045	829.515625	7.019218
768.252625	715.535156	2310.368652	823.497070	6.769479
768.567810	707.584778	2261.031982	820.896484	7.294210
768.882996	713.306152	2225.218018	819.707703	7.037550
769.197998	711.820129	2177.738525	815.621033	7.080946
769.513062	716.501160	2145.565430	810.196960	6.556445
769.828064	715.163757	2106.482178	813.317627	7.054739
770.142944	710.333984	2076.464111	813.614746	7.560097
770.457825	712.934570	2061.157471	818.295898	7.814830
770.772705	707.361877	2031.436523	809.082336	7.682381
771.087402	704.761292	2008.030884	802.246399	7.480042
771.402100	705.653015	1981.727905	800.537537	7.435654
771.716736	706.841797	1966.198608	808.116394	8.041772
772.031372	713.231750	1940.712769	805.367188	7.506058
772.345947	711.448547	1929.047241	801.206299	7.371703
772.660461	710.705505	1913.294922	794.667664	6.981781
772.974854	711.597168	1905.641968	799.943054	7.398875
773.289246	715.832336	1883.202515	803.583923	7.517032
773.603638	722.742493	1861.283081	797.193909	6.539198
773.917908	718.730225	1846.868286	786.717224	6.026479
774.232178	714.940735	1845.308105	779.955627	5.751660
774.546265	723.188416	1845.828247	780.029968	5.063204
774.860474	725.120300	1840.478516	787.608887	5.602558
775.174561	724.451477	1823.537476	783.522156	5.374528
775.488586	718.655945	1800.131958	787.608887	6.375818
775.802551	720.959290	1788.169312	781.293152	5.653420
776.116516	729.355469	1775.834961	783.150635	5.140585
776.430359	722.222473	1776.429565	776.240540	5.124047
776.744202	725.491760	1773.457397	779.732727	5.175835
777.057922	718.804443	1769.370605	776.166199	5.460080
777.371704	714.792175	1762.906250	774.308655	5.678436
777.685303	706.618896	1750.423462	769.553284	6.029327
777.998962	704.464172	1737.791992	779.212646	7.233761
778.312500	710.334045	1728.207031	784.265198	7.263299
778.626038	709.665344	1712.826172	791.621155	8.169758
778.939453	713.306152	1713.792114	791.175354	7.783138
779.252869	720.513489	1719.587891	796.302246	7.585897
779.566223	723.262695	1716.690063	789.615051	6.679135
779.879578	726.234802	1706.807983	786.865906	6.183231
780.192749	717.318420	1691.427124	775.051697	5.926780
780.505920	710.408386	1685.705933	769.033203	6.010967
780.819031	705.504333	1674.114624	769.107422	6.566427
781.132141	721.627991	1676.715210	784.339539	6.566054
781.445190	733.516418	1670.696655	787.534485	5.763893
781.758118	737.603088	1673.520142	789.986511	5.597015
782.071045	732.104675	1665.124023	779.286926	5.056942
782.383911	727.572266	1654.350098	782.481934	5.924793
782.696838	725.343201	1640.752563	770.667786	4.951292
783.009583	717.987122	1613.557983	770.147705	5.824283
783.322266	717.244141	1590.003906	761.677185	5.091097
783.634888	711.894348	1586.883179	761.602844	5.681044
783.947510	711.671387	1584.208374	759.522461	5.484131
784.260132	718.581543	1594.313477	767.844421	5.625338
784.572571	724.674500	1582.722290	770.296387	5.316940
784.885010	717.021301	1575.960571	778.915344	7.205870
785.197449	715.609558	1562.363281	771.782410	6.633907
785.509766	719.473206	1553.669922	768.884583	5.923228
785.822083	729.949951	1539.626587	760.265442	3.744148
786.134277	727.497864	1540.666992	759.671082	3.956522
786.446533	719.993347	1536.283081	765.169434	5.534320
786.758606	715.832458	1551.366577	766.135437	6.020458
787.070740	722.593994	1548.840210	767.547119	5.440645
787.382690	719.324707	1555.304565	759.002258	4.746233
787.694641	715.832458	1559.168335	759.968262	5.233479
788.006653	703.498230	1579.155762	763.460449	6.847679
788.318481	708.104980	1599.514648	767.695618	6.684989
788.630310	711.299988	1615.935547	765.763855	6.020531
788.942017	712.414490	1633.916870	763.460449	5.539428
789.253784	718.135742	1649.891724	764.054932	4.928242
789.565430	722.148132	1657.990845	760.562683	4.104808
789.877014	723.485596	1656.950562	762.271667	4.155065
790.188538	714.494934	1639.266602	761.974426	5.134185
790.500061	712.488770	1616.084106	762.643127	5.550533
790.811462	718.432922	1600.257690	754.024109	4.036084
791.122925	725.788879	1586.957397	753.355286	3.201047
791.434204	728.389587	1569.793457	752.983826	2.923000
791.745483	732.624817	1542.970215	760.785583	3.475156
792.056702	729.281189	1510.351196	755.732971	3.386608
792.367920	723.336914	1501.212280	757.962097	4.451251
792.678955	725.566101	1479.812988	748.748535	3.073587
792.990112	731.881836	1480.184448	756.996094	3.356163
793.301086	736.562927	1465.769897	754.098328	2.404722
793.612122	723.559875	1470.302368	758.259277	4.646770
793.922974	713.603333	1460.717285	747.336731	4.515161
794.233826	715.683838	1461.163086	742.358582	3.578201
794.544556	723.188416	1462.872070	744.216125	2.842798
794.855286	724.228699	1463.540649	742.507141	2.472358
795.166016	725.120300	1467.999023	748.599915	3.160625
795.476624	723.039734	1457.224976	742.061218	2.590829
795.787292	724.451477	1466.438477	745.107666	2.783902
796.097778	716.055359	1472.531250	749.565857	4.429817
796.408264	712.637390	1493.336060	758.036316	5.815166
796.718689	713.751953	1500.914917	764.575012	6.456485
797.029053	718.878845	1503.367065	758.036316	4.991467
797.339355	716.946960	1502.401001	757.813477	5.202916
797.649658	714.940735	1497.794434	757.293396	5.410035
797.959839	716.872620	1498.165894	756.104492	5.021401
798.270020	718.581543	1503.069824	757.144714	4.915710
798.580078	725.343079	1498.017212	763.311829	4.913941
798.890137	716.426819	1477.138062	770.593506	7.120532
799.200195	712.265869	1453.212524	763.906250	6.969514
799.510071	708.996582	1447.045532	754.395508	6.151208
799.820007	715.609558	1443.553223	752.909485	5.124013
800.129883	725.491760	1432.259277	747.708313	3.143403
800.439575	719.770508	1411.454468	747.336731	3.985379
800.749329	719.621887	1400.383423	745.776367	3.841944
801.058960	716.872742	1395.999634	754.098328	5.481389
801.368591	720.662109	1390.724121	751.274841	4.568642
801.678162	723.262695	1390.278320	750.085938	4.021381
801.987671	733.144958	1385.745728	747.708252	2.231578
802.297119	740.946716	1385.745728	753.875427	2.005076
802.606506	739.386292	1381.882202	743.101501	0.578246
802.915894	719.250305	1381.361938	747.559753	4.275630
803.225159	710.259705	1369.250610	740.203674	4.543912
803.534424	708.253601	1356.098999	747.113831	5.998380
803.843628	722.296692	1351.343628	736.042786	2.185225
804.152771	723.411316	1351.566528	741.169678	2.827066
804.461792	734.408020	1349.634644	734.928223	0.084555
804.770874	726.606384	1347.702759	735.151123	1.375751
805.079773	724.748718	1346.811157	734.853821	1.624452
805.388733	708.253479	1358.476685	742.581360	5.279399
805.697571	716.278259	1366.278320	744.513245	4.343843
806.006470	721.553711	1372.296875	743.175781	3.322674
806.315125	724.080078	1379.132813	738.420410	2.189188
806.623901	717.912903	1384.408203	739.534973	3.244144
806.932495	709.888184	1386.934570	747.113831	5.498242
807.241150	718.210144	1380.098755	754.841309	5.534340
807.549622	716.501160	1373.040039	756.921814	6.156628
807.858154	721.925293	1372.742798	749.268616	4.201381
808.166565	715.386658	1364.940918	736.191406	3.202927
808.474915	721.850891	1350.674927	740.426575	2.954035
808.783264	720.439148	1352.681030	737.454590	2.691287
809.091492	720.067688	1347.628418	738.643372	2.959982
809.399719	715.609558	1351.715088	729.429871	2.172645
809.707825	715.386536	1334.699707	730.247070	2.399518
810.015930	723.039795	1330.018677	733.144958	1.664829
810.323975	724.897278	1321.102417	734.928223	1.682465
810.632080	719.101746	1310.922852	740.129456	3.553052
810.939880	712.488770	1292.867310	743.918884	5.415451
811.247864	711.745789	1293.461792	747.188171	6.092730
811.555664	710.928406	1287.146118	743.621582	5.673754
811.863464	715.980957	1283.653809	741.615479	4.515721
812.171143	709.665344	1270.947998	741.243958	5.626152
812.478882	719.621887	1270.205078	739.460632	3.603224
812.786438	715.683838	1276.149170	746.519470	5.501791
813.094055	721.033691	1258.613770	744.959045	4.450566
813.401489	713.529053	1261.734497	746.593750	6.031443
813.708984	711.448547	1258.539429	738.569031	4.957217
814.016357	719.250305	1270.353638	744.438965	4.570588
814.323730	729.875671	1265.375366	742.061340	2.275570
814.630981	733.813721	1264.855225	741.689758	1.483130
814.938232	724.228699	1263.443481	738.866272	2.714609
815.245361	721.405212	1257.127808	744.067444	4.230217
815.552490	717.318542	1253.635498	746.147949	5.375442
815.859619	715.238037	1249.326050	742.878601	5.175282
816.166565	719.101746	1250.737671	734.705322	2.935012
816.473572	714.123474	1254.973022	738.346191	4.478642
816.780457	721.405090	1264.855103	732.253357	1.996185
817.087341	720.141907	1274.663208	736.265686	2.907693
817.394043	722.445374	1274.737549	724.451599	0.363254
817.700806	721.182129	1271.988281	732.179016	1.996508
818.007507	711.671448	1281.053223	726.606262	2.622988
818.314209	719.027405	1297.028320	729.429871	1.799732
818.620667	719.176025	1309.213989	732.476257	2.254132
818.927246	724.228577	1317.833130	736.414246	2.052826
819.233704	720.885010	1334.105347	740.872375	3.259410
819.540161	711.374268	1354.092773	727.052185	2.439313
819.846497	715.163757	1386.860229	734.185120	2.831839
820.152832	718.135742	1423.119751	733.813721	2.223877
820.458984	728.538147	1470.896484	745.627869	2.302085
820.765259	727.497864	1531.973511	745.850769	2.281350
821.071350	728.538147	1613.929321	755.138489	3.004360
821.377502	722.445313	1764.392456	749.937317	2.638522
821.683472	723.337097	2009.294312	746.073547	1.768056
821.989441	715.312317	2443.370605	748.302734	1.909103
822.295349	721.925232	3021.371826	767.992920	2.003425
822.601196	716.872620	3675.086914	789.837891	2.466531
822.907043	718.135803	4255.837402	811.682922	2.644291
823.212769	715.535217	4641.170898	820.524963	2.674465
823.518494	715.386658	4797.875488	821.788086	2.606288
823.824097	721.256531	4690.879395	818.667419	2.453908
824.129700	713.603333	4468.194336	815.918152	2.725059
824.435242	714.717773	4187.404297	808.636475	2.704497
824.740723	711.448547	3939.827393	798.159851	2.685909
825.046082	717.169922	3677.167236	793.924622	2.593066
825.351501	712.860352	3395.485596	786.865906	2.758699
825.656799	710.779846	3083.636963	780.550049	2.940346
825.962036	718.061523	2791.553467	764.129211	2.221744
826.267212	718.135803	2530.082031	770.296326	2.878701
826.572449	719.770508	2386.157715	769.924805	3.009763
826.877502	711.374207	2339.644043	776.240540	3.983758
827.182495	716.798340	2418.553467	773.417053	3.327078
827.487488	712.042969	2515.221436	768.067200	3.106971
827.792419	707.659119	2608.248291	771.633789	3.366044
828.097290	700.748962	2625.486816	764.649231	3.319947
828.402100	705.652893	2586.477783	771.559387	3.504127
828.706848	712.711670	2494.045166	765.318054	2.953202
829.011597	716.872620	2384.077148	765.169434	2.896874
829.316223	712.563171	2267.422119	751.349121	2.494500
829.620789	711.225769	2155.967773	746.668030	2.453190
829.925354	718.358704	2034.631470	748.822815	2.314422
830.229797	727.795166	1910.843140	751.497742	2.003518
830.534302	734.333801	1778.212769	756.178772	2.092673
830.838562	730.395752	1644.022095	746.965271	1.813599
831.142944	726.903564	1532.419312	742.729980	1.964756
831.447144	723.559875	1441.026978	737.454529	1.936626
831.751404	723.931396	1395.925171	731.287415	1.094656
832.055542	725.714661	1357.585083	739.237793	2.140175
832.359619	721.033508	1346.885376	735.745605	2.350732
832.663635	724.525818	1338.266235	743.844543	3.147703
832.967651	725.491760	1365.163940	738.866272	2.090838
833.271545	729.504089	1409.671265	737.454529	1.168895
833.575439	727.423645	1492.295898	735.745605	1.088020
833.879211	717.244141	1590.895508	734.631042	1.990142
834.183044	712.785950	1705.396118	733.665039	2.103453
834.486694	705.429993	1785.494507	734.259521	2.669241
834.790344	721.925293	1851.178101	745.850769	2.118700
835.093933	717.318542	1851.178101	753.949707	3.230661
835.397522	718.878906	1840.924316	749.194336	2.701801
835.700928	712.711731	1771.897095	736.785828	2.272888
836.004395	728.909668	1722.337036	736.340027	0.747952
836.307739	734.185120	1663.415039	738.866211	0.503760
836.611023	729.875549	1601.520874	733.590820	0.426237
836.914307	716.055359	1528.852661	732.476257	2.020294
837.217529	719.696106	1456.258911	741.243958	2.925460
837.520691	714.940735	1393.547485	740.723816	3.799414
837.823730	720.587830	1326.823730	735.076843	2.389996
838.126831	714.197754	1265.821167	726.903503	2.303338
838.429749	726.754944	1225.697632	733.442139	1.340273
838.732727	718.730225	1200.063110	736.042786	3.596796
839.035522	717.467041	1179.852905	735.745544	3.953084
839.338379	713.231873	1161.945923	732.922058	4.388136
839.641113	720.736511	1153.847046	729.949890	2.127258
839.943848	725.566101	1171.233765	723.708496	-0.416814
840.246460	720.513489	1192.410034	723.485596	0.629822
840.549072	717.689941	1209.128296	722.891174	1.058369
840.851563	714.494934	1218.416138	732.550476	3.583009
841.154053	708.253479	1218.118896	735.151123	5.275440
841.456482	713.306152	1213.437744	736.265625	4.590686
841.758850	712.265930	1197.016846	735.671204	4.828309
842.061157	721.405090	1182.750732	730.098450	1.884348
842.363403	713.677673	1179.481445	728.389587	3.158393
842.665588	717.244141	1158.676636	723.634277	1.447591
842.967712	719.398926	1146.119507	723.411316	0.940285
843.269775	719.621826	1115.135254	726.532043	1.747151
843.571777	714.420654	1096.856812	726.234863	3.089198
843.873840	718.135742	1074.343140	726.234863	2.273709
844.175659	721.479431	1059.110962	721.850891	0.110019
844.477600	726.829285	1052.869507	726.977844	0.045565
844.779297	724.228699	1040.312378	735.076843	3.432048
845.081116	724.897400	1032.139038	735.894104	3.579171
845.382751	719.101807	1020.102051	730.990234	3.949641
845.684387	710.111145	1006.578918	725.714661	5.263141
845.985962	708.327820	1000.411865	725.937561	6.028998
846.287537	705.801575	995.582214	720.067688	4.923073
846.588989	702.457947	997.068298	720.216309	6.027745
846.890381	702.160706	986.963074	718.210144	5.635290
847.191711	707.807800	971.879578	721.107910	5.036551
847.493042	717.987122	970.913635	720.662109	1.057615
847.794250	721.033630	972.548340	721.925232	0.354493
848.095459	724.748718	973.068359	725.937500	0.478730
848.396606	724.748718	955.904480	723.336914	-0.610759
848.697693	721.702332	948.102722	724.080017	1.050213
848.998657	722.816895	940.969727	719.547546	-1.498650
849.299622	724.674377	950.777649	723.336975	-0.591501
849.600464	727.720886	952.932434	728.018066	0.131956
849.901367	718.432922	956.944763	724.823059	2.679170
850.202087	714.272034	952.412292	724.600159	4.336992
850.502808	713.380432	953.080872	727.497986	5.889665
850.803467	714.643555	956.424561	737.305908	9.373091
851.104065	730.247253	959.396667	739.237793	3.923440
851.404663	732.104736	949.142883	730.990173	-0.513533
851.705139	738.940613	946.170898	720.662109	-8.820382
852.005615	726.011902	940.895325	722.222412	-1.763510
852.306030	722.371094	943.718933	719.770447	-1.174914
852.606384	725.120300	936.139954	732.624817	3.556312
852.906616	731.510254	934.282410	729.355469	-1.062663
853.206909	727.869446	931.681824	728.686768	0.401017
853.506958	716.649719	941.787048	721.107910	1.980210
853.807129	712.637390	933.093567	719.027405	2.898542
854.107178	719.621887	936.734436	729.578369	4.585862
854.407166	725.268860	935.396973	728.240967	1.414426
854.707092	724.748718	939.780823	726.754883	0.932960
855.007019	716.055359	933.465088	718.655945	1.196168
855.306763	716.872620	926.109131	721.479431	2.201725
855.606567	713.157532	930.790222	720.810608	3.516510
855.906250	718.953125	930.195801	721.256531	1.090407
856.205933	716.872620	926.109070	718.061523	0.568211
856.505493	717.764221	927.372253	718.135925	0.177333
856.805054	718.878845	935.396973	720.439209	0.720662
857.104492	712.934631	935.619934	722.445313	4.270906
857.403931	714.792175	928.115234	721.479431	3.134802
857.703308	709.368103	922.691162	721.256531	5.572969
858.002563	714.272034	927.075012	725.045898	5.062836
858.301819	710.705566	934.059570	727.126465	7.351961
858.601013	717.541443	932.053284	731.584656	6.546591
858.900208	715.683838	920.016296	729.949890	6.981785
859.199219	716.426819	921.428040	737.825989	10.438558
859.498291	721.033508	922.022461	731.881836	5.397475
859.797302	722.222412	938.220459	736.265625	6.501546
860.096191	727.423645	934.505310	737.008728	4.628649
860.395020	718.581726	934.356689	740.946777	10.364989
860.693787	716.426941	923.880066	730.692871	6.876700
860.992554	713.826233	923.508484	718.358704	2.161590
861.291260	716.798340	921.056458	718.432922	0.800253
861.589844	717.244141	933.836609	718.210144	0.446000
861.888428	716.352539	927.892395	716.129639	-0.105370
862.186890	725.343201	937.700378	718.432922	-3.254083
862.485413	728.018066	934.059509	719.547546	-4.111076
862.783813	724.451477	938.146179	725.640381	0.556356
863.082153	714.569275	930.715881	719.993347	2.509441
863.380371	719.919128	922.988464	720.587708	0.329237
863.678589	725.863281	925.589050	722.445313	-1.711331
863.976746	729.058289	926.629333	721.182190	-3.986464
864.274902	727.720886	929.229797	723.559875	-2.064926
864.572937	719.919128	932.945007	723.188293	1.534633
864.870911	720.290527	935.917175	730.915833	4.927640
865.168884	711.745789	933.910950	729.206848	7.859495
865.466736	713.974854	925.291809	726.977844	6.153312
865.764587	718.135742	917.118591	725.491699	3.696779
866.062317	725.268799	928.412537	729.429871	2.048339
866.360107	734.630920	927.446533	733.219238	-0.732141
866.657715	722.965393	931.458923	726.606262	1.746274
866.955322	720.662109	924.920227	723.336975	1.309552
867.252808	712.711731	927.966614	719.770508	3.279264
867.550293	721.851013	936.808655	724.005676	1.002366
867.847717	717.095520	932.201965	724.525879	3.454271
868.145081	717.392822	930.641602	725.120300	3.623692
868.442383	711.448547	929.972839	716.278259	2.210149
868.739624	721.553711	934.653870	722.593994	0.488166
869.036804	718.878845	931.830383	728.092346	4.326571
869.333984	718.878845	932.647705	733.590820	6.882188
869.631042	710.705566	930.492920	726.160461	7.031749
869.928101	718.210144	929.378418	723.634277	2.568631
870.224976	715.906738	918.158691	722.668274	3.343125
870.521851	734.185120	934.059570	730.544373	-1.821517
870.818726	728.909668	945.725098	730.321472	0.651155
871.115479	732.773438	954.046936	730.990051	-0.805965
871.412231	717.467041	939.112122	731.287354	6.235335
871.708862	716.203918	930.641602	724.822998	4.019387
872.005493	716.055359	933.316589	731.287354	7.010912
872.302063	724.228699	933.613708	727.795166	1.703306
872.598572	732.550537	933.242188	725.343201	-3.591249
872.895020	732.624817	929.155518	718.581604	-7.145557
873.191406	728.538269	934.728210	714.197754	-6.955002
873.487671	719.770508	944.684814	714.271973	-2.444725
873.783997	724.005676	944.387695	713.306152	-4.854990
874.080200	716.055359	944.016113	709.665344	-2.803121
874.376343	719.547546	941.266846	706.247375	-5.998653
874.672424	718.135742	956.944641	706.693115	-4.791541
874.968445	724.600159	968.758789	709.145203	-6.329883
875.264465	724.080078	971.136536	710.928467	-5.323322
875.560364	718.210144	959.619629	713.677673	-1.877503
875.856201	709.145203	946.542419	717.392761	3.474160
876.152039	710.259766	942.678711	724.451477	6.106091
876.447754	713.900574	942.604431	721.627991	3.378787
876.743469	714.569275	952.486633	725.566101	4.622120
877.039063	713.677673	952.709534	731.584534	7.491412
877.334595	715.089417	956.944824	735.596924	8.479243
877.630127	723.634094	952.115051	730.915833	3.187022
877.925537	723.336914	952.338074	724.080078	0.324524
878.221008	715.386536	953.526855	710.631287	-1.996827
878.516296	707.584717	953.972656	708.476501	0.361943
878.811646	702.903748	958.728027	712.860291	3.891946
879.106812	709.070801	971.582458	729.652649	7.840356
879.401978	710.482605	984.659668	728.909668	6.720862
879.697083	711.299988	1009.551025	728.389587	5.729938
879.992126	709.070984	1025.303223	722.816895	4.346777
880.287109	711.374268	1064.312134	726.160461	4.189461
880.582031	712.934570	1121.079468	720.736389	1.911532
880.876892	719.993347	1236.322876	718.507324	-0.287805
881.171753	725.045959	1416.135376	724.080078	-0.139762
881.466492	734.631042	1685.111328	731.361633	-0.343974
881.761230	728.835449	2002.978394	742.284180	1.055512
882.055786	730.693054	2330.133301	741.392578	0.668954
882.350403	723.782898	2584.545654	739.312012	0.834556
882.644958	722.965515	2725.052490	741.689697	0.935233
882.939453	711.225647	2750.240967	737.231628	1.275419
883.233826	704.464111	2704.544922	735.596924	1.556578
883.528137	703.349609	2650.229248	729.355469	1.335771
883.822449	706.024414	2579.641846	741.689758	1.903555
884.116577	705.058533	2501.103760	742.655762	2.093334
884.410828	707.436218	2385.489014	748.822815	2.466347
884.704956	705.801575	2228.561279	740.575256	2.283596
884.999023	711.448547	2029.578735	744.364563	2.497175
885.292969	711.374268	1815.066895	734.185242	2.066787
885.586914	714.123535	1616.901489	737.231628	2.559665
885.880798	713.603333	1467.850220	738.346130	3.280464
886.174622	716.649658	1351.715088	742.358398	4.048203
886.468384	712.637390	1273.994507	730.544373	3.189945
886.762085	709.888245	1214.700928	722.073792	2.413875
887.055664	709.665344	1177.178101	711.448547	0.381423
887.349304	715.460938	1147.977051	710.556885	-1.133843
887.642822	719.844788	1116.026855	710.631165	-2.325603
887.936340	715.981018	1089.129272	716.872620	0.238940
888.229736	713.529053	1063.346313	723.039795	2.718774
888.523071	708.922302	1049.526001	719.101746	2.988647
888.816284	710.631165	1034.368164	724.674500	4.337884
889.109619	716.278137	1027.680786	721.925232	1.813438
889.402710	715.015076	1011.780090	731.658875	5.608410
889.695862	712.340149	992.461426	735.522644	8.275878
889.988892	706.767517	981.241699	731.510254	9.014595
890.281921	709.516724	983.916626	710.631226	0.406160
>>>>>End Processed Spectral Data<<<<<
