Jaz Data File
++++++++++++++++++++++++++++++++++++
Date: Fri Jun 04 16:53:19 2021
User: jaz
Dark Spectrum Present: Yes
Reference Spectrum Present: Yes
Processed Spectrum Present: Yes
Spectrometers: JAZA3586
Integration Time (usec): 24600 (JAZA3586)
Spectra Averaged: 10 (JAZA3586)
Boxcar Smoothing: 1 (JAZA3586)
Correct for Electrical Dark: No (JAZA3586)
Strobe/Lamp Enabled: Yes (JAZA3586)
Correct for Detector Non-linearity: No (JAZA3586)
Correct for Stray Light: No (JAZA3586)
Number of Pixels in Processed Spectrum: 2048
>>>>>Begin Processed Spectral Data<<<<<
W	D	R	S	P
191.335022	0.000000	0.000000	0.000000	0.000000
191.713211	227.812149	233.756348	231.007156	53.750011
192.091385	455.401367	470.633423	467.438446	79.024651
192.469528	695.027649	713.083191	704.538391	52.674919
192.847641	705.281433	715.386536	716.946960	115.441948
193.225739	723.634216	724.748718	726.457703	253.340637
193.603790	731.584534	727.275085	734.185242	-60.348980
193.981842	739.757813	742.507080	745.925049	224.322891
194.359863	740.649475	740.798096	746.816650	4149.609863
194.737854	744.141785	746.890930	755.510071	413.520721
195.115829	742.284241	741.243958	753.206604	-1049.941284
195.493774	742.655762	746.445129	755.584412	341.182251
195.871704	739.609314	740.055176	756.327454	3749.623535
196.249603	745.256348	746.222229	749.343018	423.102692
196.627457	745.702148	748.674133	750.680420	167.506622
197.005310	744.439026	752.835144	747.336731	34.512440
197.383133	741.689758	753.875427	748.079773	52.438766
197.760910	735.076843	761.602844	744.736145	36.414467
198.138687	738.049011	765.838196	738.197449	0.534156
198.516449	736.191345	752.983826	737.825989	9.734378
198.894180	749.788757	743.398743	737.751709	188.372787
199.271866	750.085999	743.472961	744.959167	77.526123
199.649536	751.274902	751.497742	745.553528	-2567.488281
200.027191	749.342957	753.132385	742.061340	-192.156036
200.404816	752.760925	750.457520	739.163513	590.317688
200.782410	750.308899	760.265381	737.974609	-123.882004
201.159988	742.952881	773.119812	741.615479	-4.433339
201.537537	735.671204	777.206482	741.541199	14.132553
201.915070	735.151184	784.116699	743.027161	16.084742
202.292557	731.064453	777.578064	744.587585	29.073496
202.670029	735.522644	780.772949	742.358459	15.106672
203.047485	736.042786	774.234375	742.061279	15.758689
203.424911	739.832214	775.571777	735.374023	-12.474106
203.802292	732.030457	776.686340	741.615540	21.464323
204.179688	728.686768	769.924805	734.482422	14.054147
204.557037	725.566101	758.184998	736.488586	33.485146
204.934357	724.451477	759.225281	734.259460	28.205091
205.311661	722.816895	760.116882	733.516418	28.685061
205.688934	724.377258	763.163269	738.494812	36.398571
206.066177	725.120300	758.036377	732.030457	20.993256
206.443390	730.544434	759.002258	736.340027	20.365553
206.820587	728.761169	761.825745	739.906494	33.707752
207.197769	722.965515	764.203430	740.054993	41.441177
207.574921	721.553711	757.813477	734.556702	35.860657
207.952042	718.210144	756.847473	727.052063	22.884396
208.329147	721.330811	761.602844	733.070618	29.151264
208.706223	727.126465	778.543884	755.881592	55.924873
209.083267	733.813721	777.875183	749.194336	34.907185
209.460297	745.404968	764.426453	742.209961	-16.796835
209.837280	734.853943	752.686523	726.532043	-46.666828
210.214264	733.219238	755.510071	726.829285	-28.666285
210.591217	719.547546	763.460449	718.135803	-3.214871
210.968124	720.513489	763.831970	717.318542	-7.375481
211.345016	714.123474	763.906250	719.473206	10.746149
211.721893	713.677551	762.123047	726.606384	26.687380
212.098724	713.528992	764.723633	724.971680	22.351339
212.475555	717.764221	758.482239	728.835449	27.189997
212.852356	718.507324	753.875427	736.488586	50.840336
213.229126	714.420593	755.435730	738.049011	57.609020
213.605865	713.900574	759.076599	737.825989	52.960426
213.982590	721.553711	764.352051	729.132568	17.708298
214.359283	731.733215	758.630676	731.881775	0.552318
214.735931	737.900330	759.002258	730.841492	-33.451149
215.112579	735.299744	759.448059	731.658875	-15.077114
215.489197	728.909668	757.664856	732.030457	10.852959
215.865799	715.906738	747.559631	730.024231	44.600956
216.242355	709.516663	740.129395	725.268860	51.456360
216.618896	705.950134	738.866211	722.296692	49.661320
216.995407	700.154541	745.776367	721.330811	46.416969
217.371902	698.594238	745.479187	726.606262	59.746304
217.748367	703.200989	746.445129	728.686768	58.934639
218.124802	713.008850	748.302734	730.990173	50.947418
218.501236	716.426819	754.915588	728.389648	31.081350
218.877609	716.724060	761.825745	719.473328	6.095709
219.253983	721.553711	768.141541	714.123352	-15.949142
219.630295	725.863220	773.416992	715.609436	-21.562504
220.006592	727.423584	768.810242	718.433044	-21.723280
220.382889	724.897278	761.231445	725.268860	1.022679
220.759140	723.634094	762.048767	728.983948	13.926589
221.135391	721.999512	764.946533	733.739319	27.335556
221.511581	719.250305	757.962097	728.612488	24.184317
221.887772	714.792175	749.342957	728.092285	38.494381
222.263931	707.287598	745.404846	729.504089	58.284615
222.640060	707.436218	755.881592	727.720886	41.871220
223.016159	711.968689	757.219055	731.064453	42.200241
223.392212	718.953125	762.866028	725.120300	14.044107
223.768265	726.829163	756.030212	731.956116	17.557428
224.144302	725.714661	758.853699	729.429749	11.210608
224.520294	732.104675	760.191162	726.457703	-20.105658
224.896286	724.080078	766.061035	720.216309	-9.203624
225.272217	725.417480	767.101318	722.148132	-7.843203
225.648148	720.513489	765.020813	730.098450	21.535694
226.024048	723.931396	771.633789	733.516418	20.093378
226.399902	724.005676	766.358215	727.200684	7.543839
226.775772	721.033630	769.033203	725.566101	9.442731
227.151581	722.965515	763.534729	728.538147	13.736110
227.527374	724.674500	762.717468	735.299744	27.929586
227.903137	724.302979	759.745361	731.436035	20.125782
228.278870	721.776672	766.135437	730.098633	18.760578
228.654572	716.946960	772.153992	729.206970	22.207335
229.030273	719.027405	773.119812	729.058350	18.544090
229.405930	718.730164	768.215820	732.179016	27.177275
229.781555	712.637390	773.045471	727.200684	24.108187
230.157181	708.699402	778.469666	731.807556	33.120350
230.532761	705.429993	778.618164	727.423645	30.050829
230.908325	713.900574	770.073425	731.287415	30.952391
231.283859	718.284424	765.763855	736.265625	37.871559
231.659332	720.885010	767.398499	747.782532	57.827358
232.034821	718.432922	766.283997	748.079773	61.956501
232.410263	717.095520	760.042664	742.061340	58.131504
232.785690	724.377197	762.791809	735.448425	28.820356
233.161087	725.789001	770.965088	731.584656	12.829031
233.536469	723.411316	775.125977	733.739319	19.971132
233.911804	717.318420	764.054871	724.600098	15.580296
234.287140	717.764343	755.658691	729.429749	30.784023
234.662430	718.655945	761.602844	728.983948	24.048309
235.037704	714.346375	766.729797	739.237793	47.517738
235.412933	710.779785	777.206543	743.175781	48.769497
235.788162	711.299988	767.101318	743.770264	58.189072
236.163345	718.581726	767.621399	741.689758	47.121098
236.538513	722.371094	756.773193	730.618652	23.973997
236.913635	728.463867	759.448059	725.640381	-9.112667
237.288742	724.674500	762.717468	724.600098	-0.195573
237.663834	728.612549	767.844299	732.550476	10.037602
238.038879	728.389648	769.627625	737.380188	21.801601
238.413910	733.219238	771.633789	735.151062	5.028885
238.788910	730.247070	770.370605	734.630920	10.925882
239.163879	721.925232	776.834961	730.915771	16.373308
239.538834	719.919006	779.658508	735.299744	25.746344
239.913757	715.386536	777.578064	740.278015	40.023907
240.288651	724.005676	777.503662	742.135559	33.888908
240.663528	716.946960	767.472839	737.083008	39.852940
241.038361	717.318420	772.674011	730.618652	24.026899
241.413177	712.117188	772.674011	726.532043	23.803850
241.787979	715.460876	777.652344	733.962341	29.749201
242.162735	724.748718	775.868958	733.293640	16.715340
242.537476	723.485596	767.324219	730.098572	15.084817
242.912170	726.903564	772.674011	730.395752	7.629787
243.286865	717.615723	778.618225	730.098572	20.462847
243.661514	722.222473	795.039063	740.129395	24.591816
244.036148	727.275085	798.308411	735.299744	11.297033
244.410751	724.971680	802.320801	735.968445	14.217052
244.785339	716.798340	791.323975	732.847839	21.535542
245.159882	710.705505	785.676941	737.751709	36.075344
245.534378	718.433044	780.624329	738.791992	32.736015
245.908890	725.417480	791.769836	736.191406	16.237442
246.283356	724.748718	791.769836	726.457703	2.549919
246.657791	712.860291	796.227966	723.188416	12.388644
247.032196	712.042969	794.518982	730.692932	22.612591
247.406586	710.556946	803.955383	738.940613	30.389874
247.780960	717.987244	811.088562	747.708313	31.923361
248.155289	720.810730	816.661194	746.147949	26.434113
248.529602	720.885071	813.020447	741.020996	21.854717
248.903870	724.600159	798.605652	735.151123	14.257002
249.278122	727.572205	786.494324	734.705322	12.106010
249.652344	734.185120	787.831787	740.872498	12.465598
250.026550	732.624756	794.890442	742.284180	15.513238
250.400711	728.463867	803.435364	741.466858	17.343912
250.774857	722.668274	797.788330	736.042786	17.804182
251.148987	726.754883	800.240295	729.206970	3.336836
251.523071	720.513489	798.382813	726.457703	7.633576
251.897125	717.541321	803.732605	721.033508	4.051672
252.271164	715.460938	803.658203	718.284424	3.201331
252.645187	718.358704	800.834717	717.021301	-1.621565
253.019165	718.878845	801.800598	721.776672	3.494653
253.393112	715.386536	806.184509	728.315247	14.238986
253.767044	712.265869	811.014160	732.476257	20.466570
254.140930	713.231750	811.905762	731.287415	18.298298
254.514801	708.699402	804.475586	728.018066	20.170635
254.888657	707.436218	806.481750	725.789063	18.529705
255.262466	707.584778	808.190674	729.727051	22.008923
255.636276	714.569336	814.209167	730.767273	16.256487
256.010010	725.045959	819.707520	735.448303	10.988984
256.383759	726.977783	818.147278	730.247131	3.586011
256.757446	725.268860	815.695251	732.104675	7.559536
257.131134	726.457703	807.967834	734.631042	10.027391
257.504791	732.922058	807.744873	738.940613	8.043743
257.878418	729.727051	818.221619	736.860046	8.060377
258.252014	721.033630	830.630127	733.144958	11.050835
258.625580	713.083191	857.527771	732.699158	13.580272
258.999115	723.336975	870.010559	735.225403	8.105364
259.372650	727.572266	890.369446	730.247070	1.643029
259.746124	730.915833	907.979309	733.813660	1.636604
260.119598	730.172852	925.589050	736.042786	3.003811
260.493042	724.674377	937.700378	732.847717	3.836780
260.866425	719.547546	929.527039	729.429871	4.706328
261.239838	716.798340	920.462097	723.559875	3.319950
261.613159	716.575439	903.892578	729.206848	6.743328
261.986511	723.782776	898.617004	722.371094	-0.807440
262.359802	720.587830	898.171204	722.816895	1.255222
262.733063	726.457703	888.586243	716.575500	-6.095288
263.106293	723.336975	890.815369	720.959290	-1.419697
263.479523	724.080078	880.413025	714.792175	-5.941104
263.852692	720.216309	882.121887	718.655945	-0.963749
264.225861	717.021301	872.165344	723.336975	4.070845
264.598969	716.798340	875.731934	732.996338	10.191677
264.972076	717.318420	881.378906	736.860107	11.911270
265.345154	720.884949	885.539795	729.801270	5.415158
265.718201	720.290527	884.425293	727.275085	4.255380
266.091217	722.296692	894.679016	727.126465	2.801780
266.464203	723.782898	904.189880	740.055115	9.019727
266.837158	725.640381	917.192871	747.782654	11.559376
267.210114	720.662109	921.502380	750.011658	14.613379
267.583038	718.730164	932.944885	741.541199	10.648678
267.955902	725.789001	940.672424	731.658936	2.731683
268.328766	732.030457	944.313293	721.702332	-4.865266
268.701569	735.448303	944.536133	721.776672	-6.538702
269.074371	728.389587	953.898254	730.098572	0.757835
269.447144	730.098450	965.192383	733.144958	1.295869
269.819885	727.126465	967.793030	729.875671	1.142330
270.192596	719.844727	974.926086	724.228699	1.718656
270.565277	716.501160	986.888855	726.829163	3.819701
270.937927	712.488770	1007.470642	721.702332	3.123433
271.310577	719.919128	1027.829590	719.547546	-0.120679
271.683136	716.129639	1046.999634	724.897278	2.649874
272.055725	719.324707	1070.330688	734.556641	4.339508
272.428284	714.866455	1080.287476	737.751709	6.262709
272.800812	714.272034	1081.104614	732.773438	5.043555
273.173279	706.841797	1075.829224	733.516541	7.229174
273.545776	706.990417	1074.714478	735.002502	7.617692
273.918152	706.544617	1070.925049	731.881836	6.953507
274.290558	719.324646	1062.974609	736.191406	4.908122
274.662964	722.668274	1060.076904	737.677429	4.448361
275.035278	724.674500	1062.231812	740.500916	4.688512
275.407593	720.736389	1069.587524	739.312012	5.324799
275.779907	722.519714	1082.070557	740.278015	4.939023
276.152161	725.714661	1096.633911	741.466858	4.246799
276.524384	719.547546	1100.348999	735.745605	4.253676
276.896606	716.278259	1099.308716	728.686768	3.239562
277.268799	713.008850	1101.612183	724.897278	3.059271
277.640930	718.730225	1120.262085	725.268860	1.628422
278.013031	721.405090	1126.280640	724.823059	0.844202
278.385162	727.423645	1124.051636	725.417480	-0.505805
278.757233	720.290527	1112.088867	729.355469	2.313675
279.129272	720.885010	1121.451050	728.240967	1.836391
279.501282	714.940735	1126.503540	725.714661	2.617808
279.873230	721.405090	1142.181396	727.423645	1.430345
280.245178	721.627991	1153.772705	732.624817	2.544709
280.617126	732.922058	1182.527832	737.900330	1.107253
280.988983	735.819824	1211.357300	730.247070	-1.171885
281.360870	737.083008	1240.558228	735.448303	-0.324684
281.732697	730.024231	1264.335083	731.956055	0.361554
282.104492	731.881836	1286.031372	738.123230	1.126301
282.476288	725.120300	1307.802124	736.117126	1.887278
282.848053	727.572266	1337.597534	743.101563	2.545681
283.219757	718.358704	1344.433350	742.804260	3.904575
283.591461	728.240967	1338.712036	742.209961	2.288232
283.963135	723.857117	1319.319092	744.661926	3.493894
284.334747	733.442200	1323.703003	741.243958	1.321748
284.706360	726.234802	1343.616211	741.466797	2.467194
285.077942	718.655823	1375.789185	733.144836	2.204882
285.449524	711.968689	1407.739380	731.807434	2.851334
285.821014	713.380432	1428.395508	726.532043	1.839347
286.192535	727.349365	1448.234375	733.442200	0.845188
286.563995	730.024231	1464.655273	726.903503	-0.424802
286.935425	731.584534	1477.732544	724.971680	-0.886266
287.306824	727.423645	1477.583984	717.392761	-1.337165
287.678223	721.999512	1468.593384	725.863281	0.517520
288.049561	723.708496	1459.082520	725.789063	0.282926
288.420898	724.600159	1445.708008	729.875671	0.731584
288.792145	725.714661	1431.813354	734.482422	1.241719
289.163452	725.268860	1439.689453	739.980774	2.059279
289.534668	724.005676	1458.933960	735.671204	1.587301
289.905914	731.807434	1497.497070	728.092285	-0.485203
290.277039	730.470032	1524.617554	728.538147	-0.243265
290.648193	727.275085	1567.267212	733.144958	0.698801
291.019318	723.931396	1603.675781	731.956055	0.912158
291.390381	724.823059	1622.845703	726.086182	0.140656
291.761475	731.584534	1625.372070	723.336975	-0.922765
292.132507	732.996399	1606.573364	726.680664	-0.722974
292.503510	726.457703	1592.604492	732.179016	0.660548
292.874481	727.052063	1575.737793	735.299744	0.971818
293.245422	719.844727	1582.053589	740.500916	2.395729
293.616364	719.324646	1606.647827	743.770203	2.754978
293.987213	713.083191	1643.724976	744.513245	3.377245
294.358093	717.689941	1684.962891	738.048889	2.104778
294.728943	724.228699	1731.848022	732.773438	0.848013
295.099731	726.531982	1778.807129	729.058289	0.240080
295.470490	727.646484	1814.398071	726.606262	-0.095718
295.841248	726.680603	1831.562134	726.086182	-0.053800
296.211975	727.497864	1847.537231	729.429871	0.172495
296.582642	731.807434	1883.351196	734.482422	0.232296
296.953308	724.822998	1932.688110	732.699158	0.652073
297.323883	720.885010	1981.281860	730.841553	0.789953
297.694519	716.129639	2010.185669	729.132629	1.004824
298.065063	721.479431	2014.866821	733.590759	0.936404
298.435608	728.389587	2000.229126	744.216064	1.244377
298.806122	725.194519	1953.790039	743.770264	1.511950
299.176575	720.959290	1911.065918	748.377014	2.303804
299.547028	708.699402	1871.239624	744.290344	3.061480
299.917450	714.494934	1845.308105	750.754700	3.206521
300.287872	721.553711	1829.927368	738.940613	1.568686
300.658234	731.584656	1815.289917	729.578430	-0.185126
301.028564	724.971680	1811.871704	726.457703	0.136721
301.398865	719.027405	1805.036011	733.590637	1.340987
301.769135	715.386536	1811.723267	740.723816	2.311086
302.139374	715.460938	1829.333008	741.541077	2.341394
302.509583	714.643555	1839.735352	743.398743	2.555808
302.879791	717.392761	1835.500122	738.940613	1.927172
303.249939	720.290527	1818.336304	731.584534	1.028555
303.620087	723.039795	1810.757324	739.163391	1.482333
303.990173	716.872620	1802.658203	740.649475	2.189830
304.360260	723.336975	1796.862671	745.627747	2.076408
304.730286	726.903503	1796.342407	733.070618	0.576668
305.100281	727.349365	1810.311401	735.076843	0.713550
305.470276	719.919128	1833.419556	731.956055	1.080999
305.840179	715.535156	1838.694946	730.470032	1.329720
306.210144	717.912903	1843.301758	725.566101	0.680049
306.579987	721.479492	1844.936523	728.612488	0.634915
306.949890	718.730286	1864.552368	728.761047	0.875421
307.319702	725.268860	1883.351074	731.510254	0.538942
307.689484	724.451477	1908.985718	726.977844	0.213279
308.059265	728.538147	1936.923462	732.104797	0.295158
308.429016	722.445313	1974.520508	731.584656	0.729936
308.798737	725.120178	2012.340698	744.290344	1.489268
309.168396	727.423584	2054.693359	746.296570	1.421940
309.538055	730.841553	2085.157471	742.358582	0.850395
309.907684	726.903503	2120.525391	733.442200	0.469187
310.277313	725.120300	2145.788330	732.401855	0.512544
310.646851	726.903503	2160.723145	737.677429	0.751414
311.016388	725.640381	2176.103760	738.940491	0.916956
311.385895	722.668213	2179.967529	743.175781	1.407231
311.755371	726.680664	2209.985840	743.695984	1.147122
312.124817	723.039795	2198.543213	741.541077	1.253896
312.494232	731.807556	2200.920654	735.225403	0.232647
312.863617	725.268860	2176.920898	736.934387	0.803604
313.232971	727.943787	2170.531006	734.333740	0.442951
313.602295	721.256531	2157.825439	737.454529	1.127548
313.971619	718.581604	2158.642578	735.002441	1.140288
314.340820	718.953125	2167.038818	738.271790	1.334083
314.710083	730.618652	2188.735352	733.516418	0.198733
315.079285	730.544250	2212.958008	729.801331	-0.050116
315.448486	737.751709	2256.350830	736.265625	-0.097859
315.817596	725.417480	2253.155518	734.408142	0.588495
316.186707	731.881775	2239.186768	737.008728	0.340140
316.555786	724.005676	2196.165283	727.943787	0.267506
316.924866	723.931396	2165.849854	734.482422	0.731735
317.293884	717.615723	2137.986328	738.420471	1.464741
317.662872	720.885010	2133.454102	743.101563	1.572776
318.031830	725.194580	2139.621338	741.689758	1.166209
318.400757	725.120300	2152.549805	740.798157	1.098328
318.769684	723.039795	2168.004639	734.705322	0.807323
319.138550	721.776672	2195.868164	735.076843	0.902262
319.507416	732.550537	2220.759766	734.259521	0.114835
319.876190	730.618652	2229.601807	736.414307	0.386639
320.244995	733.070618	2225.738037	735.968445	0.194137
320.613770	720.959290	2201.589600	729.727051	0.592164
320.982483	719.324646	2194.531006	730.321472	0.745443
321.351166	711.448547	2178.184326	729.652771	1.241139
321.719818	720.959290	2177.441406	736.339905	1.056011
322.088440	726.086182	2167.633057	734.110840	0.556670
322.457062	722.891174	2195.422607	735.596985	0.862855
322.825623	715.386536	2224.326416	732.773438	1.152259
323.194183	718.210144	2265.861572	736.265625	1.166638
323.562653	729.058289	2304.796143	733.367920	0.273499
323.931183	727.572266	2363.272461	734.631042	0.431545
324.299591	722.965515	2415.061279	739.683594	0.988010
324.668060	722.073914	2481.636475	738.569031	0.937456
325.036407	722.965515	2527.184326	733.144958	0.564202
325.404755	719.398926	2564.187012	731.064453	0.632351
325.773102	716.203918	2558.614258	735.968445	1.072754
326.141388	714.569275	2571.097168	744.438965	1.608901
326.509674	717.689941	2575.927002	742.209961	1.319531
326.877899	719.621826	2592.793457	740.278015	1.102739
327.246124	719.324707	2599.480713	738.717712	1.031457
327.614288	718.730286	2601.338135	741.689758	1.219557
327.982422	716.798340	2592.644775	740.649597	1.271493
328.350525	713.008972	2571.691406	745.776367	1.762937
328.718628	709.293762	2549.623291	749.268555	2.172154
329.086700	707.733398	2543.159180	744.364685	1.995792
329.454712	712.934570	2553.561768	740.278015	1.485550
329.822693	715.535156	2574.589600	736.711609	1.139098
330.190674	721.553711	2598.589111	746.296570	1.318188
330.558563	719.919006	2604.830322	746.742432	1.423060
330.926483	728.538147	2623.257568	742.135559	0.717648
331.294312	725.268860	2641.907471	738.123230	0.670673
331.662231	732.476257	2689.535400	730.172852	-0.117697
332.029999	728.240906	2738.723877	733.813721	0.277188
332.397766	729.578369	2785.088867	735.151123	0.271113
332.765503	730.247131	2825.806641	746.816711	0.790700
333.133240	729.801270	2875.069580	747.634033	0.831260
333.500916	727.869446	2931.836914	744.067566	0.734953
333.868561	726.977844	2969.731201	738.123291	0.496954
334.236176	726.606262	2979.836182	733.888000	0.323169
334.603790	728.835449	2976.195313	739.683594	0.482706
334.971344	716.946960	2976.864014	738.791992	0.966630
335.338867	714.420654	2983.254639	740.426697	1.146229
335.706360	714.420654	2985.037842	742.952942	1.256587
336.073853	722.371033	2984.888916	739.609314	0.761907
336.441284	724.005676	2986.746338	744.438965	0.903033
336.808655	718.953125	2983.105713	743.250183	1.073119
337.176086	720.141907	2943.353516	750.977600	1.386989
337.543396	721.256531	2877.892822	741.243958	0.926787
337.910706	720.810730	2811.391846	736.637207	0.757037
338.277954	723.411316	2826.401123	735.076843	0.554712
338.645264	718.210144	2888.444092	745.776367	1.270196
339.012421	724.897400	3024.566406	743.993164	0.830370
339.379669	721.627991	3144.936768	735.374023	0.567242
339.746796	726.532043	3270.657227	728.835266	0.090531
340.113953	720.959290	3336.712158	736.414246	0.590842
340.481018	715.683838	3368.291016	745.256287	1.114845
340.848114	715.386536	3358.037109	745.256348	1.130297
341.215118	720.662109	3339.833008	737.008728	0.624114
341.582153	724.377258	3353.356201	735.151123	0.409812
341.949066	722.816895	3378.544678	739.014832	0.609925
342.316010	724.971680	3415.696045	742.432800	0.648938
342.682922	736.637207	3437.615234	739.609314	0.110038
343.049835	744.290344	3440.141357	741.838379	-0.090953
343.416656	741.020996	3481.379639	742.507080	0.054230
343.783478	732.773438	3527.967529	745.181946	0.443923
344.150269	735.225403	3643.434326	745.330566	0.347470
344.516998	730.321472	3749.760986	746.890930	0.548759
344.883728	728.315247	3853.933594	743.472961	0.484951
345.250427	724.377197	3931.654297	733.665039	0.289587
345.617065	729.875671	3971.331787	730.692932	0.025213
345.983704	733.887939	3978.687500	737.454590	0.109919
346.350281	725.566101	3960.186279	739.534973	0.431855
346.716827	718.507324	3918.576904	738.866211	0.636201
347.083405	703.944031	3888.929932	737.751709	1.061470
347.449860	708.625000	3838.626953	742.061279	1.068251
347.816376	711.299988	3789.661377	744.810486	1.088582
348.182770	714.717834	3742.479248	745.925049	1.030703
348.549194	714.123474	3723.383545	749.045715	1.160493
348.915558	716.872620	3742.999268	742.135559	0.834828
349.281921	722.296692	3774.281006	737.231628	0.489352
349.648193	719.919006	3814.032471	727.423645	0.242546
350.014526	719.696106	3860.026367	730.098450	0.331250
350.380737	728.389587	3907.431641	737.380188	0.282808
350.746948	728.166687	3976.607422	743.844543	0.482627
351.113159	731.064453	4026.687500	743.770203	0.385534
351.479309	726.754944	4061.386719	738.271790	0.345371
351.845428	725.640381	4066.811279	739.683594	0.420308
352.211517	721.628113	4090.736328	734.928223	0.394766
352.577576	723.857178	4130.934082	735.522644	0.342389
352.943604	728.686829	4177.447754	743.770264	0.437358
353.309601	727.646545	4233.694824	750.829041	0.661214
353.675537	720.142029	4314.833496	753.726868	0.934290
354.041473	721.999573	4426.807129	744.736145	0.613705
354.407379	715.535217	4538.039063	742.581482	0.707554
354.773254	718.433044	4645.703125	738.346191	0.507048
355.139038	718.358704	4738.284668	739.014832	0.513843
355.504913	722.519714	4839.187988	746.890930	0.592013
355.870636	728.166687	4935.335449	744.587585	0.390308
356.236389	719.621887	5037.724609	747.411133	0.643552
356.602081	725.789001	5152.225098	739.386414	0.307186
356.967804	717.912903	5290.056152	741.987000	0.526539
357.333405	726.977844	5431.677734	735.374023	0.178464
357.699036	719.770447	5594.103516	738.643311	0.387189
358.064606	715.906738	5751.402344	745.033386	0.578427
358.430176	714.940735	5869.840332	750.680420	0.693315
358.795654	716.798340	5904.763184	751.126221	0.661683
359.161163	721.628113	5881.878418	747.188232	0.495327
359.526581	722.073914	5857.432129	739.534973	0.340016
359.892029	724.822998	5874.224121	740.500977	0.304462
360.257416	724.451599	5962.718750	746.519348	0.421280
360.622772	719.324646	6160.290527	751.126221	0.584484
360.988098	717.764343	6441.674316	749.342957	0.551697
361.353394	716.352539	6748.692871	739.312012	0.380606
361.718658	720.364807	7013.879395	728.909668	0.135772
362.083893	734.036621	7220.367188	727.795105	-0.096226
362.449097	737.751770	7347.498535	731.287415	-0.097800
362.814209	734.036621	7372.241699	745.404968	0.171256
363.179382	725.268860	7190.942871	746.668030	0.330966
363.544434	723.336975	6863.788574	743.918762	0.335184
363.909546	725.937561	6474.962402	742.358459	0.285629
364.274536	720.662109	6182.357910	738.420471	0.325144
364.639587	727.720886	5956.774902	736.860107	0.174778
365.004517	730.544373	5828.974121	729.875671	-0.013116
365.369507	726.160461	5739.514160	733.590637	0.148208
365.734344	719.473206	5704.442871	737.900208	0.369651
366.099274	712.042969	5662.312988	746.519348	0.696455
366.464081	724.302917	5635.192871	744.067383	0.402462
366.828918	720.959290	5621.817871	738.940491	0.366899
367.193665	719.473206	5625.459473	735.225403	0.321081
367.558411	713.677734	5643.812012	745.702087	0.649563
367.923126	717.244202	5645.595215	753.726807	0.740260
368.287781	725.417480	5625.310547	764.500671	0.797634
368.652435	727.795166	5577.904785	762.122986	0.707774
369.017059	724.897400	5551.007813	758.928040	0.705136
369.381653	722.073914	5520.915527	748.005554	0.540373
369.746185	716.724060	5498.772949	743.547363	0.560917
370.110687	720.142029	5512.518066	745.107727	0.520946
370.475220	714.569275	5574.858887	743.547363	0.596221
370.839661	716.649719	5646.040527	742.878662	0.532093
371.204041	709.962585	5718.114746	743.844543	0.676536
371.568451	718.210144	5768.640137	752.315125	0.675289
371.932770	719.621887	5823.400879	745.107727	0.499352
372.297150	721.182190	5852.378906	744.290344	0.450346
372.661377	713.974854	5880.316895	737.008728	0.445845
373.025696	707.882019	5898.372559	744.141785	0.698581
373.389862	713.974854	5889.902344	736.191345	0.429227
373.754059	720.439209	5883.437988	733.293457	0.248969
374.118225	725.863281	5906.620605	731.435974	0.107565
374.482361	720.810730	5960.936035	733.590820	0.243889
374.846436	720.959290	6026.768066	741.466797	0.386510
375.210510	720.513489	6113.554199	744.587585	0.446392
375.574524	726.680664	6223.893066	749.268616	0.410898
375.938538	728.835449	6378.740234	745.553528	0.295900
376.302460	729.058289	6518.949219	741.912659	0.222014
376.666412	729.281189	6685.685059	738.420410	0.153435
377.030304	730.618652	6841.645996	743.472961	0.210346
377.394196	737.305908	7020.195313	747.634033	0.164385
377.757996	734.482422	7163.079590	753.355286	0.293577
378.121796	720.736389	7226.013672	750.308899	0.454593
378.485565	713.008972	7218.286621	745.330566	0.496852
378.849304	717.912903	7128.007813	737.751709	0.309493
379.212982	725.268860	6988.542480	731.733215	0.103210
379.576630	724.748718	6807.912598	739.980774	0.250397
379.940277	715.238037	6667.108887	751.720642	0.612960
380.303864	715.683838	6580.546387	757.070374	0.705669
380.667450	715.758118	6573.784668	759.448059	0.745813
381.030945	723.039795	6572.224609	758.556458	0.607207
381.394501	725.863281	6608.558105	755.361511	0.501441
381.757935	724.302979	6632.632324	752.166504	0.471597
382.121399	720.067688	6641.919922	746.147949	0.440407
382.484741	718.804504	6668.817871	747.411072	0.480782
382.848145	715.163635	6682.935059	744.438965	0.490557
383.211487	714.866455	6736.285156	749.640137	0.577500
383.574768	709.145081	6836.816406	755.658691	0.759075
383.938019	718.210022	6955.626465	758.630798	0.648037
384.301270	720.959290	7095.910156	759.745300	0.608413
384.664459	727.869446	7151.711426	760.488342	0.507779
385.027649	729.132629	7211.079590	761.974426	0.506666
385.390778	727.572266	7262.942871	757.144714	0.452498
385.753876	724.674377	7306.410156	759.002258	0.521563
386.116943	717.912903	7343.264160	756.698914	0.585418
386.479980	717.764221	7360.501953	760.191101	0.638696
386.842987	719.919006	7413.925781	762.271667	0.632695
387.205994	721.107910	7461.182129	770.221985	0.728687
387.568909	724.897278	7515.794922	778.395264	0.787790
387.931793	720.364807	7561.639160	781.738953	0.897116
388.294678	717.764221	7616.771973	786.122803	0.990847
388.657471	711.522888	7630.369629	792.067078	1.164127
389.020294	710.779846	7651.992188	803.658203	1.338071
389.383057	718.358704	7665.662598	815.398132	1.396793
389.745819	718.210144	7693.601074	825.280334	1.534970
390.108521	722.445313	7696.350098	833.676575	1.594964
390.471191	721.702332	7751.482910	849.948792	1.824331
390.833801	729.132629	7873.414063	863.992004	1.887655
391.196442	733.293640	8062.216797	887.025879	2.097610
391.558960	731.510254	8251.093750	904.189758	2.296397
391.921509	726.680664	8436.478516	934.208069	2.691736
392.284027	719.621887	8611.165039	961.922913	3.070389
392.646484	716.946960	8707.312500	987.928955	3.391359
393.008911	726.234863	8699.511719	1015.198059	3.624146
393.371307	733.590820	8640.811523	1037.043091	3.837660
393.733673	735.819824	8573.344727	1069.216187	4.253848
394.096008	725.714661	8554.843750	1102.132202	4.807911
394.458344	716.649719	8556.329102	1135.419800	5.341674
394.820587	716.129639	8594.819336	1175.543335	5.831093
395.182831	720.067688	8641.183594	1207.567749	6.154437
395.545013	724.154297	8600.911133	1244.199097	6.602271
395.907196	725.863281	8514.571289	1274.886108	7.048959
396.269287	729.058289	8346.573242	1309.139648	7.615099
396.631409	728.463867	8225.831055	1342.575806	8.191034
396.993469	722.816833	8100.185059	1379.652954	8.903394
397.355530	718.655945	8030.711426	1416.804199	9.547907
397.717499	712.637390	8000.024902	1449.869019	10.116542
398.079468	718.061523	7967.926270	1495.267944	10.720288
398.441376	715.163635	7987.765625	1537.471802	11.306931
398.803284	721.702332	7984.644531	1590.003906	11.955232
399.165131	724.302979	8040.148438	1629.087280	12.367460
399.526978	723.931396	8039.257324	1679.687134	13.065114
399.888763	722.073914	8040.148926	1728.578491	13.753679
400.250519	716.946960	8029.672363	1773.828735	14.452639
400.612244	721.627991	8067.937988	1832.527954	15.121876
400.973938	722.371094	8098.328125	1869.307739	15.549665
401.335602	726.011902	8112.148438	1915.078247	16.098625
401.697205	725.045898	8122.402344	1941.455688	16.443844
402.058807	724.748718	8189.646484	2007.065063	17.177950
402.420349	721.925232	8296.196289	2072.302979	17.828484
402.781860	715.832336	8416.640625	2138.803711	18.478209
403.143341	718.581604	8552.541016	2199.063232	18.898256
403.504822	720.439148	8695.796875	2261.626221	19.324362
403.866241	726.160461	8881.627930	2331.099365	19.679300
404.227631	718.061523	9036.102539	2404.362061	20.272808
404.588959	717.467102	9221.042969	2478.738525	20.712128
404.950287	719.176025	9366.006836	2543.679199	21.100252
405.311554	730.098633	9478.649414	2602.527100	21.402727
405.672821	730.247253	9530.883789	2650.972412	21.824842
406.034027	725.417480	9512.382813	2688.495361	22.340796
406.395203	721.702332	9427.975586	2692.953369	22.641731
406.756348	720.290527	9332.570313	2695.405518	22.933708
407.117493	719.770508	9259.976563	2700.681152	23.195116
407.478516	719.696106	9255.220703	2735.826172	23.620461
407.839600	720.959290	9253.511719	2767.999268	23.990946
408.200592	719.398926	9244.446289	2801.806885	24.426939
408.561554	717.541321	9219.036133	2832.791016	24.880915
408.922485	712.563049	9246.454102	2855.973633	25.116453
409.283417	720.439148	9276.100586	2896.320068	25.432060
409.644257	720.884949	9389.412109	2931.093750	25.496935
410.005096	724.005676	9488.680664	2993.582275	25.894590
410.365906	720.216248	9602.660156	3047.526123	26.201231
410.726715	724.897278	9701.780273	3104.218994	26.504990
411.087433	721.479431	9792.058594	3144.416748	26.712046
411.448120	714.643555	9863.166016	3177.852783	26.924667
411.808807	710.779785	9877.952148	3202.521484	27.181139
412.169434	709.813965	9836.862305	3220.354248	27.506594
412.530029	713.826172	9798.670898	3231.425049	27.712074
412.890564	715.237976	9763.081055	3244.948486	27.959267
413.251099	721.702393	9739.303711	3261.369141	28.163439
413.611572	726.309143	9764.418945	3280.093750	28.255739
413.972076	728.761047	9810.485352	3315.313232	28.480848
414.332489	733.367859	9881.221680	3344.811279	28.547062
414.692871	733.665039	10022.694336	3407.671143	28.786713
415.053223	721.999573	10160.451172	3458.643311	28.994627
415.413574	717.615723	10383.953125	3525.664063	29.049765
415.773834	718.655945	10528.545898	3573.291992	29.099573
416.134094	724.080017	10698.550781	3618.691162	29.020197
416.494263	723.039856	10823.602539	3685.563477	29.330284
416.854462	717.244202	11072.516602	3784.014648	29.615547
417.214630	713.454773	11340.824219	3889.227295	29.882959
417.574738	716.724121	11634.541992	3998.377930	30.057779
417.934784	713.529053	11936.805664	4090.810547	30.091761
418.294861	721.553711	12295.465820	4215.787598	30.190603
418.654846	717.541321	12759.116211	4328.281738	29.985617
419.014832	725.937561	13188.957031	4472.578125	30.062061
419.374756	726.977844	13673.855469	4607.065918	29.969296
419.734680	733.219238	14153.034180	4772.092285	30.096340
420.094543	730.395752	14662.825195	4933.106445	30.164953
420.454376	726.829163	15142.894531	5101.401855	30.345123
420.814148	721.999512	15613.304688	5254.985840	30.440491
421.173920	719.919128	16106.304688	5424.841797	30.578480
421.533691	727.275085	16547.810547	5585.112793	30.705902
421.893341	728.092346	16913.380859	5721.161621	30.849432
422.253021	728.389587	17128.486328	5785.209473	30.834084
422.612640	719.398926	17195.062500	5814.708496	30.926277
422.972260	717.318542	17112.955078	5812.181641	31.074507
423.331757	714.494934	17018.962891	5814.856934	31.281988
423.691315	716.575439	17007.447266	5823.475098	31.348227
424.050781	724.302917	17158.208984	5870.360840	31.313663
424.410248	732.550537	17304.361328	5922.446777	31.317619
424.769653	736.265686	17446.947266	5986.570313	31.418854
425.128998	730.544373	17451.257813	6013.988281	31.598198
425.488373	730.470032	17344.927734	6005.071777	31.747059
425.847656	735.076843	17134.353516	5944.515137	31.766268
426.206940	733.516418	16917.318359	5895.177734	31.893997
426.566193	725.491760	16592.837891	5813.072754	32.063213
426.925385	718.655945	16248.742188	5724.653809	32.234196
427.284576	713.231873	15763.916992	5591.948730	32.415245
427.643677	711.299988	15407.413086	5488.073730	32.503654
428.002777	703.349548	15061.829102	5405.746094	32.749962
428.361847	705.652893	14736.086914	5307.145996	32.796513
428.720856	715.312317	14431.074219	5209.586426	32.767220
429.079865	715.460938	14183.645508	5140.410156	32.854832
429.438812	714.569336	14023.078125	5094.640137	32.911808
429.797760	715.386536	13928.045898	5077.030762	33.011101
430.156616	720.662109	13767.551758	5022.641113	32.973217
430.515503	724.674500	13684.257813	4992.177246	32.929321
430.874268	716.798340	13642.945313	4987.198730	33.036919
431.233093	715.980957	13667.687500	5007.408691	33.134071
431.591827	720.067688	13740.504883	5033.340820	33.126942
431.950562	722.742493	13731.514648	5051.768066	33.277740
432.309204	717.838562	13814.808594	5076.064453	33.276600
432.667877	716.129639	13917.643555	5124.881348	33.395805
433.026459	723.782898	14078.210938	5159.729980	33.217052
433.385010	728.389587	14207.051758	5216.199707	33.295666
433.743561	731.510254	14368.882813	5283.443848	33.378376
434.102051	723.262695	14487.171875	5368.148438	33.746849
434.460510	734.259521	14663.641602	5422.092285	33.654278
434.818939	733.367859	14753.698242	5451.590332	33.652721
435.177338	733.739319	14825.770508	5461.472656	33.548985
435.535675	721.999512	14773.015625	5450.996094	33.655907
435.894012	716.203918	14697.003906	5430.934082	33.722893
436.252289	714.866455	14687.343750	5416.445313	33.648857
436.610535	717.689941	14692.620117	5429.522949	33.716328
436.968719	716.426819	14805.262695	5465.856934	33.710594
437.326935	722.371033	14910.772461	5515.714355	33.783531
437.685028	723.336914	15027.799805	5566.685547	33.859005
438.043152	730.024170	15131.897461	5625.904785	33.994751
438.401215	733.144958	15346.409180	5703.550781	34.012974
438.759277	729.355469	15591.756836	5772.950684	33.935265
439.117249	721.033630	15954.057617	5895.920410	33.971500
439.475250	719.176025	16259.885742	6005.443359	34.015614
439.833130	721.850891	16671.970703	6131.980469	33.919052
440.191071	725.937561	16969.033203	6230.580566	33.889126
440.548889	722.593933	17250.935547	6324.573730	33.893177
440.906708	718.655945	17557.583984	6449.996582	34.036259
441.264496	723.262695	17786.361328	6531.061035	34.037186
441.622223	719.250305	17979.251953	6621.264160	34.194744
441.979950	716.724121	17990.546875	6642.812012	34.306755
442.337616	719.101746	17957.406250	6672.384277	34.535198
442.695251	720.810730	17800.255859	6631.963379	34.609749
443.052887	730.692871	17596.296875	6594.960938	34.770580
443.410461	718.061523	17433.720703	6534.032715	34.793549
443.768005	721.776611	17322.044922	6485.810059	34.722530
444.125458	725.491760	17208.734375	6442.714355	34.685062
444.482941	733.516541	17241.873047	6443.829590	34.590439
444.840393	734.036621	17359.046875	6485.216309	34.593540
445.197754	727.349365	17687.912109	6583.369629	34.527279
445.555084	725.714661	17960.900391	6687.096191	34.588436
445.912415	727.423645	18352.029297	6817.274902	34.553120
446.269714	724.451477	18621.453125	6924.493652	34.642910
446.626953	723.857117	18976.693359	7056.380859	34.693371
446.984161	717.838562	19285.646484	7178.757324	34.796345
447.341309	720.439209	19537.603516	7275.796387	34.837116
447.698456	723.411316	19677.068359	7335.164063	34.883785
448.055542	728.166687	19721.279297	7366.743652	34.952549
448.412598	732.847717	19696.685547	7374.619629	35.023354
448.769653	732.922058	19526.681641	7338.285156	35.146576
449.126617	729.875671	19226.869141	7267.920410	35.346527
449.483582	723.559875	18941.845703	7194.063965	35.516537
449.840515	719.473328	18613.576172	7106.460938	35.693253
450.197388	716.872620	18350.841797	7015.736816	35.720058
450.554230	714.123474	18143.236328	6932.667480	35.679062
450.911041	716.203918	17994.335938	6866.909668	35.598209
451.267822	715.312317	17855.091797	6834.587402	35.702179
451.624573	720.513489	17644.220703	6791.789063	35.874382
451.981262	712.414551	17537.001953	6763.925293	35.968254
452.337921	710.928467	17388.025391	6714.885254	36.001209
452.694580	709.293762	17338.615234	6702.625488	36.040745
453.051147	715.238037	17306.369141	6709.980957	36.132217
453.407715	717.838623	17248.857422	6688.953613	36.120670
453.764221	720.513489	17268.919922	6694.823730	36.102028
454.120728	718.730225	17061.466797	6617.994629	36.097164
454.477142	723.411316	16993.478516	6612.719238	36.197197
454.833557	722.593933	16784.912109	6555.506348	36.314262
455.189911	729.281250	16638.906250	6524.150391	36.423668
455.546265	728.761047	16449.062500	6449.699219	36.392036
455.902557	732.476257	16347.491211	6410.095703	36.360001
456.258820	730.767273	16341.397461	6413.662109	36.404007
456.615051	730.544373	16441.408203	6460.027344	36.468285
456.971252	721.553711	16418.451172	6456.089355	36.532925
457.327393	714.494934	16588.677734	6509.661621	36.506866
457.683502	715.089355	16796.798828	6578.911621	36.462681
458.039612	722.519714	17250.269531	6751.442871	36.477581
458.395630	720.141907	17698.388672	6917.806641	36.503563
458.751648	717.615723	18156.615234	7101.111328	36.604710
459.107605	716.724060	18813.298828	7338.434082	36.590958
459.463562	730.544373	19462.705078	7578.357422	36.556450
459.819458	731.361633	20101.486328	7809.884766	36.543507
460.175323	735.745544	20652.812500	8001.437500	36.479729
460.531158	727.646545	21158.814453	8189.943359	36.524082
460.886932	723.188477	21447.035156	8309.421875	36.606297
461.242676	717.021301	21531.962891	8388.034180	36.853397
461.598419	718.135803	21283.568359	8313.136719	36.930908
461.954102	716.055359	20847.857422	8188.977051	37.119984
462.309723	712.785950	20175.419922	7967.183594	37.273460
462.665344	712.340149	19538.496094	7759.433105	37.432457
463.020905	723.039734	19019.861328	7579.694824	37.474567
463.376373	723.114075	18599.828125	7413.257324	37.423782
463.731873	717.244141	18275.646484	7296.081543	37.468315
464.087341	711.894348	18008.601563	7177.271973	37.379238
464.442749	715.312317	17880.652344	7127.488770	37.355370
464.798126	722.816895	17796.095703	7115.897949	37.444950
465.153503	727.572266	17878.943359	7159.513184	37.501030
465.508820	727.497864	17942.398438	7184.330078	37.507229
465.864105	725.937561	18096.427734	7215.834473	37.361622
466.219330	720.810730	18362.876953	7311.388184	37.357174
466.574524	723.634094	18563.644531	7401.220215	37.430393
466.929657	730.618652	18728.224609	7481.318359	37.508877
467.284790	733.962219	18844.656250	7564.686035	37.716522
467.639893	733.293518	18976.025391	7620.710938	37.754307
467.994934	725.566101	19131.761719	7694.938965	37.864277
468.349945	720.587830	19186.373047	7709.056152	37.845497
468.704926	718.730225	19129.011719	7702.071777	37.931751
469.059875	714.049133	18902.166016	7626.653809	38.006157
469.414764	719.473206	18664.769531	7537.788574	37.994999
469.769653	719.621887	18504.943359	7477.082520	37.994591
470.124451	719.993408	18460.806641	7459.621582	37.989399
470.479248	714.272034	18297.341797	7400.773926	38.028069
470.834015	712.414490	18190.716797	7361.690918	38.043034
471.188721	716.946960	18201.861328	7366.520996	38.030350
471.543365	721.553711	18329.216797	7422.544922	38.057240
471.898010	722.965515	18502.492188	7484.290527	38.028713
472.252625	720.513489	18641.140625	7535.187500	38.026985
472.607178	718.878845	18901.125000	7620.561035	37.958359
472.961700	720.662109	19088.443359	7704.820801	38.023964
473.316193	728.463867	19372.056641	7825.935059	38.069221
473.670654	728.018066	19514.197266	7911.457031	38.237892
474.025055	721.107910	19741.119141	8022.464844	38.387764
474.379456	715.535156	19908.447266	8074.402344	38.341587
474.733795	717.764343	20046.949219	8119.355469	38.292309
475.088104	722.296814	20184.259766	8148.259766	38.156288
475.442383	720.513489	20222.525391	8166.909668	38.182709
475.796570	714.494934	20321.423828	8192.321289	38.138691
476.150787	710.259705	20495.810547	8269.893555	38.207851
476.504944	720.364929	20729.046875	8376.518555	38.264160
476.859070	729.281250	21023.955078	8503.278320	38.305603
477.213135	737.380188	21324.287109	8613.394531	38.257397
477.567200	730.767273	21723.960938	8764.377930	38.267693
477.921173	727.869446	22134.408203	8913.874023	38.240673
478.275146	716.872742	22579.406250	9094.503906	38.319580
478.629089	718.953125	22896.531250	9240.063477	38.422188
478.983002	718.284424	23329.494141	9393.721680	38.367863
479.336823	721.330811	23668.912109	9520.705078	38.345539
479.690643	724.080078	24107.296875	9646.499023	38.157364
480.044403	718.655945	24575.625000	9826.163086	38.175457
480.398163	724.228699	25257.126953	10072.774414	38.106163
480.751862	715.980957	26127.882813	10431.730469	38.233067
481.105499	711.002686	27231.279297	10880.371094	38.345634
481.459137	708.550781	28680.927734	11458.743164	38.431458
481.812744	717.021301	30518.654297	12151.987305	38.370266
482.166290	730.470032	32763.931641	12962.481445	38.185108
482.519806	734.482361	35505.183594	13936.143555	37.967773
482.873291	732.401855	38694.777344	15137.098633	37.944668
483.226715	732.847717	42302.621094	16572.923828	38.104794
483.580139	730.172852	45790.609375	18060.244141	38.459614
483.933502	724.451477	49108.675781	19598.011719	39.007675
484.286804	716.426819	51761.062500	21003.523438	39.743835
484.640106	714.494934	53774.593750	22239.250000	40.566746
484.993347	716.129639	54840.390625	23044.990234	41.254810
485.346558	721.850891	55034.324219	23359.884766	41.681095
485.699738	719.919128	54350.957031	23042.539063	41.622574
486.052887	724.377197	53019.894531	22319.421875	41.294258
486.405975	724.748718	51417.042969	21435.962891	40.856731
486.759064	723.262695	49846.128906	20580.146484	40.422890
487.112061	718.061523	48611.140625	19879.990234	40.009811
487.464996	712.117371	47915.894531	19380.822266	39.549175
487.817963	715.386536	47776.425781	19230.880859	39.343575
488.170868	715.460938	47816.402344	19243.662109	39.337219
488.523743	716.055359	47902.519531	19312.244141	39.410007
488.876587	720.290588	47686.968750	19326.583984	39.615944
489.229401	724.228699	47258.093750	19205.025391	39.714725
489.582153	717.095520	46388.156250	18926.687500	39.871181
489.934845	711.968689	45325.175781	18480.646484	39.828289
490.287537	710.333984	44272.828125	17972.937500	39.627216
490.640198	715.832458	43422.363281	17593.994141	39.521267
490.992798	718.358704	42808.917969	17319.517578	39.441525
491.345337	719.844910	42628.730469	17254.875000	39.454708
491.697876	726.680664	42745.093750	17245.068359	39.312256
492.050354	729.355530	43172.335938	17433.648438	39.357021
492.402832	724.377258	43438.417969	17566.054688	39.428905
492.755219	723.411316	43265.808594	17599.119141	39.667973
493.107605	723.782776	42554.953125	17321.525391	39.677929
493.459930	723.634216	41241.203125	16848.958984	39.798351
493.812225	730.618652	39500.964844	16154.304688	39.782169
494.164490	730.024231	37490.476563	15419.523438	39.960060
494.516724	728.686768	35486.457031	14628.496094	39.990509
494.868896	719.250305	33689.445313	13894.682617	39.961647
495.221039	717.615723	32265.585938	13273.437500	39.799145
495.573120	728.092346	31122.212891	12811.348633	39.755241
495.925201	730.321472	30505.353516	12532.491211	39.637810
496.277222	730.841492	30159.548828	12372.518555	39.558914
496.629211	720.662109	30147.806641	12320.877930	39.420120
496.981140	714.866455	30137.109375	12325.781250	39.463055
497.333069	708.996582	30245.070313	12366.721680	39.469444
497.684967	717.021301	30323.384766	12389.682617	39.426189
498.036804	716.501160	30364.548828	12413.235352	39.451958
498.388580	718.210144	30251.537109	12403.278320	39.565704
498.740326	707.584778	30042.599609	12383.291992	39.801266
499.092072	711.077087	29740.033203	12260.246094	39.784996
499.443756	712.860352	29411.099609	12146.710938	39.841648
499.795410	717.615723	29090.927734	12011.629883	39.805058
500.147003	718.210144	28750.771484	11896.014648	39.874363
500.498566	718.655945	28391.812500	11736.114258	39.812798
500.850098	719.919006	27986.640625	11589.960938	39.865601
501.201599	716.575439	27647.521484	11464.910156	39.910725
501.553009	714.569275	27288.416016	11331.610352	39.952969
501.904449	715.238037	27052.208984	11224.093750	39.901535
502.255859	720.959290	26829.302734	11119.328125	39.827763
502.607178	721.702332	26765.625000	11105.432617	39.870071
502.958405	725.417480	26692.804688	11071.402344	39.842224
503.309692	725.566101	26650.228516	11075.860352	39.924507
503.660919	725.640381	26601.931641	11055.204102	39.919025
504.012115	725.863281	26664.867188	11069.768555	39.877804
504.363251	720.736328	26739.248047	11114.721680	39.948425
504.714294	723.262695	26847.134766	11150.609375	39.915012
505.065369	720.290527	26861.322266	11189.468750	40.048832
505.416443	724.302917	26867.416016	11189.840820	40.031719
505.767395	726.829285	26904.718750	11206.335938	40.031902
506.118317	720.141907	26887.554688	11196.527344	40.036003
506.469238	715.386536	26915.640625	11231.598633	40.137825
506.820160	710.482605	26896.990234	11239.624023	40.208271
507.170929	720.810730	26932.876953	11236.057617	40.116055
507.521729	727.646545	27030.437500	11250.324219	40.005936
507.872498	730.098450	27080.962891	11266.448242	39.984833
508.223236	729.578430	27270.513672	11355.090820	40.034431
508.573883	720.364807	27376.021484	11421.739258	40.146729
508.924500	721.627991	27575.599609	11507.411133	40.164574
509.275116	717.764343	27754.296875	11585.280273	40.195671
509.625702	722.593994	28013.984375	11687.520508	40.177238
509.976196	720.364929	28302.501953	11816.362305	40.228924
510.326660	719.770508	28551.265625	11932.273438	40.287102
510.677124	722.891113	28804.712891	12036.594727	40.288349
511.027557	722.445313	29004.662109	12119.145508	40.296349
511.377869	722.073914	29217.984375	12195.083008	40.261948
511.728180	723.708496	29340.880859	12244.196289	40.257256
512.078430	719.844788	29480.421875	12310.698242	40.301186
512.428650	720.067688	29596.333984	12371.922852	40.350979
512.778931	712.042969	29734.685547	12404.393555	40.286995
513.129028	723.634216	29793.830078	12402.981445	40.176365
513.479126	725.417480	29807.947266	12432.182617	40.253601
513.829285	731.881836	29757.197266	12452.465820	40.380554
514.179382	726.829163	29688.767578	12449.940430	40.477650
514.529297	724.525696	29584.443359	12417.991211	40.518013
514.879272	724.897278	29573.447266	12410.784180	40.507710
515.229187	721.776611	29480.494141	12371.254883	40.507645
515.579163	726.234802	29538.525391	12382.399414	40.455528
515.928955	724.600098	29535.625000	12421.409180	40.598377
516.278748	717.912903	29804.380859	12511.760742	40.547539
516.628540	711.374268	30066.146484	12616.973633	40.557629
516.978333	710.408386	30555.580078	12769.889648	40.406807
517.327942	719.993408	31088.037109	13010.109375	40.470558
517.677612	720.439209	31709.353516	13265.636719	40.482857
518.027222	718.581604	32332.607422	13513.807617	40.473255
518.376831	712.563171	33026.519531	13766.288086	40.396553
518.726379	716.352539	33713.222656	14009.406250	40.285801
519.075867	722.742493	34272.652344	14262.854492	40.358116
519.425293	727.052063	34653.968750	14452.250000	40.455189
519.774658	728.686829	34802.652344	14569.575195	40.620129
520.124084	724.600159	34757.699219	14586.218750	40.729816
520.473389	718.878906	34467.621094	14513.624023	40.874844
520.822693	715.609558	34089.863281	14375.272461	40.928745
521.171997	717.021240	33657.570313	14203.039063	40.940475
521.521240	719.844727	33229.214844	14055.698242	41.021568
521.870361	718.135742	32823.375000	13909.618164	41.088257
522.219482	719.101746	32466.945313	13762.424805	41.084122
522.568604	724.748718	32231.478516	13599.034180	40.862015
522.917664	726.309082	32088.671875	13516.258789	40.781204
523.266724	726.383362	32173.078125	13531.491211	40.720043
523.615662	723.485596	32415.755859	13620.953125	40.695942
523.964600	730.247131	32853.468750	13772.752930	40.601490
524.313538	723.114075	33369.722656	14004.206055	40.681381
524.662354	724.154297	34054.496094	14277.192383	40.662762
525.011169	714.346375	34932.535156	14625.078125	40.653034
525.359985	720.810730	36002.492188	15004.467773	40.484631
525.708740	724.302917	37282.652344	15525.627930	40.486855
526.057434	732.030457	38654.800781	16101.250000	40.527683
526.406067	727.497986	40217.160156	16756.376953	40.590061
526.754700	726.754883	41854.792969	17459.205078	40.683800
527.103333	728.018066	43783.394531	18257.144531	40.712982
527.451782	730.692932	45926.511719	19164.380859	40.786266
527.800293	729.652771	48109.152344	20153.720703	40.996777
528.148743	728.835449	50213.187500	21195.966797	41.360813
528.497131	733.070618	52009.378906	22209.083984	41.882915
528.845642	718.953125	53560.519531	23187.427734	42.520454
529.193909	716.203918	54727.667969	24044.880859	43.192085
529.542175	711.671387	55507.031250	24749.343750	43.868080
529.890503	721.405090	55802.160156	25077.318359	44.218555
530.238770	718.953125	55556.000000	25051.607422	44.372658
530.586914	717.615723	54788.300781	24584.466797	44.140095
530.934998	718.284424	53497.511719	23828.658203	43.786873
531.283142	713.380432	51917.980469	22950.474609	43.427921
531.631226	713.529053	50084.417969	21927.251953	42.968079
531.979248	715.312256	48289.484375	20971.642578	42.578419
532.327148	720.290527	46704.093750	20051.181641	42.038475
532.675110	724.302917	45583.902344	19448.291016	41.739090
533.023071	721.702332	45033.468750	19099.068359	41.472881
533.370850	725.343079	44908.046875	18995.193359	41.350685
533.718689	730.098572	45118.843750	19077.669922	41.333839
534.066467	737.751770	45379.792969	19187.638672	41.328499
534.414246	740.649597	45451.718750	19268.033203	41.438023
534.761963	742.507080	45341.230469	19252.056641	41.502419
535.109619	742.061279	44932.417969	19155.539063	41.668545
535.457153	735.819885	44332.269531	18889.535156	41.640350
535.804749	725.268860	43502.753906	18524.115234	41.607975
536.152344	719.101807	42613.132813	18118.050781	41.530853
536.499817	721.033630	41679.667969	17718.525391	41.499168
536.847229	723.782776	40795.832031	17333.414063	41.449417
537.194641	726.531982	39982.964844	16978.619141	41.399803
537.542114	724.377197	39376.285156	16703.326172	41.340649
537.889404	724.674500	38812.699219	16495.054688	41.405090
538.236694	728.686768	38361.089844	16303.278320	41.386120
538.583984	724.822998	37935.105469	16140.854492	41.429493
538.931213	722.148132	37733.816406	16013.500000	41.314949
539.278381	716.946960	37568.566406	15930.948242	41.284481
539.625488	719.993347	37569.316406	15932.731445	41.283630
539.972595	719.324646	37863.105469	16039.430664	41.245415
540.319641	718.953125	38562.519531	16305.657227	41.187195
540.666687	724.822998	39601.421875	16627.462891	40.905430
541.013611	726.903503	40894.878906	17132.275391	40.841915
541.360596	721.182312	42318.964844	17656.630859	40.712387
541.707458	721.405090	43731.828125	18324.685547	40.927944
542.054260	717.392822	44878.988281	18871.404297	41.108143
542.401062	723.114075	45824.343750	19401.927734	41.415310
542.747864	718.358704	46370.917969	19695.273438	41.568127
543.094666	721.405090	46319.125000	19777.525391	41.791828
543.441284	719.176086	45637.699219	19558.705078	41.941559
543.787903	720.364929	44561.644531	19148.775391	42.034378
544.134460	713.603333	43309.125000	18597.896484	41.986320
544.481079	714.271973	41910.894531	17996.564453	41.950752
544.827637	715.906738	40306.179688	17280.138672	41.839146
545.174072	725.343079	38691.136719	16555.017578	41.694572
545.520508	728.092346	37330.652344	15934.291992	41.544086
545.866943	727.126465	36236.027344	15469.676758	41.517902
546.213318	722.519714	35416.390625	15126.472656	41.517284
546.559631	725.937683	34731.324219	14786.539063	41.348160
546.905823	721.107910	34176.578125	14533.315430	41.285351
547.252136	719.993408	33711.519531	14316.500000	41.212116
547.598389	713.454773	33172.972656	14165.367188	41.442120
547.944458	710.185364	32731.908203	13997.219727	41.493813
548.290588	720.364929	32193.734375	13790.288086	41.526928
548.636658	720.736328	31625.390625	13533.868164	41.460201
548.982727	724.525818	30912.234375	13262.738281	41.534164
549.328735	719.993347	30201.826172	12969.985352	41.550987
549.674622	725.045959	29446.986328	12676.192383	41.609818
550.020569	731.064453	28714.955078	12377.050781	41.616753
550.366455	732.476257	27964.720703	12078.129883	41.662571
550.712280	728.909668	27347.638672	11803.581055	41.604813
551.058044	726.011902	26865.412109	11574.282227	41.501606
551.403748	725.937500	26474.431641	11396.997070	41.443432
551.749512	724.451477	26215.857422	11280.266602	41.409309
552.095154	721.182190	26037.158203	11190.510742	41.354630
552.440735	719.101746	25974.296875	11163.760742	41.356476
552.786316	720.810608	25939.974609	11149.272461	41.351337
553.131897	728.389587	25973.333984	11176.317383	41.386215
553.477417	724.451477	26031.958984	11165.395508	41.256313
553.822815	721.925232	26038.349609	11162.721680	41.241199
554.168213	719.473206	25967.015625	11125.421875	41.215687
554.513672	727.423584	25843.154297	11103.651367	41.313660
554.859009	730.247070	25666.166016	11025.484375	41.286777
555.204285	729.578369	25480.927734	10967.675781	41.363796
555.549500	724.377197	25213.958984	10874.203125	41.445484
555.894714	722.519714	24973.587891	10772.409180	41.441017
556.239990	719.770447	24627.787109	10641.190430	41.498295
556.585022	722.222412	24374.562500	10500.757813	41.342781
556.930115	726.383484	24099.716797	10387.371094	41.333374
557.275146	733.590759	23844.484375	10273.093750	41.277081
557.620178	731.658936	23635.474609	10216.475586	41.411510
557.965149	729.132568	23445.703125	10153.094727	41.484966
558.310059	721.182190	23293.978516	10098.780273	41.543800
558.654968	717.021240	23134.302734	9998.322266	41.402435
558.999756	712.934570	23023.960938	9945.939453	41.383144
559.344604	715.981018	23005.906250	9910.125000	41.247978
559.689331	714.792175	22947.056641	9919.561523	41.402756
560.033997	719.176086	22890.958984	9892.738281	41.374943
560.378723	718.358704	22828.619141	9872.825195	41.403706
560.723389	721.776672	22827.357422	9870.594727	41.386917
561.067932	716.055359	22863.541016	9880.254883	41.378056
561.412476	713.157532	22846.900391	9870.670898	41.373543
561.757019	712.860352	22849.724609	9830.473633	41.187466
562.101501	715.015137	22823.195313	9823.711914	41.200577
562.445862	719.770508	22854.701172	9822.299805	41.122921
562.790222	717.764343	22817.843750	9816.355469	41.169945
563.134644	713.231873	22800.310547	9796.292969	41.123871
563.478943	715.386658	22784.484375	9811.674805	41.217308
563.823181	723.262695	22786.117188	9824.602539	41.251865
564.167358	737.825989	22835.601563	9838.497070	41.183651
564.511536	726.606262	22902.552734	9841.840820	41.104149
564.855774	725.491699	22950.771484	9845.629883	41.034981
565.199768	715.312317	23051.529297	9886.200195	41.058376
565.543823	718.433044	23172.271484	9919.488281	40.977654
565.887817	723.411316	23455.437500	10002.261719	40.818405
566.231812	726.680664	23636.216797	10076.563477	40.812191
566.575745	724.674500	23821.677734	10161.714844	40.858288
566.919617	715.683777	23944.197266	10241.886719	41.010815
567.263428	715.163635	24088.273438	10302.666992	41.019375
567.607239	725.566101	24193.634766	10330.975586	40.929695
567.950989	727.200745	24220.681641	10338.851563	40.911991
568.294678	726.234863	24225.806641	10318.864258	40.820442
568.638367	722.148193	24076.681641	10304.153320	41.028458
568.981995	721.182312	23905.193359	10272.054688	41.195942
569.325623	723.634277	23698.037109	10206.073242	41.273933
569.669128	716.575439	23597.353516	10135.485352	41.165165
570.012573	719.696106	23480.476563	10059.102539	41.032890
570.356140	719.176025	23437.603516	10068.761719	41.154194
570.699524	721.033508	23446.818359	10038.446289	40.999302
571.042908	719.250305	23577.068359	10058.285156	40.857071
571.386230	716.501160	23707.248047	10077.826172	40.717796
571.729492	728.166687	23818.257813	10141.207031	40.766579
572.072815	733.888000	23941.228516	10198.791992	40.784100
572.416016	740.426575	24045.251953	10239.956055	40.762070
572.759094	732.847717	24221.869141	10294.864258	40.708450
573.102234	733.293640	24289.783203	10348.139648	40.816120
573.445374	727.720886	24329.609375	10375.037109	40.875187
573.788391	724.822998	24289.708984	10346.951172	40.832481
574.131409	715.609436	24245.421875	10298.580078	40.726933
574.474365	713.603333	24190.884766	10259.199219	40.658863
574.817261	717.244141	24081.734375	10231.708008	40.721897
575.160156	718.358704	23922.724609	10164.538086	40.708633
575.502930	715.089355	23725.380859	10066.755859	40.641232
575.845703	712.934570	23498.978516	9976.106445	40.652832
576.188477	713.157532	23255.265625	9878.621094	40.659302
576.531250	723.039734	23005.087891	9784.999023	40.669327
576.873901	726.754883	22751.865234	9672.952148	40.618176
577.216431	728.092346	22503.843750	9574.871094	40.626740
577.559082	722.816895	22234.494141	9441.646484	40.530685
577.901611	723.782776	21915.662109	9309.016602	40.511902
578.244080	719.696106	21595.787109	9176.980469	40.511818
578.586487	728.018066	21231.779297	9070.429688	40.687225
578.928955	732.996338	20909.675781	8950.654297	40.728497
579.271301	740.426575	20575.611328	8833.702148	40.802620
579.613647	736.117004	20253.212891	8687.994141	40.743137
579.955872	725.268860	19950.949219	8560.565430	40.754326
580.298157	715.981018	19630.556641	8411.959961	40.688087
580.640320	717.541443	19371.091797	8291.069336	40.600998
580.982483	719.176025	19157.619141	8195.813477	40.549179
581.324524	733.590759	18971.564453	8122.773438	40.515369
581.666626	728.240967	18860.037109	8079.157715	40.541580
582.008728	726.829163	18747.839844	8040.668457	40.585068
582.350647	723.857117	18688.916016	8001.064941	40.507565
582.692566	731.361633	18548.041016	7959.381348	40.568836
583.034424	728.909668	18447.361328	7911.010254	40.534584
583.376343	726.829285	18339.621094	7849.710938	40.441528
583.718201	718.730286	18290.431641	7810.479004	40.358917
584.059937	726.160461	18215.611328	7775.557129	40.306561
584.401611	719.770508	18132.763672	7754.678223	40.400337
584.743347	719.844727	18063.289063	7711.805176	40.314713
585.085022	718.953125	17938.162109	7663.137207	40.328125
585.426514	722.148132	17871.884766	7637.576660	40.323818
585.768127	727.052063	17773.285156	7612.833496	40.394741
586.109619	726.234863	17702.400391	7588.017090	40.420094
586.451172	724.748779	17642.662109	7554.654785	40.370853
586.792542	722.296692	17616.060547	7519.287109	40.233723
587.133850	722.519714	17615.318359	7502.494629	40.135296
587.475220	725.417480	17589.535156	7502.122559	40.184166
587.816589	717.095520	17591.763672	7503.088379	40.214081
588.157776	719.027527	17650.462891	7523.745605	40.189850
588.498962	717.912903	17720.677734	7529.392090	40.061005
588.840210	726.903564	17778.708984	7548.636719	40.005932
589.181335	724.228699	17829.681641	7575.905762	40.055515
589.522400	720.736389	17882.583984	7582.667480	39.983639
589.863403	716.352539	17903.240234	7607.187500	40.093563
590.204407	723.336975	17892.613281	7599.311035	40.048134
590.545410	727.349304	17921.146484	7608.895996	40.023426
590.886353	733.887939	17945.962891	7611.793457	39.959770
591.227112	724.674500	17942.919922	7586.531250	39.852242
591.567932	719.696106	17879.908203	7576.722656	39.958866
591.908752	712.860352	17799.810547	7538.308594	39.945389
592.249512	715.460876	17752.333984	7521.664063	39.949837
592.590149	712.414490	17631.591797	7472.476074	39.955025
592.930786	717.838562	17515.826172	7425.888184	39.933651
593.271423	714.123352	17424.212891	7368.080078	39.819992
593.612000	722.519592	17393.226563	7351.064941	39.761635
593.952576	721.033508	17414.253906	7341.926270	39.662163
594.292969	724.971619	17479.566406	7368.526855	39.652138
594.633484	723.114075	17538.861328	7378.854980	39.580402
594.973877	722.891113	17634.488281	7386.656250	39.403522
595.314209	722.519592	17721.718750	7424.921875	39.427753
595.654480	730.024231	17897.744141	7493.206543	39.394760
595.994812	721.628113	18108.318359	7577.167969	39.429817
596.335022	717.689941	18327.509766	7651.916504	39.377045
596.675171	710.631165	18531.470703	7697.835938	39.208054
597.015320	717.838562	18690.775391	7760.919434	39.187145
597.355408	717.912903	18792.421875	7773.921875	39.038452
597.695496	714.494934	18874.005859	7818.355469	39.119225
598.035461	716.278137	18881.806641	7804.089355	39.017918
598.375366	720.810730	18823.330078	7800.894531	39.111042
598.715271	726.977844	18697.089844	7753.191895	39.099445
599.055176	732.550537	18447.730469	7697.761719	39.317757
599.395081	736.191406	18236.189453	7608.152832	39.268356
599.734802	734.110840	17923.154297	7497.218750	39.345459
600.074524	727.943787	17613.607422	7358.347168	39.266464
600.414246	726.829285	17227.904297	7211.599121	39.299076
600.753906	723.782776	16910.705078	7061.210938	39.151535
601.093506	724.674500	16641.060547	6940.023438	39.050003
601.433044	724.377258	16447.056641	6852.494141	38.976288
601.772583	731.138733	16323.860352	6793.200684	38.877510
602.112122	725.194580	16307.960938	6777.819824	38.841785
602.451538	723.039795	16347.118164	6790.525391	38.834198
602.790894	714.420715	16438.734375	6819.875000	38.828114
603.130310	715.312317	16608.888672	6866.388672	38.701649
603.469604	712.785950	16799.919922	6919.218262	38.580097
603.808838	716.278259	17073.353516	7009.198730	38.472160
604.148010	722.148132	17379.257813	7100.962402	38.294846
604.487305	726.234802	17683.453125	7216.651855	38.275246
604.826416	727.720886	17926.792969	7287.536621	38.140522
605.165527	726.754883	18061.654297	7369.566895	38.320454
605.504456	725.194519	18203.869141	7425.517090	38.334274
605.843445	721.479431	18267.843750	7484.438965	38.543365
606.182434	719.919006	18267.398438	7480.946777	38.529911
606.521423	715.163635	18129.568359	7442.532715	38.631062
606.860229	722.816833	17888.380859	7361.914063	38.676834
607.199036	716.946960	17596.816406	7265.914551	38.797504
607.537903	724.228699	17341.736328	7175.562500	38.822514
607.876648	720.290527	17088.437500	7066.411621	38.771164
608.215271	725.417480	16865.455078	6967.217285	38.672771
608.553955	721.107910	16632.960938	6847.218750	38.500298
608.892578	722.816833	16468.529297	6753.225098	38.298733
609.231140	723.411316	16358.635742	6698.242188	38.213913
609.569641	729.058289	16298.450195	6670.750000	38.162647
609.908081	730.395752	16328.096680	6686.205078	38.183895
610.246521	739.683594	16310.116211	6685.981934	38.189678
610.584961	727.275085	16327.725586	6694.601074	38.250988
610.923340	721.553711	16254.538086	6662.056152	38.244438
611.261597	708.847961	16163.293945	6635.678223	38.350323
611.599854	714.643555	16033.858398	6581.363281	38.296478
611.938110	720.587830	15878.043945	6549.710449	38.457130
612.276245	730.321533	15723.272461	6478.157715	38.336922
612.614319	726.977844	15445.975586	6389.513672	38.470932
612.952393	724.005798	15143.042969	6268.846191	38.454998
613.290466	714.346375	14826.067383	6128.785645	38.368385
613.628479	718.878906	14538.218750	6006.929688	38.265583
613.966370	718.730225	14285.367188	5889.679688	38.115189
614.304260	719.844788	14067.882813	5806.312012	38.106480
614.642151	717.095520	13881.308594	5739.216309	38.149799
614.979980	712.637390	13735.750000	5683.118652	38.166618
615.317749	721.107910	13590.933594	5633.484375	38.169720
615.655396	723.708496	13531.640625	5588.158691	37.979984
615.993164	723.336914	13470.860352	5549.373535	37.858620
616.330811	715.015076	13453.101563	5524.333496	37.755421
616.668396	712.117249	13396.632813	5494.389160	37.701653
617.005859	722.816895	13382.885742	5477.670410	37.557880
617.343445	727.200745	13370.031250	5489.708496	37.669636
617.680908	728.389587	13378.651367	5488.816406	37.631054
618.018311	719.398926	13359.479492	5511.479004	37.911785
618.355652	720.959290	13323.963867	5494.686035	37.877686
618.692993	725.343201	13269.945313	5489.039063	37.974068
619.030273	725.045959	13277.672852	5452.928223	37.664486
619.367554	726.086182	13296.249023	5446.389648	37.551651
619.704712	718.804504	13284.360352	5443.194824	37.597942
620.041870	718.655945	13239.409180	5444.680176	37.745529
620.379028	711.448547	13188.584961	5421.869629	37.752419
620.716064	712.488770	13157.301758	5395.789551	37.632553
621.053040	720.587708	13093.104492	5372.755371	37.600819
621.389954	721.330811	13029.500977	5353.362793	37.633801
621.726929	727.497986	12962.332031	5327.133301	37.594585
622.063843	722.222473	12937.960938	5302.093262	37.491558
622.400635	721.776611	12917.825195	5267.468262	37.271835
622.737427	725.566101	12891.151367	5240.347656	37.111095
623.074219	727.720886	12831.932617	5228.162109	37.180790
623.410889	731.436035	12769.145508	5218.502930	37.275089
623.747559	724.823059	12743.437500	5219.171875	37.394897
624.084167	721.627991	12710.817383	5189.004883	37.261711
624.420715	715.683838	12719.139648	5190.044922	37.275608
624.757324	714.272034	12720.847656	5181.500000	37.206512
625.093750	714.866516	12776.872070	5213.375977	37.294868
625.430176	721.553711	12840.476563	5207.952148	37.019779
625.766602	726.086182	12905.639648	5212.261719	36.833664
626.102905	732.327637	13010.925781	5206.020020	36.434879
626.439209	729.504150	13104.622070	5237.004395	36.423893
626.775452	725.714661	13246.243164	5276.161621	36.343887
627.111694	713.900574	13312.446289	5320.074707	36.561157
627.447876	716.352539	13358.366211	5352.693848	36.674072
627.783997	716.352539	13388.903320	5363.987793	36.674820
628.120056	719.473206	13406.514648	5344.817871	36.457237
628.456055	716.872620	13408.593750	5325.424316	36.311481
628.792053	713.826233	13394.403320	5313.461914	36.273079
629.128052	712.191589	13320.249023	5296.669434	36.361492
629.463928	711.671448	13204.856445	5267.617188	36.467449
629.799744	712.488770	13062.864258	5231.951660	36.593731
630.135559	720.587830	12942.790039	5183.878418	36.517891
630.471375	724.971680	12815.508789	5127.110840	36.409790
630.807068	727.200684	12648.848633	5062.244629	36.362789
631.142700	723.708496	12515.846680	5021.377930	36.445210
631.478333	712.265930	12380.468750	4971.446777	36.502457
631.813965	718.581604	12279.565430	4905.912109	36.219501
632.149475	722.222412	12161.497070	4845.131836	36.041702
632.484924	735.522644	12072.854492	4809.392090	35.933228
632.820435	731.436035	11993.647461	4795.125977	36.082523
633.155884	729.504150	11911.765625	4772.687012	36.157112
633.491150	720.884949	11858.491211	4753.813965	36.210014
633.826477	721.850891	11760.559570	4712.130371	36.148064
634.161804	712.340149	11697.551758	4680.848633	36.125916
634.497009	709.145203	11632.610352	4638.867188	35.975048
634.832153	710.854187	11592.562500	4607.660156	35.810608
635.167297	714.792175	11526.209961	4590.125000	35.844814
635.502380	713.306091	11454.507813	4576.602051	35.967072
635.837463	702.012146	11383.622070	4552.082031	36.043907
636.172424	703.349609	11316.824219	4506.386230	35.832153
636.507324	714.197754	11235.165039	4457.420410	35.578693
636.842224	725.268860	11129.210938	4436.689941	35.673218
637.177124	728.909668	11003.936523	4403.179199	35.759220
637.511963	720.364929	10889.733398	4358.077637	35.771275
637.846741	715.163757	10786.600586	4301.235840	35.606361
638.181396	716.055359	10676.557617	4253.830566	35.518040
638.516113	724.748779	10581.451172	4219.948730	35.460136
638.850769	732.699219	10490.950195	4177.521973	35.301640
639.185303	727.052185	10406.393555	4133.312012	35.191029
639.519836	723.708496	10292.933594	4090.587646	35.184452
639.854370	720.142029	10206.592773	4053.362061	35.136639
640.188843	724.748779	10122.110352	4024.606689	35.114727
640.523254	729.504150	10056.724609	3988.570313	34.941448
640.857605	730.990234	9983.685547	3961.672607	34.916122
641.191895	730.767273	9914.137695	3931.505859	34.853638
641.526184	725.491760	9843.328125	3903.493408	34.854782
641.860413	718.135803	9788.416992	3900.447266	35.085037
642.194580	716.278259	9764.343750	3889.376221	35.069351
642.528748	716.649719	9725.631836	3862.330078	34.917156
642.862793	716.724060	9655.490234	3819.903076	34.715965
643.196838	716.946960	9575.911133	3788.250000	34.668873
643.530823	708.104980	9502.203125	3781.042725	34.943184
643.864746	716.352539	9440.829102	3761.203857	34.900105
644.198669	718.507324	9385.696289	3757.711182	35.065620
644.532532	724.971680	9341.412109	3725.909912	34.828049
644.866333	719.696106	9361.028320	3708.968750	34.592731
645.200073	711.820068	9346.985352	3687.346924	34.458252
645.533813	717.095520	9331.084961	3677.835938	34.371304
645.867554	714.569275	9282.787109	3660.300781	34.379745
646.201172	718.061523	9295.790039	3635.632080	34.013325
646.534729	722.965515	9291.852539	3634.592041	33.979053
646.868225	725.120300	9298.985352	3644.177002	34.045982
647.201782	717.244141	9281.598633	3649.303955	34.235619
647.535217	715.981018	9302.477539	3648.783936	34.155994
647.868591	719.473328	9290.366211	3637.638428	34.047386
648.201965	727.720886	9293.115234	3649.081055	34.106544
648.535278	722.593933	9264.286133	3638.827393	34.141167
648.868591	724.005676	9263.914063	3651.012939	34.274460
649.201782	730.544373	9226.911133	3616.907959	33.971737
649.534912	731.287415	9206.775391	3596.028564	33.800308
649.868103	723.188416	9144.659180	3561.106445	33.698605
650.201172	717.838623	9116.274414	3546.989014	33.686634
650.534180	711.522888	9088.411133	3536.438232	33.722729
650.867188	712.786072	9072.362305	3525.589844	33.647682
651.200134	716.426819	9038.406250	3499.509766	33.442562
651.533020	722.593933	8990.629883	3472.909424	33.264435
651.865845	725.714661	8954.072266	3450.915771	33.119625
652.198608	726.383484	8896.414063	3445.863281	33.286041
652.531433	729.504150	8885.862305	3444.376953	33.285355
652.864136	725.566101	8856.512695	3427.287354	33.227634
653.196777	794.370422	8915.805664	3536.437744	33.763336
653.529358	797.639709	8867.286133	3530.791016	33.869530
653.861938	801.280579	8814.829102	3502.704346	33.710709
654.194519	735.894226	8691.487305	3361.157959	32.998966
654.526978	739.237793	8651.141602	3324.452393	32.674999
654.859375	739.312073	8583.897461	3304.093750	32.694931
655.191833	730.692932	8549.791016	3290.421875	32.736881
655.524170	720.513489	8492.800781	3284.700439	32.991409
655.856445	719.547607	8464.491211	3281.208008	33.075264
656.188660	729.801331	8422.288086	3255.871094	32.838142
656.520874	729.578430	8382.758789	3231.871094	32.696117
656.853088	727.349304	8395.835938	3223.326172	32.548492
657.185181	724.674500	8395.464844	3214.632813	32.460255
657.517212	719.919006	8435.737305	3215.004639	32.337280
657.849243	724.600159	8460.107422	3220.056885	32.259769
658.181274	721.405090	8517.692383	3229.790771	32.174107
658.513123	731.956055	8565.914063	3240.044189	32.015594
658.844971	730.915833	8664.588867	3252.972900	31.789276
659.176819	735.968445	8757.988281	3275.263916	31.654064
659.508667	730.098572	8864.983398	3285.666260	31.414921
659.840393	730.841553	8920.636719	3294.211182	31.299559
660.172058	725.417480	8985.799805	3322.149170	31.435972
660.503662	723.114075	9006.678711	3343.845459	31.637726
660.835266	720.290527	9006.233398	3357.814453	31.831305
661.166931	716.798340	8936.611328	3323.114990	31.707739
661.498413	724.674500	8890.320313	3293.319580	31.456728
661.829773	724.228699	8791.275391	3250.967041	31.321726
662.161194	734.036621	8692.377930	3222.806396	31.272469
662.492615	725.491760	8540.056641	3191.524658	31.556881
662.823975	731.287354	8389.147461	3156.453857	31.668983
663.155212	726.234802	8227.019531	3101.321289	31.664507
663.486450	730.841553	8071.801270	3050.423828	31.597805
663.817627	727.943787	7956.781250	3005.544922	31.507156
664.148743	723.411316	7829.203125	2968.468018	31.594742
664.479858	719.844727	7755.568848	2923.737549	31.324322
664.810913	722.593933	7654.889160	2890.227295	31.268623
665.141907	727.497986	7582.890137	2859.094482	31.093719
665.472778	725.417480	7495.509766	2828.333008	31.061844
665.803711	720.587830	7469.578125	2805.893555	30.898039
666.134583	718.061523	7449.813965	2795.119873	30.854645
666.465454	729.727051	7427.746094	2783.677002	30.665035
666.796143	731.658875	7381.752441	2754.253174	30.414522
667.126831	731.287415	7365.628906	2742.364502	30.313139
667.457458	725.491760	7347.498535	2738.575195	30.399900
667.788147	719.919128	7332.267090	2742.513672	30.588142
668.118774	716.055359	7292.737793	2734.414795	30.689627
668.449219	714.346375	7265.394531	2709.077393	30.449034
668.779663	719.919006	7263.313965	2691.913330	30.137175
669.110107	727.200745	7258.781250	2680.767822	29.909561
669.440552	723.411316	7248.676270	2677.052734	29.939648
669.770874	726.160461	7209.816406	2668.804932	29.962179
670.101135	725.789001	7189.308594	2642.724854	29.657770
670.431396	723.931396	7160.924316	2644.656494	29.838856
670.761597	717.912903	7128.380371	2625.189453	29.752537
671.091797	718.358704	7097.990234	2608.619873	29.629631
671.421875	722.891113	7048.876465	2581.647949	29.382883
671.751892	729.132568	7006.672363	2573.177490	29.375278
672.081909	723.857117	6952.208496	2580.384766	29.807688
672.411865	724.228577	6927.836426	2565.375732	29.678652
672.741821	727.423645	6880.060059	2542.490479	29.500637
673.071716	729.058350	6846.029785	2518.936523	29.260855
673.401550	728.241028	6807.169434	2506.379395	29.250854
673.731262	727.497864	6796.841309	2492.781982	29.085258
674.060974	726.606262	6754.786621	2478.738770	29.065697
674.390625	731.436035	6722.093262	2462.243408	28.891777
674.720276	725.640381	6661.610840	2446.194092	28.985212
675.049927	726.309082	6639.765625	2432.076660	28.845526
675.379395	727.200684	6604.620605	2422.417236	28.842869
675.708923	725.640381	6570.515625	2404.733154	28.727608
676.038330	722.891174	6519.767090	2374.789307	28.496351
676.367737	720.959290	6474.367676	2352.127197	28.351334
676.697083	724.080017	6459.135254	2349.229248	28.337114
677.026428	733.219238	6440.634277	2352.126953	28.364990
677.355652	729.206848	6410.021484	2338.157959	28.322544
677.684875	732.773438	6402.665527	2330.950684	28.187084
678.013977	725.045898	6395.384277	2316.090088	28.059069
678.343079	726.309082	6420.720703	2315.346924	27.905216
678.672180	722.371094	6422.875488	2301.081055	27.694216
679.001221	721.182190	6472.138184	2306.356445	27.563665
679.330139	725.491760	6514.342285	2313.043701	27.424305
679.659058	723.782776	6530.837402	2325.972412	27.590401
679.987976	729.949951	6557.215332	2336.894775	27.576309
680.316772	726.160461	6591.468750	2347.074463	27.635616
680.645630	727.126465	6651.356934	2347.594482	27.353224
680.974304	719.250305	6695.417969	2342.021729	27.154049
681.302979	719.473328	6731.380859	2344.770752	27.034636
681.631653	718.804504	6763.925293	2351.309570	27.005337
681.960266	726.680664	6776.408203	2353.464355	26.890198
682.288757	725.937561	6796.023926	2339.866943	26.588245
682.617249	723.485596	6797.064453	2327.086914	26.402905
682.945679	718.135742	6764.742188	2318.764893	26.471529
683.274109	719.027405	6713.696777	2310.443115	26.547182
683.602478	723.857117	6644.966309	2297.662842	26.579575
683.930725	725.714661	6566.057129	2276.189697	26.547676
684.259033	723.411316	6470.280762	2245.353760	26.482981
684.587280	724.674500	6393.674316	2216.078857	26.308067
684.915344	723.336975	6333.936035	2192.450439	26.184610
685.243469	727.646545	6264.313965	2174.840576	26.138361
685.571533	724.302917	6197.961426	2154.555908	26.129744
685.899536	731.658936	6138.445313	2135.311523	25.960941
686.227539	729.801270	6105.826172	2118.890625	25.838596
686.555420	728.761047	6081.603516	2115.695557	25.910246
686.883301	722.965515	6076.328125	2111.906006	25.945196
687.211121	719.176025	6074.693359	2113.094971	26.027718
687.538940	718.135742	6076.402344	2096.154053	25.717613
687.866638	719.844727	6065.182129	2075.498047	25.361418
688.194336	720.513489	6054.854004	2067.324463	25.247940
688.521973	718.210144	6027.733887	2064.352295	25.353348
688.849609	713.454773	6032.191895	2062.569336	25.365316
689.177063	719.101746	5996.824219	2057.071045	25.351261
689.504578	723.857117	5948.230469	2035.597290	25.108088
689.832031	729.949951	5864.267578	2016.278687	25.053549
690.159485	726.309082	5795.166504	1983.659790	24.805407
690.486816	723.485657	5726.659668	1973.703247	24.988489
690.814087	716.352539	5662.015625	1959.585815	25.137848
691.141296	716.352539	5561.039063	1937.815063	25.212416
691.468506	714.569275	5486.067871	1903.264160	24.912401
691.795715	718.953125	5395.640625	1867.673218	24.562687
692.122803	713.826172	5355.740234	1849.023071	24.455362
692.449829	720.141907	5298.824219	1834.608398	24.340334
692.776855	723.559875	5252.607910	1823.611694	24.288809
693.103821	732.550598	5199.109863	1798.422974	23.863388
693.430664	730.618652	5137.587402	1790.769897	24.056246
693.757568	722.519714	5089.067871	1775.612305	24.117277
694.084351	711.597168	5026.207520	1763.055054	24.369707
694.411133	707.733398	5006.294434	1742.547485	24.073500
694.737854	710.259766	4963.124512	1731.104858	24.003704
695.064575	715.981018	4951.458984	1721.742676	23.746119
695.391174	716.055359	4914.010254	1710.374390	23.685795
695.717773	711.151367	4909.478027	1694.399292	23.419996
696.044250	715.460876	4911.410156	1685.854492	23.126915
696.370789	715.832458	4924.115723	1686.746094	23.071489
696.697205	730.915833	4965.650879	1695.588257	22.779995
697.023621	726.606262	5017.811035	1706.139160	22.826525
697.349915	736.637207	5071.086426	1719.216309	22.669065
697.676208	729.132568	5106.156738	1729.024292	22.844097
698.002380	733.962219	5175.258301	1743.959106	22.741041
698.328674	725.640320	5269.474121	1755.178833	22.657927
698.654724	729.206848	5375.355957	1775.463501	22.518791
698.980896	725.789001	5467.937500	1797.605835	22.601927
699.306946	731.807556	5570.846191	1808.305298	22.246109
699.632935	727.943848	5653.248047	1816.850220	22.108408
699.958862	729.206848	5687.947266	1810.088501	21.797504
700.284729	721.405090	5664.393066	1802.212524	21.865467
700.610596	720.216248	5610.673340	1779.104370	21.652132
700.936340	714.940735	5530.945801	1759.934204	21.698345
701.262146	720.587708	5424.098145	1739.649414	21.665983
701.587830	719.398926	5284.929688	1713.643677	21.777199
701.913513	724.228699	5148.212891	1684.442749	21.704735
702.239075	715.609558	5014.319336	1647.885742	21.687347
702.564697	712.042969	4897.143555	1619.130493	21.674212
702.890137	714.346375	4763.547363	1580.418823	21.388725
703.215698	720.290588	4661.752441	1565.261108	21.437998
703.541016	726.457703	4573.406738	1547.725586	21.348551
703.866455	723.188416	4516.193848	1543.564819	21.628664
704.191711	720.885010	4439.884766	1521.199585	21.519619
704.517029	717.095520	4367.291016	1492.518677	21.243332
704.842163	720.810730	4303.315918	1477.509766	21.122065
705.167419	723.485657	4262.152832	1462.649048	20.888186
705.492493	725.268860	4235.329590	1457.893677	20.872141
705.817566	723.559875	4210.215332	1442.438843	20.618010
706.142578	723.931458	4187.106934	1434.191040	20.508911
706.467590	724.897278	4156.494141	1435.156860	20.697639
706.792480	725.714661	4145.794434	1425.497681	20.461014
707.117371	729.801270	4146.983887	1411.231567	19.941290
707.442200	732.401855	4152.630371	1403.429688	19.619387
707.766907	727.720886	4147.875488	1400.086304	19.658918
708.091675	721.628113	4146.983887	1398.525879	19.761387
708.416321	713.900574	4158.500488	1392.433105	19.698442
708.741028	711.522766	4163.775391	1394.959351	19.796829
709.065552	704.241211	4178.264648	1399.863281	20.023529
709.390137	708.179199	4190.599121	1410.117065	20.156612
709.714600	716.278137	4209.397949	1413.609375	19.962992
710.039063	717.689941	4228.345215	1418.810547	19.971218
710.363403	717.838623	4259.700684	1424.754517	19.958878
710.687744	718.730225	4311.415527	1429.212891	19.775812
711.012085	722.593994	4360.455566	1441.770020	19.769197
711.336304	726.903503	4402.138672	1429.733032	19.123390
711.660461	723.411316	4439.513184	1432.333618	19.077042
711.984619	728.240967	4467.599609	1424.085938	18.608671
712.308716	725.343201	4490.559082	1423.194336	18.534161
712.632751	722.816895	4467.822754	1413.089233	18.431808
712.956726	726.160461	4426.213379	1401.869507	18.262146
713.280701	730.767273	4377.693359	1397.782837	18.289803
713.604553	735.448303	4324.121094	1394.959351	18.377575
713.928467	729.206848	4279.613770	1387.454712	18.540068
714.252258	721.553711	4222.177734	1380.024414	18.810095
714.575989	720.513489	4179.453613	1362.340454	18.555595
714.899719	722.816895	4134.648926	1351.789429	18.435038
715.223267	722.371094	4102.550781	1342.724487	18.352674
715.546936	719.770447	4065.250732	1336.705933	18.440865
715.870422	721.702209	4036.866943	1326.897949	18.255375
716.193970	723.857117	4008.631836	1313.523438	17.951500
716.517395	723.559875	3982.328857	1306.836304	17.898674
716.840820	719.919128	3943.171143	1292.793091	17.773167
717.164124	720.662109	3903.121826	1289.820923	17.884243
717.487488	725.045898	3875.778564	1280.904663	17.642206
717.810730	727.423645	3852.224609	1286.031494	17.876589
718.133972	730.915833	3800.955811	1270.204956	17.566193
718.457092	730.767273	3761.129639	1260.174072	17.470083
718.780212	730.024231	3710.529297	1240.335327	17.121632
719.103210	726.457703	3668.548096	1237.363159	17.365391
719.426208	724.823059	3615.570313	1230.898804	17.506744
719.749207	727.349304	3561.403564	1227.926758	17.662945
720.072083	726.903564	3524.549561	1212.768921	17.366936
720.394958	723.114075	3485.912109	1192.112915	16.975502
720.717773	718.210144	3441.405029	1173.239868	16.709408
721.040527	717.021301	3397.194580	1164.175049	16.683762
721.363281	716.203918	3355.733643	1161.128540	16.856207
721.685913	716.203918	3338.198486	1158.527954	16.869753
722.008545	720.662109	3321.554688	1148.720093	16.458118
722.331055	720.141907	3297.480469	1143.296021	16.418259
722.653503	721.702332	3285.592529	1132.076172	16.005905
722.976013	727.423645	3258.174561	1127.098022	15.792719
723.298401	734.556702	3254.162109	1117.438599	15.196105
723.620789	727.646667	3242.645264	1116.918579	15.478018
723.943115	721.256531	3227.487549	1110.677124	15.538096
724.265381	719.844788	3213.295654	1109.562500	15.629652
724.587585	724.302917	3195.091553	1106.144531	15.454241
724.909790	717.764221	3202.001709	1111.271484	15.840162
725.231873	711.671387	3204.676514	1103.321045	15.709942
725.553894	714.420715	3204.379150	1099.903198	15.481483
725.875916	766.209656	3254.087646	1120.262085	14.231101
726.197937	773.045471	3254.161865	1132.967896	14.506471
726.519775	773.937195	3261.740479	1136.534302	14.574991
726.841675	727.943787	3221.617188	1098.714355	14.868450
727.163513	723.708496	3244.725586	1093.215942	14.657078
727.485291	716.872620	3258.545898	1097.228149	14.964768
727.806946	710.333984	3284.180420	1115.432373	15.739027
728.128662	711.448547	3288.415283	1110.825562	15.497950
728.450256	714.866516	3310.483398	1104.286987	15.003002
728.771790	721.776611	3321.777344	1099.234497	14.517607
729.093323	726.086243	3334.706055	1095.816528	14.173406
729.414795	724.302917	3332.403076	1101.537964	14.463979
729.736145	721.850891	3322.372070	1096.633911	14.411842
730.057495	715.312317	3322.446289	1101.612183	14.817031
730.378845	716.129639	3343.919922	1097.525513	14.513939
730.700134	718.804504	3349.269531	1091.358276	14.163038
731.021301	721.182190	3342.433594	1088.088989	13.997391
731.342468	720.810730	3323.486328	1084.076660	13.957403
731.663574	719.473328	3331.510986	1086.305664	14.043915
731.984680	726.309082	3348.971924	1083.110718	13.604556
732.305664	725.640381	3358.780273	1079.766968	13.448833
732.626648	728.983948	3363.758545	1086.974487	13.587141
732.947571	725.268860	3369.776611	1084.894043	13.598946
733.268433	728.315247	3376.984375	1079.692871	13.266195
733.589233	715.535156	3361.455078	1075.680542	13.611349
733.909973	710.111084	3343.771240	1078.949829	14.004796
734.230713	714.717957	3319.177002	1081.698975	14.090489
734.551331	722.445313	3300.303955	1069.364624	13.457655
734.871948	723.782776	3250.075439	1057.104858	13.194119
735.192505	720.810608	3198.657959	1042.838745	12.996286
735.513062	722.222473	3147.612061	1040.386719	13.118068
735.833435	724.228699	3110.014648	1036.448608	13.086669
736.153931	723.634216	3066.027344	1034.442505	13.268836
736.474304	720.810730	3024.120850	1024.263062	13.174620
736.794617	719.919128	2985.780518	1022.182434	13.339886
737.114807	720.662109	2960.963623	1017.798645	13.263239
737.434998	724.600159	2949.966797	1008.585144	12.761267
737.755188	726.457703	2953.458984	1006.578918	12.578404
738.075256	728.018066	2970.845703	1001.006165	12.171604
738.395325	724.674500	2979.613281	1004.721375	12.419268
738.715271	726.532043	3005.619141	1004.721375	12.206174
739.035278	723.782776	3016.319092	1002.195068	12.144291
739.355164	726.309082	3039.352783	1000.857666	11.869580
739.675049	727.200684	3034.820313	984.065247	11.131148
739.994873	724.005798	3032.888428	991.792725	11.598118
740.314636	724.302917	3025.978516	989.563660	11.524680
740.634277	723.336975	3013.346924	1003.458252	12.232317
740.953979	728.166687	2992.764893	1001.229187	12.057878
741.273499	733.442200	2969.582275	997.662598	11.815914
741.593140	727.572266	2921.731689	985.997070	11.777850
741.912598	728.092346	2874.251953	966.158203	11.092645
742.232117	722.891174	2824.097900	958.579346	11.216801
742.551453	724.823059	2803.070313	958.133545	11.226310
742.870850	722.965515	2773.423828	959.099426	11.516153
743.190063	718.210144	2745.485596	957.019043	11.779796
743.509338	718.284424	2715.021484	937.997559	11.003609
743.828552	717.169861	2685.597656	934.059509	11.018420
744.147705	718.432922	2652.458740	935.322693	11.214419
744.466797	718.878906	2619.616943	941.192627	11.696178
744.785828	713.380432	2597.771729	943.793152	12.227434
745.104858	718.953125	2580.162109	942.678528	12.020434
745.423706	719.993347	2573.326172	934.505310	11.574390
745.742615	726.680603	2559.877441	923.880066	10.757135
746.061401	717.392761	2552.670166	917.118469	10.882590
746.380249	719.473328	2535.654541	912.808899	10.645170
746.698975	717.838623	2533.276855	913.997742	10.805056
747.017639	727.497986	2516.484619	910.208313	10.213063
747.336304	727.275085	2499.023438	909.762451	10.299848
747.654907	732.996338	2491.816162	906.344543	9.855939
747.973389	735.745544	2488.620850	906.121643	9.719808
748.291931	733.590759	2494.490967	916.375488	10.380187
748.610352	729.578369	2500.063721	919.941895	10.752053
748.928711	726.829285	2514.106934	916.152527	10.592828
749.247070	724.674500	2531.642334	919.941956	10.806361
749.565308	727.720886	2523.766357	917.341492	10.557673
749.883545	730.692932	2506.453857	915.929688	10.431401
750.201782	732.104675	2483.939941	908.425049	10.064895
750.519836	731.584534	2478.738770	904.189758	9.879220
750.837952	728.315247	2472.943115	907.310486	10.259794
751.155884	731.733154	2462.169434	896.908020	9.545273
751.473877	725.640320	2438.912598	899.137207	10.126638
751.791809	722.965393	2422.640137	898.914246	10.351912
752.109619	722.965515	2424.274658	903.818298	10.630213
752.427490	725.194519	2428.064453	905.378662	10.581204
752.745300	728.983948	2434.974365	896.685242	9.830142
753.062988	731.287354	2427.544189	900.103210	9.952258
753.380615	727.795166	2417.216064	893.638855	9.816600
753.698303	722.965515	2410.157227	894.158936	10.146649
754.015808	715.832336	2391.433350	883.756592	10.021732
754.333374	715.609436	2387.346680	885.985596	10.191563
754.650757	713.231750	2385.265869	881.304504	10.051992
754.968262	717.244141	2393.364990	885.093933	10.014182
755.285583	720.587708	2394.553711	877.589417	9.379025
755.602905	722.668274	2388.460938	879.372742	9.407201
755.920105	714.420654	2376.646729	874.245789	9.615127
756.237305	708.253479	2360.225830	873.279846	9.989656
756.554443	706.470276	2352.498291	876.326355	10.319148
756.871582	712.934570	2356.585205	874.022949	9.800646
757.188599	729.504150	2368.250732	877.069336	9.004760
757.505615	730.692871	2380.287598	874.171570	8.697815
757.822510	731.361633	2379.247314	874.022949	8.657233
758.139465	715.535156	2389.055420	874.394531	9.492528
758.456238	715.906738	2397.228760	869.267578	9.121444
758.773010	712.117371	2423.457275	868.524597	9.139461
759.089783	718.507324	2435.865967	865.998230	8.588242
759.406433	724.748779	2438.986572	869.118896	8.421825
759.723145	727.052185	2447.977295	868.747375	8.233665
760.039673	730.915833	2458.082764	875.657532	8.380296
760.356201	727.349365	2461.426270	871.273743	8.299769
760.672668	724.748779	2455.927734	864.660706	8.081887
760.989136	718.284424	2455.705078	857.824890	8.031473
761.305481	714.346375	2449.834961	861.094238	8.455709
761.621826	714.717834	2447.754639	867.335632	8.806379
761.938049	722.445374	2456.225098	873.576965	8.716886
762.254333	724.228577	2481.859375	876.103333	8.640879
762.570496	725.120300	2528.967529	880.412903	8.608967
762.886597	724.377258	2602.898682	881.973328	8.389367
763.202637	726.829285	2727.132568	882.939270	7.804316
763.518677	724.154358	2879.750244	890.443848	7.714316
763.834656	719.176086	3021.965576	907.161926	8.163397
764.150574	721.850891	3137.283936	923.285583	8.339485
764.466370	727.423645	3207.648438	926.332031	8.019773
764.782288	730.618652	3238.855469	916.078186	7.394020
765.097961	733.293457	3222.509033	909.762512	7.089344
765.413696	741.689758	3168.045166	907.236267	6.822846
765.729309	742.209961	3071.377686	903.223877	6.912938
766.044861	738.643372	2952.864502	894.902039	7.057049
766.360474	728.389587	2822.686279	878.183838	7.152485
766.675903	729.578430	2700.680908	859.682434	6.600570
766.991394	729.132629	2603.195557	849.428711	6.418999
767.306763	734.110840	2506.825195	843.707336	6.182412
767.622131	724.897400	2432.671143	847.273926	7.165852
767.937378	728.463867	2352.349854	840.437988	6.895442
768.252625	725.566101	2308.214111	839.472168	7.197183
768.567810	732.104675	2265.787109	830.184326	6.395043
768.882996	719.919006	2230.270508	829.292664	7.241602
769.197998	722.222412	2185.317139	817.627136	6.520748
769.513062	724.302917	2145.490967	814.209229	6.326138
769.828064	732.550537	2114.506592	810.494141	5.640093
770.142944	726.680664	2092.810303	816.289734	6.559339
770.457825	721.479492	2071.337158	819.856262	7.287937
770.772705	715.312317	2052.241211	822.902649	8.047573
771.087402	720.141907	2029.058594	819.856262	7.618083
771.402100	725.045898	1997.851563	814.952209	7.063632
771.716736	731.584656	1979.350098	813.094666	6.532479
772.031372	729.727051	1962.260376	815.472351	6.956834
772.345947	728.315247	1963.375000	807.744873	6.431237
772.660461	725.343201	1948.068481	802.840881	6.338110
772.974854	731.510254	1930.161743	799.794495	5.696755
773.289246	733.590759	1905.716187	805.144348	6.104601
773.603638	732.327637	1893.159180	798.902893	5.735135
773.917908	724.674377	1886.323242	795.262024	6.076504
774.232178	717.095520	1877.704102	800.834717	7.215111
774.546265	718.210144	1861.506226	801.800598	7.311356
774.860474	724.600159	1847.388672	806.853210	7.325783
775.174561	732.179016	1831.710571	802.320801	6.379243
775.488586	730.247070	1821.308228	806.704590	7.007629
775.802551	729.355469	1814.472290	809.602356	7.395230
776.116516	724.897400	1807.710938	798.159851	6.765934
776.430359	726.977783	1799.240356	797.045227	6.534542
776.744202	720.885010	1777.543945	785.008301	6.068495
777.057922	723.262695	1773.902954	794.444641	6.775102
777.371704	729.132629	1773.605835	792.884277	6.103714
777.685303	732.179016	1764.169434	797.788269	6.357544
777.998962	732.847717	1747.525757	791.175354	5.748389
778.312500	723.634094	1721.891235	790.803772	6.728695
778.626038	728.761047	1728.281250	790.060852	6.132923
778.939453	723.336975	1724.937866	793.107239	6.965875
779.252869	727.275085	1748.120117	793.478821	6.485189
779.566223	713.306152	1738.460815	794.593262	7.929253
779.879578	715.981018	1747.674194	795.039063	7.662942
780.192749	706.990417	1735.339966	791.249695	8.193642
780.505920	715.237976	1736.974609	790.358093	7.352200
780.819031	717.467102	1717.804565	787.237305	6.974667
781.132141	728.463867	1699.823242	789.169250	6.249529
781.445190	731.138855	1692.096069	782.779236	5.373848
781.758118	730.321472	1681.470581	785.305420	5.780792
782.071045	722.742615	1675.303345	781.367432	6.154444
782.383911	717.838623	1659.328491	781.590332	6.771364
782.696838	711.968689	1657.247925	774.531555	6.618454
783.009583	716.055359	1649.520508	773.788574	6.184828
783.322266	721.850891	1646.696899	778.098145	6.081797
783.634888	724.897400	1633.545410	781.144531	6.190200
783.947510	720.364929	1621.211060	781.070129	6.738687
784.260132	715.089355	1600.629272	773.788574	6.628636
784.572571	718.432922	1601.743774	763.980652	5.156478
784.885010	723.336975	1600.183594	761.157043	4.313191
785.197449	726.011902	1610.511597	768.736023	4.830315
785.509766	718.284424	1599.068848	773.416992	6.259485
785.822083	720.513489	1599.366211	773.119812	5.985795
786.134277	715.683838	1589.929688	769.999084	6.212811
786.446533	727.423645	1581.533569	774.308655	5.489341
786.758606	726.531982	1584.951294	772.674011	5.375232
787.070740	735.522644	1586.140137	773.491394	4.463669
787.382690	734.853943	1592.307251	766.804016	3.726159
787.694641	734.853821	1601.743774	769.701843	4.019890
788.006653	730.692932	1614.598145	769.701904	4.413253
788.318481	733.739319	1649.520508	778.692444	4.908719
788.630310	733.293518	1668.318970	777.429382	4.720285
788.942017	732.699158	1689.272461	767.324219	3.619698
789.253784	727.572266	1691.352905	762.420227	3.615757
789.565430	725.491760	1691.129883	768.810242	4.485995
789.877014	718.284424	1683.699707	779.435547	6.334178
790.188538	711.968750	1675.823608	779.807068	7.038229
790.500061	709.665344	1652.715454	769.850525	6.381970
790.811462	714.049133	1637.186157	764.203552	5.433042
791.122925	717.095520	1612.740601	764.129211	5.251376
791.434204	716.501160	1589.186523	769.479004	6.070670
791.745483	717.467041	1560.282837	773.639954	6.664910
792.056702	709.293762	1540.741211	765.615234	6.773906
792.367920	707.956360	1526.549438	766.061035	7.098114
792.678955	707.362000	1510.500000	761.825867	6.781384
792.990112	717.838623	1504.778809	771.856689	6.864316
793.301086	724.080078	1498.091431	770.221985	5.961399
793.612122	728.092285	1498.537109	768.438721	5.236772
793.922974	732.104675	1485.459961	765.912415	4.487622
794.233826	734.185242	1476.617798	764.649231	4.103267
794.544556	730.841553	1483.082397	763.534729	4.346105
794.855286	723.188416	1489.323730	754.915710	4.141213
795.166016	721.479431	1502.029663	757.219055	4.578773
795.476624	721.553711	1505.521851	761.677246	5.118006
795.787292	726.011902	1507.379272	762.568848	4.678586
796.097778	728.835388	1502.921265	757.887695	3.753112
796.408264	724.080017	1508.865356	757.516174	4.260548
796.718689	719.027405	1520.233765	755.807312	4.590566
797.029053	717.838562	1538.437866	754.246887	4.436797
797.339355	724.377258	1545.199341	750.754700	3.213539
797.649658	733.590820	1543.118774	757.293274	2.927935
797.959839	730.544373	1532.270874	763.088928	4.059309
798.270020	731.436035	1511.465942	756.773193	3.248229
798.580078	732.253235	1497.571289	754.544189	2.912639
798.890137	736.117004	1478.921265	746.742371	1.430440
799.200195	731.138733	1476.320679	752.166504	2.821831
799.510071	721.553711	1467.181641	748.154114	3.567517
799.820007	718.655945	1469.262085	754.989990	4.840627
800.129883	719.101746	1453.286987	756.253113	5.060217
800.439575	725.789001	1461.460327	767.992981	5.736798
800.749329	722.593994	1453.361328	763.980652	5.663452
801.058960	726.383362	1445.485229	763.460449	5.156027
801.368591	716.649719	1428.321289	748.228333	4.437245
801.678162	719.919128	1417.324341	744.216064	3.483905
801.987671	721.182190	1411.380249	741.541077	2.949717
802.297119	726.680603	1406.030273	747.188171	3.018706
802.606506	732.996277	1406.699219	752.537903	2.900630
802.915894	728.835388	1403.504028	751.646301	3.381054
803.225159	721.256531	1397.782715	749.491516	4.173524
803.534424	718.730225	1382.996582	747.782532	4.373593
803.843628	721.627991	1379.504272	747.113953	3.873975
804.152771	727.869446	1379.727173	749.342957	3.294202
804.461792	724.005676	1395.479370	749.863098	3.850847
804.770874	722.073792	1393.027344	746.445129	3.632344
805.079773	723.782898	1390.575562	748.005554	3.632712
805.388733	719.250305	1390.723999	745.330566	3.884033
805.697571	722.445313	1402.686890	747.262451	3.648283
806.006470	717.838562	1409.299805	747.856873	4.341286
806.315125	719.473206	1406.179077	744.661865	3.668042
806.623901	717.615662	1416.284180	742.209900	3.520158
806.932495	717.169861	1427.875366	737.603088	2.875062
807.241150	717.467102	1421.485352	749.268616	4.517143
807.549622	713.974915	1416.655640	755.881592	5.963829
807.858154	718.730225	1398.897339	758.110657	5.789817
808.166565	724.005676	1405.361694	752.463684	4.176672
808.474915	728.315247	1388.866577	747.708313	2.935891
808.783264	724.005676	1386.042969	751.943542	4.219984
809.091492	720.067688	1370.736694	749.045715	4.453574
809.399719	719.770447	1370.067871	754.395508	5.324496
809.707825	729.281250	1355.578735	752.315125	3.677785
810.015930	730.915833	1344.730591	749.565918	3.038390
810.323975	729.727051	1342.427246	747.039551	2.825607
810.632080	725.789001	1339.975220	742.804382	2.770394
810.939880	720.810730	1339.009277	747.039551	4.242783
811.247864	727.572266	1327.640991	748.451355	3.479450
811.555664	724.525879	1315.604004	749.417236	4.211179
811.863464	724.748718	1313.969360	750.680359	4.401007
812.171143	717.615723	1302.675293	746.742371	4.978407
812.478882	724.451477	1307.727905	744.364563	3.414005
812.786438	732.104675	1308.693726	740.055115	1.378875
813.094055	733.962219	1309.659668	739.237793	0.916380
813.401489	731.138855	1300.074585	745.924988	2.598911
813.708984	722.816895	1296.285278	744.513245	3.783356
814.016357	723.039856	1291.678589	750.977600	4.913092
814.323730	718.433105	1296.879761	750.680420	5.574812
814.630981	710.928467	1289.523804	749.565857	6.677792
814.938232	706.990417	1285.362915	741.466797	5.960930
815.245361	703.944031	1275.257690	738.940491	6.125612
815.552490	718.507324	1277.115234	742.878601	4.362859
815.859619	718.581604	1277.115112	748.525635	5.361188
816.166565	722.445313	1284.396851	753.281006	5.487251
816.473572	719.324646	1278.749756	754.246887	6.242523
816.780457	719.398926	1277.040894	754.989990	6.382422
817.087341	722.222412	1274.217407	741.764160	3.540204
817.394043	723.262634	1283.876709	733.813660	1.882048
817.700806	728.463867	1301.486450	728.018066	-0.077798
818.007507	725.714661	1312.706177	734.928223	1.569624
818.314209	725.343201	1322.662720	737.900330	2.102247
818.620667	722.519714	1322.959961	737.231628	2.450188
818.927246	724.005676	1335.739868	739.312012	2.502122
819.233704	725.714661	1350.674927	748.897156	3.709435
819.540161	722.148193	1381.436157	755.807312	5.105374
819.846497	714.049133	1418.290405	757.664795	6.193284
820.152832	706.395996	1472.382813	760.859863	7.110288
820.458984	712.414551	1534.945679	752.315002	4.850935
820.765259	719.993408	1598.251587	754.841309	3.967842
821.071350	722.073914	1686.300171	750.160339	2.912846
821.377502	715.386658	1843.450562	762.791748	4.202341
821.683472	714.346375	2149.652100	770.667786	3.924001
821.989441	724.302917	2670.811279	776.686340	2.691148
822.295349	729.206848	3390.953125	797.119629	2.551437
822.601196	726.531982	4195.577637	810.271179	2.413897
822.907043	720.364807	4861.329590	833.156433	2.723801
823.212769	718.730164	5260.409668	834.122314	2.540737
823.518494	725.937500	5311.455566	827.286438	2.210196
823.824097	722.148132	5085.352539	817.552795	2.186573
824.129700	714.346375	4702.544922	809.230957	2.379134
824.435242	710.185364	4325.532715	810.791260	2.782745
824.740723	714.272156	3991.468018	807.447693	2.843148
825.046082	722.073914	3680.734131	803.435364	2.749942
825.351501	719.844727	3351.572998	792.289978	2.752763
825.656799	718.804504	3037.123779	781.367493	2.698636
825.962036	717.169861	2759.380127	771.187988	2.645082
826.267212	722.816895	2545.388428	764.500732	2.287089
826.572449	720.216309	2433.191162	763.683411	2.537521
826.877502	727.943787	2439.952881	765.169434	2.174384
827.182495	720.439209	2545.759766	766.804138	2.540098
827.487488	728.018066	2683.888428	766.581238	1.971663
827.792419	719.993347	2787.986572	772.153870	2.522277
828.097290	727.275085	2820.531250	773.937195	2.229164
828.402100	726.606262	2763.169678	770.444885	2.152578
828.706848	726.086182	2629.721924	767.027039	2.150666
829.011597	720.216309	2459.940186	770.742188	2.904247
829.316223	715.163757	2284.883057	769.256104	3.445989
829.620789	717.987122	2132.265381	764.054871	3.257333
829.925354	722.668274	1994.805054	756.327393	2.645873
830.229797	722.668274	1872.874390	753.058044	2.642115
830.534302	718.061523	1757.853882	751.274719	3.194214
830.838562	717.615662	1640.604126	740.872375	2.519719
831.142944	714.866394	1533.682495	745.850769	3.784046
831.447144	718.655823	1454.698608	746.147949	3.735126
831.751404	723.114075	1405.138672	747.782532	3.616945
832.055542	729.058350	1376.309204	741.615479	1.940071
832.359619	729.727051	1351.046387	736.042786	1.016504
832.663635	726.977844	1359.516846	740.055176	2.067435
832.967651	725.937683	1400.680664	737.008728	1.640780
833.271545	723.559875	1477.212280	743.175842	2.602787
833.575439	720.216309	1582.796509	743.398743	2.687568
833.879211	717.467041	1702.869751	752.017883	3.506266
834.183044	721.330811	1836.911743	749.788757	2.550953
834.486694	723.559875	1926.372437	756.030090	2.699524
834.790344	728.315247	1960.922974	751.349121	1.868711
835.093933	720.810730	1931.796387	754.692688	2.797883
835.397522	716.649719	1878.818481	750.383118	2.902625
835.700928	712.637390	1804.070190	752.612244	3.662603
836.004395	718.581543	1737.049194	745.181946	2.611806
836.307739	721.627991	1668.616211	739.237793	1.859559
836.611023	722.073914	1614.449585	741.615479	2.189836
836.914307	720.736328	1539.626587	743.918884	2.830972
837.217529	726.903503	1463.689331	745.107727	2.470762
837.520691	729.949890	1395.776733	735.671326	0.859298
837.823730	729.355469	1332.470703	735.076843	0.948637
838.126831	719.101807	1281.721924	736.488586	3.090323
838.429749	716.649719	1232.384888	741.838379	4.884030
838.732727	720.142029	1209.871216	736.340027	3.307542
839.035522	721.479492	1189.437988	733.144958	2.492842
839.338379	719.250305	1181.487671	732.773438	2.925582
839.641113	715.683777	1185.574219	740.352356	5.249857
839.943848	721.850891	1207.345093	739.014832	3.535354
840.246460	725.640381	1238.923462	733.070618	1.447590
840.549072	725.491699	1259.653931	727.572266	0.389501
840.851563	716.426819	1268.570313	734.333801	3.243176
841.154053	713.231750	1260.471313	742.135559	5.281747
841.456482	723.708496	1244.570679	744.587585	4.008563
841.758850	728.686768	1226.217773	739.460754	2.165491
842.061157	731.956116	1207.790649	733.293640	0.281090
842.363403	719.621887	1186.614380	734.928223	3.277641
842.665588	720.364929	1164.026489	737.528809	3.868688
842.967712	721.330811	1145.450806	738.271790	3.994384
843.269775	726.829285	1130.070190	734.408020	1.879456
843.571777	731.435974	1109.191040	731.361633	-0.019680
843.873840	733.070618	1085.191284	726.829285	-1.772498
844.175659	730.692932	1064.683716	725.566101	-1.535022
844.477600	725.343201	1049.228638	723.931396	-0.435896
844.779297	726.532043	1037.860474	728.018066	0.477317
845.081116	728.166687	1025.823364	731.138855	0.998522
845.382751	733.070618	1010.368408	733.070618	0.000000
845.684387	725.789063	1005.018555	727.349365	0.558789
845.985962	719.324707	995.582092	717.615723	-0.618620
846.287537	711.745789	993.501648	719.844727	2.874452
846.588989	714.569275	986.888733	726.086243	4.229212
846.890381	725.789001	986.368652	736.191406	3.992025
847.191711	732.550537	983.842285	733.590820	0.413974
847.493042	726.829285	982.281982	734.482422	2.995912
847.794250	727.349365	975.594727	726.011902	-0.538767
848.095459	727.646545	973.365723	734.036560	2.600536
848.396606	733.813721	961.997314	730.024231	-1.660720
848.697693	728.166687	964.746582	732.922058	2.010049
848.998657	722.668274	960.659973	731.287354	3.621588
849.299622	721.925293	962.666077	730.915833	3.734531
849.600464	717.541321	955.904480	735.894104	7.699505
849.901367	717.987122	957.316223	728.909668	4.563819
850.202087	719.547546	958.876648	734.482422	6.240309
850.502808	723.262695	960.882813	733.293518	4.221369
850.803467	723.782776	964.152039	732.773438	3.740354
851.104065	718.507324	967.049866	732.550476	5.650200
851.404663	723.114075	968.833191	730.692932	3.084358
851.705139	729.727051	960.585510	729.355530	-0.160930
852.005615	733.665039	949.440125	730.618652	-1.411834
852.306030	723.262695	946.022217	731.807434	3.835858
852.606384	718.655945	939.632141	735.002441	7.397401
852.906616	713.751953	935.471191	729.206848	6.970480
853.206909	718.655945	935.396973	723.857117	2.399717
853.506958	714.643555	935.917053	722.222473	3.425136
853.807129	720.810730	940.746765	725.343201	2.060813
854.107178	726.383484	938.740540	726.011902	-0.174980
854.407166	722.073792	946.988098	726.086121	1.783937
854.707092	717.541321	943.867493	721.182129	1.608655
855.007019	710.408264	943.124512	727.200684	7.215835
855.306763	711.151367	945.353577	729.281250	7.741124
855.606567	709.516785	951.149170	727.795166	7.564541
855.906250	717.912903	945.799316	722.965515	2.217163
856.205933	721.107910	937.774658	715.460938	-2.606294
856.505493	730.321472	930.270020	716.947021	-6.688946
856.805054	729.281250	933.985168	717.987122	-5.517300
857.104492	731.881836	932.722107	727.869446	-1.997802
857.403931	730.915833	938.740540	734.853943	1.894919
857.703308	731.064453	938.369080	740.798157	4.695363
858.002563	730.841614	934.802490	734.185242	1.639348
858.301819	727.572266	931.830383	732.179016	2.255357
858.601013	719.621887	930.790222	725.194580	2.638981
858.900208	717.987244	945.353516	734.482422	7.254892
859.199219	717.392761	945.204895	731.807556	6.327492
859.498291	716.352539	946.245117	737.528809	9.211376
859.797302	720.216309	941.192566	724.600098	1.983828
860.096191	723.262695	934.579590	731.361633	3.832603
860.395020	725.491699	933.465088	730.024170	2.179351
860.693787	725.045898	925.440430	740.872375	7.897659
860.992554	721.850891	926.554932	732.996338	5.444664
861.291260	721.702332	916.969910	730.767273	4.642318
861.589844	724.451599	911.768738	723.708496	-0.396709
861.888428	722.073792	912.214539	724.897400	1.485010
862.186890	723.931396	917.044189	721.033630	-1.500556
862.485413	716.501160	920.907898	724.674500	3.998567
862.783813	712.637390	921.279480	729.132629	7.905998
863.082153	706.395996	922.988342	739.237793	15.162953
863.380371	704.166809	918.307312	737.603088	15.614178
863.678589	716.798340	914.443604	730.841553	7.105261
863.976746	725.566101	915.260986	724.005676	-0.822597
864.274902	733.367859	925.068909	727.795166	-2.906971
864.572937	728.984070	930.492981	732.699158	1.843634
864.870911	727.349304	929.155518	736.265625	4.418259
865.168884	732.030457	931.236023	732.624817	0.298365
865.466736	729.281250	931.384521	728.092285	-0.588296
865.764587	730.767273	936.511475	729.132568	-0.794533
866.062317	722.816895	940.375183	725.789001	1.366120
866.360107	727.646545	943.124451	731.138733	1.620671
866.657715	727.200684	938.517761	730.172852	1.406497
866.955322	730.544373	935.322693	735.819824	2.576177
867.252808	725.566101	931.087402	726.011902	0.216912
867.550293	721.628113	933.242188	724.154297	1.193769
867.847717	720.216309	920.239197	723.114075	1.448717
868.145081	717.838623	915.706726	728.092346	5.182100
868.442383	717.912903	918.753113	725.045959	3.551608
868.739624	714.272034	922.914124	725.491699	5.377470
869.036804	721.330872	934.505371	722.296692	0.453066
869.333984	724.823059	929.898621	720.885010	-1.920292
869.631042	731.510254	931.236023	717.987244	-6.770789
869.928101	733.442139	921.873840	722.891174	-5.599357
870.224976	725.194519	927.149231	731.733215	3.237704
870.521851	723.262695	933.093567	734.928223	5.559491
870.818726	714.940735	940.598145	734.036621	8.462336
871.115479	720.513489	929.898621	731.287354	5.145477
871.412231	715.163757	931.904785	731.064453	7.336265
871.708862	716.649719	931.830383	735.968445	8.977910
872.005493	715.015076	938.443359	732.624817	7.881608
872.302063	717.987122	936.437195	739.014832	9.625865
872.598572	721.850891	937.625977	736.340027	6.714925
872.895020	725.640320	940.598145	735.596985	4.631916
873.191406	725.491760	944.090393	729.355469	1.767490
873.487671	719.250305	950.108948	727.646484	3.636935
873.783997	718.135925	961.625793	730.692932	5.157096
874.080200	719.696228	960.585632	718.878723	-0.339369
874.376343	725.045959	960.659912	712.637390	-5.266483
874.672424	718.655945	950.257507	708.773621	-4.266951
874.968445	718.135803	940.598145	719.473206	0.601181
875.264465	709.591003	931.087402	724.823059	6.876886
875.560364	709.516785	933.242188	725.343201	7.074036
875.856201	717.244141	943.050110	728.092468	4.804270
876.152039	728.538147	950.480469	729.727051	0.535681
876.447754	731.435974	947.285400	735.671204	1.962122
876.743469	725.194519	949.885925	731.733154	2.910051
877.039063	715.460938	943.124451	734.630920	8.420314
877.334595	720.959290	944.981995	730.618652	4.311779
877.630127	714.049133	943.347351	725.045898	4.795835
877.925537	718.210144	956.350342	721.627991	1.435225
878.221008	708.922302	962.740295	722.593933	5.386392
878.516296	709.293762	968.238708	731.658875	8.637014
878.811646	709.591003	972.473938	730.321472	7.885818
879.106812	716.724060	987.185974	729.949890	4.890090
879.401978	722.148132	1004.870056	724.822998	0.946112
879.697083	725.640381	1016.461243	718.210144	-2.554919
879.992126	724.451477	1036.374390	716.946960	-2.405888
880.287109	728.018066	1075.680542	716.575439	-3.291303
880.582031	733.367859	1147.085449	726.383362	-1.688228
880.876892	734.333740	1265.895508	720.959290	-2.516067
881.171753	736.265625	1462.426147	725.566101	-1.473438
881.466492	731.138855	1772.193970	721.033630	-0.970671
881.761230	730.692932	2149.874756	732.476257	0.125659
882.055786	728.240906	2521.834229	732.550598	0.240283
882.350403	720.141907	2771.268555	738.420471	0.891147
882.644958	720.513428	2876.406982	737.008728	0.765126
882.939453	713.528992	2836.060547	740.055115	1.249740
883.233826	717.615662	2727.801514	736.562805	0.942557
883.528137	709.665222	2578.601563	737.008606	1.463045
883.822449	708.476379	2450.652344	737.677429	1.676125
884.116577	709.293762	2329.761963	741.615417	1.994587
884.410828	714.569336	2210.654785	738.420471	1.594236
884.704956	720.513489	2058.854248	733.516418	0.971571
884.999023	723.262695	1881.567871	732.624817	0.808260
885.292969	721.925293	1695.959595	727.795166	0.602635
885.586914	721.182312	1534.871460	727.423645	0.767041
885.880798	724.451599	1404.321411	727.275085	0.415298
886.174622	728.018066	1314.638062	731.064453	0.519312
886.468384	726.086182	1255.270142	732.179016	1.151364
886.762085	717.615723	1217.450073	733.590820	3.196078
887.055664	716.352539	1175.617676	737.900330	4.691798
887.349304	716.946960	1134.082397	742.507080	6.127535
887.642822	713.974792	1091.655640	739.163513	6.669314
887.936340	710.705505	1072.336914	737.528809	7.417305
888.229736	708.625000	1062.900513	732.996399	6.879222
888.523071	712.488770	1054.801392	729.578430	4.992413
888.816284	718.210022	1041.501221	727.795105	2.964845
889.109619	728.018066	1020.473572	733.813660	1.981701
889.402710	729.727051	1007.322021	735.522644	2.087788
889.695862	734.185242	993.501709	737.008728	1.088819
889.988892	727.498047	978.195374	725.491882	-0.800234
890.281921	723.114136	961.403015	715.758179	-3.086991
>>>>>End Processed Spectral Data<<<<<
