Jaz Data File
++++++++++++++++++++++++++++++++++++
Date: Fri Jun 04 16:59:54 2021
User: jaz
Dark Spectrum Present: Yes
Reference Spectrum Present: Yes
Processed Spectrum Present: Yes
Spectrometers: JAZA3586
Integration Time (usec): 27600 (JAZA3586)
Spectra Averaged: 10 (JAZA3586)
Boxcar Smoothing: 1 (JAZA3586)
Correct for Electrical Dark: No (JAZA3586)
Strobe/Lamp Enabled: Yes (JAZA3586)
Correct for Detector Non-linearity: No (JAZA3586)
Correct for Stray Light: No (JAZA3586)
Number of Pixels in Processed Spectrum: 2048
>>>>>Begin Processed Spectral Data<<<<<
W	D	R	S	P
191.335022	0.000000	0.000000	0.000000	0.000000
191.713211	231.675903	230.932861	230.115540	209.996719
192.091385	465.135040	462.162933	465.358002	-7.501797
192.469528	702.606506	697.033875	707.138977	-81.334473
192.847641	708.922302	696.959473	715.832458	-57.763561
193.225739	719.473328	706.618896	719.324646	1.156657
193.603790	726.086243	718.135742	721.702332	55.140064
193.981842	730.692932	724.451477	727.572266	49.999023
194.359863	736.488586	730.990173	740.054993	-64.862465
194.737854	735.596924	736.191406	741.541199	999.907593
195.115829	734.110840	743.101563	741.541199	82.644737
195.493774	730.470032	743.250061	735.671204	40.697651
195.871704	732.104736	739.312073	736.117004	55.669220
196.249603	736.488586	745.999329	737.157410	7.032293
196.627457	737.008606	745.330627	744.364685	88.392937
197.005310	737.603088	743.695984	739.832214	36.585659
197.383133	737.454529	740.872375	743.175842	167.395264
197.760910	741.020996	746.965271	742.729980	28.750090
198.138687	738.420410	749.194336	751.423401	120.689438
198.516449	738.569031	749.268616	749.417236	101.389030
198.894180	729.801270	742.804382	746.222229	126.284836
199.271866	731.956116	741.318298	743.175781	119.840279
199.649536	734.185120	735.374023	738.643372	374.988464
200.027191	735.076843	741.466858	733.888000	-18.604696
200.404816	735.522644	741.243958	727.943665	-132.469223
200.782410	738.048889	759.299500	733.813660	-19.929920
201.159988	738.940613	763.980652	738.494812	-1.780352
201.537537	732.773438	768.587402	740.723816	22.199102
201.915070	718.358704	755.435791	739.757874	57.715347
202.292557	719.101746	752.017883	733.516418	43.792114
202.670029	722.965515	753.949768	735.225403	39.568123
203.047485	724.674377	760.859924	731.807434	19.712446
203.424911	728.538147	759.002258	729.058289	1.707391
203.802292	722.222473	764.203552	723.411316	2.831854
204.179688	722.816895	765.838196	723.708496	2.072465
204.557037	718.655945	772.822571	724.228577	10.287944
204.934357	727.646545	768.438782	724.748718	-7.103869
205.311661	726.532043	775.646179	721.479431	-10.287491
205.688934	725.863281	769.181824	729.801270	9.090768
206.066177	720.439209	765.763855	728.761047	18.360516
206.443390	720.885010	763.832031	733.516418	29.411606
206.820587	713.157532	765.392334	727.274963	27.026869
207.197769	708.550781	775.646057	730.692932	33.001057
207.574921	709.888184	768.884521	727.275085	29.471155
207.952042	709.962463	768.141602	727.200745	29.629662
208.329147	711.374207	761.528625	728.315247	33.777763
208.706223	725.417480	769.850403	743.695984	41.137299
209.083267	732.847717	768.290100	738.049011	14.675350
209.460297	737.825989	768.513123	741.169678	10.896062
209.837280	722.816895	754.618469	729.504089	21.027874
210.214264	714.866516	756.104492	737.157288	54.053989
210.591217	711.671570	758.259277	732.996338	45.773380
210.968124	709.368103	758.630798	733.293640	48.567253
211.345016	717.541443	761.677246	728.241028	24.242416
211.721893	717.689941	762.940369	721.256531	7.881891
212.098724	722.742615	763.906250	713.900574	-21.480225
212.475555	729.206970	753.726807	721.330811	-32.121582
212.852356	729.949890	747.931213	723.262695	-37.189671
213.229126	728.463867	746.890930	727.720886	-4.032010
213.605865	714.272034	757.218994	731.733215	40.657551
213.982590	717.987244	760.191101	733.293640	36.267765
214.359283	719.027527	765.318054	733.813721	31.942160
214.735931	725.714661	756.624695	723.485596	-7.211461
215.112579	720.662109	753.503906	725.194580	13.800921
215.489197	722.148132	752.760925	728.686768	21.359159
215.865799	721.330811	760.191223	730.247070	22.944326
216.242355	714.420654	762.271667	733.739441	40.372784
216.618896	715.981018	764.352051	725.417480	19.508499
216.995407	709.665283	762.643127	727.572266	33.800888
217.371902	711.374268	757.590515	729.875671	40.032249
217.748367	712.414490	760.191101	739.237793	56.143169
218.124802	714.197754	759.002258	738.197510	53.565498
218.501236	715.683777	761.900146	731.733215	34.726742
218.877609	709.293762	758.333496	725.789001	33.636478
219.253983	706.247314	759.745300	717.169922	20.416857
219.630295	702.532227	761.379883	716.055359	22.979900
220.006592	704.538391	761.157043	715.981018	20.209995
220.382889	706.173096	757.739075	719.027405	24.927887
220.759140	712.340149	759.596680	721.405090	19.182409
221.135391	711.374207	757.441956	716.352539	10.806546
221.511581	714.717834	759.968262	719.844727	11.330041
221.887772	713.231750	760.785583	726.680603	28.281322
222.263931	711.894348	765.763855	724.748718	23.862053
222.640060	710.779785	770.519226	722.222412	19.154224
223.016159	712.340149	770.147705	719.101746	11.696735
223.392212	712.711670	773.565613	726.754883	23.076916
223.768265	714.123474	776.017578	733.145020	30.732403
224.144302	718.953125	781.293152	724.600159	9.058439
224.520294	716.649719	776.389160	722.371094	9.577214
224.896286	716.501160	765.020813	715.089417	-2.909631
225.272217	714.346375	756.104492	728.983948	35.053242
225.648148	718.581543	755.510071	730.395752	31.992092
226.024048	713.306091	753.875427	742.209900	71.245453
226.399902	713.529053	756.550293	740.500977	62.694435
226.775772	708.996582	757.070496	738.494690	61.359905
227.151581	711.597168	762.494568	731.064453	38.248093
227.527374	708.625000	758.630798	721.925293	26.597502
227.903137	712.191589	750.531738	724.674500	32.558323
228.278870	722.371094	753.206726	727.943848	18.072449
228.654572	722.222473	754.544128	725.566101	10.344853
229.030273	721.776611	763.683350	723.039795	3.014273
229.405930	715.535156	769.701904	727.126465	21.399307
229.781555	711.002747	774.680176	729.875671	29.638327
230.157181	709.293762	773.119812	734.482422	39.464542
230.532761	703.869629	770.816406	724.154297	30.299692
230.908325	712.563171	775.646179	721.925232	14.840859
231.283859	713.380432	775.274597	719.993347	10.684230
231.659332	713.826233	770.370605	728.909668	26.675396
232.034821	711.597168	771.782410	736.042786	40.617294
232.410263	711.820068	775.348816	739.312012	43.274807
232.785690	711.522888	779.361145	732.030457	30.230093
233.161087	715.832458	769.256042	724.080017	15.438048
233.536469	718.358704	764.797852	713.900574	-9.599939
233.911804	726.977783	756.327393	711.894348	-51.392284
234.287140	722.891113	756.847473	718.284424	-13.566500
234.662430	717.838623	762.123047	729.281250	25.838943
235.037704	715.386536	767.695740	738.048889	43.323837
235.412933	709.962463	775.868958	736.191406	39.797207
235.788162	705.652893	774.828674	737.380188	45.864742
236.163345	713.751953	778.841064	738.494812	38.013821
236.538513	718.730164	776.983582	734.333801	26.785789
236.913635	729.801270	774.903076	727.795105	-4.448080
237.288742	723.262695	766.506836	719.696106	-8.247567
237.663834	720.662109	760.636963	725.937683	13.197231
238.038879	717.169861	758.333557	725.640442	20.577795
238.413910	707.436218	760.488342	723.411316	30.112080
238.788910	710.779785	764.054871	720.513489	18.270649
239.163879	711.374268	771.559509	721.925293	17.530918
239.538834	715.758118	775.497498	726.977783	18.781021
239.913757	718.730286	776.983582	728.240967	16.326426
240.288651	724.525879	770.296326	726.754883	4.869963
240.663528	716.575439	771.485168	726.457703	17.997290
241.038361	707.213318	772.005310	734.779541	42.545727
241.413177	701.343323	779.509827	734.036621	41.825203
241.787979	709.888184	783.447937	730.841553	28.484827
242.162735	714.197754	788.203308	721.182190	9.437718
242.537476	716.426819	789.912292	721.553711	6.976742
242.912170	720.067688	788.723389	724.302917	6.168795
243.286865	716.278320	781.813293	723.782776	11.451070
243.661514	708.625183	786.642883	721.182129	16.094995
244.036148	708.847961	787.608826	727.349304	23.490528
244.410751	717.021301	791.992676	732.773438	21.010868
244.785339	724.080017	789.837952	733.888000	14.915285
245.159882	722.445313	787.014465	723.782776	2.071366
245.534378	713.380371	785.156921	723.039795	13.457632
245.908890	708.104919	788.128967	727.349304	24.048252
246.283356	706.544495	793.850281	733.070618	30.383007
246.657791	709.516663	809.973938	731.213074	21.597651
247.032196	707.956299	816.289734	729.206848	19.615873
247.406586	709.368103	823.794250	732.401917	20.129852
247.780960	714.494934	820.747864	731.733215	16.223818
248.155289	716.352539	815.992493	737.528809	21.252789
248.529602	716.798340	819.707581	732.996399	15.740141
248.903870	715.535156	817.998718	739.312073	23.205240
249.278122	722.816895	812.871765	732.104736	10.313537
249.652344	721.256531	806.110291	737.380188	19.001701
250.026550	722.593994	799.423035	729.652771	9.187641
250.400711	720.439209	801.280579	731.733215	13.970577
250.774857	723.336914	803.732605	725.714661	2.957555
251.148987	726.383362	804.475586	729.206848	3.615579
251.523071	721.405090	809.156555	736.414246	17.104164
251.897125	712.488831	808.785095	734.482422	22.839506
252.271164	703.944031	813.763428	724.674500	18.876873
252.645187	706.544617	813.466125	720.290588	12.856133
253.019165	712.340149	814.357849	719.621887	7.137721
253.393112	720.513489	812.500244	725.789001	5.735078
253.767044	725.491699	808.413574	723.931396	-1.881654
254.140930	728.909668	803.138123	730.321472	1.901972
254.514801	723.039795	804.772766	727.497986	5.454581
254.888657	715.832336	808.339355	724.228577	9.076327
255.262466	713.454773	814.506348	723.634216	10.073513
255.636276	716.724121	815.918152	729.801270	13.183403
256.010010	724.302917	809.156555	732.327637	9.457130
256.383759	720.662109	806.927551	731.881836	13.006050
256.757446	715.163757	814.803528	729.132629	14.019374
257.131134	704.984192	827.880859	729.949951	20.314432
257.504791	706.916077	843.335876	726.086182	14.052289
257.878418	710.408386	848.091309	730.990234	14.948730
258.252014	716.203918	855.595886	728.538269	8.848681
258.625580	716.129639	856.858948	724.971680	6.283013
258.999115	718.284363	865.626709	719.919006	1.109419
259.372650	716.575439	880.784485	720.290527	2.262414
259.746124	715.980957	905.527283	723.708496	4.076860
260.119598	715.312317	932.647705	723.411316	3.726498
260.493042	711.597168	952.486572	729.355530	7.371998
260.866425	711.894348	954.715637	728.166687	6.701364
261.239838	709.665283	939.483582	731.807556	9.634686
261.613159	713.529053	913.997742	730.693054	8.561936
261.986511	715.832458	896.462402	734.333801	10.242678
262.359802	722.371094	892.301453	735.076843	7.477033
262.733063	729.652771	893.415833	730.990173	0.816669
263.106293	728.389587	898.245544	729.875671	0.874908
263.479523	721.925232	898.171204	728.909668	3.962891
263.852692	713.751953	892.970032	727.646545	7.752897
264.225861	712.265869	893.044373	726.754883	8.014788
264.598969	713.380371	885.836914	724.823059	6.635114
264.972076	707.361877	894.084656	726.754883	10.385988
265.345154	707.882019	894.307556	728.909668	11.279383
265.718201	708.030701	913.774841	739.683594	15.384590
266.091217	721.330872	928.115234	739.386414	8.731580
266.464203	724.748718	931.830383	739.312012	7.032633
266.837158	714.717834	940.969666	725.937500	4.958928
267.210114	705.727234	945.725037	728.018066	9.287931
267.583038	707.882019	957.464844	729.578430	8.693070
267.955902	713.974854	956.276062	729.652771	6.470425
268.328766	717.838562	955.087158	726.754944	3.758244
268.701569	715.758118	956.053040	724.080078	3.463228
269.074371	716.724121	966.826965	723.039856	2.525255
269.447144	712.340271	976.040527	724.600159	4.649176
269.819885	711.151367	987.037354	727.423645	5.898190
270.192596	717.318542	984.436707	731.287354	5.229450
270.565277	725.640381	1002.120789	728.909668	1.182466
270.937927	725.566101	1022.851257	726.234863	0.224956
271.310577	725.863281	1061.562866	737.677429	3.519262
271.683136	724.823059	1084.596802	746.890930	6.133819
272.055725	723.634216	1113.129028	748.748535	6.447921
272.428284	719.919128	1118.478882	739.609314	4.940335
272.800812	715.238037	1121.822388	739.312012	5.921028
273.173279	717.467041	1109.339600	746.445129	7.394773
273.545776	714.643555	1103.469727	746.147949	8.102437
273.918152	713.900574	1106.144653	741.392578	7.008903
274.290558	710.036804	1103.321167	727.943787	4.553190
274.662964	708.253601	1100.423340	726.606262	4.679775
275.035278	713.677551	1092.844360	719.547546	1.548130
275.407593	717.169861	1091.135376	723.188416	1.609388
275.779907	725.937683	1101.463501	723.039795	-0.771688
276.152161	716.352539	1123.160034	727.572266	2.757994
276.524384	719.398926	1140.323853	731.361755	2.842034
276.896606	709.962463	1145.153564	734.185242	5.566010
277.268799	709.442383	1140.323853	734.854004	5.897590
277.640930	699.485840	1151.840820	735.002502	7.851502
278.013031	704.835632	1169.822144	729.801331	5.369123
278.385162	714.049133	1173.908691	728.686768	3.183066
278.757233	719.398926	1173.537231	720.736389	0.294506
279.129272	717.912903	1160.757080	721.479309	0.805341
279.501282	718.655945	1167.221436	717.838562	-0.182222
279.873230	716.426941	1178.664063	718.358704	0.417916
280.245178	721.925232	1208.756714	721.256531	-0.137358
280.617126	723.485596	1248.954468	729.058289	1.060518
280.988983	728.686707	1277.040894	740.352295	2.127382
281.360870	724.377197	1302.675293	742.135559	3.070797
281.732697	721.033630	1322.142578	735.299744	2.373299
282.104492	719.101746	1353.795532	734.110840	2.364777
282.476288	721.925293	1385.894531	733.962219	1.812874
282.848053	714.346375	1404.692993	736.934387	3.271981
283.219757	708.699280	1406.476196	732.253235	3.375571
283.591461	704.909912	1393.993530	737.082947	4.668960
283.963135	704.612732	1379.355835	737.380188	4.856286
284.334747	709.145203	1378.018188	740.129395	4.632298
284.706360	713.826233	1400.012085	726.011902	1.775855
285.077942	719.919128	1433.299438	727.646545	1.083211
285.449524	717.912903	1463.614868	725.417480	1.006378
285.821014	714.197754	1495.044922	729.504150	1.960230
286.192535	717.838562	1520.679565	732.476257	1.823237
286.563995	724.674377	1544.902222	728.538147	0.471061
286.935425	721.479431	1556.196289	721.999512	0.062306
287.306824	718.358704	1554.190063	718.507324	0.017781
287.678223	706.321594	1541.707153	720.662109	1.716634
288.049561	711.820007	1511.763184	736.117004	3.037340
288.420898	706.990417	1496.085327	738.420410	3.983043
288.792145	710.259766	1495.788086	747.336731	4.720004
289.163452	706.470276	1516.146973	744.959045	4.753597
289.534668	701.120422	1539.923828	746.816711	5.447795
289.905914	700.154541	1577.075195	741.021057	4.660230
290.277039	704.389832	1608.876831	735.968506	3.491335
290.648193	711.522888	1661.334473	734.408203	2.409458
291.019318	712.117371	1696.999878	733.962341	2.218028
291.390381	707.733398	1720.776733	739.683594	3.153883
291.761475	707.807800	1721.965454	738.197510	2.996547
292.132507	715.832458	1703.241211	733.665039	1.805998
292.503510	715.163757	1691.650024	732.773438	1.803372
292.874481	718.581604	1676.789551	729.206848	1.108866
293.245422	715.980957	1681.470581	731.361633	1.593044
293.616364	717.838562	1705.321777	728.538147	1.083521
293.987213	715.683838	1730.064453	732.773438	1.684732
294.358093	716.426819	1782.373657	728.389587	1.122267
294.728943	719.398926	1828.292603	729.652771	0.924691
295.099731	718.433105	1893.084595	737.677429	1.638301
295.470490	718.210144	1923.697388	740.575195	1.855271
295.841248	715.089417	1941.084351	739.014832	1.951510
296.211975	723.411316	1958.248169	732.253357	0.716049
296.582642	721.850891	2006.619141	737.603027	1.226068
296.953308	721.182190	2068.736328	737.825989	1.235112
297.323883	717.095520	2116.735840	734.853943	1.268785
297.694519	720.364929	2153.070068	728.463867	0.565290
298.065063	720.364807	2162.655029	729.949890	0.664574
298.435608	715.089355	2129.218750	732.699158	1.245275
298.806122	711.448547	2063.683838	733.962219	1.664923
299.176575	708.996582	1999.114624	732.773438	1.842999
299.547028	711.299988	1973.926147	733.590759	1.765429
299.917450	703.052429	1956.464966	736.637207	2.679467
300.287872	707.138977	1948.663208	737.825989	2.471721
300.658234	705.058533	1937.146118	739.089172	2.762031
301.028564	715.981018	1937.369141	737.157227	1.733782
301.398865	717.318542	1933.133789	730.692871	1.100030
301.769135	722.296814	1931.350586	726.086182	0.313416
302.139374	712.042969	1930.979004	733.665039	1.773848
302.509583	708.773682	1938.929321	740.575195	2.585162
302.879791	712.711731	1950.966431	738.569092	2.088210
303.249939	721.182129	1948.365845	731.064453	0.805285
303.620087	721.256531	1927.932617	728.315247	0.584972
303.990173	720.067688	1900.366333	726.977783	0.585453
304.360260	724.600098	1900.589478	728.166687	0.303284
304.730286	729.875671	1913.146484	729.504150	-0.031398
305.100281	726.011902	1927.115356	733.590820	0.630996
305.470276	718.061523	1943.164673	731.658875	1.109894
305.840179	714.940735	1954.681641	733.888000	1.528325
306.210144	709.962463	1970.731079	729.132568	1.520509
306.579987	713.231750	1967.833374	729.058350	1.261484
306.949890	715.014954	1986.706055	727.795166	1.004978
307.319702	717.987122	2001.046509	734.631042	1.297206
307.689484	720.216309	2022.148560	737.974609	1.363996
308.059265	716.501160	2041.467163	734.705322	1.373934
308.429016	718.135803	2088.054932	726.680664	0.623749
308.798737	709.293762	2157.008057	731.658875	1.544857
309.168396	712.934570	2223.285889	739.386414	1.751370
309.538055	712.191589	2268.684814	745.181946	2.119531
309.907684	713.974854	2287.186523	741.763977	1.766394
310.277313	709.813904	2311.929199	732.030334	1.386694
310.646851	709.813904	2325.155029	729.058289	1.191351
311.016388	711.522949	2345.588379	721.925110	0.636582
311.385895	709.962585	2345.291016	721.627991	0.713337
311.755371	710.928467	2363.866699	724.674500	0.831612
312.124817	718.433044	2368.473633	725.640381	0.436798
312.494232	724.748779	2365.575928	735.002502	0.624912
312.863617	731.807434	2342.987549	731.807434	0.000000
313.232971	722.742615	2318.988037	734.259460	0.721496
313.602295	718.358704	2306.728271	729.132629	0.678301
313.971619	710.408386	2315.198486	732.179016	1.356603
314.340820	704.687012	2328.424561	730.544373	1.592459
314.710083	700.674622	2368.622070	727.720886	1.621530
315.079285	700.154541	2396.782959	727.126465	1.589737
315.448486	709.591003	2439.878662	736.265625	1.541629
315.817596	715.758118	2431.556641	745.627747	1.740859
316.186707	714.197754	2400.052002	750.011719	2.124381
316.555786	713.454773	2338.826660	747.411133	2.089144
316.924866	714.792175	2298.331543	743.770264	1.829957
317.293884	719.993347	2280.499023	739.386414	1.242743
317.662872	726.457703	2275.818115	738.643372	0.786497
318.031830	718.953125	2280.127686	736.934387	1.151778
318.400757	714.420654	2289.638428	734.333801	1.264152
318.769684	716.055237	2320.697021	725.491760	0.588077
319.138550	718.878845	2346.925781	723.782898	0.301223
319.507416	720.736389	2373.749023	730.767273	0.606824
319.876190	704.092590	2387.718018	741.095398	2.197805
320.244995	711.151367	2386.603516	748.005554	2.199656
320.613770	711.671448	2369.736816	745.924988	2.065874
320.982483	717.169922	2345.217041	737.825989	1.268763
321.351166	716.649719	2329.167236	727.943787	0.700400
321.719818	715.981018	2307.991211	725.640381	0.606740
322.088440	723.114075	2302.641357	733.516418	0.658573
322.457062	720.290527	2319.953857	744.290344	1.500304
322.825623	725.789001	2360.597412	746.222168	1.249882
323.194183	714.643555	2414.169678	738.271790	1.390284
323.562653	710.556885	2467.964844	737.751770	1.547443
323.931183	706.247375	2534.020020	735.299805	1.589499
324.299591	710.779785	2597.697510	742.284180	1.669622
324.668060	713.751953	2668.656494	733.665039	1.018622
325.036407	713.900574	2710.860352	733.739441	0.993454
325.404755	718.953125	2740.655518	726.829163	0.389575
325.773102	711.002747	2740.804688	732.030457	1.035949
326.141388	714.643555	2751.652588	743.398743	1.411638
326.509674	708.922180	2759.825928	745.256348	1.771617
326.877899	716.798340	2783.379883	745.999329	1.413009
327.246124	713.231873	2803.144531	733.367859	0.963485
327.614288	717.764221	2813.546875	734.036560	0.776433
327.982422	714.792175	2804.853516	732.922058	0.867433
328.350525	711.671448	2777.807373	732.996338	1.032115
328.718628	714.346375	2754.773438	733.813660	0.954079
329.086700	716.501160	2745.039795	734.779602	0.901065
329.454712	718.581604	2759.900391	738.569031	0.979143
329.822693	716.946960	2773.794922	741.764099	1.206562
330.190674	715.683777	2791.255859	742.135498	1.274430
330.558563	718.953125	2813.695557	743.472961	1.170542
330.926483	710.779785	2832.345459	741.615479	1.453440
331.294312	709.962463	2850.698242	740.575195	1.430010
331.662231	711.745789	2889.707031	736.042725	1.115582
332.029999	714.346375	2938.227295	735.374023	0.945538
332.397766	713.751953	2991.055908	732.922058	0.841789
332.765503	705.504395	3045.594482	735.151123	1.266905
333.133240	712.191589	3118.262451	730.767273	0.772034
333.500916	714.940735	3177.407227	732.401855	0.709091
333.868561	711.968689	3210.843506	731.881836	0.796885
334.236176	707.362000	3217.531006	742.432800	1.397149
334.603790	703.349609	3230.831055	739.237793	1.419919
334.971344	704.389832	3230.979492	742.507141	1.508647
335.338867	708.402161	3231.425049	737.528809	1.154435
335.706360	707.287598	3223.475342	740.500977	1.319988
336.073853	715.015137	3232.837158	741.987000	1.071238
336.441284	709.368103	3249.629639	741.392578	1.260676
336.808655	718.878906	3247.326172	736.117004	0.681766
337.176086	711.522949	3206.236572	727.200745	0.628441
337.543396	710.854187	3109.791992	729.058289	0.758840
337.910706	701.863586	3055.550781	736.265625	1.461623
338.277954	705.430115	3062.535156	742.358398	1.566680
338.645264	702.680847	3160.391846	743.324402	1.653716
339.012421	708.402161	3284.328857	746.667969	1.485516
339.379669	716.575439	3395.336914	748.451355	1.189950
339.746796	727.497986	3500.178467	746.370789	0.680670
340.113953	722.742615	3577.007080	740.203796	0.611758
340.481018	713.603333	3622.778076	734.259521	0.710036
340.848114	709.665283	3631.545654	739.906494	1.034991
341.215118	716.575439	3628.870361	740.575195	0.824084
341.582153	720.736389	3648.857666	750.977539	1.032783
341.949066	714.569336	3666.839111	739.906494	0.858226
342.316010	709.813965	3678.133057	742.952881	1.116420
342.682922	706.098816	3690.541992	738.791992	1.095453
343.049835	713.380371	3716.101807	747.708252	1.143226
343.416656	719.324646	3764.027344	747.633972	0.929790
343.783478	717.169922	3840.856201	744.141663	0.863459
344.150269	721.702393	3966.427734	741.912659	0.622865
344.516998	716.649719	4108.420410	734.928223	0.538907
344.883728	716.501160	4215.639160	737.826111	0.609434
345.250427	711.002747	4297.743652	744.067566	0.921862
345.617065	713.751953	4323.006348	755.658691	1.161091
345.983704	726.011902	4337.421387	743.324402	0.479383
346.350281	728.241028	4294.919922	740.426575	0.341650
346.716827	720.364929	4270.028809	734.185242	0.389341
347.083405	708.550781	4232.580078	750.011719	1.176521
347.449860	709.591003	4188.815918	741.763977	0.924717
347.816376	708.327820	4116.222168	738.271790	0.878665
348.182770	712.191589	4070.154297	723.114075	0.325271
348.549194	709.219482	4048.458252	727.497864	0.547382
348.915558	719.473328	4059.975342	729.504089	0.300277
349.281921	715.981018	4093.931396	744.513245	0.844661
349.648193	707.807800	4144.754395	741.615417	0.983653
350.014526	706.247375	4203.230957	730.395691	0.690547
350.380737	705.132813	4245.286133	724.228699	0.539408
350.746948	716.278259	4303.762207	725.491760	0.256823
351.113159	713.157532	4345.669434	735.002625	0.601377
351.479309	718.581604	4385.123535	737.603210	0.518789
351.845428	718.507324	4402.882324	739.832214	0.578793
352.211517	721.033630	4457.048828	739.906494	0.505160
352.577576	721.850891	4502.076172	746.742371	0.658466
352.943604	716.426819	4578.311035	746.296570	0.773450
353.309601	718.730286	4638.124512	747.039551	0.722287
353.675537	709.516785	4739.473145	736.488586	0.669283
354.041473	713.529053	4838.444824	735.299744	0.527785
354.407379	706.618958	4956.734375	742.061279	0.833914
354.773254	713.083252	5063.284180	747.039551	0.780568
355.139038	709.591003	5158.392090	750.383240	0.916926
355.504913	710.408386	5261.746582	747.634033	0.817905
355.870636	714.866455	5360.346680	743.844543	0.623791
356.236389	719.398926	5483.615234	739.906494	0.430450
356.602081	718.953125	5630.140137	741.243958	0.453879
356.967804	713.974792	5789.742188	740.723877	0.526996
357.333405	711.299866	5949.418457	735.522644	0.462433
357.699036	714.866455	6108.575684	729.801270	0.276893
358.064606	719.621826	6292.475098	738.940430	0.346656
358.430176	724.971680	6430.603516	747.039490	0.386772
358.795654	726.160461	6493.611816	751.794922	0.444468
359.161163	719.176025	6458.169434	744.736145	0.445376
359.526581	711.968750	6423.618652	740.278015	0.495641
359.892029	706.247314	6435.582031	737.751770	0.549880
360.257416	709.516663	6559.072754	733.813660	0.415365
360.622772	707.956299	6777.671875	741.318176	0.549645
360.988098	710.854187	7065.966309	742.209961	0.493394
361.353394	706.916016	7387.176270	750.011719	0.645120
361.718658	713.157532	7691.966309	755.658691	0.609003
362.083893	714.792175	7941.103027	756.030212	0.570665
362.449097	716.203918	8097.732910	749.565857	0.451965
362.814209	713.529053	8119.727051	750.234558	0.495605
363.179382	719.844727	7914.057129	747.039551	0.378010
363.544434	721.405090	7533.627441	749.863037	0.417748
363.909546	718.284424	7082.609863	732.253235	0.219486
364.274536	713.751953	6740.371582	735.894104	0.367406
364.639587	714.197754	6509.735840	739.163391	0.430773
365.004517	718.358704	6389.439453	752.612305	0.604005
365.369507	716.724121	6310.158691	749.565857	0.587148
365.734344	720.885010	6255.621094	740.129395	0.347702
366.099274	717.021240	6197.367188	735.299805	0.333529
366.464081	717.244141	6165.863281	738.569031	0.391382
366.828918	706.916016	6169.280762	743.770203	0.674693
367.193665	712.488770	6180.574219	741.392578	0.528591
367.558411	705.281433	6193.949219	739.683594	0.626785
367.923126	714.717957	6176.042480	743.547363	0.527883
368.287781	712.637390	6164.153809	751.423401	0.711472
368.652435	715.758118	6115.039551	755.138489	0.729363
369.017059	714.792175	6091.114746	752.909424	0.708984
369.381653	723.188416	6041.406250	755.510071	0.607754
369.746185	728.463867	6038.285156	751.943542	0.442193
370.110687	726.680603	6045.046875	750.234558	0.442880
370.475220	712.042969	6110.136230	741.541199	0.546456
370.839661	705.652893	6188.079590	741.243958	0.649184
371.204041	705.875793	6278.134277	741.392578	0.637386
371.568451	712.637390	6345.378418	739.683594	0.480161
371.932770	717.541321	6383.792969	739.386414	0.385530
372.297150	718.284424	6417.006348	737.825989	0.342911
372.661377	716.649719	6445.240723	745.999268	0.512335
373.025696	717.392761	6470.652344	745.553528	0.489475
373.389862	712.785950	6463.296875	748.971436	0.629257
373.754059	706.767395	6448.064453	741.541199	0.605679
374.118225	703.200928	6484.769531	744.736145	0.718407
374.482361	711.299988	6532.101074	753.206726	0.719948
374.846436	719.919128	6638.948730	756.921875	0.625149
375.210510	724.674500	6726.402344	758.482239	0.563300
375.574524	717.764343	6867.800781	750.829041	0.537634
375.938538	714.643555	6987.353516	749.342957	0.553180
376.302460	711.597168	7147.847656	748.451233	0.572601
376.666412	712.265930	7318.446777	753.652527	0.626483
377.030304	716.203918	7519.063965	760.785583	0.655337
377.394196	719.176025	7709.873535	769.107483	0.714256
377.757996	717.541321	7864.125488	771.410889	0.753781
378.121796	714.420715	7943.109375	771.708069	0.792500
378.485565	711.522888	7937.313965	766.581238	0.761970
378.849304	714.717957	7827.791504	767.398499	0.740616
379.212982	716.575439	7671.235840	764.426453	0.688042
379.576630	724.005676	7473.292969	769.553284	0.674851
379.940277	723.411316	7337.617188	770.221985	0.707729
380.303864	726.457703	7231.586426	780.252869	0.826965
380.667450	717.095520	7198.150391	785.156738	1.050156
381.030945	717.615723	7171.623535	793.552979	1.176591
381.394501	708.179199	7188.936035	804.252625	1.482441
381.757935	709.442383	7235.895996	812.648865	1.581356
382.121399	708.699402	7276.985840	823.645691	1.750019
382.484741	713.454651	7331.300781	824.760254	1.681901
382.848145	716.946960	7383.981934	841.998352	1.875667
383.211487	718.210144	7459.621582	848.091248	1.926616
383.574768	712.637390	7577.391113	868.673096	2.272998
383.938019	714.866516	7675.693848	876.177734	2.317415
384.301270	715.980957	7787.074219	899.657410	2.597568
384.664459	711.820068	7875.865723	906.790344	2.721511
385.027649	701.566345	7956.261230	930.418640	3.154541
385.390778	700.303162	8020.235840	949.885925	3.409632
385.753876	712.042969	8029.226563	978.641113	3.643453
386.116943	718.433044	8058.055176	996.325195	3.786191
386.479980	723.114075	8086.142090	1017.501465	3.998184
386.842987	718.284363	8161.485840	1040.238159	4.325475
387.205994	720.290527	8223.825195	1061.117188	4.542215
387.568909	718.581543	8298.277344	1089.872314	4.898492
387.931793	717.764343	8342.264648	1126.726440	5.363789
388.294678	717.615662	8378.821289	1166.181152	5.855025
388.657471	717.615723	8387.959961	1201.177856	6.304308
389.020294	724.823059	8375.922852	1237.363281	6.698909
389.383057	721.628113	8373.619141	1270.279297	7.170044
389.745819	715.312317	8380.231445	1300.817749	7.638769
390.108521	715.758118	8430.906250	1334.476929	8.019532
390.471191	721.182190	8529.877930	1385.077026	8.501994
390.833801	720.662109	8680.415039	1442.810181	9.072494
391.196442	713.380371	8886.977539	1500.766235	9.633285
391.558960	712.785950	9081.129883	1566.004272	10.195785
391.921509	713.751892	9264.583008	1627.675415	10.688125
392.284027	717.541321	9433.101563	1692.318726	11.184334
392.646484	714.049133	9569.595703	1748.194336	11.677938
393.008911	719.398926	9604.666992	1807.859375	12.250171
393.371307	720.067688	9553.770508	1846.571289	12.752337
393.733673	716.724060	9456.731445	1889.592407	13.419535
394.096008	719.696106	9409.547852	1923.251587	13.850126
394.458344	726.160461	9431.617188	1977.864136	14.378379
394.820587	722.296692	9465.349609	2029.875977	14.955638
395.182831	710.482605	9530.809570	2088.798096	15.626579
395.545013	695.696350	9492.990234	2132.339600	16.330513
395.907196	700.823242	9391.493164	2165.255615	16.850628
396.269287	709.739563	9204.471680	2185.317139	17.370502
396.631409	711.374268	9052.671875	2206.716553	17.926973
396.993469	703.646790	8921.155273	2229.230225	18.565037
397.355530	699.485840	8832.883789	2257.465088	19.155331
397.717499	705.355713	8783.547852	2292.535889	19.647715
398.079468	716.872620	8782.730469	2332.139404	20.025976
398.441376	723.485596	8804.278320	2380.362061	20.503885
398.803284	724.005798	8823.002930	2429.401611	21.056875
399.165131	717.987122	8868.624023	2475.692383	21.565252
399.526978	713.603333	8884.672852	2517.450439	22.076023
399.888763	706.024414	8910.159180	2566.638916	22.678986
400.250519	707.510498	8918.852539	2604.161865	23.097946
400.612244	700.674744	8951.842773	2640.495850	23.509655
400.973938	711.225647	8948.499023	2667.616455	23.750467
401.335602	712.934570	8969.750000	2713.089600	24.224291
401.697205	718.804504	9007.421875	2753.658447	24.549982
402.058807	716.129578	9079.198242	2807.231201	25.004000
402.420349	716.278137	9166.428711	2855.007813	25.309961
402.781860	714.866455	9277.214844	2932.356689	25.898153
403.143341	717.169861	9423.590820	3000.121094	26.221466
403.504822	717.764343	9594.190430	3078.510498	26.595684
403.866241	721.999512	9790.573242	3150.212158	26.776123
404.227631	714.569275	9968.676758	3229.642334	27.177910
404.588959	721.107910	10171.596680	3310.854736	27.403313
404.950287	720.216309	10322.282227	3376.315674	27.661747
405.311554	726.011902	10438.640625	3444.971436	27.994062
405.672821	714.643555	10476.609375	3484.426025	28.373203
406.034027	707.213318	10475.643555	3508.871826	28.680742
406.395203	702.012146	10384.919922	3488.735596	28.779818
406.756348	704.389832	10293.675781	3495.571533	29.107294
407.117493	704.984192	10233.712891	3511.843750	29.456812
407.478516	702.086426	10215.955078	3538.147217	29.809752
407.839600	704.984192	10228.215820	3562.444092	30.005152
408.200592	708.847961	10199.757813	3591.347412	30.371161
408.561554	719.993347	10185.044922	3622.331787	30.663734
408.922485	724.971680	10179.323242	3643.731201	30.872128
409.283417	724.377258	10200.797852	3656.808350	30.944500
409.644257	724.154297	10316.338867	3696.857422	30.990887
410.005096	715.386658	10462.342773	3756.299561	31.198589
410.365906	717.244141	10611.022461	3817.005127	31.330406
410.726715	708.847961	10730.426758	3872.360596	31.567009
411.087433	710.705566	10797.968750	3899.703857	31.614107
411.448120	704.835632	10890.624023	3952.384766	31.883141
411.808807	709.070801	10918.709961	3974.898438	31.987690
412.169434	713.826233	10859.043945	3985.597656	32.249397
412.530029	719.176025	10769.659180	3985.003662	32.494236
412.890564	718.210144	10727.826172	4003.356201	32.819901
413.251099	714.272034	10744.768555	4022.155029	32.978260
413.611572	723.485596	10811.045898	4031.814209	32.796120
413.972076	729.429871	10874.352539	4061.683838	32.846519
414.332489	729.801331	10971.835938	4096.383301	32.870247
414.692871	719.398926	11113.382813	4165.559082	33.155334
415.053223	709.516785	11241.703125	4223.663574	33.365784
415.413574	708.773682	11440.166992	4323.823730	33.686680
415.773834	705.207092	11606.605469	4386.980957	33.773411
416.134094	711.151367	11788.276367	4460.243652	33.845356
416.494263	713.380432	11943.717773	4509.951660	33.806389
416.854462	715.163757	12231.491211	4612.787109	33.844326
417.214630	713.826355	12564.367188	4730.111328	33.891151
417.574738	709.219482	12943.311523	4860.884277	33.935211
417.934784	711.299988	13263.481445	4993.812012	34.117672
418.294861	711.968750	13636.332031	5138.850586	34.252224
418.654846	716.426941	14095.968750	5305.808594	34.301487
419.014832	716.872742	14599.370117	5460.209473	34.167751
419.374756	711.671448	15147.723633	5633.631348	34.094917
419.734680	714.717834	15690.729492	5846.360840	34.265751
420.094543	713.083252	16250.823242	6062.136719	34.426201
420.454376	718.730225	16769.306641	6244.995605	34.430325
420.814148	716.723938	17290.318359	6436.474121	34.511223
421.173920	720.216309	17832.728516	6627.060059	34.517689
421.533691	722.593994	18375.212891	6831.986816	34.608986
421.893341	713.677734	18769.611328	6964.171387	34.617393
422.253021	712.191589	19009.683594	7073.247559	34.764633
422.612640	709.665283	19044.679688	7128.603027	35.009178
422.972260	720.513489	18992.294922	7128.528809	35.070557
423.331757	725.714661	18871.181641	7110.845215	35.188572
423.691315	728.389587	18885.968750	7101.779785	35.100437
424.050781	726.011902	19011.689453	7178.236816	35.285675
424.410248	723.188416	19157.544922	7224.453125	35.267109
424.769653	715.758118	19295.673828	7283.821777	35.350342
425.128998	713.157471	19354.669922	7307.078125	35.372242
425.488373	715.832336	19247.896484	7297.418457	35.514587
425.847656	719.176086	19012.580078	7231.363281	35.598553
426.206940	722.073914	18755.566406	7151.414063	35.652222
426.566193	718.804626	18399.285156	7016.033691	35.616844
426.925385	713.603333	18029.259766	6902.127441	35.739471
427.284576	711.597168	17488.408203	6730.340332	35.875370
427.643677	714.049133	17100.623047	6638.130371	36.152042
428.002777	724.451477	16716.626953	6523.481934	36.261673
428.361847	731.213074	16328.840820	6391.074219	36.286678
428.720856	732.030457	15979.989258	6258.369629	36.243141
429.079865	721.776611	15728.102539	6158.061035	36.226616
429.438812	717.615723	15558.543945	6105.082520	36.301414
429.797760	712.265869	15453.183594	6069.492188	36.342556
430.156616	723.262695	15264.157227	6007.820313	36.342728
430.515503	721.999512	15140.518555	5965.319824	36.365177
430.874268	720.141907	15115.476563	5940.725098	36.265797
431.233093	707.659180	15171.649414	5962.050293	36.327396
431.591827	710.482605	15275.227539	5986.050293	36.221493
431.950562	710.111084	15297.593750	6011.536621	36.342293
432.309204	715.460938	15348.043945	6027.288574	36.301369
432.667877	701.566223	15449.541992	6076.550781	36.445576
433.026459	706.544617	15565.454102	6147.509766	36.617527
433.385010	713.751953	15719.632813	6212.152832	36.641640
433.743561	727.200745	15898.776367	6291.954590	36.678814
434.102051	726.606262	16095.456055	6364.622559	36.684700
434.460510	715.980957	16247.405273	6441.154297	36.861870
434.818939	709.813904	16312.418945	6468.126465	36.906097
435.177338	706.395996	16375.502930	6466.417480	36.760368
435.535675	715.238037	16327.577148	6441.600098	36.678440
435.894012	721.107910	16265.163086	6410.095703	36.599125
436.252289	722.668274	16254.760742	6414.256348	36.644051
436.610535	724.080078	16246.885742	6422.355469	36.709057
436.968719	727.869446	16420.380859	6485.215332	36.688492
437.326935	727.943787	16536.962891	6527.791016	36.686951
437.685028	726.011902	16689.953125	6576.459473	36.647892
438.043152	719.101746	16790.111328	6610.936035	36.661259
438.401215	722.519714	17050.617188	6701.733887	36.619175
438.759277	716.129700	17347.679688	6816.308594	36.678352
439.117249	714.123535	17785.173828	6971.972656	36.657669
439.475250	703.721130	18073.394531	7092.491699	36.781178
439.833130	705.207092	18483.099609	7232.329590	36.714828
440.191071	707.659119	18733.720703	7347.498535	36.834663
440.548889	720.959290	19089.335938	7466.085938	36.721409
440.906708	717.244141	19431.052734	7605.850098	36.810284
441.264496	712.340149	19704.189453	7712.325684	36.857838
441.622223	705.058594	19869.958984	7782.615723	36.929787
441.979950	711.448547	19891.431641	7809.513184	37.007668
442.337616	708.699280	19897.005859	7812.187500	37.019882
442.695251	709.665283	19729.824219	7771.618652	37.128780
443.052887	711.151367	19525.566406	7705.712402	37.176609
443.410461	715.015137	19336.019531	7621.304688	37.088707
443.768005	717.764343	19172.851563	7579.175293	37.178967
444.125458	714.494934	19095.425781	7524.785156	37.050842
444.482941	719.324646	19146.470703	7545.887207	37.046227
444.840393	723.857117	19302.287109	7598.791016	37.004925
445.197754	722.371094	19625.873047	7738.703125	37.116573
445.555084	719.547546	19923.158203	7847.927734	37.119999
445.912415	712.711731	20328.183594	8013.845703	37.221298
446.269714	717.764343	20613.876953	8111.033691	37.159367
446.626953	719.324707	20963.695313	8288.617188	37.389614
446.984161	721.033630	21324.138672	8391.972656	37.231956
447.341309	715.386536	21603.962891	8527.872070	37.400757
447.698456	721.182190	21784.890625	8572.825195	37.275692
448.055542	722.148132	21883.634766	8642.075195	37.426140
448.412598	725.120300	21811.935547	8613.766602	37.410328
448.769653	717.095520	21668.158203	8586.942383	37.562996
449.126617	713.231873	21301.919922	8495.401367	37.798279
449.483582	716.798340	21022.097656	8419.760742	37.935726
449.840515	722.891174	20632.380859	8286.387695	37.989403
450.197388	725.491760	20375.218750	8167.578125	37.873741
450.554230	719.101746	20174.154297	8084.136230	37.856667
450.911041	710.705505	19966.552734	8015.182129	37.933811
451.267822	704.538330	19776.931641	7963.839844	38.061832
451.624573	701.492004	19578.693359	7897.041504	38.117672
451.981262	703.795410	19463.375000	7860.707031	38.150703
452.337921	709.442383	19312.390625	7804.906250	38.141609
452.694580	711.671448	19221.742188	7765.228516	38.106594
453.051147	711.225647	19218.101563	7765.822754	38.118793
453.407715	709.516663	19149.371094	7738.405762	38.117924
453.764221	710.928467	19153.830078	7755.197754	38.195015
454.120728	712.637390	18943.775391	7677.254395	38.201767
454.477142	715.460938	18893.250000	7667.966309	38.247253
454.833557	721.405090	18678.812500	7612.016113	38.371967
455.189911	723.039734	18490.828125	7544.994629	38.395069
455.546265	723.039795	18247.486328	7462.890625	38.459705
455.902557	725.491760	18089.890625	7407.386719	38.480431
456.258820	724.080017	18106.978516	7429.826660	38.576687
456.615051	726.829163	18219.623047	7469.949707	38.547993
456.971252	719.621887	18212.117188	7471.658691	38.599617
457.327393	721.850891	18361.466797	7547.001465	38.692173
457.683502	721.627991	18639.876953	7648.424316	38.657776
458.039612	726.754883	19129.904297	7846.367188	38.686924
458.395630	726.234863	19625.726563	8027.889160	38.634129
458.751648	720.290588	20096.509766	8219.292969	38.702095
459.107605	722.371094	20838.421875	8508.924805	38.708164
459.463562	722.891174	21601.435547	8794.544922	38.660042
459.819458	722.816895	22325.146484	9067.458008	38.628429
460.175323	711.968567	22947.429688	9280.559570	38.535702
460.531158	709.962585	23467.103516	9497.299805	38.613537
460.886932	713.603333	23751.384766	9635.280273	38.726284
461.242676	718.358704	23814.466797	9695.168945	38.867203
461.598419	720.290588	23580.859375	9625.917969	38.956280
461.954102	721.405090	23122.412109	9466.835938	39.040344
462.309723	722.222473	22423.521484	9229.735352	39.202782
462.665344	726.383484	21683.021484	8979.334961	39.381081
463.020905	725.640381	21078.568359	8768.538086	39.517151
463.376373	724.302917	20637.433594	8556.403320	39.331337
463.731873	711.225647	20270.599609	8404.157227	39.331177
464.087341	703.795410	19979.035156	8280.666992	39.308830
464.442749	698.817139	19771.138672	8226.797852	39.470707
464.798126	707.213318	19676.919922	8182.513184	39.406513
465.153503	712.637390	19783.544922	8229.545898	39.415577
465.508820	713.826233	19895.818359	8270.932617	39.396881
465.864105	712.265869	20072.359375	8338.994141	39.394070
466.219330	711.894348	20379.750000	8426.448242	39.224174
466.574524	718.432922	20559.787109	8513.160156	39.285259
466.929657	712.711670	20747.029297	8607.375977	39.405704
467.284790	715.015076	20899.943359	8705.159180	39.584705
467.639893	710.556946	21070.990234	8781.616211	39.640900
467.994934	715.832336	21230.515625	8833.108398	39.568127
468.349945	708.699280	21234.751953	8835.188477	39.591095
468.704926	706.618835	21204.138672	8838.457031	39.672306
469.059875	705.058594	20979.000000	8789.566406	39.876350
469.414764	710.333984	20719.835938	8701.443359	39.936573
469.769653	717.467102	20498.783203	8620.452148	39.951763
470.124451	721.850891	20403.826172	8562.347656	39.835926
470.479248	724.748779	20254.845703	8495.104492	39.786568
470.834015	723.708496	20154.611328	8464.640625	39.838253
471.188721	727.646545	20209.226563	8490.200195	39.845608
471.543365	728.092346	20335.615234	8542.435547	39.853802
471.898010	720.513489	20527.687500	8584.713867	39.703796
472.252625	711.374268	20691.150391	8653.741211	39.752033
472.607178	705.578613	20974.617188	8791.424805	39.892597
472.961700	712.265869	21206.220703	8892.995117	39.917767
473.316193	718.804504	21532.039063	9007.867188	39.825924
473.670654	724.005676	21701.820313	9084.325195	39.853146
474.025055	723.559875	21948.578125	9203.284180	39.951553
474.379456	721.182190	22113.828125	9306.267578	40.131008
474.733795	714.420654	22244.154297	9370.390625	40.204720
475.088104	710.705505	22379.681641	9421.882813	40.201149
475.442383	712.265930	22370.392578	9419.504883	40.203102
475.796570	713.677673	22488.162109	9453.833008	40.139435
476.150787	711.820068	22642.712891	9541.138672	40.259731
476.504944	705.950134	22962.736328	9660.394531	40.232422
476.859070	706.990417	23284.169922	9797.854492	40.265720
477.213135	714.494934	23614.521484	9916.961914	40.185398
477.567200	717.912842	24051.939453	10124.043945	40.310791
477.921173	720.290588	24528.146484	10310.840820	40.283131
478.275146	717.021240	25059.259766	10526.168945	40.296818
478.629089	721.850891	25417.251953	10647.581055	40.192627
478.983002	725.268860	25892.791016	10821.299805	40.115318
479.336823	721.405090	26308.513672	10989.223633	40.128872
479.690643	713.008850	26786.130859	11173.346680	40.119240
480.044403	711.076965	27292.427734	11394.100586	40.189919
480.398163	718.210144	28053.365234	11692.648438	40.147709
480.751862	719.770508	29053.849609	12089.350586	40.126873
481.105499	717.838562	30336.462891	12588.218750	40.077415
481.459137	714.197754	31932.708984	13231.531250	40.095871
481.812744	716.723938	33951.511719	14069.739258	40.177826
482.166290	714.494873	36393.691406	15070.077148	40.235161
482.519806	716.055359	39310.968750	16295.625977	40.366901
482.873291	717.838562	42686.765625	17686.572266	40.431664
483.226715	718.210144	46390.753906	19325.318359	40.740250
483.580139	718.061523	49833.792969	21023.656250	41.342342
483.933502	714.866455	52925.531250	22805.958984	42.311455
484.286804	716.203857	55304.332031	24444.779297	43.468380
484.640106	715.609558	57138.277344	25830.150391	44.511436
484.993347	712.934631	58102.875000	26770.453125	45.404327
485.346558	713.008972	58299.406250	27082.154297	45.790577
485.699738	712.711670	57665.230469	26749.054688	45.715878
486.052887	711.225647	56501.277344	25935.291016	45.212479
486.405975	709.516663	55083.800781	24928.414063	44.541084
486.759064	714.123474	53691.074219	23916.263672	43.796673
487.112061	722.593933	52533.582031	23098.041016	43.186684
487.464996	725.937561	51834.917969	22550.208984	42.701443
487.817963	719.844788	51682.519531	22366.158203	42.474834
488.170868	714.494934	51773.910156	22326.779297	42.327717
488.523743	712.265869	51864.042969	22437.861328	42.472809
488.876587	711.968750	51689.652344	22409.107422	42.562035
489.229401	723.708557	51263.972656	22262.431641	42.616955
489.582153	725.194580	50452.738281	21857.929688	42.497040
489.934845	734.482422	49414.207031	21333.650391	42.315701
490.287537	725.045898	48365.347656	20764.935547	42.064995
490.640198	724.674500	47541.332031	20318.671875	41.852623
490.992798	717.912903	46975.738281	20051.332031	41.794918
491.345337	717.912903	46891.558594	19962.763672	41.679298
491.697876	717.838562	46999.660156	19952.955078	41.560848
492.050354	719.398926	47409.964844	20129.646484	41.572098
492.402832	716.055359	47635.250000	20255.068359	41.643967
492.755219	707.436218	47503.582031	20306.859375	41.882561
493.107605	704.761292	46725.636719	19986.169922	41.897091
493.459930	709.368103	45418.425781	19487.076172	41.999786
493.812225	718.433044	43612.726563	18701.623047	41.924435
494.164490	721.182190	41548.597656	17806.052734	41.846565
494.516724	723.485596	39335.566406	16858.095703	41.786430
494.868896	721.999512	37351.535156	15979.914063	41.654675
495.221039	714.272034	35803.359375	15296.403320	41.557453
495.573120	710.408386	34569.933594	14752.210938	41.470764
495.925201	709.591003	33929.148438	14446.752930	41.352634
496.277222	709.293762	33550.871094	14280.983398	41.324718
496.629211	701.863464	33483.855469	14251.929688	41.333870
496.981140	706.098816	33435.332031	14252.523438	41.389374
497.333069	713.083252	33514.761719	14284.250977	41.373394
497.684967	718.953125	33554.437500	14318.655273	41.417698
498.036804	719.919006	33597.164063	14333.069336	41.405994
498.388580	715.237976	33504.507813	14310.852539	41.463608
498.740326	716.872559	33360.734375	14188.699219	41.269096
499.092072	710.705566	32985.503906	14032.960938	41.277580
499.443756	711.151367	32573.349609	13868.528320	41.294628
499.795410	713.529053	32157.845703	13762.870117	41.499840
500.147003	718.804504	31816.947266	13615.082031	41.469608
500.498566	719.621887	31410.806641	13486.241211	41.597023
500.850098	718.358704	31000.359375	13299.741211	41.547398
501.201599	712.191589	30613.466797	13163.620117	41.641800
501.553009	713.529053	30276.130859	12982.395508	41.501308
501.904449	713.900574	30034.052734	12874.135742	41.473984
502.255859	721.033508	29769.833984	12781.257813	41.517117
502.607178	717.615662	29710.017578	12756.885742	41.525604
502.958405	715.163635	29580.728516	12726.718750	41.612057
503.309692	709.070862	29561.337891	12700.786133	41.562469
503.660919	709.591003	29525.744141	12689.493164	41.573566
504.012115	714.346375	29608.521484	12696.477539	41.469017
504.363251	716.055359	29709.796875	12764.984375	41.556999
504.714294	722.296692	29803.937500	12805.034180	41.547646
505.065369	721.627991	29820.287109	12852.215820	41.687790
505.416443	725.566101	29876.083984	12851.695313	41.598331
505.767395	719.473145	29871.103516	12866.555664	41.668617
506.118317	717.838562	29888.119141	12840.625000	41.558689
506.469238	716.203918	29865.236328	12846.198242	41.613708
506.820160	727.126465	29870.064453	12856.081055	41.618847
507.170929	727.052063	29890.720703	12867.448242	41.628498
507.521729	724.228577	30003.662109	12887.956055	41.543591
507.872498	717.541321	30024.615234	12924.289063	41.651199
508.223236	715.609436	30204.505859	13027.570313	41.751175
508.573883	721.182190	30367.078125	13132.633789	41.865662
508.924500	721.330811	30643.931641	13243.567383	41.848755
509.275116	718.804504	30864.755859	13328.050781	41.827328
509.625702	714.643555	31117.384766	13433.487305	41.834530
509.976196	713.529053	31398.396484	13550.809570	41.835869
510.326660	709.591003	31703.335938	13685.668945	41.866764
510.677124	709.293762	31969.787109	13801.507813	41.881020
511.027557	716.946960	32206.216797	13878.781250	41.797840
511.377869	725.194580	32419.984375	13950.335938	41.726547
511.728180	728.092346	32540.281250	14012.229492	41.758007
512.078430	722.445313	32707.462891	14106.222656	41.843895
512.428650	719.473145	32818.250000	14182.754883	41.943283
512.778931	720.439148	32962.394531	14249.627930	41.961441
513.129028	720.439270	33027.480469	14245.391602	41.863792
513.479126	725.937683	33109.511719	14267.088867	41.814877
513.829285	726.160583	33059.660156	14222.507813	41.741066
514.179382	720.959290	33005.937500	14198.656250	41.746033
514.529297	720.810730	32893.371094	14161.727539	41.777580
514.879272	720.141907	32923.980469	14190.706055	41.829067
515.229187	723.188416	32822.335938	14178.370117	41.917564
515.579163	720.884949	32872.863281	14177.776367	41.854008
515.928955	717.541321	32872.417969	14187.881836	41.892063
516.278748	723.708496	33100.824219	14273.331055	41.849384
516.628540	724.525879	33323.808594	14405.664063	41.967606
516.978333	724.600098	33822.820313	14585.104492	41.876888
517.327942	716.798340	34424.226563	14821.683594	41.845032
517.677612	714.420654	35120.074219	15085.161133	41.768543
518.027222	710.482605	35822.089844	15381.332031	41.783478
518.376831	719.621887	36599.812500	15746.901367	41.881824
518.726379	724.154297	37368.250000	16055.035156	41.837250
519.075867	725.714661	37949.222656	16305.137695	41.853722
519.425293	718.655945	38340.503906	16488.367188	41.916367
519.774658	709.219482	38528.488281	16594.695313	42.003654
520.124084	712.191589	38532.054688	16635.636719	42.103394
520.473389	710.036804	38263.597656	16528.642578	42.122784
520.822693	715.832458	37838.136719	16392.814453	42.230629
521.171997	717.392761	37315.046875	16203.195313	42.313652
521.521240	714.420654	36834.757813	15984.819336	42.276459
521.870361	712.711731	36416.359375	15785.984375	42.217735
522.219482	712.637390	36087.121094	15609.218750	42.111092
522.568604	719.250305	35809.453125	15510.098633	42.150936
522.917664	725.120300	35647.250000	15439.660156	42.135288
523.266724	723.782776	35697.699219	15441.590820	42.082237
523.615662	726.680664	35967.273438	15487.436523	41.885662
523.964600	719.101746	36424.828125	15677.949219	41.894814
524.313538	717.838623	37061.300781	15949.749023	41.911007
524.662354	712.265930	37867.042969	16295.256836	41.940746
525.011169	713.083252	38835.507813	16700.056641	41.935879
525.359985	712.191589	39949.082031	17160.212891	41.919788
525.708740	716.278259	41271.371094	17719.638672	41.926575
526.057434	722.148132	42709.203125	18342.369141	41.965839
526.406067	721.256531	44321.425781	19061.322266	42.064209
526.754700	721.999512	46041.156250	19878.876953	42.271038
527.103333	718.432922	48001.859375	20825.046875	42.523598
527.451782	719.696106	50066.878906	21892.478516	42.905758
527.800293	713.603333	52082.125000	23045.955078	43.474777
528.148743	717.392822	53977.953125	24220.384766	44.128326
528.497131	715.981140	55621.011719	25412.125000	44.979748
528.845642	715.981018	56983.863281	26475.023438	45.779301
529.193909	708.847961	58000.253906	27428.998047	46.639019
529.542175	715.906738	58685.261719	28112.435547	47.260365
529.890503	715.089355	58954.082031	28534.251953	47.767246
530.238770	717.541443	58718.019531	28482.462891	47.870163
530.586914	708.253601	58034.957031	28001.353516	47.609749
530.934998	710.482605	56889.652344	27114.328125	46.999355
531.283142	708.030579	55545.816406	26054.843750	46.221436
531.631226	710.854065	53913.386719	24869.640625	45.409092
531.979248	715.609558	52269.437500	23743.287109	44.667252
532.327148	717.615723	50780.781250	22760.632813	44.030411
532.675110	723.262695	49757.855469	22084.179688	43.562954
533.023071	720.587708	49288.707031	21655.455078	43.104134
533.370850	719.844727	49169.597656	21478.537109	42.845814
533.718689	709.368103	49345.105469	21571.416016	42.894485
534.066467	707.659119	49523.503906	21729.160156	43.062866
534.414246	699.114319	49591.417969	21857.333984	43.275150
534.761963	702.383606	49478.550781	21797.521484	43.248863
535.109619	695.622070	49150.281250	21694.091797	43.336323
535.457153	701.863525	48531.042969	21402.230469	43.279789
535.804749	702.383606	47621.136719	21021.056641	43.306080
536.152344	707.882019	46682.761719	20560.605469	43.181675
536.499817	717.764343	45762.750000	20075.333984	42.973866
536.847229	719.324707	44896.378906	19606.111328	42.752480
537.194641	717.392761	44097.550781	19161.560547	42.517525
537.542114	716.055359	43454.312500	18850.005859	42.430252
537.889404	715.386536	42916.062500	18584.966797	42.344299
538.236694	719.027405	42415.265625	18393.787109	42.389339
538.583984	712.785950	41990.769531	18224.154297	42.423023
538.931213	716.575439	41769.941406	18117.976563	42.387268
539.278381	719.027527	41678.546875	18054.447266	42.323299
539.625488	726.754944	41737.027344	18065.740234	42.279613
539.972595	726.160461	42030.671875	18151.933594	42.188549
540.319641	723.262695	42706.972656	18405.007813	42.115730
540.666687	719.770508	43718.308594	18766.861328	41.971401
541.013611	713.900574	45117.058594	19366.039063	42.006336
541.360596	711.968689	46515.285156	20011.953125	42.136654
541.707458	708.550781	48012.707031	20758.767578	42.385738
542.054260	712.117249	49132.011719	21386.849609	42.698837
542.401062	703.423828	50047.566406	21896.343750	42.949211
542.747864	699.040039	50444.937500	22232.414063	43.286736
543.094666	704.612793	50370.261719	22298.171875	43.477856
543.441284	713.974915	49803.035156	22074.968750	43.514778
543.787903	719.993347	48842.222656	21614.884766	43.420452
544.134460	711.076965	47567.636719	20945.267578	43.183266
544.481079	711.671387	46077.125000	20205.064453	42.969685
544.827637	709.293762	44405.238281	19401.033203	42.776829
545.174072	713.900574	42727.855469	18641.513672	42.670616
545.520508	714.049133	41258.816406	18010.757813	42.660770
545.866943	714.123535	40042.628906	17446.650391	42.545547
546.213318	713.157532	39176.335938	17036.054688	42.437721
546.559631	711.002747	38463.324219	16636.974609	42.185413
546.905823	710.631165	37868.457031	16355.144531	42.102879
547.252136	710.928406	37340.460938	16106.155273	42.029549
547.598389	712.785950	36846.199219	15911.333008	42.062305
547.944458	712.488770	36396.449219	15713.168945	42.037598
548.290588	713.157532	35803.210938	15503.114258	42.148571
548.636658	724.154297	35114.500000	15216.157227	42.139744
548.982727	721.776672	34314.703125	14892.791992	42.184525
549.328735	723.485657	33538.839844	14515.854492	42.030228
549.674622	711.151367	32702.187500	14166.260742	42.058998
550.020569	719.027527	31925.205078	13837.024414	42.036537
550.366455	716.129639	31119.914063	13496.122070	42.034214
550.712280	718.358704	30409.951172	13182.789063	41.979664
551.058044	718.061523	29845.843750	12912.995117	41.867020
551.403748	713.677551	29362.726563	12713.791992	41.886604
551.749512	714.866516	29072.945313	12577.073242	41.830082
552.095154	711.448547	28836.587891	12487.539063	41.870338
552.440735	721.256531	28806.494141	12471.414063	41.837486
552.786316	719.696106	28797.208984	12474.906250	41.866989
553.131897	714.272034	28847.806641	12491.625000	41.862328
553.477417	706.916016	28809.099609	12482.114258	41.901363
553.822815	706.544617	28792.601563	12468.145508	41.877010
554.168213	706.693176	28719.041016	12432.627930	41.859879
554.513672	704.909973	28661.234375	12379.948242	41.761707
554.859009	705.207092	28434.091797	12300.518555	41.816727
555.204285	711.374207	28221.365234	12182.227539	41.697048
555.549500	713.008850	27934.478516	12059.554688	41.682343
555.894714	715.906677	27656.734375	11965.116211	41.755249
556.239990	716.575439	27318.734375	11849.204102	41.848595
556.585022	712.934631	27004.802734	11752.312500	41.987804
556.930115	706.841797	26723.865234	11632.239258	41.993263
557.275146	702.160706	26424.724609	11507.782227	42.008335
557.620178	701.417664	26187.921875	11387.932617	41.930092
557.965149	704.687012	25970.212891	11287.104492	41.884811
558.310059	710.408264	25789.880859	11211.018555	41.869343
558.654968	719.621887	25643.947266	11123.860352	41.743309
558.999756	718.358704	25536.953125	11064.864258	41.688526
559.344604	714.123535	25502.328125	11035.588867	41.638615
559.689331	715.609558	25410.416016	11019.614258	41.725391
560.033997	716.724060	25343.320313	10964.258789	41.611660
560.378723	725.491882	25332.398438	10944.196289	41.527790
560.723389	728.092346	25333.068359	10923.762695	41.437431
561.067932	732.179016	25375.494141	10955.340820	41.484524
561.412476	729.578430	25334.107422	10931.862305	41.465065
561.757019	723.188416	25346.070313	10936.691406	41.479721
562.101501	725.194580	25348.968750	10923.762695	41.417568
562.445862	714.494934	25381.365234	10923.762695	41.388580
562.790222	715.832458	25375.791016	10911.502930	41.345043
563.134644	703.646729	25356.919922	10893.224609	41.331543
563.478943	707.807800	25343.765625	10917.224609	41.441120
563.823181	707.064758	25330.318359	10912.692383	41.447113
564.167358	715.535217	25332.771484	10931.192383	41.497986
564.511536	718.135803	25392.283203	10927.999023	41.378792
564.855774	713.380432	25443.923828	10957.570313	41.423229
565.199768	714.643555	25620.693359	10986.176758	41.241116
565.543823	711.077087	25739.130859	11037.372070	41.258881
565.887817	714.049133	26004.021484	11113.011719	41.118916
566.231812	715.683777	26232.054688	11195.562500	41.071198
566.575745	715.758118	26479.708984	11277.145508	40.992889
566.919617	717.838562	26689.462891	11358.731445	40.971222
567.263428	719.324707	26796.533203	11428.278320	41.066330
567.607239	724.377197	26874.255859	11459.708008	41.053082
567.950989	721.479309	26844.830078	11464.166992	41.122929
568.294678	715.683777	26863.181641	11449.379883	41.050568
568.638367	711.894348	26767.482422	11423.375000	41.110107
568.981995	717.392761	26630.466797	11386.297852	41.171902
569.325623	718.135742	26399.533203	11294.534180	41.183109
569.669128	719.324646	26220.759766	11218.374023	41.170425
570.012573	715.683777	26058.115234	11122.820313	41.066055
570.356140	710.854187	26001.271484	11086.856445	41.027405
570.699524	707.956360	26001.343750	11052.010742	40.896282
571.042908	709.665283	26120.304688	11088.937500	40.846169
571.386230	711.597168	26245.875000	11136.714844	40.827930
571.729492	714.643555	26380.437500	11199.797852	40.852642
572.072815	711.894348	26565.750000	11263.773438	40.813560
572.416016	718.581604	26709.375000	11298.101563	40.704872
572.759094	727.200745	26907.914063	11353.010742	40.586403
573.102234	733.888000	26963.787109	11376.710938	40.575161
573.445374	731.956055	26925.820313	11407.027344	40.754093
573.788391	716.872620	26871.875000	11397.367188	40.835381
574.131409	712.785950	26863.626953	11366.532227	40.739590
574.474365	707.064697	26857.537109	11319.722656	40.583046
574.817261	719.473206	26720.373047	11269.418945	40.575306
575.160156	715.758057	26474.208984	11180.551758	40.626644
575.502930	715.163757	26244.982422	11106.546875	40.702927
575.845703	715.906738	26019.474609	11004.531250	40.660767
576.188477	723.114075	25790.400391	10890.847656	40.561764
576.531250	729.949951	25530.712891	10754.278320	40.419434
576.873901	726.977844	25268.943359	10605.897461	40.253174
577.216431	719.101746	24958.656250	10502.690430	40.362083
577.559082	722.445374	24624.666016	10396.584961	40.473812
577.901611	719.473206	24233.833984	10294.567383	40.720196
578.244080	724.971619	23860.906250	10121.442383	40.614182
578.586487	722.519592	23509.603516	9959.461914	40.535870
578.928955	754.692688	23162.906250	9789.161133	40.317669
579.271301	756.847595	22834.341797	9665.819336	40.353184
579.613647	757.442078	22477.984375	9501.981445	40.259304
579.955872	724.228699	22133.740234	9353.003906	40.303467
580.298157	714.197754	21823.750000	9214.132813	40.265823
580.640320	705.429993	21531.666016	9104.016602	40.326954
580.982483	703.349609	21311.802734	9011.583008	40.314686
581.324524	701.937805	21059.841797	8914.915039	40.342941
581.666626	705.429993	20879.138672	8854.283203	40.393429
582.008728	711.968689	20757.429688	8789.862305	40.297871
582.350647	723.039795	20665.443359	8739.485352	40.197987
582.692566	722.891174	20586.089844	8676.402344	40.041443
583.034424	723.857117	20466.166016	8626.620117	40.029579
583.376343	721.107910	20331.156250	8600.243164	40.179070
583.718201	720.885010	20213.609375	8574.906250	40.292065
584.059937	714.272156	20121.474609	8538.869141	40.318005
584.401611	702.309326	20058.242188	8493.172852	40.250515
584.743347	703.126648	19966.626953	8438.931641	40.157837
585.085022	704.092590	19851.384766	8395.389648	40.169109
585.426514	709.591003	19777.527344	8343.674805	40.036236
585.768127	709.591003	19719.496094	8318.561523	40.026348
586.109619	707.287598	19674.320313	8299.019531	40.025932
586.451172	713.008972	19619.335938	8270.338867	39.972492
586.792542	712.711670	19595.857422	8245.000977	39.888950
587.133850	711.522888	19558.035156	8192.096680	39.692085
587.475220	711.968689	19549.935547	8185.039063	39.670261
587.816589	711.894348	19509.220703	8167.503418	39.663136
588.157776	717.764221	19567.548828	8190.314453	39.642628
588.498962	712.117249	19618.146484	8191.949219	39.563210
588.840210	706.173035	19696.462891	8209.112305	39.509350
589.181335	706.693176	19749.884766	8240.022461	39.559174
589.522400	712.785950	19800.708984	8265.583008	39.568459
589.863403	718.953125	19904.361328	8268.778320	39.351913
590.204407	711.894348	19881.847656	8260.902344	39.379375
590.545410	717.244202	19936.535156	8268.109375	39.287949
590.886353	717.764343	19892.695313	8264.840820	39.359081
591.227112	722.965515	19907.853516	8239.725586	39.180630
591.567932	715.015137	19817.054688	8197.150391	39.169300
591.908752	710.631165	19715.705078	8175.825684	39.280006
592.249512	718.581604	19642.667969	8169.361328	39.371941
592.590149	717.318542	19544.142578	8148.556641	39.471546
592.930786	726.160461	19485.964844	8104.495605	39.330555
593.271423	722.222412	19379.710938	8041.041016	39.227245
593.612000	723.188293	19322.349609	7986.799316	39.053429
593.952576	721.776611	19306.152344	7983.826660	39.076103
594.292969	722.073914	19360.763672	7993.040527	39.010075
594.633484	727.720886	19401.185547	8026.402344	39.085846
594.973877	731.510315	19497.033203	8043.343750	38.964188
595.314209	729.801270	19635.681641	8085.696777	38.907974
595.654480	724.748779	19882.070313	8159.033691	38.806496
595.994812	722.519714	20105.572266	8243.292969	38.800770
596.335022	718.210144	20336.580078	8338.994141	38.845146
596.675171	720.513489	20488.974609	8390.559570	38.799408
597.015320	716.501160	20694.496094	8434.993164	38.634972
597.355408	716.055359	20801.343750	8453.940430	38.525139
597.695496	715.089417	20921.939453	8488.937500	38.471352
598.035461	713.231873	20879.138672	8483.958984	38.533985
598.375366	720.587830	20811.302734	8470.956055	38.576866
598.715271	715.163635	20687.511719	8433.729492	38.646263
599.055176	718.581604	20439.191406	8370.646484	38.802376
599.395081	713.528992	20216.431641	8273.086914	38.761196
599.734802	717.021179	19884.003906	8129.535156	38.673351
600.074524	715.832336	19544.812500	7988.656738	38.625694
600.414246	716.426758	19109.990234	7835.296875	38.703053
600.753906	722.148132	18699.988281	7680.449219	38.704880
601.093506	721.330811	18371.720703	7529.095215	38.570049
601.433044	723.188477	18151.337891	7415.188965	38.397655
601.772583	715.758118	18045.603516	7354.855469	38.310192
602.112122	717.912903	18054.669922	7332.192871	38.151768
602.451538	713.677673	18112.998047	7354.111816	38.164906
602.790894	718.655945	18248.451172	7375.139160	37.972397
603.130310	716.278137	18447.136719	7450.854004	37.982231
603.469604	718.210144	18679.703125	7515.571777	37.844082
603.808838	717.615662	18995.267578	7617.439941	37.750057
604.148010	716.575378	19287.126953	7724.064453	37.734417
604.487305	722.148132	19605.515625	7823.928223	37.608654
604.826416	722.742493	19826.640625	7915.617676	37.651348
605.165527	724.302917	20022.056641	7978.626465	37.591545
605.504456	719.696228	20164.048828	8046.093750	37.678791
605.843445	714.420654	20211.677734	8070.093262	37.726704
606.182434	708.327820	20186.341797	8064.892090	37.768555
606.521423	704.241211	20065.599609	8015.778809	37.763554
606.860229	708.699402	19863.941406	7959.382324	37.852215
607.199036	717.021301	19597.119141	7864.050781	37.854832
607.537903	720.216309	19306.744141	7773.772949	37.949837
607.876648	719.398926	18996.603516	7652.139160	37.931076
608.215271	721.627991	18729.486328	7521.070313	37.758198
608.553955	718.432922	18435.917969	7389.777344	37.654015
608.892578	719.919006	18237.083984	7288.428223	37.497562
609.231140	711.299988	18116.341797	7233.221191	37.471451
609.569641	717.095520	18070.943359	7187.005371	37.282276
609.908081	710.928406	18107.423828	7178.980469	37.180202
610.246521	710.556946	18099.994141	7168.057129	37.134613
610.584961	711.448547	18114.556641	7158.250000	37.043968
610.923340	715.386536	18035.794922	7150.745605	37.154778
611.261597	717.615723	17922.187500	7123.921875	37.236069
611.599854	712.042969	17786.955078	7101.928223	37.422653
611.938110	710.779846	17613.236328	7025.619629	37.360485
612.276245	713.231750	17397.685547	6937.570801	37.306221
612.614319	708.327820	17084.349609	6799.813965	37.197598
612.952393	704.389832	16740.478516	6681.969238	37.275795
613.290466	703.126648	16393.632813	6553.425781	37.285599
613.628479	710.705566	16077.028320	6431.123535	37.226982
613.966370	725.045959	15807.903320	6306.443359	37.004910
614.304260	731.584656	15551.484375	6207.546875	36.950066
614.642151	726.680664	15353.542969	6139.262207	37.004391
614.979980	716.129578	15188.813477	6067.857422	36.978130
615.317749	712.711670	15013.014648	6015.177246	37.079395
615.655396	718.507324	14886.921875	5967.548828	37.047489
615.993164	723.039795	14808.606445	5958.632813	37.169914
616.330811	723.188416	14811.653320	5925.345215	36.924938
616.668396	723.708496	14816.036133	5907.734863	36.786160
617.005859	722.593994	14780.520508	5876.007813	36.658421
617.343445	719.993408	14753.028320	5881.283203	36.779572
617.680908	717.690002	14720.707031	5877.791016	36.849926
618.018311	718.284485	14732.594727	5885.146973	36.868473
618.355652	721.405212	14777.918945	5867.611328	36.610828
618.692993	721.776672	14780.445313	5878.682129	36.681320
619.030273	717.838562	14764.469727	5852.156250	36.551952
619.367554	716.649719	14701.015625	5852.825684	36.727985
619.704712	711.820068	14653.463867	5823.252441	36.663055
620.041870	716.501160	14616.682617	5820.429688	36.718433
620.379028	713.454773	14577.823242	5792.714355	36.635349
620.716064	719.844727	14544.312500	5753.036621	36.407852
621.053040	716.501160	14506.937500	5711.873047	36.223450
621.389954	724.971680	14464.807617	5708.157715	36.268162
621.726929	722.148132	14394.815430	5686.610840	36.309395
622.063843	720.216309	14331.434570	5668.034668	36.351032
622.400635	710.036804	14279.719727	5632.443359	36.275032
622.737427	709.442383	14232.239258	5606.288574	36.211784
623.074219	710.259705	14149.319336	5583.997559	36.265469
623.410889	710.036804	14064.390625	5555.688965	36.285187
623.747559	710.631287	14016.019531	5533.175293	36.245045
624.084167	710.854187	14003.239258	5496.618652	36.003807
624.420715	711.374268	14033.926758	5474.550293	35.752728
624.757324	712.117371	14070.038086	5478.042480	35.678646
625.093750	719.473328	14142.629883	5496.395020	35.587173
625.430176	728.612549	14190.109375	5505.312012	35.484161
625.766602	732.104736	14273.700195	5503.974121	35.238602
626.102905	725.789001	14357.515625	5527.453613	35.224186
626.439209	720.513489	14493.043945	5564.976563	35.174820
626.775452	721.999512	14600.187500	5622.412598	35.310181
627.111694	722.296814	14689.424805	5649.161621	35.274715
627.447876	716.946960	14736.680664	5653.916504	35.214436
627.783997	719.919128	14795.975586	5652.133301	35.039745
628.120056	720.364929	14857.497070	5661.124512	34.948814
628.456055	723.188293	14849.695313	5664.096191	34.976147
628.792053	710.705505	14800.433594	5650.945313	35.062702
629.128052	707.510498	14686.453125	5615.354004	35.108833
629.463928	715.237976	14583.395508	5583.998047	35.107479
629.799744	717.318420	14459.754883	5539.267578	35.088024
630.135559	721.256531	14335.075195	5487.256348	35.008549
630.471375	712.488770	14201.553711	5413.398926	34.849785
630.807068	716.501160	14016.464844	5345.634766	34.805611
631.142700	712.117371	13857.828125	5271.703613	34.684975
631.478333	724.080078	13680.171875	5221.846191	34.715454
631.813965	723.336975	13577.114258	5179.345215	34.666916
632.149475	730.395752	13446.563477	5139.147949	34.670444
632.484924	717.689941	13356.285156	5099.767578	34.672188
632.820435	716.501160	13235.988281	5064.919434	34.733200
633.155884	717.764343	13154.924805	5042.702637	34.774326
633.491150	718.878906	13099.570313	5016.547852	34.712673
633.826477	721.107910	13025.117188	4990.021973	34.695309
634.161804	715.312317	12975.484375	4955.545410	34.585426
634.497009	715.237976	12886.765625	4918.097168	34.530254
634.832153	711.076965	12850.358398	4875.893066	34.308586
635.167297	715.758118	12783.262695	4848.326660	34.245426
635.502380	720.067688	12724.415039	4809.094238	34.062881
635.837463	722.816895	12604.639648	4771.051758	34.070824
636.172424	718.655945	12523.351563	4725.801758	33.945354
636.507324	712.042969	12401.421875	4704.699707	34.156277
636.842224	709.888184	12311.291992	4671.486328	34.147575
637.177124	710.408386	12153.473633	4622.595215	34.188274
637.511963	716.798340	12020.695313	4565.084473	34.043892
637.846741	723.708496	11893.338867	4496.800293	33.779915
638.181396	716.278259	11756.176758	4445.382813	33.778431
638.516113	723.114075	11668.350586	4399.835938	33.591984
638.850769	719.398926	11557.491211	4375.166992	33.730736
639.185303	729.429871	11488.984375	4351.241699	33.661354
639.519836	719.696106	11387.041992	4314.461426	33.698780
639.854370	712.414490	11286.731445	4279.093262	33.729637
640.188843	702.532227	11175.723633	4237.707031	33.754513
640.523254	704.241211	11081.656250	4211.924316	33.801125
640.857605	710.111145	10990.413086	4152.630371	33.486557
641.191895	719.250305	10925.546875	4117.857422	33.299122
641.526184	725.120300	10854.067383	4073.200928	33.054577
641.860413	724.228577	10796.557617	4062.278564	33.140797
642.194580	723.485596	10732.135742	4039.541748	33.131901
642.528748	714.494934	10677.077148	4022.303467	33.202324
642.862793	723.559875	10635.096680	4007.443115	33.131927
643.196838	720.662109	10561.313477	3977.201904	33.092728
643.530823	724.302917	10513.538086	3963.009766	33.084370
643.864746	717.169861	10447.481445	3928.310547	33.001415
644.198669	721.925232	10387.594727	3914.118896	33.026096
644.532532	717.912903	10331.125000	3886.775391	32.963619
644.866333	718.878845	10273.464844	3876.075928	33.043785
645.200073	711.448547	10264.475586	3853.339111	32.888954
645.533813	719.101746	10254.963867	3836.472656	32.691021
645.867554	717.615723	10248.648438	3820.571533	32.556343
646.201172	719.844727	10238.468750	3825.772705	32.630009
646.534729	721.033630	10208.598633	3822.354736	32.688271
646.868225	725.789001	10233.862305	3818.119385	32.523209
647.201782	729.058350	10222.716797	3799.023682	32.337013
647.535217	722.668274	10244.190430	3800.361328	32.323540
647.868591	721.776672	10247.163086	3801.996094	32.336948
648.201965	716.203918	10254.518555	3812.472656	32.461384
648.535278	718.953125	10242.036133	3796.720703	32.319023
648.868591	713.231873	10205.925781	3791.296631	32.425617
649.201782	722.148132	10175.385742	3769.748779	32.238697
649.534912	714.569275	10142.543945	3745.822998	32.151695
649.868103	713.083252	10101.604492	3698.789307	31.801664
650.201172	708.625000	10048.701172	3681.253906	31.826603
650.534180	716.946960	9991.264648	3668.028076	31.819927
650.867188	723.336975	9981.678711	3673.526611	31.865206
651.200134	730.098572	9975.065430	3653.316162	31.619556
651.533020	735.448303	9927.882813	3629.464844	31.482592
651.865845	732.847656	9877.282227	3592.387695	31.270824
652.198608	733.367859	9826.088867	3580.276611	31.309757
652.531433	725.788879	9820.813477	3568.388428	31.254448
652.864136	725.417480	9772.962891	3563.187256	31.365080
653.196777	859.905334	9894.967773	3681.402344	31.228308
653.529358	864.289246	9847.637695	3653.836182	31.052418
653.861938	861.317139	9801.941406	3627.384521	30.938192
654.194519	718.284424	9587.799805	3459.237305	30.903072
654.526978	717.021240	9519.367188	3441.850586	30.955719
654.859375	720.439209	9452.420898	3435.980713	31.098801
655.191833	719.696228	9413.188477	3424.538330	31.113413
655.524170	716.203918	9369.573242	3417.479248	31.216459
655.856445	716.203918	9357.833008	3388.798828	30.926981
656.188660	722.073792	9326.999023	3362.272705	30.682417
656.520874	722.222412	9286.056641	3339.015625	30.556328
656.853088	724.377197	9266.664063	3320.365967	30.389856
657.185181	727.572266	9264.062500	3316.427734	30.326931
657.517212	727.572266	9312.434570	3314.049805	30.128351
657.849243	727.943787	9350.551758	3323.857666	30.105900
658.181274	719.770447	9415.789063	3332.477295	30.044863
658.513123	711.448547	9457.621094	3339.238281	30.045025
658.844971	709.145203	9526.796875	3363.164063	30.098930
659.176819	708.625061	9612.467773	3372.303467	29.916054
659.508667	717.392761	9745.916992	3397.789063	29.688087
659.840393	716.501160	9832.702148	3421.120117	29.668266
660.172058	719.919006	9908.639648	3453.961914	29.754337
660.503662	718.581604	9926.249023	3462.060791	29.795595
660.835266	713.083252	9950.471680	3457.379883	29.708576
661.166931	710.705566	9893.928711	3424.018311	29.546412
661.498413	707.882080	9832.925781	3398.606445	29.487247
661.829773	721.479492	9718.202148	3349.046631	29.205826
662.161194	720.885010	9582.525391	3310.854736	29.226751
662.492615	723.857117	9416.978516	3264.564453	29.226641
662.823975	709.739563	9240.435547	3227.115967	29.509624
663.155212	713.008850	9061.291992	3188.106689	29.647987
663.486450	714.272034	8908.747070	3142.187744	29.628693
663.817627	726.160461	8766.012695	3094.782471	29.461016
664.148743	727.497986	8662.731445	3046.560303	29.224878
664.479858	728.018066	8542.881836	3009.706055	29.196772
664.810913	726.977844	8458.918945	2969.433838	29.002499
665.141907	720.290527	8380.528320	2936.072021	28.925753
665.472778	715.237976	8304.444336	2896.468750	28.741222
665.803711	705.281433	8267.069336	2887.626709	28.860174
666.134583	716.203918	8215.577148	2873.583252	28.767464
666.465454	718.358704	8200.717773	2869.942627	28.755423
666.796143	726.754883	8144.618652	2838.884033	28.473551
667.126831	719.770508	8107.838379	2844.159424	28.754324
667.457458	716.649719	8083.095703	2827.069580	28.649094
667.788147	714.420654	8039.034668	2818.302002	28.723442
668.118774	715.312256	8030.564453	2773.572266	28.136557
668.449219	726.309021	8005.227051	2764.729736	28.004446
668.779663	728.166687	8012.359863	2756.556641	27.846458
669.110107	723.634216	7989.548828	2757.522461	27.992184
669.440552	719.993408	7963.171387	2739.764404	27.885151
669.770874	713.751953	7959.084473	2731.442383	27.848141
670.101135	719.844727	7934.490234	2717.250488	27.685432
670.431396	723.485596	7935.901855	2709.523193	27.536371
670.761597	724.451477	7855.283691	2678.018799	27.396065
671.091797	725.640381	7805.574707	2659.963135	27.321196
671.421875	719.844727	7733.575684	2634.923096	27.304703
671.751892	725.045959	7703.854004	2640.198486	27.442402
672.081909	724.080017	7684.089844	2632.916992	27.425779
672.411865	720.513489	7635.273438	2619.765381	27.466637
672.741821	719.919128	7586.158691	2604.384521	27.445375
673.071716	718.953125	7531.398438	2590.638672	27.474504
673.401550	724.897400	7483.025879	2568.570557	27.280823
673.731262	726.086182	7463.931152	2540.038574	26.921848
674.060974	724.228699	7412.142090	2520.422852	26.857317
674.390625	726.829285	7386.507813	2512.546631	26.813866
674.720276	724.674500	7334.496094	2497.908936	26.827265
675.049927	725.417480	7271.858887	2478.812744	26.783945
675.379395	716.575439	7230.174316	2473.983154	26.980597
675.708923	713.751953	7175.042480	2453.624268	26.927629
676.038330	711.225647	7152.528809	2433.934326	26.744724
676.367737	717.392761	7102.597656	2414.838623	26.584045
676.697083	716.723938	7095.093262	2399.086182	26.376057
677.026428	718.210144	7080.083984	2395.965576	26.372030
677.355652	711.671448	7075.477051	2378.652832	26.194725
677.684875	715.832458	7059.799316	2386.231689	26.330515
678.013977	715.312256	7049.619629	2380.287842	26.285044
678.343079	720.067688	7053.408691	2386.826416	26.317213
678.672180	721.330811	7061.878906	2384.597412	26.232222
679.001221	721.033630	7102.150879	2386.751953	26.103867
679.330139	720.439209	7146.955566	2393.216309	26.029297
679.659058	721.256531	7184.479004	2398.640381	25.952747
679.987976	725.045898	7229.505859	2402.578369	25.790495
680.316772	725.045898	7270.372559	2401.612549	25.614714
680.645630	724.302917	7338.062500	2414.541260	25.556391
680.974304	715.906738	7375.882813	2427.989990	25.707048
681.302979	723.039856	7440.748535	2439.432617	25.550272
681.631653	722.296814	7458.655762	2425.017822	25.276577
681.960266	728.835449	7477.230957	2410.677734	24.922106
682.288757	716.575439	7460.364746	2400.275146	24.966673
682.617249	714.272034	7422.990234	2405.327881	25.206841
682.945679	717.689941	7392.600098	2405.253174	25.282187
683.274109	721.553711	7350.916504	2385.414795	25.098356
683.602478	724.600159	7318.224121	2358.442627	24.779127
683.930725	718.433044	7232.701172	2330.133545	24.741083
684.259033	723.114075	7137.073730	2299.966309	24.584694
684.587280	716.872742	7030.449219	2271.656982	24.626043
684.915344	721.330872	6965.730957	2251.966797	24.512138
685.243469	714.643555	6897.447266	2230.790771	24.522001
685.571533	718.061523	6826.636719	2200.103516	24.261663
685.899536	710.854187	6765.411621	2166.667236	24.044910
686.227539	715.535156	6705.226563	2149.428955	23.939360
686.555420	712.117249	6688.433594	2155.744873	24.155811
686.883301	717.095520	6658.117188	2156.041992	24.220524
687.211121	715.238037	6637.312500	2156.264893	24.333143
687.538940	719.696228	6627.505371	2141.552734	24.067408
687.866638	713.826355	6634.267090	2132.785156	23.967113
688.194336	710.556946	6642.736816	2116.364258	23.697990
688.521973	707.956299	6628.619629	2113.615234	23.741579
688.849609	721.850891	6619.406738	2107.893799	23.501991
689.177063	722.519714	6592.583496	2110.940186	23.652559
689.504578	727.943848	6541.239746	2095.485352	23.524374
689.832031	725.789001	6461.735840	2077.578369	23.566978
690.159485	730.618652	6366.331543	2059.745850	23.584011
690.486816	728.240967	6289.279785	2026.829712	23.351549
690.814087	722.148193	6196.995605	2005.207397	23.435524
691.141296	717.392822	6117.193848	1963.672241	23.080099
691.468506	712.191589	6017.183105	1944.650757	23.232067
691.795715	716.872620	5927.722656	1914.409546	22.981604
692.122803	724.748779	5846.286621	1903.561401	23.016769
692.449829	726.309082	5783.427246	1883.053833	22.873596
692.776855	723.188477	5728.740234	1873.245728	22.975634
693.103821	711.597168	5686.089844	1847.091187	22.826328
693.430664	712.860291	5622.709473	1826.658081	22.684971
693.757568	709.665283	5557.025879	1806.076172	22.618721
694.084351	718.507324	5500.036621	1789.804077	22.404898
694.411133	721.256531	5456.717285	1781.927856	22.398483
694.737854	724.005676	5438.959473	1766.398438	22.108231
695.064575	719.398926	5414.587891	1764.095215	22.250357
695.391174	717.392761	5398.315918	1749.754761	22.054667
695.717773	715.535156	5369.857910	1746.782715	22.156769
696.044250	714.717957	5357.746094	1733.333862	21.938610
696.370789	717.021301	5388.953613	1732.293579	21.731316
696.697205	719.101746	5394.674805	1731.476196	21.652414
697.023621	718.953125	5455.825684	1748.937500	21.743975
697.349915	712.414490	5499.738770	1764.541016	21.977339
697.676208	709.739563	5604.431152	1771.451172	21.691086
698.002380	714.123352	5689.507813	1779.550171	21.413960
698.328674	712.117249	5817.902832	1794.262085	21.194481
698.654724	711.077087	5949.047363	1814.992554	21.075254
698.980896	709.591003	6063.622559	1836.020142	21.038897
699.306946	724.154297	6143.349121	1847.685547	20.732439
699.632935	726.532043	6175.744629	1859.128296	20.784586
699.958862	723.262695	6194.246582	1856.007690	20.704594
700.284729	721.330811	6202.939941	1849.023315	20.572289
700.610596	724.971619	6187.930176	1834.459961	20.309294
700.936340	729.949951	6082.569824	1811.500366	20.205999
701.262146	716.129639	5922.893066	1784.082642	20.510880
701.587830	712.488770	5755.563965	1755.996094	20.691885
701.913513	705.281433	5609.632813	1724.566040	20.783270
702.239075	711.151367	5483.466309	1688.603638	20.481722
702.564697	708.625000	5341.474121	1650.411987	20.328463
702.890137	716.203918	5219.914551	1622.176880	20.116146
703.215698	717.169922	5097.464355	1596.839722	20.082436
703.541016	718.061523	4984.449219	1572.839844	20.035177
703.866455	715.237976	4894.543457	1551.440796	20.008175
704.191711	715.312317	4812.141113	1539.329468	20.113537
704.517029	713.157471	4767.856934	1529.149902	20.124609
704.842163	715.089355	4707.969238	1509.162598	19.887232
705.167419	712.265869	4657.889160	1491.181274	19.741251
705.492493	717.987122	4617.690918	1475.057617	19.413538
705.817566	710.631287	4581.431152	1464.580933	19.477877
706.142578	710.408264	4557.654297	1451.280762	19.257215
706.467590	704.464111	4540.787598	1447.342773	19.364338
706.792480	709.813904	4545.171875	1446.673828	19.212286
707.117371	709.145203	4547.995605	1455.293091	19.436754
707.442200	713.826233	4532.986328	1452.172363	19.332684
707.766907	716.278259	4515.599609	1456.927856	19.494261
708.091675	721.330811	4505.048340	1447.937134	19.203503
708.416321	716.426941	4506.014160	1435.305664	18.969843
708.741028	712.042969	4520.131836	1426.092163	18.750854
709.065552	707.807800	4544.057129	1417.175781	18.491186
709.390137	716.129639	4553.716309	1423.268555	18.426657
709.714600	718.655945	4581.951660	1417.027222	18.077085
710.039063	721.405090	4610.483887	1426.686523	18.134922
710.363403	722.519714	4664.725098	1425.943481	17.843409
710.687744	727.423645	4708.117676	1441.175415	17.930334
711.012085	727.497864	4760.574707	1441.844238	17.712193
711.336304	724.600098	4806.122559	1449.125977	17.751364
711.660461	714.792175	4848.995605	1452.023804	17.832495
711.984619	711.374268	4869.057129	1460.345703	18.014156
712.308716	703.275208	4860.884277	1465.100952	18.323650
712.632751	707.956360	4854.865723	1463.020508	18.207878
712.956726	713.974854	4835.175293	1453.138306	17.935637
713.280701	715.832458	4804.339844	1435.677124	17.606539
713.604553	711.820068	4740.588379	1414.426636	17.439735
713.928467	713.751953	4673.641602	1394.810669	17.198933
714.252258	713.380432	4611.598145	1383.070923	17.179401
714.575989	716.352539	4556.540527	1366.724243	16.935934
714.899719	710.854065	4492.045410	1355.876099	17.058699
715.223267	715.237976	4452.516113	1346.142334	16.881386
715.546936	711.820068	4422.720703	1344.582031	17.051439
715.870422	715.906738	4399.092285	1338.340454	16.899330
716.193970	717.689941	4367.587891	1325.560547	16.654455
716.517395	728.092346	4332.889160	1318.576050	16.380499
716.840820	721.776611	4310.523926	1311.665894	16.437191
717.164124	720.142029	4271.960449	1309.882690	16.603909
717.487488	712.860352	4246.251953	1296.136719	16.507549
717.810730	715.981018	4194.239746	1291.232788	16.538498
718.133972	709.962463	4152.556152	1278.229858	16.506954
718.457092	707.807678	4081.522705	1268.793335	16.628128
718.780212	706.990417	4029.956787	1263.369263	16.743439
719.103210	708.996582	3973.337891	1258.019409	16.818794
719.426208	719.919128	3930.019531	1254.006958	16.637730
719.749207	720.290588	3875.035400	1238.626343	16.430355
720.072083	726.309082	3835.209229	1223.840088	16.003441
720.394958	717.021240	3775.172852	1207.864990	16.050341
720.717773	720.736328	3715.953857	1194.119019	15.804618
721.040527	720.587830	3670.182861	1182.750732	15.668691
721.363281	723.485596	3638.009766	1170.862305	15.349906
721.685913	718.433044	3628.573486	1166.998657	15.413882
722.008545	717.541321	3598.778076	1158.750977	15.313204
722.331055	715.609558	3575.223877	1150.651855	15.213321
722.653503	714.643555	3557.837158	1134.082397	14.752384
722.976013	707.287598	3547.955078	1126.875000	14.770733
723.298401	710.482666	3536.438232	1127.246704	14.747721
723.620789	713.231873	3505.899658	1133.265137	15.040574
723.943115	726.160461	3480.562500	1138.689331	14.977075
724.265381	726.754883	3463.324219	1140.843994	15.131687
724.587585	725.343079	3467.782227	1135.865723	14.969253
724.909790	715.163635	3465.181641	1131.184692	15.127939
725.231873	713.974854	3472.463135	1120.559326	14.739394
725.553894	716.203918	3470.308594	1118.107300	14.592887
725.875916	767.324158	3529.379639	1156.001709	14.072041
726.197937	772.599609	3524.252686	1166.849976	14.327765
726.519775	770.667786	3536.438232	1161.277344	14.122993
726.841675	721.479431	3509.466064	1126.280640	14.519482
727.163513	718.358704	3540.821533	1123.011353	14.336864
727.485291	721.479431	3564.895752	1129.698608	14.356645
727.806946	720.513489	3574.852539	1130.218750	14.353769
728.128662	718.581604	3603.756592	1125.389038	14.099922
728.450256	716.575439	3619.583008	1127.840942	14.166877
728.771790	722.593994	3635.112305	1123.754272	13.773657
729.093323	715.015137	3629.093506	1122.862671	13.995764
729.414795	711.894348	3635.186279	1113.129028	13.725440
729.736145	705.727234	3620.697266	1106.070190	13.734034
730.057495	707.287598	3602.641602	1103.395386	13.680807
730.378845	709.665283	3596.771729	1112.831665	13.964375
730.700134	710.036865	3601.973389	1118.627441	14.128615
731.021301	716.872742	3615.273193	1125.611938	14.102234
731.342468	722.222412	3621.737549	1115.209595	13.553548
731.663574	730.544373	3629.316406	1109.191040	13.062313
731.984680	729.355469	3637.712891	1095.816528	12.600276
732.305664	725.714661	3642.988281	1096.262329	12.701848
732.626648	718.210144	3657.774658	1094.107544	12.787520
732.947571	715.906738	3669.885742	1094.627563	12.820702
733.268433	719.250305	3672.486328	1087.866089	12.481758
733.589233	726.383484	3667.136719	1087.271606	12.271962
733.909973	724.897400	3635.260742	1087.866089	12.471594
734.230713	718.655945	3597.143311	1089.129272	12.870418
734.551331	710.408386	3550.852539	1075.308960	12.846603
734.871948	718.730225	3513.701172	1068.770386	12.523929
735.192505	721.033630	3472.760498	1058.813843	12.275208
735.513062	716.798340	3425.578125	1055.470215	12.502747
735.833435	706.841797	3382.854248	1046.330933	12.686381
736.153931	706.395935	3337.604248	1035.928589	12.524005
736.474304	712.488770	3297.703369	1031.693237	12.347310
736.794617	720.290588	3246.657471	1019.879150	11.858474
737.114807	720.513489	3221.617188	1024.560181	12.156501
737.434998	714.717834	3205.270752	1021.067932	12.300485
737.755188	711.597168	3215.821533	1027.457886	12.613115
738.075256	713.603333	3215.004639	1016.906982	12.125349
738.395325	714.420715	3229.493408	1011.408630	11.808323
738.715271	716.426941	3248.366455	1005.315857	11.409788
739.035278	708.253601	3268.279297	1007.173401	11.676437
739.355164	710.631287	3291.759033	1012.374573	11.690367
739.675049	703.275208	3291.684814	1012.300293	11.938801
739.994873	714.049133	3296.440186	1017.947266	11.768091
740.314636	716.426819	3274.446533	1015.569641	11.694312
740.634277	725.566101	3255.276367	1011.557312	11.305295
740.953979	726.383362	3211.289063	1001.897949	11.087526
741.273499	736.785828	3173.989258	992.610107	10.496633
741.593140	732.773438	3140.776123	986.591553	10.540607
741.912598	725.194580	3102.584717	970.467834	10.316913
742.232117	717.392761	3067.662109	968.833191	10.698367
742.551453	719.176025	3034.151611	965.266602	10.630375
742.870850	726.754883	3007.328125	968.015808	10.578959
743.190063	717.541321	2961.260498	959.471008	10.782530
743.509338	711.151367	2927.601563	959.396729	11.200132
743.828552	702.235046	2911.106201	963.632019	11.833962
744.147705	705.801514	2895.577148	959.396790	11.580879
744.466797	714.866394	2866.896240	952.412354	11.038228
744.785828	716.946960	2826.698486	942.752930	10.702966
745.104858	722.593933	2808.717041	939.632141	10.403902
745.423706	704.909912	2787.318115	928.041016	10.715051
745.742615	706.247314	2771.194336	919.941956	10.348674
746.061401	703.126648	2748.903564	908.276428	10.027965
746.380249	713.380432	2740.656006	912.883240	9.840932
746.698975	710.631287	2726.389648	913.626282	10.070403
747.017639	715.535156	2717.027344	926.480652	10.539412
747.336304	717.615662	2705.287598	934.653870	10.919217
747.654907	721.256531	2700.383789	935.248291	10.812431
747.973389	721.182190	2704.916260	933.316467	10.693685
748.291931	720.142029	2701.944092	919.198975	10.044240
748.610352	721.628113	2703.207275	920.387878	10.030373
748.928711	711.968689	2704.990479	920.313477	10.453713
749.247070	706.693176	2697.486084	920.907959	10.760274
749.565308	700.228821	2705.733643	907.013367	10.310847
749.883545	709.070862	2690.947266	898.542786	9.560228
750.201782	722.816895	2682.031006	900.846191	9.086771
750.519836	726.531982	2658.031006	901.812195	9.074828
750.837952	726.977844	2651.121094	900.623291	9.024559
751.155884	721.256592	2644.730957	892.598633	8.907945
751.473877	728.241028	2636.483398	897.056824	8.846664
751.791809	731.138855	2623.480469	901.440613	8.999525
752.109619	727.497986	2620.582764	905.750183	9.415965
752.427490	721.182190	2598.143311	901.960693	9.631446
752.745300	718.804504	2588.855469	893.787415	9.357120
753.062988	719.027405	2578.081543	896.239441	9.532376
753.380615	720.067688	2584.768799	889.552246	9.089100
753.698303	715.535156	2577.561279	893.861816	9.577023
754.015808	720.810608	2562.180664	884.648193	8.897592
754.333374	721.702332	2548.137451	886.134277	9.002891
754.650757	716.575439	2547.394531	877.143555	8.770288
754.968262	718.507324	2554.676025	872.685547	8.396735
755.285583	714.346375	2567.456299	874.765930	8.656775
755.602905	724.154297	2569.239502	876.103455	8.235347
755.920105	722.668274	2563.518311	880.412903	8.569118
756.237305	728.612488	2543.605225	882.939209	8.502884
756.554443	722.668274	2527.853027	881.304504	8.787811
756.871582	724.228577	2528.373291	871.422302	8.158643
757.188599	722.371033	2535.951904	864.214905	7.821205
757.505615	719.547546	2535.580322	857.007568	7.569248
757.822510	717.541321	2547.394287	869.341797	8.295774
758.139465	713.974854	2563.443604	873.428406	8.621587
758.456238	715.683777	2593.684814	877.812317	8.633039
758.773010	712.488770	2610.180420	872.016785	8.406425
759.089783	712.860291	2614.267090	873.354187	8.440798
759.406433	714.123474	2615.901611	879.298401	8.685289
759.723145	718.804504	2616.793213	883.087891	8.655657
760.039673	719.993347	2628.458740	876.251953	8.187657
760.356201	723.931458	2638.489990	871.273621	7.695882
760.672668	715.312317	2637.672363	866.518311	7.865644
760.989136	722.445313	2629.350342	869.713318	7.722881
761.305481	716.055359	2635.220215	878.332458	8.455610
761.621826	717.244141	2650.526611	878.183899	8.324689
761.938049	713.157532	2659.814453	875.360352	8.332378
762.254333	722.296692	2681.882324	870.604980	7.568349
762.570496	730.841553	2713.906982	875.286072	7.283901
762.886597	729.058289	2816.593506	888.660583	7.645490
763.202637	726.309082	2934.883057	900.697571	7.895977
763.518677	724.971680	3101.766846	917.267090	8.090533
763.834656	721.479492	3263.152588	927.446594	8.103603
764.150574	718.210144	3404.253662	932.201965	7.966804
764.466370	712.563171	3487.546875	933.836609	7.973865
764.782288	718.507324	3513.255615	924.920227	7.385742
765.097961	723.039795	3491.856445	922.988464	7.221448
765.413696	724.971680	3425.949951	909.911133	6.847128
765.729309	724.154297	3314.050049	900.326111	6.802274
766.044861	724.897278	3179.784912	891.707031	6.795005
766.360474	722.148132	3030.882080	884.722473	7.041710
766.675903	718.730225	2884.951904	871.793884	7.065928
766.991394	715.758118	2770.674072	860.202576	7.029215
767.306763	712.860352	2676.384033	842.741455	6.614695
767.622131	713.380432	2601.115479	845.044861	6.974730
767.937378	708.625061	2516.930420	838.357605	7.174261
768.252625	708.550720	2457.339600	845.639221	7.839054
768.567810	702.309326	2409.488525	837.168701	7.899544
768.882996	700.080261	2374.194824	834.270935	8.015621
769.197998	709.219482	2327.235596	822.233887	6.984752
769.513062	715.386536	2300.040771	828.029541	7.108365
769.828064	725.566101	2265.935791	822.902649	6.319038
770.142944	721.182190	2251.818359	819.633301	6.432038
770.457825	722.073792	2221.577148	804.475586	5.495272
770.772705	719.473328	2191.855957	798.977234	5.399677
771.087402	718.804504	2160.426025	807.299072	6.138544
771.402100	718.878845	2129.070068	813.540466	6.712680
771.716736	718.210144	2110.123047	815.546692	6.993006
772.031372	721.925232	2092.141846	804.029785	5.992086
772.345947	718.804504	2081.367920	795.559265	5.633114
772.660461	715.906738	2072.154297	790.878174	5.527858
772.974854	716.055359	2058.631104	787.014465	5.285296
773.289246	714.569275	2037.677734	794.519043	6.042571
773.603638	716.203857	2022.148560	792.438477	5.837507
773.917908	709.293762	2000.749390	798.308411	6.892583
774.232178	712.563049	1989.455444	796.450867	6.569686
774.546265	711.820068	1975.189087	801.354797	7.086981
774.860474	720.216248	1961.145996	803.955383	6.748097
775.174561	719.696106	1947.771484	798.457031	6.413362
775.488586	720.439148	1931.870728	793.627380	6.041466
775.802551	715.906738	1927.115356	790.655273	6.171401
776.116516	718.507324	1913.889282	796.822449	6.551473
776.430359	714.717834	1903.635620	800.314636	7.199556
776.744202	711.968689	1891.004272	799.348694	7.411142
777.057922	715.906738	1889.889648	786.419983	6.006326
777.371704	719.176025	1890.335571	784.933899	5.614767
777.685303	723.708496	1875.400757	786.048523	5.412907
777.998962	716.055359	1861.729004	789.986511	6.453073
778.312500	714.197754	1853.927124	791.472595	6.780105
778.626038	717.764343	1852.441040	783.373535	5.782192
778.939453	720.216309	1855.561646	782.333313	5.471199
779.252869	731.510254	1853.332642	775.348877	3.907804
779.566223	727.646545	1851.549438	780.104309	4.667464
779.879578	726.011902	1843.227539	778.098145	4.662148
780.192749	713.008972	1838.695190	777.875244	5.762376
780.505920	713.529053	1835.723022	775.497498	5.522079
780.819031	715.163757	1826.360962	780.029968	5.837506
781.132141	722.445374	1821.159668	788.723389	6.032324
781.445190	723.485596	1810.014282	786.568604	5.805922
781.758118	725.045959	1803.624390	782.407654	5.318269
782.071045	720.810730	1779.847534	781.144531	5.697044
782.383911	714.420593	1757.036499	781.961853	6.478057
782.696838	718.284363	1744.850708	775.720459	5.594971
783.009583	715.312195	1728.875610	768.958923	5.292883
783.322266	720.810730	1730.584595	769.404724	4.812364
783.634888	713.454773	1711.340332	775.348938	6.202531
783.947510	715.832458	1707.773804	776.612061	6.127338
784.260132	712.340271	1697.817017	774.234375	6.280625
784.572571	707.064697	1708.145386	781.887512	7.474204
784.885010	707.882019	1696.033813	777.726563	7.068200
785.197449	710.111084	1690.089722	777.280762	6.854198
785.509766	723.039795	1672.034180	774.903076	5.465078
785.822083	720.587830	1672.405640	777.577942	5.987502
786.134277	718.804504	1652.418091	781.218750	6.685233
786.446533	711.002747	1654.275757	772.599670	6.530127
786.758606	717.244141	1650.337524	770.296326	5.685625
787.070740	721.479431	1660.294312	766.061035	4.748711
787.382690	727.943665	1667.947388	766.135315	4.062925
787.694641	725.640381	1680.133179	771.113586	4.764122
788.006653	723.188293	1705.767578	776.834961	5.459780
788.318481	720.959290	1727.092407	777.355042	5.605198
788.630310	717.689941	1766.918823	777.280762	5.679487
788.942017	711.745789	1792.255859	775.571777	5.907024
789.253784	707.213379	1801.840942	774.903137	6.183816
789.565430	701.120544	1793.816284	770.742188	6.371549
789.877014	708.179199	1792.255859	776.686340	6.319400
790.188538	704.761292	1779.773071	779.286926	6.932542
790.500061	720.364929	1759.859985	778.841125	5.625442
790.811462	720.067688	1734.151245	767.472839	4.674679
791.122925	719.176025	1706.213257	767.101257	4.855464
791.434204	715.163635	1673.965942	759.225159	4.595475
791.745483	713.751892	1653.681274	750.903259	3.952570
792.056702	725.120300	1639.415405	747.485352	2.446152
792.367920	722.519714	1622.474243	758.927917	4.045560
792.678955	721.405090	1592.753296	768.141541	5.363694
792.990112	717.838623	1583.762573	770.816406	6.118064
793.301086	723.262695	1575.440430	760.488464	4.368310
793.612122	724.674500	1572.542603	756.030273	3.698190
793.922974	717.615662	1553.001099	755.584412	4.545058
794.233826	708.402161	1553.001099	762.568848	6.413303
794.544556	711.002747	1556.419067	767.175598	6.644401
794.855286	718.507324	1558.945435	768.215820	5.914593
795.166016	723.336975	1563.329224	772.599792	5.864675
795.476624	718.135742	1568.159058	770.147766	6.118894
795.787292	713.900574	1584.059937	769.256104	6.361539
796.097778	703.944031	1604.195801	761.379944	6.379983
796.408264	701.863464	1619.873657	760.711243	6.410362
796.718689	705.652893	1635.180054	758.705078	5.707438
797.029053	709.739563	1634.659790	761.900146	5.639468
797.339355	719.993408	1641.272827	762.420227	4.605206
797.649658	720.439209	1637.780640	759.448059	4.252381
797.959839	725.194580	1624.703491	757.441895	3.584991
798.270020	714.643555	1607.093628	758.705078	4.937141
798.580078	708.476379	1592.381714	760.116882	5.842311
798.890137	708.625000	1577.595337	756.996094	5.566484
799.200195	712.711670	1560.951538	754.469910	4.922928
799.510071	716.946960	1545.050781	755.807312	4.692691
799.820007	721.330872	1541.261230	753.652527	3.942000
800.129883	717.318542	1535.242798	754.841309	4.587560
800.439575	717.838562	1534.499634	759.002258	5.040487
800.749329	713.083191	1531.601929	762.271667	6.009450
801.058960	722.668274	1517.484497	761.454346	4.879879
801.368591	726.903503	1505.521851	750.680359	3.053724
801.678162	729.875671	1487.763306	754.469788	3.245087
801.987671	715.980957	1484.494019	750.085999	4.437796
802.297119	706.544617	1480.110229	765.095154	7.568917
802.606506	702.829407	1475.800659	760.934265	7.517079
802.915894	709.739563	1466.067017	766.135315	7.456526
803.225159	716.055359	1454.475708	754.692688	5.232430
803.534424	712.785950	1441.249878	752.389343	5.436562
803.843628	716.501160	1443.776245	749.863037	4.587243
804.152771	716.055359	1439.169434	750.011719	4.695851
804.461792	720.885010	1456.853516	751.497742	4.159516
804.770874	718.804504	1455.813354	748.897156	4.083079
805.079773	714.123474	1465.175293	750.457520	4.837755
805.388733	713.231750	1466.438477	742.061279	3.827572
805.697571	712.340149	1480.481812	744.959045	4.246469
806.006470	714.792175	1493.336060	748.228333	4.294704
806.315125	711.671448	1498.908813	756.178772	5.653609
806.623901	714.940735	1499.800415	755.881592	5.216328
806.932495	717.467102	1496.902710	747.633972	3.870348
807.241150	727.869446	1487.911987	748.376953	2.698205
807.549622	728.389648	1471.045288	750.085938	2.921447
807.858154	724.525818	1462.649048	756.921875	4.388977
808.166565	714.940735	1455.664673	755.064270	5.416800
808.474915	707.659119	1453.361328	750.011658	5.679551
808.783264	711.820068	1444.147583	750.085938	5.225240
809.091492	712.934570	1439.243774	746.668030	4.644504
809.399719	720.364929	1433.522461	745.256348	3.490311
809.707825	729.355469	1415.689819	740.500977	1.623918
810.015930	735.448425	1397.336914	742.507080	1.066442
810.323975	737.751770	1378.538452	748.228455	1.634972
810.632080	723.411316	1365.312622	745.776428	3.484198
810.939880	714.792175	1359.293945	738.197571	3.631549
811.247864	707.436218	1363.380737	734.631042	4.145903
811.555664	714.792175	1369.845093	734.853943	3.062618
811.863464	720.439148	1368.878906	736.117004	2.417782
812.171143	721.405090	1363.603394	726.903503	0.856186
812.478882	720.662109	1358.550903	727.572266	1.083285
812.786438	717.467041	1349.188721	731.807434	2.270049
813.094055	716.352478	1340.643921	738.569031	3.558683
813.401489	716.426819	1334.551147	740.203796	3.846633
813.708984	720.662109	1333.362305	732.327637	1.903954
814.016357	731.287415	1332.693726	730.395752	-0.148263
814.323730	730.767273	1334.922729	726.457703	-0.713321
814.630981	725.120300	1334.254028	740.352356	2.500609
814.938232	713.454773	1329.424194	748.228455	5.645359
815.245361	703.944031	1329.870117	753.206726	7.870369
815.552490	707.733398	1332.396362	750.160217	6.791954
815.859619	710.036804	1335.591431	751.423401	6.615984
816.166565	714.197754	1333.362305	749.714417	5.736224
816.473572	719.176025	1335.219849	752.389343	5.391389
816.780457	718.878845	1342.724487	746.445129	4.418767
817.087341	721.033630	1345.176514	748.748535	4.440475
817.394043	714.197754	1351.120728	746.073547	5.004654
817.700806	716.872742	1357.510742	741.318298	3.815814
818.007507	713.306152	1361.077271	742.358582	4.484984
818.314209	713.900574	1368.507446	740.723816	4.097611
818.620667	707.882019	1378.018188	742.507141	5.166879
818.927246	708.773682	1391.169922	736.414307	4.050524
819.233704	704.909912	1416.209839	736.860107	4.491804
819.540161	706.395996	1448.160034	742.581360	4.878285
819.846497	714.940735	1497.720093	747.931152	4.214523
820.152832	721.256531	1550.772095	752.463684	3.762094
820.458984	724.897400	1622.325562	755.064270	3.361480
820.765259	720.439148	1707.699585	757.293396	3.732981
821.071350	718.878723	1817.072876	745.776367	2.449261
821.377502	713.677551	1986.483276	749.565918	2.819627
821.683472	714.346375	2318.467773	756.550293	2.630968
821.989441	713.677673	2881.905273	782.927734	3.193856
822.295349	713.603333	3673.823486	800.166016	2.924197
822.601196	712.414551	4554.385254	816.586914	2.711431
822.907043	707.510498	5302.093750	829.144043	2.647325
823.212769	709.813904	5731.935059	843.484436	2.661635
823.518494	713.528992	5798.510254	852.920898	2.741247
823.824097	725.120300	5562.152832	851.583496	2.614479
824.129700	725.863342	5157.426270	835.534119	2.474765
824.435242	721.628113	4717.183105	813.466248	2.298508
824.740723	718.061523	4328.431152	797.491150	2.200041
825.046082	719.993347	3971.703857	795.484924	2.321596
825.351501	726.160461	3625.601563	792.512756	2.288451
825.656799	724.822998	3279.053467	789.689270	2.539562
825.962036	724.302917	2968.616455	785.008301	2.704853
826.267212	713.454773	2724.309326	782.110413	3.414252
826.572449	712.637451	2581.202393	781.293152	3.674248
826.877502	712.191589	2589.078369	771.559509	3.163106
827.182495	718.433044	2703.578857	764.723633	2.331848
827.487488	715.832458	2871.205811	759.893982	2.044264
827.792419	718.358704	2996.703125	764.575012	2.028504
828.097290	722.222473	3038.238281	773.937073	2.232912
828.402100	727.423645	2962.969971	781.515930	2.419645
828.706848	728.315247	2815.181641	779.658447	2.460301
829.011597	722.742615	2617.462158	773.268494	2.666668
829.316223	718.730286	2436.832031	768.364441	2.888895
829.620789	717.690002	2276.041016	759.968262	2.713012
829.925354	721.107910	2130.779053	765.986755	3.183639
830.229797	716.055359	1988.415039	756.847473	3.206021
830.534302	722.296692	1851.846680	763.757751	3.670582
830.838562	720.810730	1736.083130	747.411072	2.620020
831.142944	728.018066	1632.059204	742.284180	1.578038
831.447144	723.708496	1543.490356	727.200684	0.425990
831.751404	723.782776	1481.967773	731.435974	1.009410
832.055542	717.467102	1443.404785	731.807434	1.975422
832.359619	709.219482	1432.482056	730.692871	2.968962
832.663635	708.996582	1436.643188	730.544373	2.961299
832.967651	710.333984	1474.389038	735.076721	3.238345
833.271545	716.501160	1550.920776	743.398743	3.223508
833.575439	714.123474	1668.393188	750.085999	3.768591
833.879211	713.603333	1814.918335	747.634033	3.090006
834.183044	708.179260	1944.576660	745.330627	3.004808
834.486694	703.275330	2039.609741	739.683594	2.724487
834.790344	705.207092	2069.553711	745.033386	2.919074
835.093933	710.185364	2056.773682	750.977600	3.029303
835.397522	719.324646	2002.829712	752.686523	2.599279
835.700928	722.148132	1941.604370	750.160339	2.297106
836.004395	715.312317	1856.824829	745.033386	2.603657
836.307739	713.083191	1772.342773	736.042725	2.167508
836.611023	715.089355	1688.232056	734.185242	1.962290
836.914307	721.479492	1620.616699	731.361633	1.099069
837.217529	720.364929	1545.125122	742.804260	2.720710
837.520691	713.008972	1466.587280	741.689697	3.805938
837.823730	710.631165	1384.779785	739.089172	4.221325
838.126831	705.875793	1328.755493	732.401917	4.258627
838.429749	714.049133	1285.214233	736.414307	3.915711
838.732727	717.169861	1257.053467	735.002502	3.303053
839.035522	720.067688	1227.480957	731.733215	2.299019
839.338379	713.826355	1213.957886	727.349365	2.703891
839.641113	708.476501	1221.090942	734.185242	5.015220
839.943848	711.225647	1245.759399	737.454529	4.906871
840.246460	711.597168	1280.533203	730.172852	3.264986
840.549072	714.866455	1307.727905	731.510254	2.807367
840.851563	722.445313	1320.062134	730.247070	1.305478
841.154053	722.371094	1316.049805	735.076843	2.140173
841.456482	725.863281	1289.895142	726.011902	0.026350
841.758850	716.426819	1264.780884	726.309082	1.802168
842.061157	716.946960	1241.524170	727.275085	1.968847
842.363403	709.665283	1220.422241	735.968445	5.149839
842.665588	710.036804	1204.521362	733.739441	4.793403
842.967712	717.244141	1179.184204	740.575195	5.050667
843.269775	718.210144	1167.147095	725.194580	1.555772
843.571777	719.175964	1142.998901	723.485596	1.016847
843.873840	709.070801	1116.249878	715.015076	1.459867
844.175659	714.346375	1091.729858	726.383484	3.189623
844.477600	716.501221	1069.587769	733.887939	4.924209
844.779297	716.946960	1061.786011	733.739441	4.869658
845.081116	711.522888	1046.925415	733.590820	6.579536
845.382751	708.253479	1037.786011	726.531982	5.546798
845.684387	715.386658	1030.801636	730.618652	4.829192
845.985962	720.587830	1017.873047	732.773438	4.098962
846.287537	726.086243	1009.179626	731.956116	2.073476
846.588989	718.135803	1011.780273	727.572266	3.213567
846.890381	713.529053	1010.665710	716.055359	0.850217
847.191711	708.402100	1021.142334	712.637390	1.354252
847.493042	717.764343	1001.229187	712.340149	-1.913533
847.794250	725.714661	994.021790	721.330811	-1.633893
848.095459	727.795166	984.362488	721.627930	-2.403750
848.396606	729.058289	981.167419	725.789001	-1.296775
848.697693	728.686829	985.179749	727.497986	-0.463499
848.998657	729.206970	980.275696	731.733215	1.006197
849.299622	724.525879	984.288086	725.789001	0.486261
849.600464	724.748718	978.641113	722.222473	-0.995006
849.901367	723.485596	977.823792	725.640381	0.847213
850.202087	723.039795	982.504883	730.098572	2.720511
850.502808	723.336975	985.774170	728.018066	1.783700
850.803467	717.838562	978.566895	728.389587	4.046751
851.104065	714.346375	974.405945	732.847717	7.114271
851.404663	710.408386	965.341003	735.299744	9.763897
851.705139	712.042969	965.341003	725.343201	5.250823
852.005615	712.637390	960.214050	719.993347	2.971184
852.306030	711.894348	962.368896	718.878845	2.788506
852.606384	716.501160	969.501953	724.897278	3.318613
852.906616	721.107910	973.439941	724.674500	1.413451
853.206909	718.358704	973.960022	730.024231	4.563954
853.506958	723.188416	976.560730	728.018066	1.906148
853.807129	715.089417	973.514221	724.451477	3.622741
854.107178	717.095520	973.365662	721.999512	1.913602
854.407166	708.699402	965.415222	719.027527	4.023174
854.707092	713.157532	960.511230	721.256531	3.274258
855.007019	711.077087	960.065430	715.089355	1.611428
855.306763	710.259705	961.997375	726.234802	6.345931
855.606567	708.847961	957.613464	726.309082	7.019108
855.906250	710.408386	958.579407	730.024231	7.904164
856.205933	712.637390	953.080994	727.423645	6.149573
856.505493	709.368103	953.898254	722.891174	5.530227
856.805054	705.281433	950.406067	727.795227	9.184631
857.104492	706.395996	949.514465	730.024231	9.718815
857.403931	714.197754	956.573242	731.361633	7.081524
857.703308	723.708496	955.830261	726.234802	1.088354
858.002563	725.417480	950.034607	720.216248	-2.315599
858.301819	726.457764	947.285339	725.714661	-0.336508
858.601013	728.018066	955.161438	725.194580	-1.243042
858.900208	725.120300	963.780579	719.919128	-2.179320
859.199219	715.683777	965.415222	720.662109	1.993474
859.498291	706.693176	958.728027	720.290527	5.395028
859.797302	708.550781	953.378235	725.863281	7.071307
860.096191	720.216309	946.913879	722.073792	0.819366
860.395020	724.154297	941.043945	727.126404	1.370331
860.693787	723.782776	946.096497	732.550537	3.943869
860.992554	723.559875	945.576416	729.058350	2.476606
861.291260	720.736389	952.560852	723.559875	1.217942
861.589844	713.826233	948.920105	713.603333	-0.094813
861.888428	708.847961	954.418457	715.089355	2.541589
862.186890	713.751953	944.536194	724.228699	4.539628
862.485413	721.033630	937.997559	729.281250	3.801378
862.783813	720.736328	930.344421	733.367859	6.026261
863.082153	715.015076	939.334961	721.850891	3.047352
863.380371	709.888184	951.074890	722.965515	5.422078
863.678589	708.922302	960.214111	722.965515	5.588408
863.976746	710.408264	963.483398	728.761047	7.251911
864.274902	708.179199	968.833191	731.287354	8.865452
864.572937	703.646790	968.461670	735.968445	12.205378
864.870911	702.978027	965.341003	741.318176	14.613400
865.168884	709.293762	956.201660	739.832214	12.368358
865.466736	716.649719	949.514465	729.206848	5.392456
865.764587	721.405090	941.341248	725.120300	1.689222
866.062317	722.816895	936.511414	726.531982	1.738504
866.360107	714.346375	937.848877	735.225403	9.341743
866.657715	707.882019	948.845642	735.374084	11.409218
866.955322	701.492004	955.012878	733.888000	12.778434
867.252808	706.544617	959.173828	724.228699	7.000015
867.550293	704.018311	948.994324	717.912903	5.671817
867.847717	703.349548	945.650696	715.609558	5.059823
868.145081	700.451843	942.232727	718.804504	7.590617
868.442383	710.333984	949.663086	717.392761	2.949402
868.739624	720.364929	947.879883	718.358704	-0.881799
869.036804	733.665039	944.833496	722.965515	-5.066819
869.333984	724.971680	951.372070	725.789001	0.361007
869.631042	717.615662	950.108887	722.445313	2.077330
869.928101	710.779785	955.830078	721.925232	4.548228
870.224976	714.792175	951.297668	720.810730	2.544784
870.521851	714.940735	965.192383	727.572266	5.047532
870.818726	716.501160	963.111816	728.240906	4.760437
871.115479	716.798340	963.854797	739.089172	9.022566
871.412231	713.751892	966.232605	736.488586	9.005320
871.708862	707.287598	970.987976	734.928223	10.481830
872.005493	706.916077	966.678406	726.383362	7.494268
872.302063	716.575500	954.789978	730.395691	5.801575
872.598572	724.600159	952.486572	730.098572	2.412787
872.895020	728.463867	955.755920	722.519714	-2.615205
873.191406	722.891174	961.774414	719.101746	-1.586310
873.487671	722.816895	964.523621	723.634094	0.338096
873.783997	720.513489	968.090149	728.761047	3.331315
874.080200	721.999512	969.353271	717.318542	-1.892419
874.376343	720.736389	972.994202	711.077087	-3.829139
874.672424	724.154297	977.080811	711.522888	-4.994102
874.968445	725.045959	972.919861	718.284424	-2.727813
875.264465	718.804504	970.542175	723.485596	1.859512
875.560364	712.042969	968.758850	730.024231	7.004344
875.856201	713.157532	974.926025	735.671204	8.600604
876.152039	719.324707	973.439941	735.745605	6.461989
876.447754	728.315247	971.285156	737.528809	3.792059
876.743469	731.064453	971.656677	738.123230	2.933917
877.039063	727.943787	976.783508	738.420410	4.210189
877.334595	722.073914	991.569824	740.500916	6.837581
877.630127	718.507324	990.826843	741.318176	8.376503
877.925537	719.547546	994.096130	743.027161	8.552080
878.221008	721.999512	986.517273	735.076843	4.943839
878.516296	718.730225	997.811218	727.274963	3.061742
878.811646	722.073914	1001.377747	715.163635	-2.474108
879.106812	720.067688	1012.003113	715.312317	-1.628912
879.401978	720.439148	1016.832703	718.358704	-0.701920
879.697083	720.216309	1046.925415	727.200745	2.137815
879.992126	717.764343	1072.634033	728.241028	2.952262
880.287109	720.067688	1120.336426	727.572266	1.874885
880.582031	709.665222	1193.078857	733.516418	4.933910
880.876892	708.327820	1318.501831	733.293640	4.091590
881.171753	705.429932	1546.388184	733.144958	3.295648
881.466492	708.922180	1874.286133	735.596924	2.288962
881.761230	712.860352	2293.650635	734.928223	1.396002
882.055786	714.717957	2702.018311	740.278015	1.286170
882.350403	721.479431	2982.436768	742.284180	0.920174
882.644958	723.708496	3109.123047	751.869324	1.180542
882.939453	728.389648	3064.318359	755.584412	1.164195
883.233826	727.572266	2958.734375	749.863037	0.999066
883.528137	726.160583	2806.710938	746.742371	0.989247
883.822449	720.216309	2667.988037	750.754700	1.567863
884.116577	714.866455	2530.230713	742.358459	1.514407
884.410828	712.117249	2394.776611	740.426575	1.682416
884.704956	714.940857	2234.060059	730.172852	1.002686
884.999023	717.912903	2037.900757	734.779602	1.277792
885.292969	718.878845	1817.295898	733.516541	1.332617
885.586914	715.312256	1625.074829	723.708496	0.922905
885.880798	714.420654	1481.967773	720.439209	0.784128
886.174622	713.677673	1388.495117	717.838562	0.616595
886.468384	715.683838	1312.706177	723.634094	1.331651
886.762085	712.191650	1254.601440	722.742493	1.945179
887.055664	717.541443	1199.914673	720.364929	0.585332
887.349304	721.925232	1163.952148	718.507324	-0.773235
887.642822	725.120300	1132.596436	718.804443	-1.549994
887.936340	718.878845	1113.054810	721.479309	0.659722
888.229736	715.758118	1088.757813	715.015076	-0.199207
888.523071	720.513489	1067.878784	709.145081	-3.272753
888.816284	730.395752	1051.160522	708.625000	-6.787139
889.109619	727.274963	1041.798462	721.776611	-1.748153
889.402710	719.398926	1027.012207	724.822998	1.763276
889.695862	713.900574	1023.817200	723.782776	3.188665
889.988892	713.528992	1012.448914	723.411316	3.306010
890.281921	708.847961	998.628540	732.699158	8.230778
>>>>>End Processed Spectral Data<<<<<
