Jaz Data File
++++++++++++++++++++++++++++++++++++
Date: Fri Jun 04 17:00:31 2021
User: jaz
Dark Spectrum Present: Yes
Reference Spectrum Present: Yes
Processed Spectrum Present: Yes
Spectrometers: JAZA3586
Integration Time (usec): 27600 (JAZA3586)
Spectra Averaged: 10 (JAZA3586)
Boxcar Smoothing: 1 (JAZA3586)
Correct for Electrical Dark: No (JAZA3586)
Strobe/Lamp Enabled: Yes (JAZA3586)
Correct for Detector Non-linearity: No (JAZA3586)
Correct for Stray Light: No (JAZA3586)
Number of Pixels in Processed Spectrum: 2048
>>>>>Begin Processed Spectral Data<<<<<
W	D	R	S	P
191.335022	0.000000	0.000000	0.000000	0.000000
191.713211	231.675903	230.932861	228.703781	399.993835
192.091385	465.135040	462.162933	457.333252	262.500244
192.469528	702.606506	697.033875	692.798584	176.001617
192.847641	708.922302	696.959473	705.281433	30.434849
193.225739	719.473328	706.618896	720.587708	-8.669228
193.603790	726.086243	718.135742	730.767273	-58.877178
193.981842	730.692932	724.451477	732.922058	-35.714844
194.359863	736.488586	730.990173	736.785828	-5.405945
194.737854	735.596924	736.191406	731.436035	-699.917847
195.115829	734.110840	743.101563	735.002502	9.917585
195.493774	730.470032	743.250061	731.956055	11.627696
195.871704	732.104736	739.312073	739.312012	99.999153
196.249603	736.488586	745.999329	736.042786	-4.687340
196.627457	737.008606	745.330627	732.847717	-49.998531
197.005310	737.603088	743.695984	728.761047	-145.120514
197.383133	737.454529	740.872375	731.733215	-167.395264
197.760910	741.020996	746.965271	730.247131	-181.247757
198.138687	738.420410	749.194336	732.550537	-54.482212
198.516449	738.569031	749.268616	734.928223	-34.027565
198.894180	729.801270	742.804382	733.665039	29.714190
199.271866	731.956116	741.318298	728.018066	-42.063370
199.649536	734.185120	735.374023	717.244141	-1424.924316
200.027191	735.076843	741.466858	721.553711	-211.629135
200.404816	735.522644	741.243958	728.389587	-124.675156
200.782410	738.048889	759.299500	731.213074	-32.167618
201.159988	738.940613	763.980652	732.550537	-25.519432
201.537537	732.773438	768.587402	732.773438	0.000000
201.915070	718.358704	755.435791	734.333801	43.086170
202.292557	719.101746	752.017883	725.863281	20.541704
202.670029	722.965515	753.949768	729.355469	20.623230
203.047485	724.674377	760.859924	732.253357	20.944769
203.424911	728.538147	759.002258	745.330566	55.121975
203.802292	722.222473	764.203552	739.683594	41.592834
204.179688	722.816895	765.838196	742.432800	45.595798
204.557037	718.655945	772.822571	745.850769	50.205868
204.934357	727.646545	768.438782	744.587585	41.530060
205.311661	726.532043	775.646179	743.101501	33.736637
205.688934	725.863281	769.181824	736.562805	24.699640
206.066177	720.439209	765.763855	736.785828	36.065628
206.443390	720.885010	763.832031	737.231628	38.062286
206.820587	713.157532	765.392334	729.578430	31.436701
207.197769	708.550781	775.646057	730.692932	33.001057
207.574921	709.888184	768.884521	722.816895	21.914429
207.952042	709.962463	768.141602	725.120300	26.053732
208.329147	711.374207	761.528625	722.965515	23.111240
208.706223	725.417480	769.850403	734.185242	19.732578
209.083267	732.847717	768.290100	730.915955	-5.450431
209.460297	737.825989	768.513123	730.321472	-24.454929
209.837280	722.816895	754.618469	724.823059	6.308381
210.214264	714.866516	756.104492	727.720886	31.171196
210.591217	711.671570	758.259277	723.336975	25.039663
210.968124	709.368103	758.630798	724.600098	30.919937
211.345016	717.541443	761.677246	724.600098	15.993035
211.721893	717.689941	762.940369	728.538086	23.973574
212.098724	722.742615	763.906250	725.268799	6.136931
212.475555	729.206970	753.726807	735.374023	25.151281
212.852356	729.949890	747.931213	736.711487	37.603443
213.229126	728.463867	746.890930	738.717712	55.645576
213.605865	714.272034	757.218994	733.219238	44.117683
213.982590	717.987244	760.191101	731.064453	30.985815
214.359283	719.027527	765.318054	728.761047	21.027025
214.735931	725.714661	756.624695	727.869446	6.971151
215.112579	720.662109	753.503906	729.727051	27.601843
215.489197	722.148132	752.760925	725.863281	12.135936
215.865799	721.330811	760.191223	730.024231	22.370892
216.242355	714.420654	762.271667	727.423645	27.173908
216.618896	715.981018	764.352051	730.915833	30.875534
216.995407	709.665283	762.643127	721.479492	22.300283
217.371902	711.374268	757.590515	719.176086	16.881117
217.748367	712.414490	760.191101	721.107910	18.195976
218.124802	714.197754	759.002258	721.553711	16.417896
218.501236	715.683777	761.900146	725.566101	21.382736
218.877609	709.293762	758.333496	722.742493	27.424150
219.253983	706.247314	759.745300	721.999512	29.444468
219.630295	702.532227	761.379883	722.519592	33.964592
220.006592	704.538391	761.157043	724.080017	34.514465
220.382889	706.173096	757.739075	724.748718	36.023018
220.759140	712.340149	759.596680	723.782898	24.214111
221.135391	711.374207	757.441956	721.330811	21.612959
221.511581	714.717834	759.968262	722.668274	17.569866
221.887772	713.231750	760.785583	725.120300	25.000193
222.263931	711.894348	765.763855	729.355469	32.413738
222.640060	710.779785	770.519226	730.990051	33.830692
223.016159	712.340149	770.147705	732.253235	34.447201
223.392212	712.711670	773.565613	730.321472	28.937817
223.768265	714.123474	776.017578	725.937683	19.087778
224.144302	718.953125	781.293152	720.290588	2.145433
224.520294	716.649719	776.389160	717.987244	2.238930
224.896286	716.501160	765.020813	721.033630	9.341515
225.272217	714.346375	756.104492	714.717834	0.889552
225.648148	718.581543	755.510071	722.593933	10.865286
226.024048	713.306091	753.875427	722.668274	23.076992
226.399902	713.529053	756.550293	728.389587	34.542320
226.775772	708.996582	757.070496	714.866516	12.210227
227.151581	711.597168	762.494568	711.745789	0.292000
227.527374	708.625000	758.630798	714.123352	10.995429
227.903137	712.191589	750.531738	723.411316	29.263649
228.278870	722.371094	753.206726	728.240967	19.036007
228.654572	722.222473	754.544128	729.132629	21.379339
229.030273	721.776611	763.683350	721.925293	0.354792
229.405930	715.535156	769.701904	724.600098	16.735250
229.781555	711.002747	774.680176	725.937561	23.453859
230.157181	709.293762	773.119812	734.928223	40.163006
230.532761	703.869629	770.816406	730.618652	39.955654
230.908325	712.563171	775.646179	727.943848	24.381647
231.283859	713.380432	775.274597	726.309143	20.888416
231.659332	713.826233	770.370605	719.324646	9.724068
232.034821	711.597168	771.782410	724.823059	21.975306
232.410263	711.820068	775.348816	718.581604	10.643270
232.785690	711.522888	779.361145	726.680603	22.343904
233.161087	715.832458	769.256042	724.525818	16.272512
233.536469	718.358704	764.797852	731.435974	28.160013
233.911804	726.977783	756.327393	730.544434	12.152292
234.287140	722.891113	756.847473	724.823059	5.689496
234.662430	717.838623	762.123047	724.897400	15.939638
235.037704	715.386536	767.695740	716.798340	2.698959
235.412933	709.962463	775.868958	719.993347	15.219872
235.788162	705.652893	774.828674	716.129578	15.145018
236.163345	713.751953	778.841064	730.767273	26.141577
236.538513	718.730164	776.983582	726.680664	13.648127
236.913635	729.801270	774.903076	729.355530	-0.988297
237.288742	723.262695	766.506836	720.216309	-7.044623
237.663834	720.662109	760.636963	723.485596	7.063156
238.038879	717.169861	758.333557	724.971680	18.953154
238.413910	707.436218	760.488342	733.590759	49.299706
238.788910	710.779785	764.054871	731.510254	38.912128
239.163879	711.374268	771.559509	726.011902	24.320969
239.538834	715.758118	775.497498	719.696106	6.591947
239.913757	718.730286	776.983582	722.073914	5.739809
240.288651	724.525879	770.296326	723.336975	-2.597536
240.663528	716.575439	771.485168	730.915833	26.116306
241.038361	707.213318	772.005310	732.179016	38.532074
241.413177	701.343323	779.509827	734.259521	42.110363
241.787979	709.888184	783.447937	724.005676	19.191870
242.162735	714.197754	788.203308	725.714661	15.562220
242.537476	716.426819	789.912292	726.160461	13.245669
242.912170	720.067688	788.723389	721.256531	1.731601
243.286865	716.278320	781.813293	719.621887	5.101958
243.661514	708.625183	786.642883	718.878845	13.142738
244.036148	708.847961	787.608826	721.405090	15.943361
244.410751	717.021301	791.992676	726.457703	12.586673
244.785339	724.080017	789.837952	721.405090	-4.067839
245.159882	722.445313	787.014465	724.377197	2.991962
245.534378	713.380371	785.156921	714.717834	1.863371
245.908890	708.104919	788.128967	720.141907	15.041713
246.283356	706.544495	793.850281	725.417480	21.617107
246.657791	709.516663	809.973938	731.361755	21.745655
247.032196	707.956299	816.289734	727.349304	17.901218
247.406586	709.368103	823.794250	718.210144	7.727291
247.780960	714.494934	820.747864	719.547546	4.755269
248.155289	716.352539	815.992493	724.377258	8.053717
248.529602	716.798340	819.707581	735.819824	18.483747
248.903870	715.535156	817.998718	735.002502	18.999287
249.278122	722.816895	812.871765	727.572266	5.280526
249.652344	721.256531	806.110291	723.559875	2.714488
250.026550	722.593994	799.423035	721.553711	-1.354023
250.400711	720.439209	801.280579	726.086243	6.985327
250.774857	723.336914	803.732605	723.857117	0.647053
251.148987	726.383362	804.475586	724.005676	-3.044715
251.523071	721.405090	809.156555	722.445374	1.185488
251.897125	712.488831	808.785095	727.572266	15.663572
252.271164	703.944031	813.763428	721.479492	15.967545
252.645187	706.544617	813.466125	723.114075	15.496842
253.019165	712.340149	814.357849	723.634277	11.070754
253.393112	720.513489	812.500244	733.442200	14.054970
253.767044	725.491699	808.413574	731.064453	6.720487
254.140930	728.909668	803.138123	723.857117	-6.806758
254.514801	723.039795	804.772766	713.380371	-11.818271
254.888657	715.832336	808.339355	713.528992	-2.489913
255.262466	713.454773	814.506348	712.934570	-0.514789
255.636276	716.724121	815.918152	725.640320	8.988645
256.010010	724.302917	809.156555	730.618652	7.443093
256.383759	720.662109	806.927551	731.956116	13.092156
256.757446	715.163757	814.803528	728.835388	13.721058
257.131134	704.984192	827.880859	724.377258	15.779978
257.504791	706.916077	843.335876	721.033630	10.348611
257.878418	710.408386	848.091309	720.216309	7.123558
258.252014	716.203918	855.595886	723.336975	5.117265
258.625580	716.129639	856.858948	735.448303	13.727534
258.999115	718.284363	865.626709	736.414246	12.304598
259.372650	716.575439	880.784485	732.104736	9.457029
259.746124	715.980957	905.527283	720.810730	2.548070
260.119598	715.312317	932.647705	710.111084	-2.393183
260.493042	711.597168	952.486572	712.860352	0.524383
260.866425	711.894348	954.715637	720.513489	3.549582
261.239838	709.665283	939.483582	721.256531	5.043657
261.613159	713.529053	913.997742	722.742615	4.596011
261.986511	715.832458	896.462402	718.433044	1.439731
262.359802	722.371094	892.301453	724.451599	1.224328
262.733063	729.652771	893.415833	721.330811	-5.081708
263.106293	728.389587	898.245544	725.714661	-1.574821
263.479523	721.925232	898.171204	732.699036	6.112936
263.852692	713.751953	892.970032	732.922058	10.696524
264.225861	712.265869	893.044373	738.271790	14.385516
264.598969	713.380371	885.836914	730.767273	10.081903
264.972076	707.361877	894.084656	731.213074	12.773587
265.345154	707.882019	894.307556	727.646484	10.601802
265.718201	708.030701	913.774841	727.200745	9.317419
266.091217	721.330872	928.115234	729.132629	3.772895
266.464203	724.748718	931.830383	725.714661	0.466455
266.837158	714.717834	940.969666	727.646545	5.714301
267.210114	705.727234	945.725037	731.956055	10.928776
267.583038	707.882019	957.464844	734.185242	10.538876
267.955902	713.974854	956.276062	732.847656	7.788984
268.328766	717.838562	955.087158	729.429749	4.885671
268.701569	715.758118	956.053040	729.206970	5.596811
269.074371	716.724121	966.826965	725.120300	3.357091
269.447144	712.340271	976.040527	727.052185	5.579029
269.819885	711.151367	987.037354	724.154297	4.713153
270.192596	717.318542	984.436707	732.401917	5.646705
270.565277	725.640381	1002.120789	725.343201	-0.107487
270.937927	725.566101	1022.851257	725.194519	-0.124992
271.310577	725.863281	1061.562866	720.587708	-1.571516
271.683136	724.823059	1084.596802	727.646484	0.784778
272.055725	723.634216	1113.129028	732.476257	2.270131
272.428284	719.919128	1118.478882	735.151123	3.821759
272.800812	715.238037	1121.822388	729.281250	3.453948
273.173279	717.467041	1109.339600	728.092346	2.711419
273.545776	714.643555	1103.469727	724.822998	2.617993
273.918152	713.900574	1106.144653	726.086121	3.106624
274.290558	710.036804	1103.321167	729.875549	5.044377
274.662964	708.253601	1100.423340	732.030457	6.062899
275.035278	713.677551	1092.844360	740.946777	7.191881
275.407593	717.169861	1091.135376	734.408020	4.609559
275.779907	725.937683	1101.463501	736.934387	2.928348
276.152161	716.352539	1123.160034	733.516418	4.219165
276.524384	719.398926	1140.323853	734.631042	3.618725
276.896606	709.962463	1145.153564	741.615479	7.273360
277.268799	709.442383	1140.323853	742.878601	7.759957
277.640930	699.485840	1151.840820	738.791992	8.689227
278.013031	704.835632	1169.822144	730.098572	5.433048
278.385162	714.049133	1173.908691	722.296692	1.793495
278.757233	719.398926	1173.537231	721.182190	0.392670
279.129272	717.912903	1160.757080	722.742493	1.090585
279.501282	718.655945	1167.221436	724.377258	1.275469
279.873230	716.426941	1178.664063	724.897400	1.832492
280.245178	721.925232	1208.756714	719.696228	-0.457859
280.617126	723.485596	1248.954468	718.730225	-0.904977
280.988983	728.686707	1277.040894	728.315247	-0.067741
281.360870	724.377197	1302.675293	734.853943	1.811651
281.732697	721.033630	1322.142578	739.683594	3.102593
282.104492	719.101746	1353.795532	730.395752	1.779442
282.476288	721.925293	1385.894531	731.213074	1.398827
282.848053	714.346375	1404.692993	724.823059	1.517598
283.219757	708.699280	1406.476196	731.881836	3.322345
283.591461	704.909912	1393.993530	727.572266	3.288767
283.963135	704.612732	1379.355835	740.055176	5.252731
284.334747	709.145203	1378.018188	736.191406	4.043549
284.706360	713.826233	1400.012085	736.785828	3.345973
285.077942	719.919128	1433.299438	733.665039	1.926870
285.449524	717.912903	1463.614868	730.692932	1.713825
285.821014	714.197754	1495.044922	733.367859	2.455039
286.192535	717.838562	1520.679565	730.395752	1.564094
286.563995	724.674377	1544.902222	741.689758	2.074470
286.935425	721.479431	1556.196289	747.782532	3.151140
287.306824	718.358704	1554.190063	748.599915	3.618100
287.678223	706.321594	1541.707153	741.095398	4.162605
288.049561	711.820007	1511.763184	733.144958	2.665808
288.420898	706.990417	1496.085327	731.658875	3.126171
288.792145	710.259766	1495.788086	729.429749	2.440394
289.163452	706.470276	1516.146973	728.315247	2.697987
289.534668	701.120422	1539.923828	727.274963	3.118078
289.905914	700.154541	1577.075195	726.234802	2.974073
290.277039	704.389832	1608.876831	730.767273	2.916287
290.648193	711.522888	1661.334473	731.658936	2.120004
291.019318	712.117371	1696.999878	732.327637	2.052048
291.390381	707.733398	1720.776733	725.343201	1.738307
291.761475	707.807800	1721.965454	721.553711	1.355402
292.132507	715.832458	1703.241211	723.559875	0.782596
292.503510	715.163757	1691.650024	723.782776	0.882656
292.874481	718.581604	1676.789551	725.863281	0.759927
293.245422	715.980957	1681.470581	715.386536	-0.061567
293.616364	717.838562	1705.321777	720.216248	0.240782
293.987213	715.683838	1730.064453	721.776672	0.600646
294.358093	716.426819	1782.373657	732.847839	1.540510
294.728943	719.398926	1828.292603	722.148193	0.247929
295.099731	718.433105	1893.084595	719.844727	0.120174
295.470490	718.210144	1923.697388	716.055359	-0.178748
295.841248	715.089417	1941.084351	723.485596	0.684846
296.211975	723.411316	1958.248169	738.791931	1.245558
296.582642	721.850891	2006.619141	746.667969	1.931638
296.953308	721.182190	2068.736328	742.729980	1.599030
297.323883	717.095520	2116.735840	727.869446	0.769764
297.694519	720.364929	2153.070068	720.662109	0.020743
298.065063	720.364807	2162.655029	724.302917	0.273046
298.435608	715.089355	2129.218750	722.519592	0.525428
298.806122	711.448547	2063.683838	723.708496	0.906643
299.176575	708.996582	1999.114624	725.343079	1.267054
299.547028	711.299988	1973.926147	728.240967	1.341726
299.917450	703.052429	1956.464966	727.646545	1.962172
300.287872	707.138977	1948.663208	731.436035	1.957035
300.658234	705.058533	1937.146118	734.036621	2.351950
301.028564	715.981018	1937.369141	737.454590	1.758128
301.398865	717.318542	1933.133789	737.974609	1.698948
301.769135	722.296814	1931.350586	731.510254	0.762037
302.139374	712.042969	1930.979004	729.132629	1.402015
302.509583	708.773682	1938.929321	723.708496	1.214059
302.879791	712.711731	1950.966431	732.401917	1.590156
303.249939	721.182129	1948.365845	738.717590	1.428919
303.620087	721.256531	1927.932617	738.717712	1.447048
303.990173	720.067688	1900.366333	739.386414	1.636766
304.360260	724.600098	1900.589478	737.603027	1.105701
304.730286	729.875671	1913.146484	736.339905	0.546302
305.100281	726.011902	1927.115356	729.429871	0.284569
305.470276	718.061523	1943.164673	728.389587	0.843036
305.840179	714.940735	1954.681641	729.578430	1.180706
306.210144	709.962463	1970.731079	728.463867	1.467470
306.579987	713.231750	1967.833374	728.092285	1.184482
306.949890	715.014954	1986.706055	735.374023	1.600945
307.319702	717.987122	2001.046509	732.104736	1.100309
307.689484	720.216309	2022.148560	731.956116	0.901722
308.059265	716.501160	2041.467163	723.411316	0.521535
308.429016	718.135803	2088.054932	727.349304	0.672558
308.798737	709.293762	2157.008057	733.145020	1.647511
309.168396	712.934570	2223.285889	739.237793	1.741530
309.538055	712.191589	2268.684814	735.522644	1.498950
309.907684	713.974854	2287.186523	729.504089	0.987104
310.277313	709.813904	2311.929199	724.302917	0.904368
310.646851	709.813904	2325.155029	729.355469	1.209749
311.016388	711.522949	2345.588379	729.206970	1.082210
311.385895	709.962585	2345.291016	730.172852	1.235854
311.755371	710.928467	2363.866699	734.333801	1.415984
312.124817	718.433044	2368.473633	734.110840	0.950146
312.494232	724.748779	2365.575928	733.516418	0.534343
312.863617	731.807434	2342.987549	732.179016	0.023063
313.232971	722.742615	2318.988037	736.488525	0.861140
313.602295	718.358704	2306.728271	732.847717	0.912194
313.971619	710.408386	2315.198486	727.274963	1.051015
314.340820	704.687012	2328.424561	722.296692	1.084515
314.710083	700.674622	2368.622070	721.182129	1.229506
315.079285	700.154541	2396.782959	722.965515	1.344489
315.448486	709.591003	2439.878662	718.210022	0.498126
315.817596	715.758118	2431.556641	724.600159	0.515331
316.186707	714.197754	2400.052002	724.748718	0.625853
316.555786	713.454773	2338.826660	723.485596	0.617140
316.924866	714.792175	2298.331543	730.395691	0.985357
317.293884	719.993347	2280.499023	732.030334	0.771352
317.662872	726.457703	2275.818115	735.894226	0.609059
318.031830	718.953125	2280.127686	727.275085	0.533058
318.400757	714.420654	2289.638428	730.767273	1.037737
318.769684	716.055237	2320.697021	739.832214	1.481762
319.138550	718.878845	2346.925781	741.764099	1.405688
319.507416	720.736389	2373.749023	737.974609	1.042837
319.876190	704.092590	2387.718018	726.532043	1.332806
320.244995	711.151367	2386.603516	726.234863	0.900264
320.613770	711.671448	2369.736816	726.754883	0.909701
320.982483	717.169922	2345.217041	727.869446	0.657200
321.351166	716.649719	2329.167236	727.423645	0.668143
321.719818	715.981018	2307.991211	726.309082	0.648744
322.088440	723.114075	2302.641357	728.761047	0.357510
322.457062	720.290527	2319.953857	732.476257	0.761768
322.825623	725.789001	2360.597412	734.185242	0.513592
323.194183	714.643555	2414.169678	739.906494	1.486470
323.562653	710.556885	2467.964844	735.522644	1.420601
323.931183	706.247375	2534.020020	737.083008	1.687061
324.299591	710.779785	2597.697510	735.894226	1.330977
324.668060	713.751953	2668.656494	734.036621	1.037630
325.036407	713.900574	2710.860352	735.596924	1.086469
325.404755	718.953125	2740.655518	727.052063	0.400600
325.773102	711.002747	2740.804688	730.470032	0.959073
326.141388	714.643555	2751.652588	731.138733	0.809774
326.509674	708.922180	2759.825928	739.237793	1.478159
326.877899	716.798340	2783.379883	746.073669	1.416607
327.246124	713.231873	2803.144531	746.222229	1.578552
327.614288	717.764221	2813.546875	744.736145	1.286962
327.982422	714.792175	2804.853516	738.791931	1.148280
328.350525	711.671448	2777.807373	733.516418	1.057286
328.718628	714.346375	2754.773438	734.408142	0.983214
329.086700	716.501160	2745.039795	738.569092	1.087873
329.454712	718.581604	2759.900391	740.946777	1.095624
329.822693	716.946960	2773.794922	732.030457	0.733331
330.190674	715.683777	2791.255859	727.572266	0.572781
330.558563	718.953125	2813.695557	728.538147	0.457575
330.926483	710.779785	2832.345459	737.380188	1.253810
331.294312	709.962463	2850.698242	735.151123	1.176636
331.662231	711.745789	2889.707031	738.420410	1.224752
332.029999	714.346375	2938.227295	735.299744	0.942198
332.397766	713.751953	2991.055908	735.968445	0.975561
332.765503	705.504395	3045.594482	730.247070	1.057339
333.133240	712.191589	3118.262451	735.225403	0.957321
333.500916	714.940735	3177.407227	736.117004	0.859962
333.868561	711.968689	3210.843506	737.157288	1.007998
334.236176	707.362000	3217.531006	735.448303	1.118901
334.603790	703.349609	3230.831055	740.946777	1.487535
334.971344	704.389832	3230.979492	740.055115	1.411598
335.338867	708.402161	3231.425049	736.711487	1.122040
335.706360	707.287598	3223.475342	727.646545	0.809119
336.073853	715.015137	3232.837158	726.309082	0.448560
336.441284	709.368103	3249.629639	727.795105	0.725398
336.808655	718.878906	3247.326172	735.819824	0.670013
337.176086	711.522949	3206.236572	738.643372	1.087116
337.543396	710.854187	3109.791992	735.299805	1.019018
337.910706	701.863586	3055.550781	734.333801	1.379547
338.277954	705.430115	3062.535156	738.123291	1.387006
338.645264	702.680847	3160.391846	738.048889	1.439064
339.012421	708.402161	3284.328857	737.157288	1.116302
339.379669	716.575439	3395.336914	730.024231	0.502053
339.746796	727.497986	3500.178467	736.191345	0.313536
340.113953	722.742615	3577.007080	735.745544	0.455561
340.481018	713.603333	3622.778076	731.287354	0.607871
340.848114	709.665283	3631.545654	729.949951	0.694233
341.215118	716.575439	3628.870361	721.702332	0.176043
341.582153	720.736389	3648.857666	729.429871	0.296896
341.949066	714.569336	3666.839111	734.259460	0.666949
342.316010	709.813965	3678.133057	745.999329	1.219052
342.682922	706.098816	3690.541992	748.674133	1.426575
343.049835	713.380371	3716.101807	748.674255	1.175397
343.416656	719.324646	3764.027344	745.627869	0.863901
343.783478	717.169922	3840.856201	733.516418	0.523308
344.150269	721.702393	3966.427734	726.086243	0.135107
344.516998	716.649719	4108.420410	722.073914	0.159922
344.883728	716.501160	4215.639160	728.389648	0.339755
345.250427	711.002747	4297.743652	728.315247	0.482681
345.617065	713.751953	4323.006348	728.092346	0.397323
345.983704	726.011902	4337.421387	727.200745	0.032919
346.350281	728.241028	4294.919922	722.891174	-0.149995
346.716827	720.364929	4270.028809	720.067688	-0.008374
347.083405	708.550781	4232.580078	719.696106	0.316267
347.449860	709.591003	4188.815918	728.240967	0.536038
347.816376	708.327820	4116.222168	727.052063	0.549437
348.182770	712.191589	4070.154297	735.522644	0.694798
348.549194	709.219482	4048.458252	736.414246	0.814400
348.915558	719.473328	4059.975342	743.918884	0.731793
349.281921	715.981018	4093.931396	734.036621	0.534514
349.648193	707.807800	4144.754395	726.829285	0.553441
350.014526	706.247375	4203.230957	722.519714	0.465325
350.380737	705.132813	4245.286133	724.748718	0.554098
350.746948	716.278259	4303.762207	731.435974	0.422517
351.113159	713.157532	4345.669434	739.534973	0.726149
351.479309	718.581604	4385.123535	743.695984	0.684961
351.845428	718.507324	4402.882324	743.473083	0.677612
352.211517	721.033630	4457.048828	744.216125	0.620514
352.577576	721.850891	4502.076172	741.615479	0.522842
352.943604	716.426819	4578.311035	741.987000	0.661858
353.309601	718.730286	4638.124512	738.866272	0.513753
353.675537	709.516785	4739.473145	745.999329	0.905284
354.041473	713.529053	4838.444824	743.918884	0.736738
354.407379	706.618958	4956.734375	740.426697	0.795455
354.773254	713.083252	5063.284180	734.482422	0.491912
355.139038	709.591003	5158.392090	734.333801	0.556168
355.504913	710.408386	5261.746582	738.123230	0.608938
355.870636	714.866455	5360.346680	743.918884	0.625391
356.236389	719.398926	5483.615234	745.850769	0.555219
356.602081	718.953125	5630.140137	749.640137	0.624839
356.967804	713.974792	5789.742188	748.302734	0.676310
357.333405	711.299866	5949.418457	748.154114	0.703578
357.699036	714.866455	6108.575684	743.175781	0.524858
358.064606	719.621826	6292.475098	744.141785	0.439989
358.430176	724.971680	6430.603516	737.677429	0.222688
358.795654	726.160461	6493.611816	738.791992	0.219014
359.161163	719.176025	6458.169434	733.888000	0.256351
359.526581	711.968750	6423.618652	736.711426	0.433197
359.892029	706.247314	6435.582031	732.030457	0.450020
360.257416	709.516663	6559.072754	729.429871	0.340423
360.622772	707.956299	6777.671875	727.646484	0.324400
360.988098	710.854187	7065.966309	723.262695	0.195252
361.353394	706.916016	7387.176270	731.064453	0.361489
361.718658	713.157532	7691.966309	731.287415	0.259785
362.083893	714.792175	7941.103027	732.847717	0.249858
362.449097	716.203918	8097.732910	729.727051	0.183202
362.814209	713.529053	8119.727051	733.293640	0.266865
363.179382	719.844727	7914.057129	740.278015	0.284024
363.544434	721.405090	7533.627441	740.278015	0.277045
363.909546	718.284424	7082.609863	732.401917	0.221822
364.274536	713.751953	6740.371582	735.522644	0.361242
364.639587	714.197754	6509.735840	740.649475	0.456415
365.004517	718.358704	6389.439453	752.315125	0.598765
365.369507	716.724121	6310.158691	748.971436	0.576521
365.734344	720.885010	6255.621094	746.668030	0.465840
366.099274	717.021240	6197.367188	743.993164	0.492157
366.464081	717.244141	6165.863281	744.141663	0.493658
366.828918	706.916016	6169.280762	739.683533	0.599878
367.193665	712.488770	6180.574219	746.222168	0.616914
367.558411	705.281433	6193.949219	752.092102	0.852860
367.923126	714.717957	6176.042480	760.934143	0.846245
368.287781	712.637390	6164.153809	757.739197	0.827326
368.652435	715.758118	6115.039551	754.321228	0.714227
369.017059	714.792175	6091.114746	749.491516	0.645410
369.381653	723.188416	6041.406250	749.417297	0.493189
369.746185	728.463867	6038.285156	748.674255	0.380623
370.110687	726.680603	6045.046875	748.971436	0.419129
370.475220	712.042969	6110.136230	745.330566	0.616655
370.839661	705.652893	6188.079590	748.005554	0.772517
371.204041	705.875793	6278.134277	743.324402	0.672054
371.568451	712.637390	6345.378418	747.633972	0.621306
371.932770	717.541321	6383.792969	745.999329	0.502237
372.297150	718.284424	6417.006348	748.599915	0.531970
372.661377	716.649719	6445.240723	746.370850	0.518821
373.025696	717.392761	6470.652344	739.237793	0.379698
373.389862	712.785950	6463.296875	738.569092	0.448363
373.754059	706.767395	6448.064453	741.169617	0.599206
374.118225	703.200928	6484.769531	745.181946	0.726118
374.482361	711.299988	6532.101074	744.959045	0.578255
374.846436	719.919128	6638.948730	744.141785	0.409234
375.210510	724.674500	6726.402344	743.770264	0.318171
375.574524	717.764343	6867.800781	744.736145	0.438563
375.938538	714.643555	6987.353516	742.804382	0.448942
376.302460	711.597168	7147.847656	748.005554	0.565677
376.666412	712.265930	7318.446777	763.237610	0.771576
377.030304	716.203918	7519.063965	764.129211	0.704487
377.394196	719.176025	7709.873535	764.203552	0.644106
377.757996	717.541321	7864.125488	754.246887	0.513610
378.121796	714.420715	7943.109375	759.596680	0.624954
378.485565	711.522888	7937.313965	763.088928	0.713639
378.849304	714.717957	7827.791504	767.844299	0.746883
379.212982	716.575439	7671.235840	764.723633	0.692316
379.576630	724.005676	7473.292969	769.776184	0.678153
379.940277	723.411316	7337.617188	771.559509	0.727951
380.303864	726.457703	7231.586426	779.286926	0.812117
380.667450	717.095520	7198.150391	774.828857	0.890802
381.030945	717.615723	7171.623535	777.875183	0.933675
381.394501	708.179199	7188.936035	785.602722	1.194668
381.757935	709.442383	7235.895996	800.091736	1.388953
382.121399	708.699402	7276.985840	810.122559	1.544134
382.484741	713.454651	7331.300781	818.741699	1.590956
382.848145	716.946960	7383.981934	827.806641	1.662803
383.211487	718.210144	7459.621582	838.729187	1.787742
383.574768	712.637390	7577.391113	846.679504	1.952614
383.938019	714.866516	7675.693848	855.372864	2.018529
384.301270	715.980957	7787.074219	869.862000	2.176199
384.664459	711.820068	7875.865723	886.728699	2.441478
385.027649	701.566345	7956.261230	906.790466	2.828846
385.390778	700.303162	8020.235840	917.712891	2.970106
385.753876	712.042969	8029.226563	934.802551	3.044335
386.116943	718.433044	8058.055176	957.687805	3.259769
386.479980	723.114075	8086.142090	989.415039	3.616732
386.842987	718.284363	8161.485840	1013.637695	3.968095
387.205994	720.290527	8223.825195	1033.996704	4.180779
387.568909	718.581543	8298.277344	1057.847778	4.475987
387.931793	717.764343	8342.264648	1087.866089	4.854111
388.294678	717.615662	8378.821289	1110.825684	5.132483
388.657471	717.615723	8387.959961	1132.001953	5.402446
389.020294	724.823059	8375.922852	1161.500122	5.707376
389.383057	721.628113	8373.619141	1200.360474	6.256311
389.745819	715.312317	8380.231445	1237.214600	6.808973
390.108521	715.758118	8430.906250	1274.960449	7.248109
390.471191	721.182190	8529.877930	1318.947632	7.655125
390.833801	720.662109	8680.415039	1368.284668	8.136214
391.196442	713.380371	8886.977539	1424.977661	8.706048
391.558960	712.785950	9081.129883	1481.521973	9.186238
391.921509	713.751892	9264.583008	1546.388306	9.737491
392.284027	717.541321	9433.101563	1608.059570	10.217567
392.646484	714.049133	9569.595703	1662.820679	10.713867
393.008911	719.398926	9604.666992	1703.389771	11.074409
393.371307	720.067688	9553.770508	1744.033569	11.591581
393.733673	716.724060	9456.731445	1787.723511	12.253988
394.096008	719.696106	9409.547852	1831.785034	12.797559
394.458344	726.160461	9431.617188	1871.462524	13.156138
394.820587	722.296692	9465.349609	1918.421875	13.680865
395.182831	710.482605	9530.809570	1963.969360	14.211342
395.545013	695.696350	9492.990234	1999.411743	14.819504
395.907196	700.823242	9391.493164	2019.102173	15.168899
396.269287	709.739563	9204.471680	2041.392944	15.676225
396.631409	711.374268	9052.671875	2059.596924	16.163223
396.993469	703.646790	8921.155273	2088.054932	16.847055
397.355530	699.485840	8832.883789	2104.921631	17.279812
397.717499	705.355713	8783.547852	2137.614746	17.729944
398.079468	716.872620	8782.730469	2163.175049	17.931168
398.441376	723.485596	8804.278320	2207.682373	18.366970
398.803284	724.005798	8823.002930	2265.564209	19.033941
399.165131	717.987122	8868.624023	2320.622559	19.662703
399.526978	713.603333	8884.672852	2364.164063	20.200058
399.888763	706.024414	8910.159180	2398.343506	20.627636
400.250519	707.510498	8918.852539	2428.733154	20.961527
400.612244	700.674744	8951.842773	2474.726563	21.500614
400.973938	711.225647	8948.499023	2499.692139	21.711876
401.335602	712.934570	8969.750000	2545.685547	22.196827
401.697205	718.804504	9007.421875	2584.545898	22.509684
402.058807	716.129578	9079.198242	2638.341064	22.984524
402.420349	716.278137	9166.428711	2704.322021	23.526728
402.781860	714.866455	9277.214844	2764.358398	23.936096
403.143341	717.169861	9423.590820	2842.450439	24.410496
403.504822	717.764343	9594.190430	2893.273438	24.508841
403.866241	721.999512	9790.573242	2974.709229	24.840837
404.227631	714.569275	9968.676758	3042.547852	25.156164
404.588959	721.107910	10171.596680	3121.085938	25.395281
404.950287	720.216309	10322.282227	3172.280518	25.536839
405.311554	726.011902	10438.640625	3223.697998	25.715860
405.672821	714.643555	10476.609375	3261.889404	26.093575
406.034027	707.213318	10475.643555	3289.975830	26.439892
406.395203	702.012146	10384.919922	3285.294922	26.678789
406.756348	704.389832	10293.675781	3275.932617	26.816832
407.117493	704.984192	10233.712891	3264.341553	26.859381
407.478516	702.086426	10215.955078	3284.625977	27.144999
407.839600	704.984192	10228.215820	3300.972656	27.259535
408.200592	708.847961	10199.757813	3341.616211	27.739893
408.561554	719.993347	10185.044922	3360.117920	27.893398
408.922485	724.971680	10179.323242	3386.495361	28.151308
409.283417	724.377258	10200.797852	3415.473389	28.397812
409.644257	724.154297	10316.338867	3460.797852	28.529930
410.005096	715.386658	10462.342773	3535.917969	28.937559
410.365906	717.244141	10611.022461	3580.945313	28.944466
410.726715	708.847961	10730.426758	3641.799561	29.266363
411.087433	710.705566	10797.968750	3664.313232	29.280563
411.448120	704.835632	10890.624023	3702.281250	29.427723
411.808807	709.070801	10918.709961	3710.900635	29.401920
412.169434	713.826233	10859.043945	3726.727295	29.697746
412.530029	719.176025	10769.659180	3732.225586	29.979151
412.890564	718.210144	10727.826172	3736.906494	30.157963
413.251099	714.272034	10744.768555	3743.891357	30.204082
413.611572	723.485596	10811.045898	3779.036377	30.290285
413.972076	729.429871	10874.352539	3810.837891	30.373892
414.332489	729.801331	10971.835938	3831.122803	30.280329
414.692871	719.398926	11113.382813	3871.766357	30.328768
415.053223	709.516785	11241.703125	3929.202148	30.569962
415.413574	708.773682	11440.166992	4025.498779	30.906752
415.773834	705.207092	11606.605469	4099.949707	31.140432
416.134094	711.151367	11788.276367	4159.169434	31.127373
416.494263	713.380432	11943.717773	4228.419434	31.299498
416.854462	715.163757	12231.491211	4308.814941	31.204838
417.214630	713.826355	12564.367188	4415.438965	31.235811
417.574738	709.219482	12943.311523	4524.366699	31.184557
417.934784	711.299988	13263.481445	4643.697266	31.328396
418.294861	711.968750	13636.332031	4779.894043	31.474861
418.654846	716.426941	14095.968750	4928.722656	31.483110
419.014832	716.872742	14599.370117	5079.259766	31.423649
419.374756	711.671448	15147.723633	5255.356934	31.474573
419.734680	714.717834	15690.729492	5445.126465	31.586573
420.094543	713.083252	16250.823242	5639.725098	31.707581
420.454376	718.730225	16769.306641	5809.506348	31.717094
420.814148	716.723938	17290.318359	5974.755859	31.725357
421.173920	720.216309	17832.728516	6147.732910	31.716658
421.533691	722.593994	18375.212891	6323.904785	31.730762
421.893341	713.677734	18769.611328	6467.902832	31.868887
422.253021	712.191589	19009.683594	6569.252441	32.010185
422.612640	709.665283	19044.679688	6601.500000	32.134335
422.972260	720.513489	18992.294922	6609.375488	32.229271
423.331757	725.714661	18871.181641	6570.589844	32.211212
423.691315	728.389587	18885.968750	6603.357422	32.355457
424.050781	726.011902	19011.689453	6630.998047	32.292957
424.410248	723.188416	19157.544922	6702.031250	32.433151
424.769653	715.758118	19295.673828	6739.404785	32.420204
425.128998	713.157471	19354.669922	6783.986816	32.566185
425.488373	715.832336	19247.896484	6774.996582	32.695568
425.847656	719.176086	19012.580078	6726.105469	32.836586
426.206940	722.073914	18755.566406	6647.864746	32.859921
426.566193	718.804626	18399.285156	6537.895996	32.912518
426.925385	713.603333	18029.259766	6432.683594	33.028378
427.284576	711.597168	17488.408203	6282.369141	33.205193
427.643677	714.049133	17100.623047	6165.640137	33.268642
428.002777	724.451477	16716.626953	6041.405762	33.247223
428.361847	731.213074	16328.840820	5930.620605	33.334606
428.720856	732.030457	15979.989258	5819.834473	33.367115
429.079865	721.776611	15728.102539	5758.535156	33.564236
429.438812	717.615723	15558.543945	5697.606934	33.555794
429.797760	712.265869	15453.183594	5667.439941	33.615097
430.156616	723.262695	15264.157227	5587.639160	33.453075
430.515503	721.999512	15140.518555	5558.437500	33.543236
430.874268	720.141907	15115.476563	5535.626953	33.451706
431.233093	707.659180	15171.649414	5558.660645	33.538471
431.591827	710.482605	15275.227539	5579.242676	33.428394
431.950562	710.111084	15297.593750	5612.084473	33.603973
432.309204	715.460938	15348.043945	5632.666016	33.604492
432.667877	701.566223	15449.541992	5691.439941	33.834293
433.026459	706.544617	15565.454102	5739.587891	33.872227
433.385010	713.751953	15719.632813	5800.813965	33.900455
433.743561	727.200745	15898.776367	5861.890625	33.844147
434.102051	726.606262	16095.456055	5910.261719	33.728325
434.460510	715.980957	16247.405273	5961.084473	33.770912
434.818939	709.813904	16312.418945	5977.653809	33.762566
435.177338	706.395996	16375.502930	6008.415527	33.837406
435.535675	715.238037	16327.577148	6004.923340	33.881443
435.894012	721.107910	16265.163086	5997.567871	33.945198
436.252289	722.668274	16254.760742	6012.130371	34.055050
436.610535	724.080078	16246.885742	6029.294434	34.176903
436.968719	727.869446	16420.380859	6063.696777	34.002377
437.326935	727.943787	16536.962891	6087.027344	33.898899
437.685028	726.011902	16689.953125	6136.216309	33.890156
438.043152	719.101746	16790.111328	6204.574219	34.132721
438.401215	722.519714	17050.617188	6295.000000	34.128166
438.759277	716.129700	17347.679688	6371.755371	34.005402
439.117249	714.123535	17785.173828	6514.491699	33.977802
439.475250	703.721130	18073.394531	6638.354004	34.166634
439.833130	705.207092	18483.099609	6789.708496	34.225101
440.191071	707.659119	18733.720703	6886.302246	34.276165
440.548889	720.959290	19089.335938	6990.994629	34.134945
440.906708	717.244141	19431.052734	7113.296875	34.178253
441.264496	712.340149	19704.189453	7192.578125	34.121151
441.622223	705.058594	19869.958984	7256.478027	34.184467
441.979950	711.448547	19891.431641	7272.601563	34.208336
442.337616	708.699280	19897.005859	7292.292480	34.310444
442.695251	709.665283	19729.824219	7256.106934	34.418438
443.052887	711.151367	19525.566406	7200.082520	34.489147
443.410461	715.015137	19336.019531	7152.082520	34.568851
443.768005	717.764343	19172.851563	7104.528809	34.607067
444.125458	714.494934	19095.425781	7069.680176	34.574879
444.482941	719.324646	19146.470703	7063.216309	34.426880
444.840393	723.857117	19302.287109	7117.308594	34.413303
445.197754	722.371094	19625.873047	7237.084473	34.462997
445.555084	719.547546	19923.158203	7340.588379	34.478104
445.912415	712.711731	20328.183594	7490.753906	34.554569
446.269714	717.764343	20613.876953	7597.824219	34.579922
446.626953	719.324707	20963.695313	7743.681152	34.697826
446.984161	721.033630	21324.138672	7870.589844	34.701351
447.341309	715.386536	21603.962891	7972.384766	34.741467
447.698456	721.182190	21784.890625	8036.359375	34.728817
448.055542	722.148132	21883.634766	8079.380859	34.767090
448.412598	725.120300	21811.935547	8050.253906	34.737984
448.769653	717.095520	21668.158203	8019.566895	34.854897
449.126617	713.231873	21301.919922	7898.378906	34.898518
449.483582	716.798340	21022.097656	7824.076660	35.002087
449.840515	722.891174	20632.380859	7681.341309	34.950420
450.197388	725.491760	20375.218750	7612.239746	35.047550
450.554230	719.101746	20174.154297	7572.042480	35.224480
450.911041	710.705505	19966.552734	7510.296387	35.311821
451.267822	704.538330	19776.931641	7452.488770	35.380722
451.624573	701.492004	19578.693359	7374.322266	35.348621
451.981262	703.795410	19463.375000	7360.724609	35.485493
452.337921	709.442383	19312.390625	7304.179688	35.449955
452.694580	711.671448	19221.742188	7277.431152	35.471283
453.051147	711.225647	19218.101563	7285.084473	35.521172
453.407715	709.516663	19149.371094	7270.818359	35.582180
453.764221	710.928467	19153.830078	7272.156250	35.575893
454.120728	712.637390	18943.775391	7184.330566	35.498020
454.477142	715.460938	18893.250000	7164.639160	35.478344
454.833557	721.405090	18678.812500	7118.794922	35.625351
455.189911	723.039734	18490.828125	7077.037109	35.761330
455.546265	723.039795	18247.486328	6998.721191	35.811012
455.902557	725.491760	18089.890625	6951.539551	35.855247
456.258820	724.080017	18106.978516	6961.273438	35.881207
456.615051	726.829163	18219.623047	7014.697266	35.945480
456.971252	719.621887	18212.117188	7009.421875	35.957130
457.327393	721.850891	18361.466797	7081.940918	36.055717
457.683502	721.627991	18639.876953	7200.899902	36.160187
458.039612	726.754883	19129.904297	7385.541504	36.182865
458.395630	726.234863	19625.726563	7571.224609	36.217850
458.751648	720.290588	20096.509766	7723.916504	36.145473
459.107605	722.371094	20838.421875	7994.229980	36.149536
459.463562	722.891174	21601.435547	8242.401367	36.015491
459.819458	722.816895	22325.146484	8513.531250	36.064232
460.175323	711.968567	22947.429688	8710.804688	35.973331
460.531158	709.962585	23467.103516	8914.170898	36.051136
460.886932	713.603333	23751.384766	9047.321289	36.174133
461.242676	718.358704	23814.466797	9094.875977	36.268093
461.598419	720.290588	23580.859375	9036.399414	36.377522
461.954102	721.405090	23122.412109	8865.354492	36.355282
462.309723	722.222473	22423.521484	8661.616211	36.584877
462.665344	726.383484	21683.021484	8380.083984	36.521603
463.020905	725.640381	21078.568359	8184.742188	36.648788
463.376373	724.302917	20637.433594	8007.826660	36.576488
463.731873	711.225647	20270.599609	7905.957520	36.784061
464.087341	703.795410	19979.035156	7788.411621	36.755009
464.442749	698.817139	19771.138672	7747.916016	36.959835
464.798126	707.213318	19676.919922	7693.378418	36.828007
465.153503	712.637390	19783.544922	7715.743652	36.721409
465.508820	713.826233	19895.818359	7710.765137	36.476601
465.864105	712.265869	20072.359375	7789.451660	36.555534
466.219330	711.894348	20379.750000	7924.162598	36.670334
466.574524	718.432922	20559.787109	8032.273438	36.861599
466.929657	712.711670	20747.029297	8126.785645	37.006870
467.284790	715.015076	20899.943359	8189.348145	37.029278
467.639893	710.556946	21070.990234	8269.743164	37.126842
467.994934	715.832336	21230.515625	8344.715820	37.187428
468.349945	708.699280	21234.751953	8372.801758	37.338413
468.704926	706.618835	21204.138672	8351.551758	37.296871
469.059875	705.058594	20979.000000	8274.574219	37.336182
469.414764	710.333984	20719.835938	8193.956055	37.400341
469.769653	717.467102	20498.783203	8099.888184	37.320171
470.124451	721.850891	20403.826172	8041.931641	37.191799
470.479248	724.748779	20254.845703	7980.855469	37.153458
470.834015	723.708496	20154.611328	7966.960938	37.276974
471.188721	727.646545	20209.226563	8017.263672	37.417999
471.543365	728.092346	20335.615234	8035.988281	37.270878
471.898010	720.513489	20527.687500	8087.331543	37.192677
472.252625	711.374268	20691.150391	8141.943848	37.190456
472.607178	705.578613	20974.617188	8274.053711	37.340080
472.961700	712.265869	21206.220703	8401.780273	37.520893
473.316193	718.804504	21532.039063	8526.905273	37.515076
473.670654	724.005676	21701.820313	8608.043945	37.582745
474.025055	723.559875	21948.578125	8684.056641	37.505253
474.379456	721.182190	22113.828125	8737.108398	37.470474
474.733795	714.420654	22244.154297	8800.860352	37.559402
475.088104	710.705505	22379.681641	8830.655273	37.472694
475.442383	712.265930	22370.392578	8836.971680	37.513428
475.796570	713.677673	22488.162109	8859.485352	37.409878
476.150787	711.820068	22642.712891	8964.845703	37.631962
476.504944	705.950134	22962.736328	9077.042969	37.611416
476.859070	706.990417	23284.169922	9203.357422	37.632545
477.213135	714.494934	23614.521484	9284.347656	37.422894
477.567200	717.912842	24051.939453	9464.011719	37.482166
477.921173	720.290588	24528.146484	9655.266602	37.529526
478.275146	717.021240	25059.259766	9896.750977	37.711117
478.629089	721.850891	25417.251953	10032.872070	37.703465
478.983002	725.268860	25892.791016	10185.788086	37.590191
479.336823	721.405090	26308.513672	10329.861328	37.551941
479.690643	713.008850	26786.130859	10506.032227	37.559845
480.044403	711.076965	27292.427734	10735.034180	37.710487
480.398163	718.210144	28053.365234	11008.765625	37.645866
480.751862	719.770508	29053.849609	11396.402344	37.681240
481.105499	717.838562	30336.462891	11853.067383	37.595360
481.459137	714.197754	31932.708984	12466.659180	37.645809
481.812744	716.723938	33951.511719	13237.625000	37.674080
482.166290	714.494873	36393.691406	14177.925781	37.734680
482.519806	716.055359	39310.968750	15311.488281	37.816986
482.873291	717.838562	42686.765625	16632.367188	37.919788
483.226715	718.210144	46390.753906	18196.736328	38.269218
483.580139	718.061523	49833.792969	19800.039063	38.851048
483.933502	714.866455	52925.531250	21413.298828	39.644070
484.286804	716.203857	55304.332031	22873.794922	40.590496
484.640106	715.609558	57138.277344	24182.931641	41.592010
484.993347	712.934631	58102.875000	25091.583984	42.478958
485.346558	713.008972	58299.406250	25395.181641	42.861115
485.699738	712.711670	57665.230469	25088.312500	42.799866
486.052887	711.225647	56501.277344	24334.212891	42.342651
486.405975	709.516663	55083.800781	23383.140625	41.699165
486.759064	714.123474	53691.074219	22439.943359	41.009949
487.112061	722.593933	52533.582031	21642.673828	40.377689
487.464996	725.937561	51834.917969	21169.068359	39.999096
487.817963	719.844788	51682.519531	20954.037109	39.703941
488.170868	714.494934	51773.910156	20953.591797	39.638329
488.523743	712.265869	51864.042969	21024.400391	39.709538
488.876587	711.968750	51689.652344	21011.396484	39.820225
489.229401	723.708557	51263.972656	20830.023438	39.782764
489.582153	725.194580	50452.738281	20450.931641	39.667625
489.934845	734.482422	49414.207031	19953.328125	39.480183
490.287537	725.045898	48365.347656	19477.048828	39.361641
490.640198	724.674500	47541.332031	19113.484375	39.278351
490.992798	717.912903	46975.738281	18831.876953	39.158707
491.345337	717.912903	46891.558594	18760.693359	39.075932
491.697876	717.838562	46999.660156	18772.210938	39.009644
492.050354	719.398926	47409.964844	18990.884766	39.133144
492.402832	716.055359	47635.250000	19085.619141	39.151489
492.755219	707.436218	47503.582031	19032.716797	39.159809
493.107605	704.761292	46725.636719	18757.796875	39.227928
493.459930	709.368103	45418.425781	18258.556641	39.251976
493.812225	718.433044	43612.726563	17566.501953	39.278111
494.164490	721.182190	41548.597656	16707.564453	39.155998
494.516724	723.485596	39335.566406	15835.174805	39.137203
494.868896	721.999512	37351.535156	15033.593750	39.071186
495.221039	714.272034	35803.359375	14387.979492	38.968548
495.573120	710.408386	34569.933594	13890.819336	38.926746
495.925201	709.591003	33929.148438	13592.269531	38.780403
496.277222	709.293762	33550.871094	13424.717773	38.717457
496.629211	701.863464	33483.855469	13390.018555	38.704651
496.981140	706.098816	33435.332031	13386.007813	38.741848
497.333069	713.083252	33514.761719	13418.477539	38.733974
497.684967	718.953125	33554.437500	13416.695313	38.670792
498.036804	719.919006	33597.164063	13423.901367	38.640652
498.388580	715.237976	33504.507813	13423.083008	38.756107
498.740326	716.872559	33360.734375	13396.483398	38.842255
499.092072	710.705566	32985.503906	13306.057617	39.025345
499.443756	711.151367	32573.349609	13161.909180	39.076893
499.795410	713.529053	32157.845703	13009.143555	39.102818
500.147003	718.804504	31816.947266	12851.695313	39.014839
500.498566	719.621887	31410.806641	12671.809570	38.943390
500.850098	718.358704	31000.359375	12496.010742	38.893246
501.201599	712.191589	30613.466797	12343.317383	38.898426
501.553009	713.529053	30276.130859	12213.807617	38.901443
501.904449	713.900574	30034.052734	12152.730469	39.013542
502.255859	721.033508	29769.833984	12061.114258	39.038036
502.607178	717.615662	29710.017578	12043.801758	39.066051
502.958405	715.163635	29580.728516	11972.694336	38.999863
503.309692	709.070862	29561.337891	11959.023438	38.991570
503.660919	709.591003	29525.744141	11964.596680	39.057976
504.012115	714.346375	29608.521484	11989.041992	39.020649
504.363251	716.055359	29709.796875	12045.437500	39.075264
504.714294	722.296692	29803.937500	12081.028320	39.058083
505.065369	721.627991	29820.287109	12133.188477	39.216793
505.416443	725.566101	29876.083984	12158.823242	39.221455
505.767395	719.473145	29871.103516	12154.289063	39.225307
506.118317	717.838562	29888.119141	12111.566406	39.059368
506.469238	716.203918	29865.236328	12100.420898	39.055214
506.820160	727.126465	29870.064453	12101.312500	39.028961
507.170929	727.052063	29890.720703	12142.847656	39.143898
507.521729	724.228577	30003.662109	12179.403320	39.123623
507.872498	717.541321	30024.615234	12216.926758	39.237576
508.223236	715.609436	30204.505859	12288.852539	39.246105
508.573883	721.182190	30367.078125	12338.933594	39.188396
508.924500	721.330811	30643.931641	12426.015625	39.116535
509.275116	718.804504	30864.755859	12489.991211	39.047321
509.625702	714.643555	31117.384766	12606.200195	39.113434
509.976196	713.529053	31398.396484	12703.833008	39.075626
510.326660	709.591003	31703.335938	12855.632813	39.188690
510.677124	709.293762	31969.787109	12962.481445	39.197037
511.027557	716.946960	32206.216797	13093.700195	39.304668
511.377869	725.194580	32419.984375	13158.046875	39.226803
511.728180	728.092346	32540.281250	13262.960938	39.402721
512.078430	722.445313	32707.462891	13332.879883	39.426067
512.428650	719.473145	32818.250000	13395.666992	39.491203
512.778931	720.439148	32962.394531	13412.829102	39.366066
513.129028	720.439270	33027.480469	13400.122070	39.247429
513.479126	725.937683	33109.511719	13432.074219	39.236362
513.829285	726.160583	33059.660156	13426.948242	39.280586
514.179382	720.959290	33005.937500	13409.858398	39.302795
514.529297	720.810730	32893.371094	13356.879883	39.275921
514.879272	720.141907	32923.980469	13355.617188	39.235931
515.229187	723.188416	32822.335938	13334.812500	39.289589
515.579163	720.884949	32872.863281	13352.867188	39.288353
515.928955	717.541321	32872.417969	13363.046875	39.326866
516.278748	723.708496	33100.824219	13440.172852	39.276089
516.628540	724.525879	33323.808594	13548.284180	39.337543
516.978333	724.600098	33822.820313	13754.027344	39.365948
517.327942	716.798340	34424.226563	13997.293945	39.399315
517.677612	714.420654	35120.074219	14287.448242	39.449993
518.027222	710.482605	35822.089844	14556.645508	39.434719
518.376831	719.621887	36599.812500	14862.031250	39.415646
518.726379	724.154297	37368.250000	15115.402344	39.273037
519.075867	725.714661	37949.222656	15353.541992	39.297283
519.425293	718.655945	38340.503906	15554.828125	39.434990
519.774658	709.219482	38528.488281	15674.753906	39.571186
520.124084	712.191589	38532.054688	15703.507813	39.638737
520.473389	710.036804	38263.597656	15594.507813	39.635311
520.822693	715.832458	37838.136719	15453.406250	39.700050
521.171997	717.392761	37315.046875	15252.862305	39.716946
521.521240	714.420654	36834.757813	15063.464844	39.725666
521.870361	712.711731	36416.359375	14895.319336	39.723133
522.219482	712.637390	36087.121094	14766.997070	39.730217
522.568604	719.250305	35809.453125	14659.852539	39.727905
522.917664	725.120300	35647.250000	14559.989258	39.616341
523.266724	723.782776	35697.699219	14551.667969	39.537704
523.615662	726.680664	35967.273438	14631.989258	39.458214
523.964600	719.101746	36424.828125	14842.042969	39.553715
524.313538	717.838623	37061.300781	15087.316406	39.537998
524.662354	712.265930	37867.042969	15407.708008	39.551960
525.011169	713.083252	38835.507813	15779.519531	39.521191
525.359985	712.191589	39949.082031	16225.411133	39.537331
525.708740	716.278259	41271.371094	16723.462891	39.470219
526.057434	722.148132	42709.203125	17304.509766	39.493984
526.406067	721.256531	44321.425781	17955.474609	39.527874
526.754700	721.999512	46041.156250	18771.914063	39.828442
527.103333	718.432922	48001.859375	19645.343750	40.028637
527.451782	719.696106	50066.878906	20679.710938	40.448135
527.800293	713.603333	52082.125000	21723.664063	40.900650
528.148743	717.392822	53977.953125	22873.498047	41.599461
528.497131	715.981140	55621.011719	23963.000000	42.340416
528.845642	715.981018	56983.863281	24975.150391	43.113708
529.193909	708.847961	58000.253906	25841.744141	43.868526
529.542175	715.906738	58685.261719	26485.947266	44.454594
529.890503	715.089355	58954.082031	26818.750000	44.821621
530.238770	717.541443	58718.019531	26739.765625	44.865536
530.586914	708.253601	58034.957031	26246.250000	44.548168
530.934998	710.482605	56889.652344	25459.828125	44.054310
531.283142	708.030579	55545.816406	24438.833984	43.274548
531.631226	710.854065	53913.386719	23391.984375	42.631676
531.979248	715.609558	52269.437500	22336.958984	41.939369
532.327148	717.615723	50780.781250	21452.906250	41.418259
532.675110	723.262695	49757.855469	20788.490234	40.920551
533.023071	720.587708	49288.707031	20422.400391	40.565319
533.370850	719.844727	49169.597656	20292.890625	40.398651
533.718689	709.368103	49345.105469	20340.890625	40.364399
534.066467	707.659119	49523.503906	20482.882813	40.509850
534.414246	699.114319	49591.417969	20561.419922	40.624603
534.761963	702.383606	49478.550781	20569.816406	40.731846
535.109619	695.622070	49150.281250	20428.345703	40.724098
535.457153	701.863525	48531.042969	20181.287109	40.727070
535.804749	702.383606	47621.136719	19808.212891	40.721096
536.152344	707.882019	46682.761719	19384.390625	40.623287
536.499817	717.764343	45762.750000	18943.478516	40.461140
536.847229	719.324707	44896.378906	18486.369141	40.217812
537.194641	717.392761	44097.550781	18083.943359	40.033398
537.542114	716.055359	43454.312500	17781.904297	39.931084
537.889404	715.386536	42916.062500	17537.744141	39.862766
538.236694	719.027405	42415.265625	17354.513672	39.896851
538.583984	712.785950	41990.769531	17181.166016	39.896282
538.931213	716.575439	41769.941406	17085.912109	39.873310
539.278381	719.027527	41678.546875	16982.109375	39.705257
539.625488	726.754944	41737.027344	16973.044922	39.615170
539.972595	726.160461	42030.671875	17085.464844	39.606579
540.319641	723.262695	42706.972656	17358.750000	39.623672
540.666687	719.770508	43718.308594	17749.732422	39.605907
541.013611	713.900574	45117.058594	18273.712891	39.546314
541.360596	711.968689	46515.285156	18845.103516	39.589130
541.707458	708.550781	48012.707031	19506.767578	39.739037
542.054260	712.117249	49132.011719	20098.587891	40.038235
542.401062	703.423828	50047.566406	20641.890625	40.406960
542.747864	699.040039	50444.937500	20927.732422	40.664040
543.094666	704.612793	50370.261719	20970.531250	40.804699
543.441284	713.974915	49803.035156	20753.789063	40.823383
543.787903	719.993347	48842.222656	20351.291016	40.794651
544.134460	711.076965	47567.636719	19775.296875	40.686344
544.481079	711.671387	46077.125000	19059.019531	40.443436
544.827637	709.293762	44405.238281	18299.718750	40.256424
545.174072	713.900574	42727.855469	17544.656250	40.059921
545.520508	714.049133	41258.816406	16938.048828	40.015030
545.866943	714.123535	40042.628906	16407.154297	39.902435
546.213318	713.157532	39176.335938	16010.674805	39.771847
546.559631	711.002747	38463.324219	15654.988281	39.584282
546.905823	710.631165	37868.457031	15390.098633	39.505726
547.252136	710.928406	37340.460938	15157.754883	39.440380
547.598389	712.785950	36846.199219	14973.929688	39.468021
547.944458	712.488770	36396.449219	14815.961914	39.523281
548.290588	713.157532	35803.210938	14593.573242	39.556553
548.636658	724.154297	35114.500000	14337.601563	39.585087
548.982727	721.776672	34314.703125	14020.700195	39.588467
549.328735	723.485657	33538.839844	13713.534180	39.585274
549.674622	711.151367	32702.187500	13378.354492	39.596104
550.020569	719.027527	31925.205078	13058.629883	39.542179
550.366455	716.129639	31119.914063	12725.828125	39.500668
550.712280	718.358704	30409.951172	12428.020508	39.437637
551.058044	718.061523	29845.843750	12191.590820	39.390331
551.403748	713.677551	29362.726563	12031.170898	39.503906
551.749512	714.866516	29072.945313	11901.289063	39.447041
552.095154	711.448547	28836.587891	11788.942383	39.386452
552.440735	721.256531	28806.494141	11752.758789	39.278648
552.786316	719.696106	28797.208984	11727.496094	39.205036
553.131897	714.272034	28847.806641	11744.362305	39.206200
553.477417	706.916016	28809.099609	11755.878906	39.317097
553.822815	706.544617	28792.601563	11744.437500	39.300259
554.168213	706.693176	28719.041016	11722.963867	39.326481
554.513672	704.909973	28661.234375	11669.167969	39.219238
554.859009	705.207092	28434.091797	11637.960938	39.427311
555.204285	711.374207	28221.365234	11575.323242	39.490925
555.549500	713.008850	27934.478516	11460.971680	39.483406
555.894714	715.906677	27656.734375	11360.588867	39.511341
556.239990	716.575439	27318.734375	11211.909180	39.452942
556.585022	712.934631	27004.802734	11091.538086	39.474579
556.930115	706.841797	26723.865234	10933.571289	39.307838
557.275146	702.160706	26424.724609	10831.702148	39.379982
557.620178	701.417664	26187.921875	10757.993164	39.458435
557.965149	704.687012	25970.212891	10683.096680	39.494171
558.310059	710.408264	25789.880859	10583.457031	39.367050
558.654968	719.621887	25643.947266	10508.856445	39.275822
558.999756	718.358704	25536.953125	10458.182617	39.244061
559.344604	714.123535	25502.328125	10444.807617	39.255299
559.689331	715.609558	25410.416016	10420.288086	39.298458
560.033997	716.724060	25343.320313	10370.208008	39.199429
560.378723	725.491882	25332.398438	10360.177734	39.154396
560.723389	728.092346	25333.068359	10327.781250	39.015232
561.067932	732.179016	25375.494141	10357.502930	39.058563
561.412476	729.578430	25334.107422	10352.449219	39.110161
561.757019	723.188416	25346.070313	10363.817383	39.153130
562.101501	725.194580	25348.968750	10364.784180	39.147491
562.445862	714.494934	25381.365234	10338.703125	39.016735
562.790222	715.832458	25375.791016	10321.836914	38.953857
563.134644	703.646729	25356.919922	10311.434570	38.971653
563.478943	707.807800	25343.765625	10320.202148	39.017742
563.823181	707.064758	25330.318359	10325.625977	39.062920
564.167358	715.535217	25332.771484	10325.625977	39.038055
564.511536	718.135803	25392.283203	10328.226563	38.948017
564.855774	713.380432	25443.923828	10327.186523	38.874222
565.199768	714.643555	25620.693359	10364.188477	38.743778
565.543823	711.077087	25739.130859	10398.814453	38.707512
565.887817	714.049133	26004.021484	10517.997070	38.766148
566.231812	715.683777	26232.054688	10591.852539	38.705227
566.575745	715.758118	26479.708984	10693.647461	38.728104
566.919617	717.838562	26689.462891	10740.235352	38.589794
567.263428	719.324707	26796.533203	10811.416992	38.700813
567.607239	724.377197	26874.255859	10847.305664	38.711189
567.950989	721.479309	26844.830078	10853.992188	38.787186
568.294678	715.683777	26863.181641	10869.225586	38.831791
568.638367	711.894348	26767.482422	10836.829102	38.858974
568.981995	717.392761	26630.466797	10801.757813	38.916130
569.325623	718.135742	26399.533203	10690.972656	38.832920
569.669128	719.324646	26220.759766	10586.652344	38.693226
570.012573	715.683777	26058.115234	10504.175781	38.624912
570.356140	710.854187	26001.271484	10461.452148	38.554512
570.699524	707.956360	26001.343750	10470.442383	38.596992
571.042908	709.665283	26120.304688	10498.602539	38.522987
571.386230	711.597168	26245.875000	10535.457031	38.473221
571.729492	714.643555	26380.437500	10606.862305	38.542423
572.072815	711.894348	26565.750000	10652.260742	38.448292
572.416016	718.581604	26709.375000	10710.885742	38.445553
572.759094	727.200745	26907.914063	10730.278320	38.207809
573.102234	733.888000	26963.787109	10760.890625	38.227379
573.445374	731.956055	26925.820313	10767.058594	38.310890
573.788391	716.872620	26871.875000	10764.903320	38.417240
574.131409	712.785950	26863.626953	10739.194336	38.340672
574.474365	707.064697	26857.537109	10730.723633	38.330700
574.817261	719.473206	26720.373047	10675.739258	38.292004
575.160156	715.758057	26474.208984	10598.911133	38.368584
575.502930	715.163757	26244.982422	10482.033203	38.256714
575.845703	715.906738	26019.474609	10398.294922	38.264915
576.188477	723.114075	25790.400391	10303.261719	38.217728
576.531250	729.949951	25530.712891	10223.459961	38.279102
576.873901	726.977844	25268.943359	10094.768555	38.170502
577.216431	719.101746	24958.656250	9999.214844	38.285000
577.559082	722.445374	24624.666016	9864.653320	38.248363
577.901611	719.473206	24233.833984	9760.034180	38.446976
578.244080	724.971619	23860.906250	9624.952148	38.468212
578.586487	722.519592	23509.603516	9482.364258	38.442150
578.928955	754.692688	23162.906250	9376.112305	38.474377
579.271301	756.847595	22834.341797	9211.531250	38.295486
579.613647	757.442078	22477.984375	9061.663086	38.232105
579.955872	724.228699	22133.740234	8877.911133	38.084393
580.298157	714.197754	21823.750000	8748.031250	38.057812
580.640320	705.429993	21531.666016	8649.580078	38.144913
580.982483	703.349609	21311.802734	8539.090820	38.021976
581.324524	701.937805	21059.841797	8462.782227	38.122021
581.666626	705.429993	20879.138672	8385.582031	38.070103
582.008728	711.968689	20757.429688	8351.700195	38.112026
582.350647	723.039795	20665.443359	8283.638672	37.912170
582.692566	722.891174	20586.089844	8231.924805	37.803749
583.034424	723.857117	20466.166016	8184.667480	37.790974
583.376343	721.107910	20331.156250	8167.652344	37.973106
583.718201	720.885010	20213.609375	8147.664063	38.100262
584.059937	714.272156	20121.474609	8108.730469	38.101620
584.401611	702.309326	20058.242188	8062.811035	38.027107
584.743347	703.126648	19966.626953	8000.322754	37.880947
585.085022	704.092590	19851.384766	7956.334473	37.876068
585.426514	709.591003	19777.527344	7913.759766	37.781590
585.768127	709.591003	19719.496094	7878.316895	37.710480
586.109619	707.287598	19674.320313	7844.435547	37.629227
586.451172	713.008972	19619.335938	7827.939941	37.632542
586.792542	712.711670	19595.857422	7816.349121	37.618931
587.133850	711.522888	19558.035156	7792.720215	37.572987
587.475220	711.968689	19549.935547	7777.785645	37.508385
587.816589	711.894348	19509.220703	7780.460938	37.604107
588.157776	717.764221	19567.548828	7811.148438	37.631115
588.498962	712.117249	19618.146484	7811.445313	37.550602
588.840210	706.173035	19696.462891	7839.828125	37.564754
589.181335	706.693176	19749.884766	7827.345703	37.392117
589.522400	712.785950	19800.708984	7846.367188	37.372219
589.863403	718.953125	19904.361328	7856.695313	37.204014
590.204407	711.894348	19881.847656	7863.902344	37.308426
590.545410	717.244202	19936.535156	7871.927246	37.226570
590.886353	717.764343	19892.695313	7847.259277	37.181332
591.227112	722.965515	19907.853516	7850.825684	37.153515
591.567932	715.015137	19817.054688	7822.070313	37.205742
591.908752	710.631165	19715.705078	7775.928223	37.175846
592.249512	718.581604	19642.667969	7750.665527	37.159439
592.590149	717.318542	19544.142578	7710.913574	37.146973
592.930786	726.160461	19485.964844	7700.064941	37.174717
593.271423	722.222412	19379.710938	7668.783691	37.232029
593.612000	723.188293	19322.349609	7634.010254	37.156631
593.952576	721.776611	19306.152344	7617.737793	37.106232
594.292969	722.073914	19360.763672	7593.960938	36.868938
594.633484	727.720886	19401.185547	7621.824707	36.919254
594.973877	731.510315	19497.033203	7649.391113	36.864845
595.314209	729.801270	19635.681641	7708.312988	36.911858
595.654480	724.748779	19882.070313	7783.135254	36.844330
595.994812	722.519714	20105.572266	7838.416504	36.711952
596.335022	718.210144	20336.580078	7901.203125	36.613609
596.675171	720.513489	20488.974609	7959.604980	36.619396
597.015320	716.501160	20694.496094	8009.388184	36.504601
597.355408	716.055359	20801.343750	8041.708984	36.472733
597.695496	715.089417	20921.939453	8061.845215	36.357750
598.035461	713.231873	20879.138672	8050.253906	36.383301
598.375366	720.587830	20811.302734	8038.811035	36.425896
598.715271	715.163635	20687.511719	7994.007324	36.444607
599.055176	718.581604	20439.191406	7937.091309	36.603889
599.395081	713.528992	20216.431641	7843.841309	36.560265
599.734802	717.021179	19884.003906	7718.714844	36.529976
600.074524	715.832336	19544.812500	7602.060059	36.572495
600.414246	716.426758	19109.990234	7452.711426	36.623055
600.753906	722.148132	18699.988281	7311.388184	36.652012
601.093506	721.330811	18371.720703	7174.299316	36.559921
601.433044	723.188477	18151.337891	7082.757813	36.490219
601.772583	715.758118	18045.603516	7031.414551	36.443810
602.112122	717.912903	18054.669922	7015.068359	36.322567
602.451538	713.677673	18112.998047	6996.195313	36.107834
602.790894	718.655945	18248.451172	7031.861328	36.014145
603.130310	716.278137	18447.136719	7072.133301	35.846287
603.469604	718.210144	18679.703125	7152.083496	35.820374
603.808838	717.615662	18995.267578	7221.556152	35.584114
604.148010	716.575378	19287.126953	7332.935547	35.628239
604.487305	722.148132	19605.515625	7451.076660	35.634155
604.826416	722.742493	19826.640625	7547.447754	35.724148
605.165527	724.302917	20022.056641	7608.523926	35.673691
605.504456	719.696228	20164.048828	7649.242188	35.637833
605.843445	714.420654	20211.677734	7669.675293	35.672989
606.182434	708.327820	20186.341797	7668.412109	35.733028
606.521423	704.241211	20065.599609	7623.013184	35.734951
606.860229	708.699402	19863.941406	7572.339355	35.831654
607.199036	717.021301	19597.119141	7484.364746	35.843792
607.537903	720.216309	19306.744141	7385.169922	35.859058
607.876648	719.398926	18996.603516	7254.248535	35.754097
608.215271	721.627991	18729.486328	7139.005371	35.636539
608.553955	718.432922	18435.917969	7039.886230	35.679180
608.892578	719.919006	18237.083984	6951.242676	35.572674
609.231140	711.299988	18116.341797	6884.519043	35.467995
609.569641	717.095520	18070.943359	6841.645996	35.292175
609.908081	710.928406	18107.423828	6821.955566	35.127922
610.246521	710.556946	18099.994141	6826.710938	35.171661
610.584961	711.448547	18114.556641	6817.274902	35.084690
610.923340	715.386536	18035.794922	6799.590332	35.127369
611.261597	717.615723	17922.187500	6746.761230	35.043858
611.599854	712.042969	17786.955078	6714.439453	35.153309
611.938110	710.779846	17613.236328	6672.532715	35.271515
612.276245	713.231750	17397.685547	6602.167969	35.295948
612.614319	708.327820	17084.349609	6483.581543	35.266525
612.952393	704.389832	16740.478516	6345.378418	35.176838
613.290466	703.126648	16393.632813	6248.487793	35.342144
613.628479	710.705566	16077.028320	6129.082520	35.261379
613.966370	725.045959	15807.903320	6045.195313	35.272823
614.304260	731.584656	15551.484375	5934.781250	35.109528
614.642151	726.680664	15353.542969	5863.524902	35.119247
614.979980	716.129578	15188.813477	5789.371094	35.053913
615.317749	712.711670	15013.014648	5729.631348	35.082615
615.655396	718.507324	14886.921875	5694.040527	35.117081
615.993164	723.039795	14808.606445	5671.006348	35.127922
616.330811	723.188416	14811.653320	5645.075684	34.935581
616.668396	723.708496	14816.036133	5631.552246	34.826351
617.005859	722.593994	14780.520508	5601.385254	34.704910
617.343445	719.993408	14753.028320	5604.060059	34.804062
617.680908	717.690002	14720.707031	5603.019531	34.887695
618.018311	718.284485	14732.594727	5616.988770	34.955013
618.355652	721.405212	14777.918945	5611.415527	34.788216
618.692993	721.776672	14780.445313	5600.270020	34.700962
619.030273	717.838562	14764.469727	5592.394531	34.702671
619.367554	716.649719	14701.015625	5591.205566	34.857182
619.704712	711.820068	14653.463867	5588.307129	34.977852
620.041870	716.501160	14616.682617	5579.911621	34.988110
620.379028	713.454773	14577.823242	5558.363770	34.945042
620.716064	719.844727	14544.312500	5516.679688	34.698154
621.053040	716.501160	14506.937500	5462.141113	34.412544
621.389954	724.971680	14464.807617	5434.055176	34.273216
621.726929	722.148132	14394.815430	5405.374512	34.252472
622.063843	720.216309	14331.434570	5390.885254	34.314846
622.400635	710.036804	14279.719727	5368.222656	34.327892
622.737427	709.442383	14232.239258	5351.281738	34.326031
623.074219	710.259705	14149.319336	5328.991211	34.367966
623.410889	710.036804	14064.390625	5286.638672	34.270489
623.747559	710.631287	14016.019531	5270.143555	34.268162
624.084167	710.854187	14003.239258	5265.759766	34.267033
624.420715	711.374268	14033.926758	5258.701172	34.132553
624.757324	712.117371	14070.038086	5258.923828	34.038280
625.093750	719.473328	14142.629883	5260.781250	33.831894
625.430176	728.612549	14190.109375	5278.242676	33.797356
625.766602	732.104736	14273.700195	5276.458984	33.558487
626.102905	725.789001	14357.515625	5300.533203	33.559536
626.439209	720.513489	14493.043945	5332.260254	33.485107
626.775452	721.999512	14600.187500	5371.120605	33.499485
627.111694	722.296814	14689.424805	5384.049805	33.376602
627.447876	716.946960	14736.680664	5408.346680	33.462833
627.783997	719.919128	14795.975586	5420.160645	33.391750
628.120056	720.364929	14857.497070	5443.788574	33.411472
628.456055	723.188293	14849.695313	5418.377441	33.236729
628.792053	710.705505	14800.433594	5398.612793	33.271805
629.128052	707.510498	14686.453125	5358.638184	33.272388
629.463928	715.237976	14583.395508	5327.207520	33.255821
629.799744	717.318420	14459.754883	5290.874512	33.280533
630.135559	721.256531	14335.075195	5227.345215	33.099377
630.471375	712.488770	14201.553711	5171.691895	33.057911
630.807068	716.501160	14016.464844	5093.080078	32.906700
631.142700	712.117371	13857.828125	5044.114746	32.953697
631.478333	724.080078	13680.171875	4995.149414	32.965721
631.813965	723.336975	13577.114258	4962.381348	32.978977
632.149475	730.395752	13446.563477	4922.629883	32.967751
632.484924	717.689941	13356.285156	4861.404297	32.786194
632.820435	716.501160	13235.988281	4818.753906	32.766941
633.155884	717.764343	13154.924805	4775.955566	32.629562
633.491150	718.878906	13099.570313	4787.770020	32.864815
633.826477	721.107910	13025.117188	4761.689941	32.839554
634.161804	715.312317	12975.484375	4723.572754	32.693348
634.497009	715.237976	12886.765625	4675.646973	32.538307
634.832153	711.076965	12850.358398	4644.588379	32.403168
635.167297	715.758118	12783.262695	4618.508301	32.340988
635.502380	720.067688	12724.415039	4583.140137	32.180611
635.837463	722.816895	12604.639648	4563.152832	32.321102
636.172424	718.655945	12523.351563	4523.475098	32.231403
636.507324	712.042969	12401.421875	4491.302246	32.330711
636.842224	709.888184	12311.291992	4438.621582	32.140362
637.177124	710.408386	12153.473633	4393.371582	32.185108
637.511963	716.798340	12020.695313	4337.495605	32.030525
637.846741	723.708496	11893.338867	4293.582520	31.960537
638.181396	716.278259	11756.176758	4253.236328	32.037956
638.516113	723.114075	11668.350586	4227.602051	32.018387
638.850769	719.398926	11557.491211	4184.208984	31.968821
639.185303	729.429871	11488.984375	4157.386230	31.859648
639.519836	719.696106	11387.041992	4121.869141	31.893343
639.854370	712.414490	11286.731445	4092.073975	31.961018
640.188843	702.532227	11175.723633	4062.427002	32.080906
640.523254	704.241211	11081.656250	4014.575928	31.899416
640.857605	710.111145	10990.413086	3981.288330	31.819857
641.191895	719.250305	10925.546875	3950.452393	31.658909
641.526184	725.120300	10854.067383	3930.836914	31.649059
641.860413	724.228577	10796.557617	3898.514893	31.514919
642.194580	723.485596	10732.135742	3875.110107	31.489006
642.528748	714.494934	10677.077148	3854.676514	31.519756
642.862793	723.559875	10635.096680	3846.280518	31.505917
643.196838	720.662109	10561.313477	3814.330078	31.437634
643.530823	724.302917	10513.538086	3774.949951	31.163282
643.864746	717.169861	10447.481445	3736.683838	31.032038
644.198669	721.925232	10387.594727	3729.328125	31.114271
644.532532	717.912903	10331.125000	3727.395752	31.305696
644.866333	718.878845	10273.464844	3719.445313	31.404463
645.200073	711.448547	10264.475586	3690.690186	31.186361
645.533813	719.101746	10254.963867	3666.839111	30.912121
645.867554	717.615723	10248.648438	3655.694092	30.826441
646.201172	719.844727	10238.468750	3646.034912	30.741735
646.534729	721.033630	10208.598633	3640.239014	30.768751
646.868225	725.789001	10233.862305	3625.155518	30.493732
647.201782	729.058350	10222.716797	3633.997314	30.598732
647.535217	722.668274	10244.190430	3636.523682	30.602831
647.868591	721.776672	10247.163086	3646.778076	30.707430
648.201965	716.203918	10254.518555	3643.508545	30.689959
648.535278	718.953125	10242.036133	3628.424805	30.551783
648.868591	713.231873	10205.925781	3616.684814	30.586184
649.201782	722.148132	10175.385742	3593.725342	30.376654
649.534912	714.569275	10142.543945	3596.623291	30.569174
649.868103	713.083252	10101.604492	3581.762695	30.555178
650.201172	708.625000	10048.701172	3561.998047	30.549784
650.534180	716.946960	9991.264648	3538.444092	30.422693
650.867188	723.336975	9981.678711	3522.246094	30.231215
651.200134	730.098572	9975.065430	3507.682861	30.044285
651.533020	735.448303	9927.882813	3485.540771	29.916912
651.865845	732.847656	9877.282227	3455.001953	29.768427
652.198608	733.367859	9826.088867	3422.011719	29.569189
652.531433	725.788879	9820.813477	3399.646484	29.399126
652.864136	725.417480	9772.962891	3390.878906	29.460604
653.196777	859.905334	9894.967773	3528.561768	29.536669
653.529358	864.289246	9847.637695	3517.788086	29.537970
653.861938	861.317139	9801.941406	3491.113281	29.414011
654.194519	718.284424	9587.799805	3318.062256	29.311384
654.526978	717.021240	9519.367188	3302.830078	29.376360
654.859375	720.439209	9452.420898	3281.059570	29.324619
655.191833	719.696228	9413.188477	3277.418701	29.421116
655.524170	716.203918	9369.573242	3258.025391	29.373779
655.856445	716.203918	9357.833008	3243.313721	29.243443
656.188660	722.073792	9326.999023	3239.673096	29.257656
656.520874	722.222412	9286.056641	3227.413086	29.253143
656.853088	724.377197	9266.664063	3214.410156	29.149488
657.185181	727.572266	9264.062500	3200.069580	28.963863
657.517212	727.572266	9312.434570	3194.571045	28.736614
657.849243	727.943787	9350.551758	3208.317139	28.765928
658.181274	719.770447	9415.789063	3224.292236	28.800787
658.513123	711.448547	9457.621094	3236.849609	28.874357
658.844971	709.145203	9526.796875	3251.561523	28.833260
659.176819	708.625061	9612.467773	3260.477783	28.660128
659.508667	717.392761	9745.916992	3280.836670	28.392721
659.840393	716.501160	9832.702148	3301.567139	28.356833
660.172058	719.919006	9908.639648	3313.306885	28.223602
660.503662	718.581604	9926.249023	3305.059326	28.090479
660.835266	713.083252	9950.471680	3304.242188	28.050774
661.166931	710.705566	9893.928711	3289.752930	28.084339
661.498413	707.882080	9832.925781	3281.356689	28.202326
661.829773	721.479492	9718.202148	3246.211670	28.062799
662.161194	720.885010	9582.525391	3208.391357	28.070494
662.492615	723.857117	9416.978516	3152.961670	27.942835
662.823975	709.739563	9240.435547	3105.779541	28.087275
663.155212	713.008850	9061.291992	3056.814209	28.075298
663.486450	714.272034	8908.747070	3011.043701	28.028297
663.817627	726.160461	8766.012695	2958.437500	27.765152
664.148743	727.497986	8662.731445	2914.598633	27.561893
664.479858	728.018066	8542.881836	2886.140625	27.615614
664.810913	726.977844	8458.918945	2851.441406	27.476460
665.141907	720.290527	8380.528320	2831.824951	27.564867
665.472778	715.237976	8304.444336	2802.326904	27.500751
665.803711	705.281433	8267.069336	2794.302490	27.626019
666.134583	716.203918	8215.577148	2781.596680	27.540873
666.465454	718.358704	8200.717773	2765.175781	27.355238
666.796143	726.754883	8144.618652	2743.033447	27.181391
667.126831	719.770508	8107.838379	2721.931396	27.099926
667.457458	716.649719	8083.095703	2714.650146	27.122992
667.788147	714.420654	8039.034668	2714.947266	27.312382
668.118774	715.312256	8030.564453	2701.275391	27.148252
668.449219	726.309021	8005.227051	2690.427246	26.983656
668.779663	728.166687	8012.359863	2682.848389	26.834566
669.110107	723.634216	7989.548828	2679.876221	26.923548
669.440552	719.993408	7963.171387	2673.486084	26.970106
669.770874	713.751953	7959.084473	2655.727783	26.803129
670.101135	719.844727	7934.490234	2635.443115	26.551525
670.431396	723.485596	7935.901855	2608.322998	26.133232
670.761597	724.451477	7855.283691	2591.753174	26.186310
671.091797	725.640381	7805.574707	2583.356689	26.239174
671.421875	719.844727	7733.575684	2579.790283	26.518633
671.751892	725.045959	7703.854004	2571.988525	26.465015
672.081909	724.080017	7684.089844	2556.756592	26.331522
672.411865	720.513489	7635.273438	2537.511963	26.277103
672.741821	719.919128	7586.158691	2512.546387	26.107845
673.071716	718.953125	7531.398438	2490.478516	26.004251
673.401550	724.897400	7483.025879	2474.280518	25.885614
673.731262	726.086182	7463.931152	2461.277588	25.752914
674.060974	724.228699	7412.142090	2453.475830	25.856300
674.390625	726.829285	7386.507813	2446.342529	25.819761
674.720276	724.674500	7334.496094	2431.853760	25.827915
675.049927	725.417480	7271.858887	2414.838379	25.806705
675.379395	716.575439	7230.174316	2393.067627	25.738340
675.708923	713.751953	7175.042480	2382.442383	25.825962
676.038330	711.225647	7152.528809	2367.284424	25.709997
676.367737	717.392761	7102.597656	2352.349609	25.605392
676.697083	716.723938	7095.093262	2330.058838	25.293848
677.026428	718.210144	7080.083984	2310.294678	25.025400
677.355652	711.671448	7075.477051	2307.916992	25.083193
677.684875	715.832458	7059.799316	2305.316162	25.055044
678.013977	715.312256	7049.619629	2318.319092	25.306742
678.343079	720.067688	7053.408691	2308.808594	25.085354
678.672180	721.330811	7061.878906	2302.121338	24.931450
679.001221	721.033630	7102.150879	2289.935547	24.586634
679.330139	720.439209	7146.955566	2299.149170	24.565563
679.659058	721.256531	7184.479004	2307.768311	24.546759
679.987976	725.045898	7229.505859	2316.981689	24.474527
680.316772	725.045898	7270.372559	2319.285156	24.356909
680.645630	724.302917	7338.062500	2329.241699	24.266663
680.974304	715.906738	7375.882813	2327.161133	24.193096
681.302979	723.039856	7440.748535	2323.297363	23.821480
681.631653	722.296814	7458.655762	2317.724609	23.683828
681.960266	728.835449	7477.230957	2319.210938	23.566721
682.288757	716.575439	7460.364746	2318.096436	23.748089
682.617249	714.272034	7422.990234	2311.557861	23.809107
682.945679	717.689941	7392.600098	2299.149170	23.692593
683.274109	721.553711	7350.916504	2287.855225	23.626728
683.602478	724.600159	7318.224121	2266.678955	23.387424
683.930725	718.433044	7232.701172	2253.973145	23.571951
684.259033	723.114075	7137.073730	2224.846436	23.413500
684.587280	716.872742	7030.449219	2213.032227	23.697495
684.915344	721.330872	6965.730957	2182.642334	23.401953
685.243469	714.643555	6897.447266	2164.140869	23.444014
685.571533	718.061523	6826.636719	2137.094727	23.230183
685.899536	710.854187	6765.411621	2121.194092	23.293854
686.227539	715.535156	6705.226563	2104.996094	23.197538
686.555420	712.117249	6688.433594	2090.135498	23.057987
686.883301	717.095520	6658.117188	2079.064453	22.924829
687.211121	715.238037	6637.312500	2080.550537	23.054634
687.538940	719.696228	6627.505371	2071.782959	22.886431
687.866638	713.826355	6634.267090	2064.798340	22.818771
688.194336	710.556946	6642.736816	2052.835693	22.627075
688.521973	707.956299	6628.619629	2049.046143	22.651007
688.849609	721.850891	6619.406738	2047.040039	22.470142
689.177063	722.519714	6592.583496	2032.625366	22.318422
689.504578	727.943848	6541.239746	2022.000000	22.260284
689.832031	725.789001	6461.735840	2008.922485	22.370039
690.159485	730.618652	6366.331543	1986.706055	22.287994
690.486816	728.240967	6289.279785	1961.963501	22.185108
690.814087	722.148193	6196.995605	1940.043945	22.245291
691.141296	717.392822	6117.193848	1927.709839	22.414104
691.468506	712.191589	6017.183105	1900.960938	22.408504
691.795715	716.872620	5927.722656	1867.450317	22.080421
692.122803	724.748779	5846.286621	1852.887085	22.027334
692.449829	726.309082	5783.427246	1835.425781	21.931793
692.776855	723.188477	5728.740234	1826.063843	22.033043
693.103821	711.597168	5686.089844	1800.132202	21.882332
693.430664	712.860291	5622.709473	1784.751343	21.831448
693.757568	709.665283	5557.025879	1768.702026	21.847700
694.084351	718.507324	5500.036621	1743.884766	21.444550
694.411133	721.256531	5456.717285	1732.219360	21.348774
694.737854	724.005676	5438.959473	1719.290649	21.109116
695.064575	719.398926	5414.587891	1711.340210	21.126760
695.391174	717.392761	5398.315918	1705.395996	21.107016
695.717773	715.535156	5369.857910	1701.012207	21.173372
696.044250	714.717957	5357.746094	1709.036987	21.415312
696.370789	717.021301	5388.953613	1697.891602	20.994961
696.697205	719.101746	5394.674805	1694.324829	20.857830
697.023621	718.953125	5455.825684	1696.033813	20.627127
697.349915	712.414490	5499.738770	1709.557007	20.828808
697.676208	709.739563	5604.431152	1712.008911	20.476660
698.002380	714.123352	5689.507813	1714.981079	20.116190
698.328674	712.117249	5817.902832	1727.686890	19.890566
698.654724	711.077087	5949.047363	1748.714478	19.809916
698.980896	709.591003	6063.622559	1768.330444	19.774622
699.306946	724.154297	6143.349121	1777.246704	19.432636
699.632935	726.532043	6175.744629	1792.998901	19.571026
699.958862	723.262695	6194.246582	1799.537598	19.672419
700.284729	721.330811	6202.939941	1804.441528	19.758991
700.610596	724.971619	6187.930176	1789.729614	19.490503
700.936340	729.949951	6082.569824	1768.627563	19.405031
701.262146	716.129639	5922.893066	1739.352173	19.651794
701.587830	712.488770	5755.563965	1707.996704	19.740097
701.913513	705.281433	5609.632813	1672.554199	19.722746
702.239075	711.151367	5483.466309	1650.709351	19.687677
702.564697	708.625000	5341.474121	1620.765259	19.688538
702.890137	716.203918	5219.914551	1594.164673	19.494165
703.215698	717.169922	5097.464355	1554.784546	19.122335
703.541016	718.061523	4984.449219	1528.555542	18.997196
703.866455	715.237976	4894.543457	1511.614624	19.055239
704.191711	715.312317	4812.141113	1506.561890	19.313709
704.517029	713.157471	4767.856934	1489.175171	19.138723
704.842163	715.089355	4707.969238	1468.221680	18.861883
705.167419	712.265869	4657.889160	1452.098022	18.750704
705.492493	717.987122	4617.690918	1442.438843	18.577095
705.817566	710.631287	4581.431152	1439.095093	18.819466
706.142578	710.408264	4557.654297	1435.677124	18.851637
706.467590	704.464111	4540.787598	1428.246948	18.866575
706.792480	709.813904	4545.171875	1422.376953	18.578789
707.117371	709.145203	4547.995605	1406.550415	18.167032
707.442200	713.826233	4532.986328	1400.160522	17.970818
707.766907	716.278259	4515.599609	1399.120117	17.972733
708.091675	721.330811	4505.048340	1403.726929	18.035070
708.416321	716.426941	4506.014160	1402.092407	18.093409
708.741028	712.042969	4520.131836	1394.290527	17.915747
709.065552	707.807800	4544.057129	1384.557007	17.640907
709.390137	716.129639	4553.716309	1391.615723	17.601845
709.714600	718.655945	4581.951660	1399.640503	17.627037
710.039063	721.405090	4610.483887	1399.937500	17.447124
710.363403	722.519714	4664.725098	1401.200684	17.215769
710.687744	727.423645	4708.117676	1405.658813	17.038113
711.012085	727.497864	4760.574707	1416.358398	17.080273
711.336304	724.600098	4806.122559	1419.479126	17.024996
711.660461	714.792175	4848.995605	1417.473022	16.996765
711.984619	711.374268	4869.057129	1420.667969	17.059834
712.308716	703.275208	4860.884277	1414.723633	17.111961
712.632751	707.956360	4854.865723	1406.773438	16.851517
712.956726	713.974854	4835.175293	1397.411255	16.583431
713.280701	715.832458	4804.339844	1396.371094	16.645161
713.604553	711.820068	4740.588379	1392.210083	16.888288
713.928467	713.751953	4673.641602	1387.454712	17.013170
714.252258	713.380432	4611.598145	1366.872681	16.763872
714.575989	716.352539	4556.540527	1343.096069	16.320646
714.899719	710.854065	4492.045410	1320.285034	16.117432
715.223267	715.237976	4452.516113	1322.365601	16.245182
715.546936	711.820068	4422.720703	1322.959961	16.468775
715.870422	715.906738	4399.092285	1315.827026	16.288082
716.193970	717.689941	4367.587891	1300.594849	15.970444
716.517395	728.092346	4332.889160	1287.814819	15.527157
716.840820	721.776611	4310.523926	1281.796265	15.604878
717.164124	720.142029	4271.960449	1280.235962	15.769217
717.487488	712.860352	4246.251953	1277.338013	15.975519
717.810730	715.981018	4194.239746	1272.434082	15.998035
718.133972	709.962463	4152.556152	1256.459106	15.874561
718.457092	707.807678	4081.522705	1248.285767	16.020266
718.780212	706.990417	4029.956787	1242.118652	16.103931
719.103210	708.996582	3973.337891	1229.932983	15.958392
719.426208	719.919128	3930.019531	1213.660645	15.380875
719.749207	720.290588	3875.035400	1208.236572	15.467051
720.072083	726.309082	3835.209229	1192.335815	14.990084
720.394958	717.021240	3775.172852	1175.097534	14.978862
720.717773	720.736328	3715.953857	1148.200073	14.271543
721.040527	720.587830	3670.182861	1147.754150	14.482203
721.363281	723.485596	3638.009766	1153.624146	14.758449
721.685913	718.433044	3628.573486	1150.800659	14.857277
722.008545	717.541321	3598.778076	1144.039063	14.802592
722.331055	715.609558	3575.223877	1136.237183	14.709244
722.653503	714.643555	3557.837158	1133.785156	14.741930
722.976013	707.287598	3547.955078	1124.051636	14.671342
723.298401	710.482666	3536.438232	1113.649292	14.266560
723.620789	713.231873	3505.899658	1111.940308	14.276974
723.943115	726.160461	3480.562500	1119.964844	14.297273
724.265381	726.754883	3463.324219	1116.472778	14.241112
724.587585	725.343079	3467.782227	1112.088867	14.102256
724.909790	715.163635	3465.181641	1098.937378	13.955317
725.231873	713.974854	3472.463135	1107.556519	14.268021
725.553894	716.203918	3470.308594	1102.726685	14.034425
725.875916	767.324158	3529.379639	1147.382690	13.759990
726.197937	772.599609	3524.252686	1139.803711	13.344854
726.519775	770.667786	3536.438232	1136.905884	13.241811
726.841675	721.479431	3509.466064	1097.822632	13.498745
727.163513	718.358704	3540.821533	1103.395386	13.641869
727.485291	721.479431	3564.895752	1104.435669	13.468174
727.806946	720.513489	3574.852539	1099.234497	13.268255
728.128662	718.581604	3603.756592	1096.188110	13.087820
728.450256	716.575439	3619.583008	1102.503784	13.294086
728.771790	722.593994	3635.112305	1099.754517	12.949636
729.093323	715.015137	3629.093506	1096.708130	13.098241
729.414795	711.894348	3635.186279	1089.352173	12.912081
729.736145	705.727234	3620.697266	1084.076660	12.979531
730.057495	707.287598	3602.641602	1082.442017	12.957117
730.378845	709.665283	3596.771729	1090.169556	13.179434
730.700134	710.036865	3601.973389	1103.246826	13.596770
731.021301	716.872742	3615.273193	1098.788574	13.176780
731.342468	722.222412	3621.737549	1092.695801	12.777081
731.663574	730.544373	3629.316406	1084.299683	12.203627
731.984680	729.355469	3637.712891	1080.956055	12.089318
732.305664	725.714661	3642.988281	1077.315063	12.052362
732.626648	718.210144	3657.774658	1077.983887	12.239016
732.947571	715.906738	3669.885742	1083.630859	12.448434
733.268433	719.250305	3672.486328	1084.002441	12.350930
733.589233	726.383484	3667.136719	1071.593750	11.738838
733.909973	724.897400	3635.260742	1060.002563	11.514204
734.230713	718.655945	3597.143311	1055.098633	11.688177
734.551331	710.408386	3550.852539	1058.145020	12.242333
734.871948	718.730225	3513.701172	1057.030640	12.103897
735.192505	721.033630	3472.760498	1051.532104	12.010585
735.513062	716.798340	3425.578125	1041.649780	11.992537
735.833435	706.841797	3382.854248	1033.253662	12.197696
736.153931	706.395935	3337.604248	1017.650085	11.829324
736.474304	712.488770	3297.703369	1001.006165	11.160288
736.794617	720.290588	3246.657471	998.628601	11.017323
737.114807	720.513489	3221.617188	1003.606873	11.318738
737.434998	714.717834	3205.270752	1010.888489	11.891763
737.755188	711.597168	3215.821533	1006.281738	11.767499
738.075256	713.603333	3215.004639	995.730774	11.278775
738.395325	714.420715	3229.493408	994.541992	11.137701
738.715271	716.426941	3248.366455	995.507874	11.022417
739.035278	708.253601	3268.279297	999.520203	11.377488
739.355164	710.631287	3291.759033	996.548096	11.077205
739.675049	703.275208	3291.684814	994.467590	11.249857
739.994873	714.049133	3296.440186	1003.160950	11.195509
740.314636	716.426819	3274.446533	1008.882324	11.432887
740.634277	725.566101	3255.276367	1007.247742	11.134937
740.953979	726.383362	3211.289063	991.792725	10.680862
741.273499	736.785828	3173.989258	984.436707	10.161273
741.593140	732.773438	3140.776123	978.269592	10.195012
741.912598	725.194580	3102.584717	970.096375	10.301288
742.232117	717.392761	3067.662109	957.241943	10.205179
742.551453	719.176025	3034.151611	949.365906	9.943512
742.870850	726.754883	3007.328125	947.211121	9.666703
743.190063	717.541321	2961.260498	942.975830	10.047359
743.509338	711.151367	2927.601563	937.031555	10.191079
743.828552	702.235046	2911.106201	934.728210	10.525429
744.147705	705.801514	2895.577148	937.328857	10.573108
744.466797	714.866394	2866.896240	939.632324	10.444369
744.785828	716.946960	2826.698486	936.511536	10.407130
745.104858	722.593933	2808.717041	940.375305	10.439527
745.423706	704.909912	2787.318115	940.375305	11.307360
745.742615	706.247314	2771.194336	929.527039	10.812855
746.061401	703.126648	2748.903564	919.198975	10.561872
746.380249	713.380432	2740.656006	908.350769	9.617357
746.698975	710.631287	2726.389648	912.734680	10.026172
747.017639	715.535156	2717.027344	910.802734	9.756100
747.336304	717.615662	2705.287598	913.997803	9.880008
747.654907	721.256531	2700.383789	911.025635	9.588525
747.973389	721.182190	2704.916260	906.567566	9.345273
748.291931	720.142029	2701.944092	903.520996	9.253142
748.610352	721.628113	2703.207275	902.852356	9.145446
748.928711	711.968689	2704.990479	902.406555	9.555233
749.247070	706.693176	2697.486084	900.549011	9.737619
749.565308	700.228821	2705.733643	893.267334	9.625432
749.883545	709.070862	2690.947266	888.883484	9.072847
750.201782	722.816895	2682.031006	883.830872	8.218294
750.519836	726.531982	2658.031006	883.607910	8.132333
750.837952	726.977844	2651.121094	892.375671	8.595921
751.155884	721.256592	2644.730957	887.620300	8.649125
751.473877	728.241028	2636.483398	891.409851	8.550738
751.791809	731.138855	2623.480469	882.121887	7.978635
752.109619	727.497986	2620.582764	892.450012	8.713399
752.427490	721.182190	2598.143311	893.193054	9.164328
752.745300	718.804504	2588.855469	893.267334	9.329309
753.062988	719.027405	2578.081543	892.078552	9.308558
753.380615	720.067688	2584.768799	890.963928	9.164805
753.698303	715.535156	2577.561279	885.985657	9.154034
754.015808	720.810608	2562.180664	888.809265	9.123569
754.333374	721.702332	2548.137451	883.310730	8.848297
754.650757	716.575439	2547.394531	887.545959	9.338471
754.968262	718.507324	2554.676025	871.570801	8.336024
755.285583	714.346375	2567.456299	870.604919	8.432233
755.602905	724.154297	2569.239502	866.221130	7.699744
755.920105	722.668274	2563.518311	870.233398	8.016140
756.237305	728.612488	2543.605225	863.249023	7.418021
756.554443	722.668274	2527.853027	861.614319	7.697054
756.871582	724.228577	2528.373291	864.214905	7.759151
757.188599	722.371033	2535.951904	867.558594	8.005574
757.505615	719.547546	2535.580322	869.713318	8.268891
757.822510	717.541321	2547.394287	866.295410	8.129292
758.139465	713.974854	2563.443604	865.329407	8.183678
758.456238	715.683777	2593.684814	858.122070	7.584570
758.773010	712.488770	2610.180420	856.858948	7.607673
759.089783	712.860291	2614.267090	859.236633	7.698318
759.406433	714.123474	2615.901611	866.592590	8.017188
759.723145	718.804504	2616.793213	863.323303	7.614313
760.039673	719.993347	2628.458740	864.214905	7.556939
760.356201	723.931458	2638.489990	866.815613	7.463034
760.672668	715.312317	2637.672363	863.546204	7.711036
760.989136	722.445313	2629.350342	858.419373	7.130615
761.305481	716.055359	2635.220215	856.636047	7.325097
761.621826	717.244141	2650.526611	864.363525	7.609824
761.938049	713.157532	2659.814453	864.363525	7.767470
762.254333	722.296692	2681.882324	869.638977	7.519053
762.570496	730.841553	2713.906982	869.118896	6.972909
762.886597	729.058289	2816.593506	877.143616	7.093789
763.202637	726.309082	2934.883057	874.320129	6.701657
763.518677	724.971680	3101.766846	884.796814	6.724397
763.834656	721.479492	3263.152588	896.090820	6.869936
764.150574	718.210144	3404.253662	907.979187	7.065003
764.466370	712.563171	3487.546875	906.418762	6.985828
764.782288	718.507324	3513.255615	907.756287	6.771593
765.097961	723.039795	3491.856445	898.988586	6.354657
765.413696	724.971680	3425.949951	895.347839	6.307942
765.729309	724.154297	3314.050049	887.025879	6.288731
766.044861	724.897278	3179.784912	883.459290	6.459033
766.360474	722.148132	3030.882080	875.508972	6.642638
766.675903	718.730225	2884.951904	864.512146	6.729778
766.991394	715.758118	2770.674072	854.778503	6.765259
767.306763	712.860352	2676.384033	851.286316	7.049875
767.622131	713.380432	2601.115479	843.930359	6.915691
767.937378	708.625061	2516.930420	836.500061	7.071537
768.252625	708.550720	2457.339600	829.664246	6.925566
768.567810	702.309326	2409.488525	829.367004	7.442551
768.882996	700.080261	2374.194824	828.178040	7.651674
769.197998	709.219482	2327.235596	829.144043	7.411828
769.513062	715.386536	2300.040771	828.252380	7.122427
769.828064	725.566101	2265.935791	826.692078	6.565046
770.142944	721.182190	2251.818359	813.391846	6.024270
770.457825	722.073792	2221.577148	801.429138	5.292109
770.772705	719.473328	2191.855957	796.005066	5.197816
771.087402	718.804504	2160.426025	799.200012	5.576741
771.402100	718.878845	2129.070068	803.658203	6.011905
771.716736	718.210144	2110.123047	798.085632	5.738541
772.031372	721.925232	2092.141846	802.617981	5.889051
772.345947	718.804504	2081.367920	801.503418	6.069362
772.660461	715.906738	2072.154297	807.521973	6.755053
772.974854	716.055359	2058.631104	802.840820	6.464102
773.289246	714.569275	2037.677734	803.435303	6.716459
773.603638	716.203857	2022.148560	800.760437	6.474744
773.917908	709.293762	2000.749390	794.964844	6.633684
774.232178	712.563049	1989.455444	794.221741	6.395112
774.546265	711.820068	1975.189087	792.512756	6.387104
774.860474	720.216248	1961.145996	797.491150	6.227178
775.174561	719.696106	1947.771484	802.097839	6.709826
775.488586	720.439148	1931.870728	805.292969	7.004425
775.802551	715.906738	1927.115356	804.698486	7.330839
776.116516	718.507324	1913.889282	795.856445	6.470662
776.430359	714.717834	1903.635620	797.862610	6.993316
776.744202	711.968689	1891.004272	796.748047	7.190568
777.057922	715.906738	1889.889648	798.977234	7.075954
777.371704	719.176025	1890.335571	788.351868	5.906611
777.685303	723.708496	1875.400757	789.094910	5.677421
777.998962	716.055359	1861.729004	779.435547	5.532133
778.312500	714.197754	1853.927124	784.933899	6.206398
778.626038	717.764343	1852.441040	780.475769	5.526810
778.939453	720.216309	1855.561646	785.082520	5.713346
779.252869	731.510254	1853.332642	786.197083	4.874821
779.566223	727.646545	1851.549438	788.054688	5.374855
779.879578	726.011902	1843.227539	787.014404	5.460227
780.192749	713.008972	1838.695190	785.528320	6.442235
780.505920	713.529053	1835.723022	785.825623	6.442431
780.819031	715.163757	1826.360962	785.082581	6.292206
781.132141	722.445374	1821.159668	787.385986	5.910600
781.445190	723.485596	1810.014282	791.398254	6.250425
781.758118	725.045959	1803.624390	796.599548	6.634065
782.071045	720.810730	1779.847534	792.364258	6.756472
782.383911	714.420593	1757.036499	779.584167	6.250007
782.696838	718.284363	1744.850708	765.020752	4.552691
783.009583	715.312195	1728.875610	760.859863	4.493815
783.322266	720.810730	1730.584595	764.054871	4.282557
783.634888	713.454773	1711.340332	773.937195	6.061058
783.947510	715.832458	1707.773804	772.228210	5.685392
784.260132	712.340271	1697.817017	767.547058	5.602038
784.572571	707.064697	1708.145386	758.928040	5.180736
784.885010	707.882019	1696.033813	758.184998	5.090612
785.197449	710.111084	1690.089722	761.677246	5.261968
785.509766	723.039795	1672.034180	767.472839	4.682119
785.822083	720.587830	1672.405640	768.290100	5.011702
786.134277	718.804504	1652.418091	764.277771	4.870673
786.446533	711.002747	1654.275757	755.955872	4.765654
786.758606	717.244141	1650.337524	757.962097	4.363760
787.070740	721.479431	1660.294312	761.528625	4.265931
787.382690	727.943665	1667.947388	768.067200	4.268444
787.694641	725.640381	1680.133179	772.599609	4.919810
788.006653	723.188293	1705.767578	763.757629	4.128861
788.318481	720.959290	1727.092407	768.661621	4.741155
788.630310	717.689941	1766.918823	762.568848	4.277323
788.942017	711.745789	1792.255859	776.389160	5.982672
789.253784	707.213379	1801.840942	777.800842	6.448537
789.565430	701.120544	1793.816284	778.543945	7.085540
789.877014	708.179199	1792.255859	772.451111	5.928724
790.188538	704.761292	1779.773071	767.101257	5.799004
790.500061	720.364929	1759.859985	763.386047	4.138655
790.811462	720.067688	1734.151245	763.163269	4.249707
791.122925	719.176025	1706.213257	767.770020	4.923218
791.434204	715.163635	1673.965942	759.819641	4.657478
791.745483	713.751892	1653.681274	753.132385	4.189729
792.056702	725.120300	1639.415405	749.342957	2.649326
792.367920	722.519714	1622.474243	760.859863	4.260232
792.678955	721.405090	1592.753296	766.804138	5.210207
792.990112	717.838623	1583.762573	764.500732	5.388708
793.301086	723.262695	1575.440430	759.522461	4.254953
793.612122	724.674500	1572.542603	755.064270	3.584257
793.922974	717.615662	1553.001099	748.748535	3.726768
794.233826	708.402161	1553.001099	748.154114	4.706607
794.544556	711.002747	1556.419067	754.469910	5.141510
794.855286	718.507324	1558.945435	755.287170	4.376271
795.166016	723.336975	1563.329224	755.361511	3.812480
795.476624	718.135742	1568.159058	746.445129	3.330425
795.787292	713.900574	1584.059937	747.559631	3.868149
796.097778	703.944031	1604.195801	751.943542	5.331788
796.408264	701.863464	1619.873657	760.636963	6.402271
796.718689	705.652893	1635.180054	763.832031	6.259004
797.029053	709.739563	1634.659790	763.906250	5.856363
797.339355	719.993408	1641.272827	765.020813	4.887486
797.649658	720.439209	1637.780640	759.150879	4.219985
797.959839	725.194580	1624.703491	754.544128	3.262841
798.270020	714.643555	1607.093628	747.559753	3.688296
798.580078	708.476379	1592.381714	754.469788	5.203432
798.890137	708.625000	1577.595337	761.528625	6.088082
799.200195	712.711670	1560.951538	760.042480	5.579885
799.510071	716.946960	1545.050781	752.983826	4.351733
799.820007	721.330872	1541.261230	744.661926	2.845492
800.129883	717.318542	1535.242798	745.256348	3.415696
800.439575	717.838562	1534.499634	746.519470	3.511972
800.749329	713.083191	1531.601929	748.154114	4.284682
801.058960	722.668274	1517.484497	749.714417	3.402817
801.368591	726.903503	1505.521851	752.760925	3.320937
801.678162	729.875671	1487.763306	748.451355	2.450981
801.987671	715.980957	1484.494019	748.674133	4.254082
802.297119	706.544617	1480.110229	743.547302	4.783393
802.606506	702.829407	1475.800659	750.234558	6.132848
802.915894	709.739563	1466.067017	750.085938	5.334511
803.225159	716.055359	1454.475708	753.875427	5.121753
803.534424	712.785950	1441.249878	741.987000	4.008579
803.843628	716.501160	1443.776245	747.113953	4.209245
804.152771	716.055359	1439.169434	750.606140	4.778054
804.461792	720.885010	1456.853516	763.460449	5.784954
804.770874	718.804504	1455.813354	757.144775	5.202145
805.079773	714.123474	1465.175293	761.157043	6.262360
805.388733	713.231750	1466.438477	759.448059	6.135940
805.697571	712.340149	1480.481812	763.237610	6.626051
806.006470	714.792175	1493.336060	756.550293	5.363618
806.315125	711.671448	1498.908813	752.389404	5.172259
806.623901	714.940735	1499.800415	742.655762	3.531208
806.932495	717.467102	1496.902710	739.089172	2.774068
807.241150	727.869446	1487.911987	740.872375	1.710816
807.549622	728.389648	1471.045288	744.884766	2.221099
807.858154	724.525818	1462.649048	743.175842	2.526682
808.166565	714.940735	1455.664673	735.522705	2.778629
808.474915	707.659119	1453.361328	736.711487	3.895975
808.783264	711.820068	1444.147583	738.717590	3.672882
809.091492	712.934570	1439.243774	739.534973	3.662407
809.399719	720.364929	1433.522461	736.711426	2.292130
809.707825	729.355469	1415.689819	732.773438	0.498003
810.015930	735.448425	1397.336914	737.083008	0.246957
810.323975	737.751770	1378.538452	744.438965	1.043591
810.632080	723.411316	1365.312622	752.760925	4.572293
810.939880	714.792175	1359.293945	753.875305	6.064084
811.247864	707.436218	1363.380737	750.085938	6.502031
811.555664	714.792175	1369.845093	744.884766	4.593917
811.863464	720.439148	1368.878906	744.736145	3.746994
812.171143	721.405090	1363.603394	745.330566	3.725559
812.478882	720.662109	1358.550903	749.342957	4.496214
812.786438	717.467041	1349.188721	745.702148	4.469549
813.094055	716.352478	1340.643921	741.169678	3.975259
813.401489	716.426819	1334.551147	733.367920	2.740727
813.708984	720.662109	1333.362305	737.157227	2.692200
814.016357	731.287415	1332.693726	744.364685	2.174448
814.323730	730.767273	1334.922729	748.897156	3.000864
814.630981	725.120300	1334.254028	743.844543	3.073913
814.938232	713.454773	1329.424194	746.370850	5.343784
815.245361	703.944031	1329.870117	739.534973	5.686125
815.552490	707.733398	1332.396362	744.364685	5.864168
815.859619	710.036804	1335.591431	729.058289	3.040739
816.166565	714.197754	1333.362305	733.144958	3.060124
816.473572	719.176025	1335.219849	723.931396	0.771921
816.780457	718.878845	1342.724487	728.166687	1.488804
817.087341	721.033630	1345.176514	725.566101	0.726191
817.394043	714.197754	1351.120728	729.206848	2.356501
817.700806	716.872742	1357.510742	732.401917	2.424017
818.007507	713.306152	1361.077271	735.002502	3.349385
818.314209	713.900574	1368.507446	737.231628	3.564132
818.620667	707.882019	1378.018188	734.556702	3.980487
818.927246	708.773682	1391.169922	731.287415	3.299217
819.233704	704.909912	1416.209839	737.305908	4.554478
819.540161	706.395996	1448.160034	747.411072	5.529397
819.846497	714.940735	1497.720093	756.253113	5.277653
820.152832	721.256531	1550.772095	753.875427	3.932283
820.458984	724.897400	1622.325562	749.268616	2.715673
820.765259	720.439148	1707.699585	750.754700	3.070674
821.071350	718.878723	1817.072876	748.971436	2.740200
821.377502	713.677551	1986.483276	742.061279	2.230013
821.683472	714.346375	2318.467773	752.538025	2.380846
821.989441	713.677673	2881.905273	769.107483	2.556457
822.295349	713.603333	3673.823486	797.936951	2.848897
822.601196	712.414551	4554.385254	818.593079	2.763648
822.907043	707.510498	5302.093750	835.162598	2.778317
823.212769	709.813904	5731.935059	840.809570	2.608373
823.518494	713.528992	5798.510254	832.562012	2.340874
823.824097	725.120300	5562.152832	830.481445	2.178219
824.129700	725.863342	5157.426270	823.794250	2.209850
824.435242	721.628113	4717.183105	818.295898	2.419383
824.740723	718.061523	4328.431152	799.125732	2.245316
825.046082	719.993347	3971.703857	786.865784	2.056531
825.351501	726.160461	3625.601563	777.577942	1.773358
825.656799	724.822998	3279.053467	772.079590	1.850130
825.962036	724.302917	2968.616455	768.810242	1.983115
826.267212	713.454773	2724.309326	769.701843	2.797173
826.572449	712.637451	2581.202393	773.937195	3.280579
826.877502	712.191589	2589.078369	778.098083	3.511480
827.182495	718.433044	2703.578857	773.714172	2.784739
827.487488	715.832458	2871.205811	771.113586	2.564805
827.792419	718.358704	2996.703125	767.992859	2.178519
828.097290	722.222473	3038.238281	772.079590	2.152710
828.402100	727.423645	2962.969971	770.965027	1.947684
828.706848	728.315247	2815.181641	771.336609	2.061529
829.011597	722.742615	2617.462158	766.061035	2.286271
829.316223	718.730286	2436.832031	758.259277	2.300736
829.620789	717.690002	2276.041016	750.754700	2.121775
829.925354	721.107910	2130.779053	745.999329	1.765761
830.229797	716.055359	1988.415039	747.113831	2.441014
830.534302	722.296692	1851.846680	747.262512	2.210245
830.838562	720.810730	1736.083130	741.318176	2.019896
831.142944	728.018066	1632.059204	737.305908	1.027369
831.447144	723.708496	1543.490356	734.705261	1.341426
831.751404	723.782776	1481.967773	737.677429	1.832621
832.055542	717.467102	1443.404785	733.739319	2.241544
832.359619	709.219482	1432.482056	733.887939	3.410719
832.663635	708.996582	1436.643188	728.389465	2.665151
832.967651	710.333984	1474.389038	735.596924	3.306429
833.271545	716.501160	1550.920776	734.556702	2.163844
833.575439	714.123474	1668.393188	738.494812	2.553926
833.879211	713.603333	1814.918335	740.352356	2.428826
834.183044	708.179260	1944.576660	740.649597	2.626205
834.486694	703.275330	2039.609741	743.324402	2.996935
834.790344	705.207092	2069.553711	744.587585	2.886399
835.093933	710.185364	2056.773682	750.085938	2.963086
835.397522	719.324646	2002.829712	748.154114	2.246151
835.700928	722.148132	1941.604370	745.627747	1.925417
836.004395	715.312317	1856.824829	743.473083	2.466970
836.307739	713.083191	1772.342773	743.547363	2.875988
836.611023	715.089355	1688.232056	748.971436	3.481718
836.914307	721.479492	1620.616699	747.485352	2.892313
837.217529	720.364929	1545.125122	748.302734	3.387385
837.520691	713.008972	1466.587280	740.352295	3.628465
837.823730	710.631165	1384.779785	734.928223	3.604110
838.126831	705.875793	1328.755493	732.922058	4.342133
838.429749	714.049133	1285.214233	732.773438	3.278265
838.732727	717.169861	1257.053467	737.305908	3.729702
839.035522	720.067688	1227.480957	730.172852	1.991506
839.338379	713.826355	1213.957886	729.355530	3.105018
839.641113	708.476501	1221.090942	727.200745	3.652695
839.943848	711.225647	1245.759399	735.448303	4.531549
840.246460	711.597168	1280.533203	730.841492	3.382511
840.549072	714.866455	1307.727905	723.336914	1.428742
840.851563	722.445313	1320.062134	725.640320	0.534625
841.154053	722.371094	1316.049805	727.720886	0.901126
841.456482	725.863281	1289.895142	738.048889	2.160447
841.758850	716.426819	1264.780884	736.711426	3.699181
842.061157	716.946960	1241.524170	741.169617	4.617558
842.363403	709.665283	1220.422241	740.649475	6.066328
842.665588	710.036804	1204.521362	733.144836	4.673155
842.967712	717.244141	1179.184204	719.993347	0.595144
843.269775	718.210144	1167.147095	717.541321	-0.148979
843.571777	719.175964	1142.998901	724.080078	1.157114
843.873840	709.070801	1116.249878	730.841553	5.346726
844.175659	714.346375	1091.729858	725.566101	2.973031
844.477600	716.501221	1069.587769	719.176025	0.757549
844.779297	716.946960	1061.786011	719.770508	0.818802
845.081116	711.522888	1046.925415	718.878845	2.193173
845.382751	708.253479	1037.786011	720.885010	3.833167
845.684387	715.386658	1030.801636	716.129639	0.235557
845.985962	720.587830	1017.873047	721.330811	0.249922
846.287537	726.086243	1009.179626	721.925232	-1.469837
846.588989	718.135803	1011.780273	730.395691	4.175079
846.890381	713.529053	1010.665710	732.401917	6.351577
847.191711	708.402100	1021.142334	739.089172	9.812320
847.493042	717.764343	1001.229187	745.033386	9.619903
847.794250	725.714661	994.021790	740.649475	5.566313
848.095459	727.795166	984.362488	733.888000	2.374751
848.396606	729.058289	981.167419	726.903503	-0.854703
848.697693	728.686829	985.179749	723.782776	-1.911964
848.998657	729.206970	980.275696	725.863281	-1.331782
849.299622	724.525879	984.288086	724.377258	-0.057214
849.600464	724.748718	978.641113	725.343079	0.234099
849.901367	723.485596	977.823792	715.386536	-3.184366
850.202087	723.039795	982.504883	712.637390	-4.009173
850.502808	723.336975	985.774170	718.730225	-1.755373
850.803467	717.838562	978.566895	721.925293	1.567429
851.104065	714.346375	974.405945	723.559875	3.542842
851.404663	710.408386	965.341003	720.364929	3.905559
851.705139	712.042969	965.341003	720.067688	3.168094
852.005615	712.637390	960.214050	719.398926	2.731088
852.306030	711.894348	962.368896	717.318359	2.165494
852.606384	716.501160	969.501953	722.965393	2.555025
852.906616	721.107910	973.439941	719.250305	-0.736175
853.206909	718.358704	973.960022	722.148132	1.482554
853.506958	723.188416	976.560730	722.445313	-0.293285
853.807129	715.089417	973.514221	725.863281	4.169052
854.107178	717.095520	973.365662	724.080078	2.725467
854.407166	708.699402	965.415222	721.107910	4.833558
854.707092	713.157532	960.511230	725.194580	4.866331
855.007019	711.077087	960.065430	725.343201	5.729631
855.306763	710.259705	961.997375	732.179016	8.707204
855.606567	708.847961	957.613464	739.312195	12.246164
855.906250	710.408386	958.579407	743.101563	13.173648
856.205933	712.637390	953.080994	735.522644	9.517930
856.505493	709.368103	953.898254	729.949890	8.416871
856.805054	705.281433	950.406067	732.624817	11.154890
857.104492	706.395996	949.514465	732.996338	10.941309
857.403931	714.197754	956.573242	724.748718	4.353148
857.703308	723.708496	955.830261	718.061462	-2.432789
858.002563	725.417480	950.034607	720.959290	-1.984796
858.301819	726.457764	947.285339	722.148132	-1.951582
858.601013	728.018066	955.161438	720.959290	-3.107630
858.900208	725.120300	963.780579	715.015076	-4.234146
859.199219	715.683777	965.415222	718.432922	1.100841
859.498291	706.693176	958.728027	715.386536	3.449269
859.797302	708.550781	953.378235	713.751953	2.124424
860.096191	720.216309	946.913879	717.318542	-1.278252
860.395020	724.154297	941.043945	725.194580	0.479637
860.693787	723.782776	946.096497	729.504089	2.573531
860.992554	723.559875	945.576416	726.234680	1.204777
861.291260	720.736389	952.560852	723.485535	1.185874
861.589844	713.826233	948.920105	722.965515	3.887503
861.888428	708.847961	954.418457	713.974792	2.087723
862.186890	713.751953	944.536194	712.711670	-0.450760
862.485413	721.033630	937.997559	706.841797	-6.541103
862.783813	720.736328	930.344421	716.426819	-2.055984
863.082153	715.015076	939.334961	719.101746	1.821805
863.380371	709.888184	951.074890	730.024231	8.348739
863.678589	708.922302	960.214111	728.686768	7.865145
863.976746	710.408264	963.483398	727.423645	6.723450
864.274902	708.179199	968.833191	715.015137	2.622610
864.572937	703.646790	968.461670	714.792175	4.208746
864.870911	702.978027	965.341003	713.083252	3.851620
865.168884	709.293762	956.201660	718.358704	3.671386
865.466736	716.649719	949.514465	712.786072	-1.659181
865.764587	721.405090	941.341248	713.008850	-3.817581
866.062317	722.816895	936.511414	718.061523	-2.225313
866.360107	714.346375	937.848877	715.981018	0.731376
866.657715	707.882019	948.845642	720.959290	5.427073
866.955322	701.492004	955.012878	718.433044	6.682306
867.252808	706.544617	959.173828	729.801331	9.205869
867.550293	704.018311	948.994324	723.411316	7.916287
867.847717	703.349548	945.650696	730.321472	11.131571
868.145081	700.451843	942.232727	727.052063	11.001788
868.442383	710.333984	949.663086	734.482422	10.090055
868.739624	720.364929	947.879883	735.299744	6.564322
869.036804	733.665039	944.833496	742.135559	4.011262
869.333984	724.971680	951.372070	733.813660	3.905462
869.631042	717.615662	950.108887	732.773438	6.519663
869.928101	710.779785	955.830078	727.720886	6.913316
870.224976	714.792175	951.297668	734.779602	8.451147
870.521851	714.940735	965.192383	730.618652	6.264861
870.818726	716.501160	963.111816	725.120300	3.495040
871.115479	716.798340	963.854797	715.163635	-0.661672
871.412231	713.751892	966.232605	709.367981	-1.736335
871.708862	707.287598	970.987976	708.847961	0.591718
872.005493	706.916077	966.678406	711.671387	1.830639
872.302063	716.575500	954.789978	715.758057	-0.343155
872.598572	724.600159	952.486572	711.299988	-5.836316
872.895020	728.463867	955.755920	717.244141	-4.936260
873.191406	722.891174	961.774414	717.541321	-2.239527
873.487671	722.816895	964.523621	724.748718	0.799243
873.783997	720.513489	968.090149	717.095520	-1.380570
874.080200	721.999512	969.353271	716.352539	-2.282954
874.376343	720.736389	972.994202	721.925232	0.471281
874.672424	724.154297	977.080811	725.640381	0.587556
874.968445	725.045959	972.919861	727.869446	1.139082
875.264465	718.804504	970.542175	725.417480	2.626931
875.560364	712.042969	968.758850	731.138855	7.438529
875.856201	713.157532	974.926025	725.120300	4.569980
876.152039	719.324707	973.439941	720.959290	0.643245
876.447754	728.315247	971.285156	717.021301	-4.648290
876.743469	731.064453	971.656677	723.559875	-3.119210
877.039063	727.943787	976.783508	731.361633	1.373513
877.334595	722.073914	991.569824	724.005798	0.716851
877.630127	718.507324	990.826843	719.919128	0.518437
877.925537	719.547546	994.096130	708.030579	-4.194874
878.221008	721.999512	986.517273	707.436218	-5.505601
878.516296	718.730225	997.811218	702.829407	-5.697564
878.811646	722.073914	1001.377747	707.064697	-5.373796
879.106812	720.067688	1012.003113	712.860352	-2.468812
879.401978	720.439148	1016.832703	721.405090	0.325899
879.697083	720.216309	1046.925415	726.606262	1.955854
879.992126	717.764343	1072.634033	719.250305	0.418735
880.287109	720.067688	1120.336426	714.346375	-1.429368
880.582031	709.665222	1193.078857	710.185364	0.107598
880.876892	708.327820	1318.501831	720.067688	1.924020
881.171753	705.429932	1546.388184	725.789063	2.420944
881.466492	708.922180	1874.286133	729.206848	1.740629
881.761230	712.860352	2293.650635	733.739441	1.320801
882.055786	714.717957	2702.018311	733.888000	0.964627
882.350403	721.479431	2982.436768	738.271790	0.742710
882.644958	723.708496	3109.123047	738.123230	0.604286
882.939453	728.389648	3064.318359	745.776367	0.744317
883.233826	727.572266	2958.734375	744.438965	0.755960
883.528137	726.160583	2806.710938	743.547363	0.835682
883.822449	720.216309	2667.988037	740.426575	1.037610
884.116577	714.866455	2530.230713	734.853943	1.101018
884.410828	712.117249	2394.776611	734.259521	1.315909
884.704956	714.940857	2234.060059	730.915833	1.051595
884.999023	717.912903	2037.900757	738.643372	1.570505
885.292969	718.878845	1817.295898	737.231628	1.670839
885.586914	715.312256	1625.074829	737.008728	2.384850
885.880798	714.420654	1481.967773	723.634216	1.200390
886.174622	713.677673	1388.495117	719.547546	0.869846
886.468384	715.683838	1312.706177	713.454651	-0.373384
886.762085	712.191650	1254.601440	712.711731	0.095883
887.055664	717.541443	1199.914673	714.866516	-0.554535
887.349304	721.925232	1163.952148	714.420654	-1.697765
887.642822	725.120300	1132.596436	723.485535	-0.401193
887.936340	718.878845	1113.054810	727.869446	2.280860
888.229736	715.758118	1088.757813	736.785828	5.637460
888.523071	720.513489	1067.878784	733.144958	3.636365
888.816284	730.395752	1051.160522	730.990173	0.185314
889.109619	727.274963	1041.798462	725.120300	-0.685056
889.402710	719.398926	1027.012207	726.457703	2.294692
889.695862	713.900574	1023.817200	726.160461	3.955866
889.988892	713.528992	1012.448914	722.296814	2.933168
890.281921	708.847961	998.628540	711.745789	1.000007
>>>>>End Processed Spectral Data<<<<<
