Jaz Data File
++++++++++++++++++++++++++++++++++++
Date: Fri Jun 04 13:45:15 2021
User: jaz
Dark Spectrum Present: Yes
Reference Spectrum Present: Yes
Processed Spectrum Present: Yes
Spectrometers: JAZA3586
Integration Time (usec): 386000 (JAZA3586)
Spectra Averaged: 10 (JAZA3586)
Boxcar Smoothing: 1 (JAZA3586)
Correct for Electrical Dark: No (JAZA3586)
Strobe/Lamp Enabled: Yes (JAZA3586)
Correct for Detector Non-linearity: No (JAZA3586)
Correct for Stray Light: No (JAZA3586)
Number of Pixels in Processed Spectrum: 2048
>>>>>Begin Processed Spectral Data<<<<<
W	D	R	S	P
191.335022	0.000000	0.000000	0.000000	0.000000
191.713211	286.065460	285.248138	278.337982	945.463379
192.091385	572.502502	577.257874	563.288940	-193.750641
192.469528	854.406982	861.837219	851.286316	-41.999557
192.847641	859.682556	865.923828	868.821716	146.431046
193.225739	885.911377	882.047607	888.883484	-76.922470
193.603790	921.205139	908.276550	906.195984	116.092758
193.981842	931.979004	931.904785	918.753174	17820.066406
194.359863	932.573425	939.037842	930.715881	-28.734905
194.737854	946.170898	946.913879	950.034607	520.027954
195.115829	950.108887	942.530029	952.263672	-28.431530
195.493774	946.170837	931.384583	948.771484	-17.588274
195.871704	932.499207	924.103027	937.923279	-64.601677
196.249603	954.121277	933.465088	949.440186	22.661932
196.627457	952.337952	942.604309	940.152344	125.190628
197.005310	948.399902	940.300964	932.127625	200.918655
197.383133	928.486816	932.424988	931.607483	79.241508
197.760910	946.839539	940.375305	951.446350	-71.266167
198.138687	946.839600	944.536194	956.796143	-432.253113
198.516449	949.663086	944.164612	944.536194	93.242088
198.894180	927.966614	930.715820	926.554993	-51.346493
199.271866	925.291748	933.687988	922.542664	-32.741852
199.649536	922.765442	935.174011	919.867859	-23.351467
200.027191	932.870667	943.793030	917.415771	-141.497726
200.404816	924.325867	940.300842	917.787292	-40.930103
200.782410	923.880066	954.046875	932.276306	27.832708
201.159988	922.616882	964.077820	945.427917	55.018135
201.537537	931.756165	977.377991	962.443176	67.263885
201.915070	928.561218	968.610352	956.350403	69.387733
202.292557	920.685059	963.780579	955.458740	80.689781
202.670029	919.719177	959.396729	947.805481	70.786385
203.047485	921.502441	963.483398	938.517578	40.530605
203.424911	920.016357	963.929199	931.830322	26.903212
203.802292	913.997803	969.353333	933.687988	35.570404
204.179688	909.465332	967.867249	933.465088	41.094124
204.557037	912.363098	964.597961	935.099792	43.527813
204.934357	925.737610	956.350342	930.715881	16.262094
205.311661	936.288574	955.161438	934.728210	-8.267764
205.688934	933.242188	959.396729	937.105957	14.772844
206.066177	919.570496	957.019043	929.378418	26.190395
206.443390	908.796631	960.436951	932.647766	46.187038
206.820587	908.870911	949.365906	926.406433	43.302937
207.197769	923.508545	966.678406	942.455750	43.889889
207.574921	926.332031	963.706299	946.765198	54.671749
207.952042	931.533203	973.514221	953.452454	52.212288
208.329147	931.236023	965.489563	947.954102	48.806862
208.706223	1056.881958	1091.878540	1055.767212	-3.185300
209.083267	1059.556763	1097.971313	1066.986938	19.342087
209.460297	1049.600220	1098.119995	1070.553589	43.185215
209.837280	920.759277	970.393555	954.418457	67.814384
210.214264	906.344543	961.179993	946.319519	72.899879
210.591217	898.617126	952.189392	938.369080	74.202484
210.968124	907.384827	968.387390	952.709473	74.299576
211.345016	922.245422	974.183044	957.984924	68.812355
211.721893	922.839844	977.526611	959.025208	66.168411
212.098724	917.638672	957.390625	948.177063	76.822365
212.475555	922.542664	960.214111	946.839661	64.497116
212.852356	933.390686	959.248230	951.669373	70.689957
213.229126	940.003723	970.170593	955.904602	52.709740
213.605865	923.880066	955.904480	938.443359	45.475597
213.982590	911.768738	956.053040	926.852112	34.060318
214.359283	899.805969	953.155273	923.954346	45.264652
214.735931	895.942200	960.511230	930.047180	52.819408
215.112579	900.400391	967.644287	934.282410	50.386757
215.489197	901.440613	968.610352	930.864502	43.805275
215.865799	909.168152	980.275879	933.167786	33.751091
216.242355	903.818298	971.359558	936.214355	47.964840
216.618896	918.307312	983.768066	949.068665	46.992054
216.995407	915.409424	969.873352	943.273010	51.159706
217.371902	914.889343	968.387390	939.334961	45.694412
217.748367	902.183594	955.978821	934.802551	60.635410
218.124802	902.852356	961.551514	944.461853	70.886024
218.501236	903.595398	957.539124	939.557922	66.666740
218.877609	908.499329	960.288391	934.653992	50.502293
219.253983	904.858582	960.065430	919.644714	26.783150
219.630295	903.669617	983.247864	928.263855	30.905729
220.006592	900.846191	991.644043	923.657043	25.122679
220.382889	907.533386	998.554199	936.065674	31.346992
220.759140	914.146301	988.746277	931.681824	23.506069
221.135391	910.877014	994.244690	936.808594	31.105078
221.511581	903.669739	994.913391	935.248352	34.609108
221.887772	899.508789	1005.092957	934.951172	33.567894
222.263931	911.248535	1011.780212	950.034607	38.580944
222.640060	924.994568	1017.947266	965.192383	43.245453
223.016159	926.852112	1022.999817	971.953857	46.908810
223.392212	914.220703	1022.033875	964.597900	46.726383
223.768265	899.434387	1027.532349	954.715637	43.155449
224.144302	892.672913	1027.532349	953.898376	45.399467
224.520294	893.787415	1023.668640	948.028381	41.761978
224.896286	909.242432	1033.179321	960.362610	41.246944
225.272217	919.124695	1041.947144	965.117981	37.446972
225.648148	927.595215	1066.392578	978.938293	36.991394
226.024048	909.019470	1065.798218	964.746521	35.545029
226.399902	903.743958	1077.612305	966.604065	36.153854
226.775772	894.307556	1072.708374	957.687744	35.526848
227.151581	910.431152	1098.194214	970.170593	31.816397
227.527374	903.669617	1127.469360	971.879578	30.478123
227.903137	910.579773	1175.394897	985.477051	28.282856
228.278870	908.127869	1238.329224	990.975403	25.090004
228.654572	914.369324	1308.396729	995.656433	20.629810
229.030273	909.688171	1396.891235	994.541931	17.416508
229.405930	901.589172	1473.497192	997.736877	16.811743
229.781555	906.121765	1537.992065	1007.990723	16.121815
230.157181	908.276550	1551.960938	1003.086731	14.729297
230.532761	904.338379	1529.001343	996.845276	14.809090
230.908325	895.570618	1470.748047	983.693665	15.321019
231.283859	892.598572	1427.578125	986.740051	17.597210
231.659332	899.434387	1381.139038	982.876404	17.322235
232.034821	902.778015	1356.321899	978.046692	16.595676
232.410263	903.298157	1334.996948	978.492615	17.418270
232.785690	899.508728	1312.037476	985.774231	20.911392
233.161087	903.075195	1299.851685	997.662598	23.838963
233.536469	904.264099	1280.235840	997.142517	24.703564
233.911804	907.161865	1289.449463	996.102295	23.265320
234.287140	909.688171	1298.291382	992.387146	21.281084
234.662430	912.363098	1324.446045	994.839111	20.014420
235.037704	912.734619	1341.981445	988.523438	17.656233
235.412933	901.514954	1348.000000	985.625549	18.838390
235.788162	893.044434	1346.365356	979.978516	19.177160
236.163345	900.549011	1348.371460	998.108398	21.785282
236.538513	908.053650	1364.792358	1005.835876	21.408789
236.913635	908.722351	1371.108032	1014.752258	22.931053
237.288742	901.217773	1377.423828	1010.814209	23.014498
237.663834	898.171326	1372.668457	1011.111389	23.802053
238.038879	899.880188	1375.937866	1006.430359	22.381777
238.413910	898.394226	1389.683716	1001.154785	20.916498
238.788910	899.285828	1402.538208	1003.681152	20.744129
239.163879	903.595398	1417.770142	1008.287903	20.361269
239.538834	908.573669	1425.051880	1018.764648	21.335068
239.913757	914.294983	1469.336304	1033.476563	21.472559
240.288651	916.375488	1509.756836	1045.662231	21.788137
240.663528	908.127869	1562.214478	1058.888062	23.048965
241.038361	897.725403	1609.619751	1070.033447	24.204159
241.413177	897.948425	1708.219604	1100.869141	25.043556
241.787979	899.508789	1819.970825	1123.160034	24.297716
242.162735	903.818359	1958.619629	1143.444580	22.717665
242.537476	896.833801	2076.760986	1145.450806	21.070538
242.912170	919.050293	2205.007568	1167.741577	19.339001
243.286865	924.920227	2262.815186	1175.394653	18.721531
243.661514	924.697327	2259.768799	1173.537109	18.638685
244.036148	912.883118	2186.951904	1153.401245	18.877954
244.410751	914.740784	2082.259521	1145.747925	19.786160
244.785339	916.747009	1999.040405	1145.896606	21.172594
245.159882	913.626221	1949.777710	1151.989380	23.004663
245.534378	916.003906	1986.854858	1166.627075	23.404114
245.908890	913.477600	2072.005859	1193.004517	24.127758
246.283356	907.236145	2235.694580	1233.870972	24.587507
246.657791	888.214661	2451.172607	1275.851929	24.801516
247.032196	896.833801	2719.405029	1327.863892	23.649561
247.406586	900.994690	2953.755859	1354.612915	22.097954
247.780960	911.694336	3110.163086	1363.974976	20.572531
248.155289	900.325989	3134.237305	1337.671875	19.577585
248.529602	897.725403	3042.547852	1301.486450	18.824917
248.903870	901.143372	2861.620850	1267.084229	18.665905
249.278122	904.784180	2650.155273	1238.477661	19.118771
249.652344	897.725525	2462.020752	1214.552124	20.253633
250.026550	896.908203	2311.557861	1198.057007	21.287872
250.400711	916.226868	2211.323242	1194.416382	21.480217
250.774857	924.103027	2137.243408	1196.496704	22.453600
251.148987	927.298035	2105.442139	1200.137573	23.158419
251.523071	907.904968	2105.293701	1201.474976	24.517521
251.897125	926.629211	2160.351807	1225.028931	24.186937
252.271164	916.003906	2223.211914	1231.716187	24.151648
252.645187	912.808899	2283.694092	1239.517944	23.831976
253.019165	892.524231	2297.291748	1216.855591	23.087902
253.393112	920.610657	2290.455566	1222.577026	22.043835
253.767044	925.663269	2211.546143	1204.892944	21.715017
254.140930	928.858337	2130.110352	1208.385132	23.269623
254.514801	910.356934	2040.947266	1188.992188	24.645111
254.888657	911.099915	1997.777344	1180.670288	24.806843
255.262466	914.815125	1962.334961	1172.125488	24.563772
255.636276	923.285645	1973.926147	1186.614502	25.063650
256.010010	924.845947	1996.365601	1217.375854	27.300470
256.383759	921.948181	2038.272339	1238.997925	28.401224
256.757446	910.059753	2080.996338	1253.115356	29.297541
257.131134	906.493225	2157.973877	1272.359741	29.234692
257.504791	902.629456	2259.025391	1293.907593	28.846895
257.878418	903.521057	2365.352783	1328.012573	29.038328
258.252014	911.471436	2515.964600	1373.485718	28.795031
258.625580	915.558105	2692.581787	1443.033203	29.683065
258.999115	906.195984	2939.787109	1513.843628	29.880524
259.372650	900.103210	3214.038330	1592.604492	29.927429
259.746124	892.004150	3535.992188	1659.105469	29.013041
260.119598	899.211426	3831.642578	1707.625122	27.568037
260.493042	898.096924	4030.105225	1718.547729	26.195679
260.866425	903.669617	4079.516602	1694.845093	24.912268
261.239838	902.926575	3933.289063	1630.721802	24.016771
261.613159	903.669678	3662.158203	1559.093872	23.760265
261.986511	904.264160	3344.142578	1485.608398	23.826771
262.359802	912.734619	3084.677490	1452.098022	24.833221
262.733063	908.425049	2920.096924	1434.265259	26.139462
263.106293	913.626221	2820.679688	1428.618530	27.004608
263.479523	911.174255	2762.203857	1428.395508	27.942356
263.852692	923.508545	2723.714600	1419.702148	27.563156
264.225861	917.712952	2684.185791	1415.318237	28.169426
264.598969	921.205139	2666.427490	1414.129395	28.244209
264.972076	919.198975	2672.297607	1419.330566	28.528435
265.345154	926.777832	2719.108154	1447.937134	29.077190
265.718201	915.112305	2767.107422	1477.138062	30.347044
266.091217	927.075012	2861.174561	1534.351196	31.398392
266.464203	927.223633	2945.731201	1567.936157	31.741894
266.837158	928.858215	3059.340088	1584.208374	30.760653
267.210114	906.716125	3136.391846	1573.583008	29.908693
267.583038	899.583069	3201.406982	1569.273438	29.093901
267.955902	908.350769	3235.289063	1581.830566	28.942745
268.328766	910.356934	3226.372803	1596.319702	29.618223
268.701569	906.790344	3227.635986	1602.041016	29.956781
269.074371	891.855652	3230.310791	1600.777954	30.315840
269.447144	898.171326	3265.084229	1623.217163	30.632553
269.819885	903.223877	3318.359375	1666.238647	31.593042
270.192596	916.003906	3419.634033	1736.603149	32.776379
270.565277	926.109070	3577.081299	1819.673462	33.707047
270.937927	917.787170	3756.819580	1889.889648	34.240627
271.310577	914.146301	3973.041016	1936.403320	33.419163
271.683136	899.657410	4175.367188	1954.161499	32.191624
272.055725	901.440674	4344.777344	1955.573242	30.613695
272.428284	899.211609	4382.151855	1933.876831	29.706663
272.800812	897.874023	4332.071777	1900.737793	29.202272
273.173279	907.087585	4185.843750	1869.976563	29.367508
273.545776	906.493164	4063.467529	1854.967407	30.043774
273.918152	916.152527	3939.678955	1842.781738	30.647301
274.290558	911.620117	3880.682861	1826.955200	30.829092
274.662964	917.861511	3820.794678	1810.757202	30.758396
275.035278	904.264099	3775.395752	1805.630371	31.394112
275.407593	909.391052	3769.525391	1834.014038	32.327957
275.779907	911.843018	3831.568359	1879.264526	33.133991
276.152161	917.341370	3925.932861	1907.722290	32.918423
276.524384	915.632385	4015.319092	1919.388062	32.382488
276.896606	914.889404	4067.628174	1929.121704	32.169880
277.268799	916.672668	4114.661621	1937.369141	31.916822
277.640930	909.465271	4123.949219	1952.006836	32.432625
278.013031	907.533447	4136.432617	1952.081055	32.349960
278.385162	907.310547	4116.073730	1955.276001	32.659481
278.757233	907.904968	4103.516602	1951.189453	32.647411
279.129272	901.737793	4085.535156	1967.833374	33.485031
279.501282	893.416016	4097.200684	1984.105469	34.043781
279.873230	895.199219	4162.141113	2016.129883	34.311314
280.245178	897.948425	4276.790039	2050.680664	34.116196
280.617126	901.589172	4452.070313	2121.268311	34.352505
280.988983	896.388000	4626.607422	2182.345459	34.474045
281.360870	908.647949	4806.791504	2263.781006	34.763550
281.732697	906.567444	4952.499512	2295.508301	34.329319
282.104492	914.889465	5077.179199	2320.919678	33.780212
282.476288	904.487122	5152.967773	2299.520508	32.836056
282.848053	912.363098	5184.026855	2299.223389	32.466515
283.219757	905.898743	5212.261230	2305.910645	32.510315
283.591461	912.288757	5168.868652	2306.728027	32.759613
283.963135	910.951355	5133.129395	2313.786865	33.225395
284.334747	920.239258	5094.343262	2341.130127	34.040619
284.706360	913.849121	5159.729492	2397.822998	34.950912
285.077942	921.799561	5298.007324	2458.156982	35.107048
285.449524	926.406311	5453.820313	2496.422852	34.677998
285.821014	924.846008	5558.214844	2491.964844	33.822453
286.192535	913.180420	5681.260254	2512.323486	33.538509
286.563995	900.325989	5760.169922	2515.593018	33.237019
286.935425	893.936035	5813.890625	2525.549561	33.163181
287.306824	898.171326	5744.343750	2473.314697	32.502834
287.678223	898.691406	5625.458984	2423.829102	32.265976
288.049561	913.106140	5498.550293	2397.674316	32.375664
288.420898	906.716125	5361.535645	2396.262451	33.436741
288.792145	913.106140	5330.551758	2425.909424	34.246109
289.163452	907.533447	5360.940918	2456.670654	34.785439
289.534668	914.666504	5490.302246	2513.884033	34.950718
289.905914	908.499329	5628.951172	2559.505859	34.975605
290.277039	915.186584	5819.240234	2638.340820	35.137344
290.648193	923.434265	6011.089844	2690.650146	34.735367
291.019318	919.198914	6128.860840	2699.195068	34.167210
291.390381	909.911133	6132.649902	2635.220459	33.034569
291.761475	900.177490	6028.031250	2562.478027	32.417084
292.132507	903.075195	5926.533203	2535.060303	32.487286
292.503510	901.217712	5821.395020	2531.122070	33.126942
292.874481	930.492981	5818.274902	2596.136963	34.077709
293.245422	937.551758	5825.036621	2645.548096	34.946323
293.616364	944.833313	5943.846191	2730.178955	35.713966
293.987213	922.245300	6109.838379	2778.475830	35.782112
294.358093	922.393982	6327.248535	2844.902344	35.570030
294.728943	906.864746	6551.939453	2901.669922	35.337090
295.099731	897.799805	6726.550781	2956.579346	35.321110
295.470490	896.908203	6901.607910	3002.795898	35.070660
295.841248	914.963684	7013.359375	3064.838623	35.253124
296.211975	909.688171	7130.980957	3107.711182	35.330647
296.582642	902.852356	7278.992188	3163.884033	35.460827
296.953308	896.685242	7435.175781	3181.939697	34.950794
297.323883	903.149597	7541.280762	3186.100830	34.391472
297.694519	910.579895	7536.673340	3142.633545	33.685818
298.065063	921.576660	7448.327637	3080.962158	33.085152
298.435608	922.468323	7245.555176	2990.610352	32.707790
298.806122	921.353821	6955.626465	2893.571045	32.683598
299.176575	913.700623	6618.812500	2799.652344	33.057224
299.547028	918.158691	6387.433594	2734.117188	33.202911
299.917450	912.883240	6240.314453	2700.978027	33.563919
300.287872	902.629456	6169.206543	2687.826660	33.896729
300.658234	894.158936	6097.058594	2692.135986	34.557213
301.028564	902.109375	6028.848145	2686.786377	34.811157
301.398865	910.431335	5983.671875	2668.879150	34.661232
301.769135	913.997864	5929.134277	2637.895264	34.373890
302.139374	909.539551	5905.580078	2617.684814	34.189980
302.509583	899.731628	5867.686035	2597.846191	34.181362
302.879791	899.657410	5801.259277	2581.425049	34.310570
303.249939	898.319885	5683.415527	2547.394531	34.462730
303.620087	902.257874	5572.778809	2533.053955	34.916794
303.990173	894.976257	5505.236816	2513.809570	35.113701
304.360260	899.657410	5487.181641	2528.893311	35.514488
304.730286	901.812195	5474.772949	2527.852783	35.557716
305.100281	906.493164	5451.813477	2528.818848	35.692219
305.470276	903.595398	5439.182129	2508.608643	35.387112
305.840179	902.257996	5457.758301	2506.304932	35.211212
306.210144	900.846191	5479.751465	2521.537109	35.394726
306.579987	906.641785	5514.971191	2555.864990	35.787872
306.949890	906.641846	5544.915527	2576.818115	36.008575
307.319702	919.124695	5629.471191	2616.347412	36.031799
307.689484	918.307373	5705.854980	2652.904541	36.231434
308.059265	923.582825	5815.153809	2714.352783	36.609303
308.429016	915.335266	5939.759277	2747.640381	36.467964
308.798737	906.270325	6100.921875	2798.612061	36.428658
309.168396	897.725525	6236.003906	2821.199951	36.031734
309.538055	894.902039	6307.854980	2840.295898	35.939602
309.907684	891.335449	6332.226563	2828.555908	35.604839
310.277313	894.084656	6350.207520	2833.237061	35.540848
310.646851	899.285828	6375.990723	2842.227783	35.476475
311.016388	916.747009	6373.018066	2847.800781	35.391457
311.385895	940.003723	6321.006348	2822.537354	34.984814
311.755371	935.099792	6255.025879	2793.113525	34.925552
312.124817	923.657043	6190.605469	2748.086182	34.639210
312.494232	912.288757	6134.655762	2724.680908	34.704418
312.863617	912.660339	6056.043457	2706.476807	34.876194
313.232971	918.084412	6013.765137	2732.928467	35.615341
313.602295	909.836731	5988.725098	2763.987061	36.507015
313.971619	916.226807	6035.164063	2801.435547	36.828125
314.340820	909.465332	6053.368652	2797.497314	36.704266
314.710083	917.787292	6120.761230	2798.017578	36.137604
315.079285	925.217468	6143.571777	2773.794922	35.424526
315.448486	932.424805	6164.153809	2755.813721	34.852512
315.817596	930.418640	6057.678223	2689.461182	34.307652
316.186707	919.421875	5878.831543	2624.000488	34.370594
316.555786	913.626221	5678.957031	2571.765625	34.795891
316.924866	906.270264	5527.825684	2541.078369	35.373547
317.293884	904.487000	5444.680176	2534.391357	35.899448
317.662872	910.208313	5422.463867	2537.511963	36.064087
318.031830	905.750183	5412.953125	2555.121826	36.594128
318.400757	910.059753	5470.240723	2572.657227	36.459023
318.769684	905.378662	5513.707520	2583.134033	36.407021
319.138550	902.555176	5573.075684	2591.530029	36.162453
319.507416	904.635559	5574.041504	2584.768555	35.981731
319.876190	900.920471	5539.862793	2562.923584	35.827202
320.244995	926.926453	5502.859375	2556.682373	35.615814
320.613770	923.954407	5431.603027	2531.196533	35.655891
320.982483	927.446594	5394.525879	2523.617676	35.731876
321.351166	909.316711	5323.938477	2508.311279	36.220425
321.719818	904.115540	5313.387207	2546.131592	37.240078
322.088440	898.914307	5345.188965	2609.288818	38.467587
322.457062	897.205383	5483.169434	2700.829834	39.329235
322.825623	907.681946	5640.690918	2776.692627	39.488850
323.194183	900.846191	5805.791504	2837.249268	39.478588
323.562653	902.629456	5951.201660	2876.778564	39.103119
323.931183	897.799805	6072.390137	2890.227295	38.504063
324.299591	901.069153	6156.277344	2880.642334	37.668789
324.668060	894.530518	6184.586426	2831.973877	36.624252
325.036407	887.100281	6180.945801	2777.361572	35.706768
325.404755	893.564514	6122.023438	2723.491943	34.999367
325.773102	898.542786	6038.285156	2698.229004	35.015106
326.141388	912.288879	5954.248535	2682.774170	35.115025
326.509674	913.997803	5867.537598	2654.836182	35.143318
326.877899	916.598389	5798.287109	2619.393799	34.881279
327.246124	912.660339	5736.541504	2585.511719	34.678535
327.614288	919.570374	5696.715332	2562.255127	34.386330
327.982422	921.799500	5648.121094	2560.546143	34.672768
328.350525	926.629211	5593.360840	2576.966797	35.363888
328.718628	919.273254	5554.128418	2600.075195	36.264393
329.086700	925.960510	5576.642090	2617.090332	36.363052
329.454712	913.626282	5621.520996	2626.601318	36.385162
329.822693	919.867676	5664.765137	2648.669189	36.434959
330.190674	916.672668	5688.021973	2672.000244	36.788918
330.558563	921.205078	5712.542480	2694.216553	37.004520
330.926483	919.421875	5753.705566	2721.485840	37.276752
331.294312	902.778015	5820.652344	2751.949951	37.601040
331.662231	901.143372	5932.106934	2821.348633	38.167747
332.029999	898.171204	6068.600098	2856.791016	37.881187
332.397766	907.830566	6171.509766	2904.121826	37.925777
332.765503	908.945129	6266.319824	2909.620361	37.344322
333.133240	897.948425	6337.427734	2930.276367	37.362545
333.500916	888.883484	6410.170410	2936.815186	37.091560
333.868561	885.911316	6418.121094	2931.911133	36.983406
334.236176	890.220886	6403.631348	2917.571045	36.771252
334.603790	894.679016	6371.830078	2883.614258	36.313320
334.971344	890.815247	6325.019531	2872.542969	36.467674
335.338867	886.431458	6280.883301	2867.564697	36.725388
335.706360	882.047607	6240.611816	2873.434814	37.162701
336.073853	885.093933	6235.187500	2870.983154	37.118774
336.441284	892.301331	6254.506348	2894.462646	37.338398
336.808655	905.304382	6271.149902	2900.852539	37.189816
337.176086	903.298157	6282.740234	2920.914063	37.506046
337.543396	912.660339	6262.307129	2931.985352	37.746883
337.910706	903.223938	6227.310547	2943.799561	38.327244
338.277954	912.585999	6200.413574	2952.567139	38.578815
338.645264	899.285828	6163.484863	2929.533203	38.567070
339.012421	904.189880	6154.643066	2902.412842	38.058105
339.379669	900.697571	6143.794922	2854.339111	37.261211
339.746796	917.638672	6156.872559	2809.831787	36.115837
340.113953	922.096741	6155.014160	2777.584229	35.457993
340.481018	922.245361	6161.998535	2751.949951	34.919674
340.848114	913.923523	6187.484863	2747.863281	34.776112
341.215118	905.378723	6235.113281	2773.348877	35.048092
341.582153	904.041260	6336.610840	2845.125732	35.730507
341.949066	907.756348	6446.355469	2939.712891	36.687191
342.316010	905.675964	6579.431152	3047.897705	37.756680
342.682922	908.202148	6680.408691	3149.321045	38.826035
343.049835	899.360168	6832.432129	3300.526611	40.470882
343.416656	920.462097	7059.576172	3471.572021	41.555016
343.783478	918.827454	7329.814941	3608.585938	41.955448
344.150269	929.527039	7623.458984	3684.969482	41.163284
344.516998	915.781006	7835.593262	3670.331299	39.806717
344.883728	918.455872	7989.771484	3643.062500	38.530407
345.250427	911.099915	8009.907715	3581.762695	37.621288
345.617065	904.041199	7931.518066	3516.227783	37.171043
345.983704	898.765686	7788.337402	3451.138672	37.046906
346.350281	893.936035	7631.335938	3369.331299	36.741108
346.716827	894.158936	7477.008301	3295.548584	36.479485
347.083405	893.713074	7321.269531	3237.740967	36.468410
347.449860	943.570129	7217.171875	3238.260986	36.576931
347.816376	955.087097	7105.197266	3245.171143	37.236469
348.182770	957.613342	7019.080566	3241.678955	37.681728
348.549194	915.929626	6950.871094	3233.802979	38.407551
348.915558	909.316711	6985.718750	3253.939209	38.585705
349.281921	901.663574	7014.994629	3296.663086	39.176670
349.648193	900.623291	7067.823730	3323.040283	39.279037
350.014526	897.056702	7104.900391	3361.009033	39.690952
350.380737	904.338440	7205.803223	3365.467529	39.056461
350.746948	911.025696	7281.443848	3405.144775	39.151577
351.113159	908.945251	7347.796875	3418.742432	38.978954
351.479309	903.743958	7375.511230	3463.175537	39.547649
351.845428	894.233215	7443.795410	3490.295654	39.637192
352.211517	896.833801	7541.503418	3538.072510	39.749741
352.577576	893.415955	7650.728516	3594.765625	39.976685
352.943604	897.948425	7763.891113	3662.158203	40.259724
353.309601	911.174255	7892.583984	3741.067627	40.534698
353.675537	916.746887	8095.875488	3816.930908	40.397438
354.041473	911.099915	8287.130859	3878.304932	40.227665
354.407379	894.233215	8473.705078	3931.430908	40.071365
354.773254	901.143372	8631.969727	4002.835938	40.121101
355.139038	908.276367	8808.736328	4094.228516	40.326160
355.504913	924.994446	9056.907227	4232.283203	40.670490
355.870636	914.072083	9305.003906	4357.334961	41.035526
356.236389	902.332214	9583.267578	4497.543945	41.415024
356.602081	889.552185	9840.429688	4627.647949	41.762337
356.967804	886.580078	10105.615234	4728.477051	41.673527
357.333405	891.706970	10356.981445	4771.869629	40.993664
357.699036	889.626465	10550.912109	4749.727051	39.954319
358.064606	896.982422	10705.981445	4708.712402	38.859520
358.430176	899.360168	10762.600586	4669.479980	38.223949
358.795654	894.901917	10783.851563	4695.634766	38.434143
359.161163	902.926697	10790.686523	4782.197266	39.233059
359.526581	905.304382	10874.723633	4973.081543	40.802551
359.892029	927.298035	11124.973633	5213.525391	42.031418
360.257416	916.375488	11525.762695	5493.497559	43.142193
360.622772	912.140198	12030.129883	5719.377441	43.238369
360.988098	891.632629	12542.893555	5877.865234	42.795647
361.353394	895.199219	12967.756836	5942.360840	41.806896
361.718658	900.697571	13274.625977	5874.150391	40.192997
362.083893	897.651184	13320.026367	5667.811035	38.399738
362.449097	903.446777	13148.460938	5376.990234	36.533592
362.814209	900.251770	12707.918945	5063.062012	35.255146
363.179382	912.214539	12084.222656	4779.150879	34.612724
363.544434	910.208313	11382.285156	4559.065918	34.843685
363.909546	907.161926	10700.186523	4416.256348	35.832592
364.274536	903.966858	10209.268555	4335.043457	36.872276
364.639587	897.725525	9859.079102	4262.227051	37.544567
365.004517	896.610901	9645.606445	4231.465820	38.117004
365.369507	894.604797	9484.221680	4197.583496	38.453156
365.734344	901.291992	9389.486328	4194.017090	38.791821
366.099274	903.149597	9327.889648	4186.958496	38.978161
366.464081	910.579834	9267.109375	4183.985840	39.171837
366.828918	910.208313	9208.633789	4163.404297	39.202568
367.193665	908.350769	9142.057617	4118.525879	38.988213
367.558411	913.700500	9066.121094	4082.340088	38.867470
367.923126	909.019531	8962.393555	4024.830078	38.689507
368.287781	919.124695	8876.500977	4009.375000	38.835037
368.652435	911.694336	8802.717773	3985.449219	38.952549
369.017059	919.198975	8770.098633	4001.796143	39.264256
369.381653	929.452698	8744.613281	4014.798828	39.478985
369.746185	927.000732	8746.916016	4044.446045	39.865463
370.110687	921.279358	8757.318359	4074.463867	40.239521
370.475220	900.474670	8813.714844	4111.615234	40.579338
370.839661	902.852356	8892.773438	4141.410645	40.533047
371.204041	902.480896	8983.347656	4181.757324	40.580750
371.568451	904.932861	9020.127930	4179.082520	40.345913
371.932770	900.251770	9051.855469	4173.881348	40.159332
372.297150	906.716064	9039.669922	4153.596191	39.922520
372.661377	906.418884	9034.542969	4142.673828	39.815521
373.025696	905.601563	9033.798828	4155.008301	39.976967
373.389862	897.131104	9046.282227	4188.370117	40.387505
373.754059	906.270325	9084.845703	4251.527344	40.902687
374.118225	911.322937	9139.235352	4297.000488	41.148682
374.482361	911.322815	9262.651367	4368.628418	41.398273
374.846436	895.942200	9437.411133	4456.528809	41.685883
375.210510	891.781250	9663.440430	4604.687988	42.328442
375.574524	904.561340	9939.698242	4767.634766	42.756115
375.938538	919.273254	10226.877930	4923.967285	43.026047
376.302460	925.663269	10520.967773	5066.554199	43.155388
376.666412	922.022461	10798.414063	5136.621582	42.673470
377.030304	916.449768	10997.397461	5148.807129	41.983727
377.394196	907.830750	11117.618164	5070.269531	40.769108
377.757996	909.762512	11102.238281	4961.489746	39.752140
378.121796	902.778076	11007.426758	4812.141602	38.688763
378.485565	907.161926	10803.837891	4671.486328	38.036251
378.849304	893.936096	10527.877930	4555.574219	38.007687
379.212982	896.090820	10239.731445	4493.679688	38.503075
379.576630	901.069092	9967.487305	4468.119629	39.343548
379.940277	911.322754	9808.999023	4463.513184	39.922676
380.303864	915.112305	9687.069336	4468.640137	40.510090
380.667450	905.675842	9664.851563	4467.450684	40.663357
381.030945	900.549011	9615.664063	4445.754395	40.678810
381.394501	903.223877	9632.159180	4452.590332	40.662075
381.757935	920.684998	9651.253906	4479.710938	40.765106
382.121399	917.341370	9678.300781	4534.175293	41.283539
382.484741	918.232971	9814.943359	4621.406738	41.624081
382.848145	907.013367	9911.686523	4699.275879	42.114384
383.211487	910.059753	10057.169922	4784.946777	42.361870
383.574768	901.514954	10163.645508	4815.410645	42.256969
383.938019	893.490234	10257.415039	4817.788574	41.908691
384.301270	900.549011	10363.668945	4827.818848	41.500793
384.664459	903.223816	10404.387695	4823.360840	41.259544
385.027649	908.573730	10450.602539	4859.620605	41.406776
385.390778	905.081482	10534.491211	4905.836914	41.547253
385.753876	913.997803	10579.815430	4973.601074	41.999584
386.116943	912.065918	10660.731445	5013.576172	42.072529
386.479980	913.403320	10702.934570	5028.213379	42.032761
386.842987	915.706726	10786.600586	5035.197754	41.733723
387.205994	926.257629	10848.866211	5042.182617	41.480270
387.568909	920.759277	10897.832031	5030.145020	41.188293
387.931793	911.322937	10903.924805	4990.765137	40.824627
388.294678	897.502625	10875.540039	4958.592285	40.700287
388.657471	904.858459	10818.475586	4952.722656	40.831356
389.020294	913.180481	10790.389648	5015.062500	41.528755
389.383057	925.514709	10870.338867	5116.336426	42.140732
389.745819	924.251648	10971.465820	5217.091309	42.726669
390.108521	924.697327	11129.061523	5332.260254	43.192921
390.471191	915.706726	11325.963867	5477.225098	43.817539
390.833801	913.031799	11560.760742	5607.700684	44.090801
391.196442	909.093750	11813.612305	5693.892090	43.879044
391.558960	914.666504	11999.071289	5690.622559	43.087170
391.921509	914.517883	12152.878906	5675.687500	42.365334
392.284027	914.815125	12240.407227	5636.827637	41.693298
392.646484	908.796570	12233.348633	5625.310059	41.648567
393.008911	900.846191	12128.210938	5619.440918	42.027622
393.371307	900.623291	12053.164063	5651.687988	42.600735
393.733673	904.561279	11995.133789	5671.378418	42.980804
394.096008	902.778015	11972.174805	5644.926270	42.840172
394.458344	903.521057	11916.745117	5591.428223	42.566166
394.820587	899.211487	11816.510742	5497.658203	42.120739
395.182831	907.161926	11694.950195	5407.677734	41.718613
395.545013	894.976257	11463.645508	5301.498535	41.694206
395.907196	902.629395	11216.070313	5227.047852	41.929928
396.269287	901.589172	10985.136719	5199.109863	42.619133
396.631409	903.669739	10841.732422	5204.385254	43.275188
396.993469	902.109375	10705.461914	5226.973145	44.116173
397.355530	906.047363	10617.933594	5261.599121	44.847637
397.717499	916.152588	10563.469727	5314.799316	45.594505
398.079468	914.294983	10576.769531	5361.238770	46.022827
398.441376	915.483887	10591.333008	5409.460938	46.445297
398.803284	901.217773	10591.926758	5397.424316	46.397087
399.165131	899.954590	10618.602539	5421.349609	46.522881
399.526978	894.307556	10591.778320	5431.900391	46.791508
399.888763	900.920471	10574.614258	5485.695313	47.394257
400.250519	903.000977	10546.900391	5523.664063	47.912807
400.612244	926.109131	10580.485352	5613.050293	48.547325
400.973938	931.236084	10573.425781	5700.504395	49.462505
401.335602	930.864502	10628.484375	5797.841309	50.187328
401.697205	920.907959	10748.408203	5938.867676	51.060390
402.058807	909.019531	10938.698242	6095.869629	51.715019
402.420349	905.601563	11183.377930	6299.161621	52.477890
402.781860	892.970032	11431.770508	6462.404785	52.846947
403.143341	897.279602	11783.296875	6641.399902	52.766037
403.504822	904.189880	12102.948242	6827.007813	52.888165
403.866241	910.951355	12466.065430	6966.177246	52.402996
404.227631	915.929688	12724.489258	7081.271973	52.210789
404.588959	916.301086	12957.502930	7155.723145	51.817268
404.950287	909.911133	13037.898438	7182.621094	51.720947
405.311554	898.988586	12990.790039	7174.893066	51.902142
405.672821	902.109314	12796.192383	7143.314941	52.473198
406.034027	902.034973	12520.901367	7122.435547	53.537067
406.395203	912.214539	12162.464844	7046.572754	54.526417
406.756348	906.047363	11898.614258	6996.938965	55.409187
407.117493	899.880310	11731.507813	6980.666504	56.139172
407.478516	894.976318	11712.411133	7060.467285	56.995872
407.839600	896.239502	11718.132813	7154.014160	57.825134
408.200592	914.072083	11769.104492	7289.988281	58.736961
408.561554	927.000793	11837.612305	7418.755371	59.499454
408.922485	925.737610	11906.120117	7568.549316	60.497086
409.283417	918.455994	11904.113281	7677.849121	61.529255
409.644257	911.174316	12015.269531	7813.748535	62.162418
410.005096	917.712891	12136.382813	7887.531250	62.126957
410.365906	917.564270	12239.589844	7936.793457	61.996231
410.726715	911.843018	12299.776367	7927.134277	61.602844
411.087433	908.796570	12285.211914	7908.484375	61.528065
411.448120	911.025635	12303.266602	7889.982910	61.260616
411.808807	918.158691	12223.762695	7908.112793	61.827343
412.169434	913.180420	12124.495117	7929.363281	62.581268
412.530029	919.124695	12070.031250	8002.477051	63.522663
412.890564	918.678772	12074.118164	8083.244629	64.224861
413.251099	930.864563	12149.981445	8210.227539	64.883560
413.611572	925.589050	12250.809570	8352.071289	65.574722
413.972076	928.561218	12352.828125	8494.435547	66.226349
414.332489	918.307312	12456.851563	8623.796875	66.780434
414.692871	919.124695	12644.762695	8809.924805	67.295273
415.053223	913.403320	12816.327148	8949.093750	67.510223
415.413574	918.753113	13098.159180	9174.677734	67.785942
415.773834	910.877136	13317.203125	9325.438477	67.824768
416.134094	914.815125	13573.250000	9584.084961	68.486115
416.494263	912.437439	13785.606445	9814.572266	69.152626
416.854462	913.329102	14104.809570	10123.448242	69.818695
417.214630	912.734619	14507.382813	10440.944336	70.087944
417.574738	911.991638	14923.924805	10741.573242	70.151505
417.934784	920.759277	15379.325195	11118.510742	70.530869
418.294861	925.737610	15869.128906	11540.921875	71.035980
418.654846	926.034851	16473.359375	12006.055664	71.266411
419.014832	921.650940	17082.789063	12477.062500	71.501221
419.374756	911.471497	17770.089844	12982.839844	71.603539
419.734680	925.663330	18478.269531	13580.382813	72.095963
420.094543	922.616882	19158.361328	14015.721680	71.799126
420.454376	932.499207	19696.091797	14298.295898	71.232613
420.814148	918.901794	20134.328125	14410.790039	70.213844
421.173920	916.375488	20535.265625	14530.937500	69.395172
421.533691	912.734558	20895.486328	14645.290039	68.722046
421.893341	906.641785	21112.525391	14677.239258	68.151428
422.253021	906.493164	21196.041016	14678.577148	67.877731
422.612640	903.669739	21102.566406	14637.932617	67.995117
422.972260	914.072083	21003.595703	14687.493164	68.560219
423.331757	916.969910	20997.281250	14757.413086	68.925446
423.691315	935.174011	21132.212891	14935.590820	69.319153
424.050781	936.362976	21289.662109	14942.945313	68.817261
424.410248	935.619873	21259.197266	14805.856445	68.247017
424.769653	925.663330	21172.783203	14528.411133	67.183624
425.128998	923.062683	21007.757813	14243.237305	66.320023
425.488373	918.753174	20691.599609	13910.659180	65.705795
425.847656	911.991638	20280.035156	13558.241211	65.294411
426.206940	912.585999	19863.568359	13228.633789	64.988968
426.566193	918.455872	19422.580078	12940.041992	64.967056
426.925385	917.044128	18952.617188	12624.551758	64.913429
427.284576	916.672668	18363.396484	12304.976563	65.274734
427.643677	915.558105	17918.099609	12061.635742	65.555367
428.002777	918.455994	17568.876953	11889.327148	65.889450
428.361847	928.561096	17198.330078	11763.977539	66.598465
428.720856	927.892395	16834.619141	11592.487305	67.044556
429.079865	926.406311	16554.423828	11468.997070	67.459557
429.438812	915.558105	16395.861328	11406.286133	67.768242
429.797760	925.960510	16313.161133	11388.675781	67.996223
430.156616	933.390808	16142.637695	11316.601563	68.269066
430.515503	933.613770	16039.729492	11257.010742	68.339188
430.874268	920.833679	15964.385742	11239.772461	68.593765
431.233093	906.939148	15989.425781	11296.465820	68.884705
431.591827	897.354004	16063.726563	11419.436523	69.377708
431.950562	907.013367	16177.932617	11567.151367	69.806786
432.309204	908.722229	16261.225586	11691.534180	70.234879
432.667877	917.044128	16456.789063	11829.067383	70.220093
433.026459	920.833679	16724.724609	11917.636719	69.582886
433.385010	920.982239	17052.029297	12003.084961	68.700455
433.743561	923.434265	17491.306641	12051.530273	67.166710
434.102051	920.313477	17951.759766	12122.042969	65.770866
434.460510	926.852112	18523.593750	12209.721680	64.119080
434.818939	921.428040	18933.375000	12215.665039	62.704144
435.177338	922.468262	19300.652344	12257.645508	61.677357
435.535675	926.109131	19484.476563	12263.070313	61.088139
435.894012	937.477539	19509.144531	12280.828125	61.078793
436.252289	932.424805	19423.697266	12351.491211	61.753815
436.610535	932.424805	19115.712891	12350.823242	62.796112
436.968719	937.700256	18830.388672	12532.937500	64.804337
437.326935	940.969666	18443.197266	12654.273438	66.924644
437.685028	936.214294	18181.576172	12890.926758	69.321327
438.043152	918.010193	17999.906250	13024.152344	70.871185
438.401215	914.666504	18058.607422	13231.828125	71.845566
438.759277	912.808899	18277.207031	13485.200195	72.403267
439.117249	928.932617	18728.076172	13884.651367	72.788437
439.475250	934.208069	19119.205078	14225.924805	73.091667
439.833130	940.672424	19600.091797	14588.967773	73.144264
440.191071	939.855042	19848.410156	14694.403320	72.742462
440.548889	944.164551	20131.429688	14772.346680	72.069580
440.906708	935.694092	20268.740234	14662.304688	71.000763
441.264496	923.508484	20354.785156	14531.829102	70.033073
441.622223	919.421875	20278.029297	14307.508789	69.158318
441.979950	921.279480	20108.619141	14098.421875	68.676231
442.337616	931.384583	19917.958984	13946.101563	68.546944
442.695251	931.756165	19658.419922	13807.972656	68.758736
443.052887	933.316467	19421.542969	13710.932617	69.112183
443.410461	920.313477	19274.201172	13737.161133	69.831787
443.768005	907.830627	19273.458984	13894.608398	70.712402
444.125458	916.375427	19360.169922	14141.813477	71.706711
444.482941	920.982239	19600.539063	14425.500977	72.295715
444.840393	928.412537	19919.443359	14782.452148	72.950439
445.197754	924.771667	20307.302734	15153.668945	73.410934
445.555084	928.189514	20631.634766	15462.323242	73.764427
445.912415	926.926453	21012.955078	15693.328125	73.515778
446.269714	921.205139	21316.931641	15767.334961	72.790398
446.626953	913.774902	21479.283203	15757.823242	72.179344
446.984161	906.864746	21586.501953	15602.976563	71.065613
447.341309	920.536438	21584.865234	15443.152344	70.278679
447.698456	931.384583	21607.751953	15251.895508	69.260284
448.055542	937.700378	21475.119141	15103.291992	68.974548
448.412598	935.619934	21205.328125	14859.355469	68.692329
448.769653	926.109192	20851.126953	14529.301758	68.271919
449.126617	931.979065	20390.451172	14171.015625	68.037384
449.483582	952.263733	20076.224609	13955.313477	67.993500
449.840515	962.888977	19642.445313	13749.496094	68.452415
450.197388	955.533020	19372.576172	13595.614258	68.632523
450.554230	937.254578	19133.023438	13475.319336	68.906479
450.911041	922.245422	19010.796875	13456.891602	69.296021
451.267822	923.582825	18944.220703	13492.112305	69.745193
451.624573	910.802795	18865.015625	13486.389648	70.042542
451.981262	914.889465	18808.619141	13427.914063	69.929657
452.337921	916.672668	18630.070313	13303.084961	69.926796
452.694580	916.078308	18387.841797	13091.024414	69.683556
453.051147	912.437500	18271.634766	12920.945313	69.176628
453.407715	918.901794	18037.654297	12640.898438	68.474602
453.764221	939.037781	17989.876953	12540.887695	68.042686
454.120728	948.474182	17609.000000	12299.848633	68.133347
454.477142	939.260681	17453.931641	12293.606445	68.753082
454.833557	928.932617	17202.195313	12192.184570	69.213234
455.189911	930.864502	17128.562500	12199.243164	69.567780
455.546265	937.105957	17054.853516	12214.402344	69.968193
455.902557	932.127625	17027.210938	12283.949219	70.529747
456.258820	923.731384	17120.166016	12491.996094	71.424759
456.615051	916.969910	17267.505859	12694.840820	72.033546
456.971252	931.236023	17363.951172	12921.243164	72.964249
457.327393	933.613708	17668.443359	13303.678711	73.918083
457.683502	943.718811	18111.882813	13795.265625	74.856850
458.039612	940.598145	18802.972656	14512.065430	75.977951
458.395630	957.019043	19571.412109	15231.834961	76.686981
458.751648	944.610413	20230.400391	15819.940430	77.131042
459.107605	936.585693	21055.904297	16349.569336	76.607880
459.463562	923.805664	21612.580078	16524.701172	75.407539
459.819458	927.075012	22010.544922	16473.583984	73.737900
460.175323	925.068848	22079.648438	16054.291992	71.517479
460.531158	931.533264	22060.404297	15525.256836	69.070061
460.886932	940.077942	21800.791016	14953.942383	67.178261
461.242676	944.684753	21358.392578	14442.071289	66.119232
461.598419	934.653870	20749.259766	14020.997070	66.043922
461.954102	927.669495	20090.341797	13611.441406	66.189995
462.309723	936.511536	19421.318359	13253.747070	66.634377
462.665344	938.666260	18817.164063	12989.527344	67.404213
463.020905	942.827148	18419.349609	12874.581055	68.273041
463.376373	936.660095	18171.771484	12835.424805	69.037933
463.731873	946.393799	17965.134766	12824.872070	69.796463
464.087341	948.251404	17821.654297	12841.813477	70.487045
464.442749	952.263672	17798.103516	12933.428711	71.122398
464.798126	943.718933	17787.849609	13008.028320	71.623222
465.153503	933.093567	17908.814453	13131.372070	71.857201
465.508820	914.146301	17917.283203	13231.605469	72.442276
465.864105	905.601563	18077.035156	13338.378906	72.403839
466.219330	909.985352	18322.826172	13526.883789	72.457443
466.574524	915.112305	18462.666016	13552.073242	72.015511
466.929657	920.907898	18509.328125	13479.256836	71.401230
467.284790	931.458923	18480.720703	13314.156250	70.559647
467.639893	938.071838	18459.023438	13151.210938	69.705910
467.994934	944.981995	18381.082031	12992.202148	69.093544
468.349945	941.192566	18193.617188	12805.703125	68.770111
468.704926	933.762268	18012.093750	12687.932617	68.825043
469.059875	939.632141	17796.542969	12586.508789	69.092598
469.414764	928.635437	17622.375000	12551.885742	69.626396
469.769653	939.706482	17494.279297	12530.559570	70.016022
470.124451	932.424805	17454.154297	12598.843750	70.612572
470.479248	938.591858	17398.947266	12621.950195	70.978775
470.834015	930.641541	17405.337891	12666.682617	71.236763
471.188721	930.344299	17521.025391	12848.946289	71.839134
471.543365	930.790222	17689.322266	13064.499023	72.403175
471.898010	919.496155	17851.080078	13241.487305	72.775185
472.252625	916.449768	18062.396484	13374.862305	72.660973
472.607178	917.787170	18304.474609	13534.687500	72.566444
472.961700	932.424866	18495.656250	13634.401367	72.321411
473.316193	937.774597	18664.695313	13749.570313	72.273109
473.670654	945.204895	18717.671875	13721.632813	71.888885
474.025055	952.932373	18822.439453	13776.541992	71.762520
474.379456	945.947937	18893.177734	13781.593750	71.518806
474.733795	943.644531	19005.595703	13920.540039	71.846588
475.088104	937.477356	19165.494141	14148.277344	72.475243
475.442383	953.080994	19306.001953	14404.770508	73.294540
475.796570	954.492859	19553.431641	14633.028320	73.544708
476.150787	962.814697	19910.529297	14937.967773	73.756409
476.504944	956.276062	20288.134766	15203.452148	73.697906
476.859070	962.071716	20602.880859	15504.303711	74.040901
477.213135	956.276062	20867.917969	15662.270508	73.856255
477.567200	943.347351	21241.365234	15889.041992	73.631302
477.921173	929.155518	21594.599609	16063.282227	73.233978
478.275146	924.251465	21942.859375	16266.278320	72.992599
478.629089	936.437195	22164.056641	16453.373047	73.097862
478.983002	942.307068	22569.599609	16776.439453	73.213661
479.336823	945.130615	23020.468750	17228.201172	73.761360
479.690643	942.158508	23555.521484	17757.830078	74.361656
480.044403	942.158508	24193.781250	18436.287109	75.238312
480.398163	940.672424	25081.404297	19329.925781	76.175209
480.751862	934.430969	26292.240234	20587.054688	77.501266
481.105499	938.889221	27875.408203	22295.423828	79.284683
481.459137	934.802551	30041.259766	24800.392578	81.994141
481.812744	936.660095	32919.519531	28096.833984	84.921028
482.166290	934.728210	36527.144531	32085.400391	87.520531
482.519806	941.118225	40667.738281	36289.449219	88.978951
482.873291	944.907715	45000.406250	40099.988281	88.876717
483.226715	934.802551	48905.531250	42870.667969	87.419701
483.580139	930.864441	51453.144531	43690.000000	84.634216
483.933502	934.282410	53310.496094	43194.550781	80.685997
484.286804	952.858093	54024.324219	41354.441406	76.126755
484.640106	956.201660	54379.937500	39082.636719	71.366096
484.993347	958.133545	53589.050781	36578.410156	67.679375
485.346558	943.644531	52336.312500	34683.917969	65.651924
485.699738	944.981934	50766.964844	33851.281250	66.047752
486.052887	939.334961	49286.707031	33850.535156	68.072365
486.405975	942.901550	48492.636719	34599.507813	70.781898
486.759064	944.907654	48174.917969	35362.671875	72.872658
487.112061	948.622803	48216.750000	35787.312500	73.704399
487.464996	950.257507	48168.000000	35552.066406	73.281372
487.817963	944.387634	48047.558594	34637.476563	71.530403
488.170868	938.443359	47545.343750	33207.593750	69.236855
488.523743	931.681824	46623.027344	31512.376953	66.928856
488.876587	931.458923	45321.609375	30052.703125	65.602936
489.229401	952.932312	43990.261719	29159.287109	65.539284
489.582153	959.099426	42744.347656	28895.958984	66.858185
489.934845	972.994141	41888.234375	29305.810547	69.247581
490.287537	954.195557	41594.363281	30153.455078	71.848274
490.640198	962.443176	41851.378906	31129.048828	73.776939
490.992798	949.291565	42161.812500	31657.712891	74.512360
491.345337	952.337952	42380.785156	31514.755859	73.771576
491.697876	954.641357	42166.574219	30570.591797	71.862564
492.050354	972.474060	41733.238281	29087.435547	68.975548
492.402832	967.792969	40638.910156	27153.781250	66.007690
492.755219	967.718689	39173.285156	25083.632813	63.121468
493.107605	950.108887	37126.542969	23156.146484	61.382603
493.459930	955.161438	35041.906250	21642.003906	60.688812
493.812225	946.468018	32845.218750	20527.464844	61.384838
494.164490	952.635193	31081.349609	19866.392578	62.776516
494.516724	948.474304	29680.742188	19561.751953	64.781792
494.868896	953.824036	28785.244141	19543.250000	66.792946
495.221039	951.446350	28234.068359	19652.921875	68.547203
495.573120	967.272766	27804.968750	19771.880859	70.067894
495.925201	999.668762	27686.679688	20003.183594	71.208855
496.277222	1006.876221	27663.421875	20177.423828	71.916847
496.629211	988.151855	27767.150391	20252.693359	71.938988
496.981140	949.365906	27679.250000	20112.484375	71.691742
497.333069	951.520569	27582.656250	19896.189453	71.137291
497.684967	955.235657	27456.562500	19599.349609	70.351624
498.036804	952.783752	27271.552734	19259.263672	69.556747
498.388580	944.016052	26968.767578	18890.203125	68.958153
498.740326	944.238953	26498.876953	18515.869141	68.761024
499.092072	946.393738	25990.203125	18164.787109	68.753090
499.443756	947.879700	25484.197266	17828.119141	68.796959
499.795410	957.093323	25080.734375	17545.101563	68.762459
500.147003	957.316223	24755.587891	17315.654297	68.737503
500.498566	957.018982	24384.445313	17124.103516	69.009224
500.850098	946.170898	23998.367188	16974.380859	69.530083
501.201599	945.947998	23667.794922	16822.507813	69.873543
501.553009	945.130615	23399.337891	16717.146484	70.240807
501.904449	947.062500	23249.767578	16681.554688	70.549706
502.255859	958.728027	23166.916016	16727.919922	71.006203
502.607178	960.882813	23161.640625	16818.199219	71.426918
502.958405	961.031433	23139.427734	16892.798828	71.834625
503.309692	951.520691	23141.656250	16943.101563	72.066177
503.660919	942.009827	23137.498047	16970.222656	72.213837
504.012115	951.743591	23196.716797	16924.822266	71.805344
504.363251	955.161438	23194.263672	16888.414063	71.645218
504.714294	960.585632	23204.740234	16801.406250	71.213409
505.065369	962.443115	23154.062500	16789.591797	71.320389
505.416443	963.854797	23085.111328	16741.443359	71.323204
505.767395	968.535950	23030.052734	16755.337891	71.558098
506.118317	966.083984	22954.935547	16721.007813	71.649597
506.469238	956.201721	22934.500000	16761.357422	71.912552
506.820160	947.879822	22911.541016	16835.138672	72.334290
507.170929	956.053040	23005.087891	17021.416016	72.861977
507.521729	960.511230	23168.333984	17224.337891	73.234673
507.872498	967.867249	23380.912109	17432.830078	73.461517
508.223236	970.022156	23626.630859	17633.892578	73.549713
508.573883	973.068542	23815.509766	17818.982422	73.748306
508.924500	968.313049	24066.875000	17994.410156	73.710640
509.275116	958.653748	24209.388672	18129.046875	73.848816
509.625702	963.186218	24443.218750	18306.185547	73.862755
509.976196	974.257324	24619.093750	18439.929688	73.866753
510.326660	974.628723	24876.328125	18615.357422	73.805336
510.677124	969.130371	25103.916016	18717.671875	73.539253
511.027557	975.074707	25269.759766	18889.904297	73.739708
511.377869	970.170715	25407.962891	18990.212891	73.738419
511.728180	972.845520	25446.304688	19007.974609	73.692604
512.078430	962.368835	25527.814453	18943.925781	73.198578
512.428650	956.573242	25577.744141	18819.765625	72.552155
512.778931	954.418457	25599.367188	18725.919922	72.110115
513.129028	954.344177	25545.500000	18618.775391	71.832458
513.479126	951.520691	25422.228516	18508.138672	71.745445
513.829285	945.576416	25286.775391	18408.201172	71.741020
514.179382	936.660095	25112.388672	18317.626953	71.894287
514.529297	944.684875	25025.677734	18318.591797	72.147804
514.879272	945.353516	25049.974609	18428.486328	72.530212
515.229187	957.093323	25076.351563	18547.818359	72.932281
515.579163	948.102722	25239.669922	18821.919922	73.580338
515.928955	953.155273	25460.646484	19162.744141	74.302132
516.278748	942.827209	25904.009766	19753.673828	75.360397
516.628540	966.158264	26458.009766	20421.136719	76.318420
516.978333	975.297607	27112.912109	21175.384766	77.283592
517.327942	978.492615	27846.802734	21858.224609	77.711372
517.677612	965.712463	28534.843750	22411.484375	77.789070
518.027222	951.446289	29116.562500	22694.873047	77.199844
518.376831	943.793152	29659.044922	22731.505859	75.875053
518.726379	941.192566	29974.013672	22531.556641	74.365364
519.075867	936.660095	30041.259766	22118.210938	72.777328
519.425293	962.071594	29887.007813	21642.005859	71.495178
519.774658	961.551514	29546.474609	21095.880859	70.436882
520.124084	968.907471	29154.380859	20684.242188	69.948563
520.473389	944.238953	28607.212891	20285.982422	69.919250
520.822693	948.102722	28086.947266	20044.646484	70.366089
521.171997	959.991211	27696.859375	19897.376953	70.828743
521.521240	978.418213	27387.759766	19910.380859	71.686615
521.870361	984.659668	27232.914063	19956.373047	72.278000
522.219482	974.108582	27102.068359	20083.429688	73.137444
522.568604	958.356445	27168.343750	20235.826172	73.550087
522.917664	955.087158	27291.091797	20569.519531	74.477631
523.266724	959.991150	27653.390625	21066.974609	75.325676
523.615662	972.845520	28185.029297	21764.455078	76.405518
523.964600	976.412048	28963.943359	22642.193359	77.412262
524.313538	979.161316	29852.677734	23575.437500	78.259521
524.662354	972.102478	30878.130859	24630.240234	79.108261
525.011169	991.941345	31984.570313	25607.093750	79.422600
525.359985	979.458435	33157.957031	26688.794922	79.896011
525.708740	972.919739	34438.199219	27671.148438	79.778885
526.057434	946.616638	35792.218750	28907.916016	80.243408
526.406067	963.483398	37453.179688	30504.533203	80.957245
526.754700	972.845520	39428.371094	32785.253906	82.725189
527.103333	974.703125	41966.175781	35587.808594	84.439774
527.451782	953.675476	44739.750000	38575.074219	85.920921
527.800293	960.362610	47476.167969	41040.734375	86.165062
528.148743	955.235657	49683.781250	42464.597656	85.184898
528.497131	959.991150	51176.519531	42530.953125	82.783424
528.845642	948.622864	51759.644531	41276.050781	79.367485
529.193909	955.310120	51615.941406	39054.175781	75.204086
529.542175	955.830261	50655.656250	36162.609375	70.838837
529.890503	967.124207	49058.371094	33299.730469	67.231789
530.238770	960.585510	46798.011719	30689.476563	64.857246
530.586914	962.591797	44515.281250	29004.884766	64.387054
530.934998	968.238770	42309.675781	28036.943359	65.475967
531.283142	971.805359	40789.746094	28027.876953	67.949448
531.631226	978.566895	39625.937500	28384.755859	70.913467
531.979248	971.285156	39238.449219	29200.447266	73.768631
532.327148	974.851746	39268.839844	30050.101563	75.926407
532.675110	976.040527	39597.925781	30748.619141	77.087318
533.023071	957.984924	39875.222656	30897.302734	76.930740
533.370850	959.471008	39943.136719	30396.052734	75.510048
533.718689	954.418457	39863.035156	29449.509766	73.235939
534.066467	973.588562	39399.460938	28257.474609	71.003952
534.414246	964.077820	38582.578125	27123.912109	69.539810
534.761963	960.288391	37667.316406	26251.968750	68.901466
535.109619	957.762146	36813.730469	25817.150391	69.331245
535.457153	962.517517	36083.781250	25634.365234	70.247604
535.804749	965.118103	35461.863281	25606.648438	71.431465
536.152344	961.328613	35003.863281	25468.742188	71.990570
536.499817	961.031433	34493.183594	25161.353516	72.170502
536.847229	965.043701	34023.808594	24677.123047	71.727058
537.194641	963.186096	33563.433594	24029.500000	70.755028
537.542114	971.953857	33276.843750	23425.046875	69.503700
537.889404	965.712463	32902.359375	22897.052734	68.671394
538.236694	978.641113	32583.228516	22617.599609	68.467781
538.583984	975.223145	32425.853516	22760.632813	69.268593
538.931213	980.127136	32736.884766	23386.632813	70.556656
539.278381	970.616394	33644.714844	24644.798828	72.455505
539.625488	975.594727	35052.378906	26239.259766	74.137466
539.972595	982.207703	37010.707031	28266.460938	75.729645
540.319641	982.579285	39254.050781	30191.572266	76.320534
540.666687	982.579285	41694.972656	31817.986328	75.739601
541.013611	973.885742	43913.425781	32760.890625	74.027351
541.360596	974.257324	45408.324219	32913.578125	71.880257
541.707458	968.090149	46430.503906	32398.289063	69.134468
542.054260	968.610291	46668.644531	31211.974609	66.177994
542.401062	971.433777	46618.121094	29928.615234	63.437641
542.747864	971.136536	45844.855469	28402.806641	61.130814
543.094666	978.418152	44739.824219	27050.054688	59.576778
543.441284	980.795898	43209.636719	25618.240234	58.342701
543.787903	985.179749	41876.941406	24562.994141	57.659081
544.134460	976.412109	40771.316406	23577.962891	56.795086
544.481079	969.724854	40174.515625	22981.830078	56.146469
544.827637	967.792969	39738.285156	22573.609375	55.727474
545.174072	969.204773	39432.828125	22409.476563	55.741680
545.520508	981.390381	39183.316406	22357.169922	55.954716
545.866943	977.823792	38866.488281	22280.638672	56.224770
546.213318	985.031189	38499.136719	22207.968750	56.573219
546.559631	982.950684	37876.253906	21959.427734	56.857136
546.905823	981.464661	36955.496094	21504.470703	57.049503
547.252136	980.052917	35696.289063	20784.476563	57.046577
547.598389	974.777405	34135.636719	19903.619141	57.081879
547.944458	972.028137	32553.359375	19059.242188	57.271854
548.290588	974.851746	30931.851563	18237.677734	57.625351
548.636658	976.412048	29446.835938	17564.941406	58.265831
548.982727	984.659668	27990.205078	16946.890625	59.107235
549.328735	984.511047	26702.468750	16515.339844	60.389046
549.674622	986.294434	25564.298828	16129.930664	61.614590
550.020569	977.749512	24678.164063	15900.856445	62.965599
550.366455	971.656677	23909.353516	15717.328125	64.285751
550.712280	966.529846	23300.294922	15637.229492	65.688423
551.058044	973.142761	22864.728516	15635.000977	66.974854
551.403748	975.891907	22560.609375	15701.206055	68.221024
551.749512	976.114807	22372.328125	15790.665039	69.239120
552.095154	973.142761	22168.587891	15858.875000	70.230804
552.440735	978.418213	22095.328125	15899.964844	70.661598
552.786316	970.244934	21977.037109	15831.532227	70.745148
553.131897	967.644348	21824.121094	15673.342773	70.509026
553.477417	955.458679	21590.437500	15443.524414	70.211197
553.822815	957.687805	21311.283203	15190.375000	69.927139
554.168213	957.910645	21010.357422	14945.546875	69.755257
554.513672	963.186096	20655.859375	14682.215820	69.665649
554.859009	958.430847	20289.619141	14445.637695	69.769157
555.204285	966.975586	19919.000000	14237.292969	70.020584
555.549500	962.294617	19583.820313	14063.351563	70.354370
555.894714	966.529785	19295.154297	13977.604492	70.987724
556.239990	965.712402	19065.335938	13902.707031	71.476593
556.585022	985.774170	18843.095703	13871.054688	72.156845
556.930115	988.523438	18612.681641	13760.714844	72.469795
557.275146	983.842468	18407.904297	13662.635742	72.765999
557.620178	964.820984	18257.960938	13567.378906	72.876045
557.965149	963.483398	18166.794922	13493.522461	72.835037
558.310059	962.740417	18053.111328	13404.210938	72.798134
558.654968	966.752747	17898.634766	13336.893555	73.058273
558.999756	962.963318	17784.431641	13327.083008	73.502022
559.344604	958.876648	17743.490234	13362.600586	73.899368
559.689331	954.195557	17766.525391	13361.561523	73.799210
560.033997	957.613464	17781.906250	13384.223633	73.861115
560.378723	957.910645	17793.125000	13456.743164	74.242188
560.723389	965.043762	17817.125000	13558.687500	74.730492
561.067932	960.139832	17837.705078	13611.441406	74.959282
561.412476	958.356506	17798.398438	13560.989258	74.837303
561.757019	962.071594	17798.400391	13503.553711	74.490601
562.101501	965.563782	17782.796875	13461.795898	74.306114
562.445862	971.359436	17754.560547	13432.296875	74.246490
562.790222	956.647522	17688.283203	13376.273438	74.228409
563.134644	964.672180	17643.552734	13361.264648	74.325089
563.478943	964.969421	17657.224609	13388.086914	74.424438
563.823181	968.015869	17694.525391	13492.926758	74.880600
564.167358	963.186218	17778.113281	13644.059570	75.414375
564.511536	961.477234	17952.427734	13882.125000	76.044289
564.855774	958.133606	18145.244141	14190.629883	76.990807
565.199768	957.390625	18369.787109	14503.816406	77.797592
565.543823	951.743591	18576.794922	14758.155273	78.334030
565.887817	955.087158	18831.060547	14933.362305	78.195885
566.231812	959.545227	18995.863281	14944.506836	77.537788
566.575745	960.957092	19105.533203	14857.870117	76.589905
566.919617	961.179993	19092.380859	14662.750000	75.569016
567.263428	943.644592	18990.068359	14435.012695	74.759232
567.607239	938.591980	18865.982422	14194.717773	73.943420
567.950989	941.415527	18701.771484	13991.203125	73.477058
568.294678	948.697083	18602.353516	13900.479492	73.366005
568.638367	951.817871	18446.095703	13879.079102	73.894234
568.981995	944.833435	18302.839844	13890.002930	74.577515
569.325623	954.269836	18217.837891	13919.352539	75.100830
569.669128	970.244934	18208.548828	13951.526367	75.304863
570.012573	974.851746	18245.701172	14095.820313	75.971764
570.356140	978.269714	18381.228516	14300.078125	76.549103
570.699524	960.734192	18492.312500	14544.831055	77.483597
571.042908	955.532959	18726.142578	14777.844727	77.781868
571.386230	937.254578	18875.564453	14903.713867	77.858276
571.729492	961.031433	19082.720703	15040.875977	77.696091
572.072815	964.969421	19185.482422	15020.741211	77.142563
572.416016	978.641113	19228.798828	14970.437500	76.666718
572.759094	961.848694	19203.017578	14793.746094	75.827919
573.102234	959.693909	19113.779297	14616.757813	75.228592
573.445374	953.452454	19030.708984	14495.346680	74.911232
573.788391	948.548523	18910.710938	14400.536133	74.890694
574.131409	945.056335	18843.466797	14348.226563	74.884697
574.474365	938.146179	18780.162109	14286.109375	74.811966
574.817261	946.170715	18742.935547	14267.906250	74.854813
575.160156	954.715576	18672.423828	14171.460938	74.596245
575.502930	953.675354	18604.806641	13987.785156	73.842911
575.845703	945.427795	18544.175781	13740.950195	72.707001
576.188477	960.957031	18482.429688	13509.645508	71.618912
576.531250	967.570007	18309.455078	13261.770508	70.893105
576.873901	973.365723	18117.751953	12942.195313	69.811943
577.216431	946.170898	17918.771484	12663.114258	69.034454
577.559082	935.248352	17736.355469	12397.483398	68.223091
577.901611	925.811829	17516.642578	12205.708008	67.988739
578.244080	932.350586	17267.580078	11993.053711	67.710732
578.586487	947.656921	17082.716797	11856.930664	67.612228
578.928955	1058.962402	16975.275391	12138.092773	69.608650
579.271301	1067.432983	16760.763672	11988.149414	69.588264
579.613647	1060.448364	16448.617188	11825.054688	69.953781
579.955872	958.133606	16115.370117	11301.741211	68.242043
580.298157	954.344177	15878.194336	11193.926758	68.612206
580.640320	964.152100	15726.914063	11128.838867	68.853554
580.982483	962.740295	15528.301758	11032.839844	69.136360
581.324524	967.049988	15403.176758	10966.933594	69.269852
581.666626	962.888977	15302.644531	10901.324219	69.306870
582.008728	958.133606	15216.157227	10851.168945	69.385742
582.350647	944.016113	15121.198242	10829.324219	69.726898
582.692566	961.179993	15029.210938	10790.834961	69.872284
583.034424	963.334778	14948.816406	10751.083984	69.985069
583.376343	963.186096	14885.213867	10711.405273	70.020111
583.718201	944.016052	14855.120117	10661.176758	69.851830
584.059937	935.322571	14815.368164	10612.956055	69.723358
584.401611	935.842773	14793.300781	10554.924805	69.414474
584.743347	941.043945	14723.456055	10551.506836	69.729904
585.085022	939.112061	14684.594727	10522.825195	69.722641
585.426514	949.291504	14649.152344	10501.129883	69.722153
585.768127	938.220459	14686.824219	10495.481445	69.514412
586.109619	949.737366	14760.309570	10534.120117	69.398880
586.451172	945.427795	14795.825195	10583.975586	69.590408
586.792542	947.211121	14856.307617	10585.610352	69.295654
587.133850	945.056335	14891.898438	10608.645508	69.288727
587.475220	942.381348	14947.551758	10646.614258	69.290359
587.816589	946.319397	14925.856445	10705.981445	69.813911
588.157776	952.783752	14924.371094	10760.223633	70.195602
588.498962	951.520691	14897.398438	10823.975586	70.791206
588.840210	944.239014	14843.975586	10879.107422	71.475227
589.181335	951.520691	14829.114258	10944.418945	72.007431
589.522400	953.452576	14765.511719	10956.085938	72.419571
589.863403	966.083984	14727.320313	10950.214844	72.552574
590.204407	968.907471	14626.862305	10901.695313	72.725296
590.545410	965.712402	14626.268555	10854.290039	72.387810
590.886353	967.644348	14605.612305	10784.222656	71.979774
591.227112	949.811707	14583.543945	10673.882813	71.323616
591.567932	946.690918	14548.250000	10611.618164	71.057503
591.908752	941.638428	14528.635742	10572.163086	70.880447
592.249512	945.204895	14581.538086	10625.809570	70.991257
592.590149	948.102722	14600.187500	10616.149414	70.817368
592.930786	953.749756	14633.028320	10664.297852	70.987282
593.271423	954.567078	14622.774414	10682.205078	71.169815
593.612000	957.762024	14596.101563	10801.313477	72.175583
593.952576	946.393738	14647.073242	10926.440430	72.843445
594.292969	931.756042	14668.471680	11054.387695	73.690338
594.633484	916.375427	14728.210938	11198.312500	74.442947
594.973877	915.037903	14760.309570	11313.184570	75.102509
595.314209	940.598145	14870.946289	11527.546875	75.999176
595.654480	958.802246	15055.588867	11754.691406	76.584038
595.994812	959.322449	15249.370117	12030.354492	77.473724
596.335022	943.495911	15441.815430	12201.695313	77.651756
596.675171	946.468079	15561.515625	12222.796875	77.155609
597.015320	942.530029	15602.308594	12133.114258	76.335289
597.355408	949.068665	15548.809570	11933.909180	75.239967
597.695496	934.133789	15451.844727	11660.401367	73.884010
598.035461	943.793152	15270.100586	11272.836914	72.098434
598.375366	938.146179	15046.375000	10912.840820	70.701256
598.715271	942.381409	14787.208008	10616.373047	69.874413
599.055176	949.960266	14528.114258	10416.127930	69.716164
599.395081	944.239014	14259.659180	10216.030273	69.631981
599.734802	942.604309	14013.866211	10052.637695	69.695129
600.074524	932.053406	13775.948242	9931.375977	70.066925
600.414246	933.539368	13573.843750	9879.809570	70.775749
600.753906	946.765320	13398.191406	9908.044922	71.969902
601.093506	939.855164	13262.218750	9949.803711	73.118668
601.433044	949.365906	13178.403320	10065.492188	74.544922
601.772583	940.969666	13131.890625	10232.153320	76.213959
602.112122	963.706299	13226.106445	10489.166992	77.680229
602.451538	962.071594	13383.628906	10776.420898	79.010620
602.790894	964.672302	13608.096680	11050.820313	79.773865
603.130310	948.399963	13846.980469	11320.762695	80.414764
603.469604	945.204895	14100.872070	11595.385742	80.955078
603.808838	938.740540	14359.149414	11841.179688	81.237755
604.148010	932.499084	14612.299805	12031.988281	81.137802
604.487305	939.855042	14829.932617	12093.437500	80.298920
604.826416	947.805481	14955.949219	12026.118164	79.084801
605.165527	953.972656	14945.620117	11797.340820	77.498863
605.504456	942.975891	14861.956055	11489.801758	75.772980
605.843445	935.248352	14705.624023	11135.971680	74.077309
606.182434	931.013184	14549.737305	10803.317383	72.490669
606.521423	936.065735	14318.952148	10531.816406	71.701653
606.860229	938.146179	14085.417969	10301.032227	71.215431
607.199036	943.644531	13865.110352	10200.278320	71.637642
607.537903	938.591980	13769.186523	10190.172852	72.105629
607.876648	952.486572	13807.674805	10269.230469	72.474579
608.215271	956.944824	13982.805664	10402.158203	72.511238
608.553955	954.121277	14314.269531	10564.583008	71.933800
608.892578	957.910706	14861.360352	10779.245117	70.639549
609.231140	953.378235	15708.635742	10957.200195	67.798355
609.569641	956.721863	16787.435547	11066.424805	63.861320
609.908081	940.077942	18065.740234	11128.541992	59.492378
610.246521	945.353516	19368.863281	11123.934570	55.247784
610.584961	948.251282	20556.146484	11050.671875	51.522213
610.923340	945.056335	21424.744141	10904.147461	48.629116
611.261597	942.158508	21820.552734	10692.607422	46.701145
611.599854	947.434021	21872.119141	10443.767578	45.383400
611.938110	952.783691	21638.587891	10194.778320	44.677952
612.276245	957.613464	21229.402344	9988.886719	44.550945
612.614319	944.387512	20518.919922	9799.265625	45.236725
612.952393	940.598145	19631.746094	9583.192383	46.238964
613.290466	931.013123	18686.689453	9366.526367	47.508831
613.628479	939.483582	17781.234375	9182.108398	48.941620
613.966370	945.873596	16905.875000	9075.706055	50.938797
614.304260	937.105957	16036.754883	8938.096680	52.987926
614.642151	929.081238	15205.829102	8828.872070	55.333267
614.979980	920.387756	14491.854492	8683.387695	57.200893
615.317749	924.771667	13866.077148	8599.202148	59.301826
615.655396	933.242188	13398.191406	8522.596680	60.885563
615.993164	934.579590	12947.323242	8467.686523	62.709293
616.330811	951.446289	12592.824219	8471.549805	64.598053
616.668396	944.759094	12242.041992	8427.265625	66.232796
617.005859	960.362610	11984.583008	8421.619141	67.680580
617.343445	957.985046	11755.582031	8357.867188	68.532677
617.680908	965.117981	11555.708008	8345.161133	69.684906
618.018311	969.724792	11413.343750	8334.312500	70.517586
618.355652	971.136536	11263.325195	8308.828125	71.293793
618.692993	974.554504	11147.710938	8271.825195	71.730644
619.030273	957.836426	11009.136719	8221.893555	72.269821
619.367554	943.198730	10911.725586	8172.259277	72.518845
619.704712	933.465149	10851.690430	8138.080078	72.640160
620.041870	939.557922	10811.789063	8116.755371	72.700859
620.379028	928.635315	10749.002930	8081.609863	72.838158
620.716064	927.446533	10709.473633	8053.375000	72.847153
621.053040	922.096680	10652.929688	8003.071777	72.768440
621.389954	935.842712	10648.397461	7996.458984	72.695770
621.726929	935.545593	10603.667969	7987.244629	72.937630
622.063843	932.276184	10590.070313	8029.003418	73.481865
622.400635	927.372253	10560.125977	8032.123535	73.756180
622.737427	930.195801	10581.673828	8056.941406	73.840973
623.074219	939.037781	10596.682617	8039.703125	73.523781
623.410889	949.365906	10627.666992	8055.528809	73.423668
623.747559	953.601074	10668.012695	8096.470215	73.528580
624.084167	954.418396	10698.997070	8181.250000	74.162582
624.420715	951.520569	10775.157227	8279.922852	74.599686
624.757324	958.950867	10872.716797	8378.968750	74.845604
625.093750	962.888916	10984.616211	8487.376953	75.081749
625.430176	963.260498	11092.652344	8649.430664	75.879875
625.766602	965.489563	11184.416992	8821.590820	76.877937
626.102905	954.121277	11331.164063	8943.149414	76.987526
626.439209	955.978821	11450.420898	9010.617188	76.751465
626.775452	941.861328	11548.648438	9008.313477	76.049911
627.111694	934.356750	11593.304688	8954.147461	75.239983
627.447876	925.811829	11600.809570	8874.495117	74.460747
627.783997	930.641541	11553.182617	8757.764648	73.684090
628.120056	932.127625	11478.656250	8659.610352	73.270393
628.456055	940.969666	11371.139648	8548.454102	72.937302
628.792053	933.019226	11291.859375	8455.872070	72.622543
629.128052	932.424805	11230.113281	8353.186523	72.062401
629.463928	931.979004	11191.476563	8251.614258	71.344963
629.799744	933.465088	11142.510742	8174.636719	70.928978
630.135559	931.458984	11084.480469	8121.732910	70.819054
630.471375	923.880066	11030.758789	8043.566406	70.443970
630.807068	940.078064	10951.625977	7978.849609	70.306526
631.142700	948.177002	10862.909180	7916.731934	70.284851
631.478333	952.783875	10709.102539	7860.113281	70.798523
631.813965	938.963562	10560.200195	7796.509766	71.275108
632.149475	938.814880	10366.122070	7714.183105	71.869598
632.484924	940.969666	10228.809570	7720.721191	72.996002
632.820435	938.963440	10065.493164	7710.988281	74.201538
633.155884	941.935547	9923.351563	7732.089844	75.602272
633.491150	961.254333	9832.254883	7743.310059	76.451981
633.826477	967.570129	9732.319336	7732.609375	77.184631
634.161804	966.975586	9655.787109	7707.197754	77.573578
634.497009	945.873596	9515.652344	7616.251953	77.836067
634.832153	940.449524	9384.879883	7527.088379	77.999794
635.167297	926.183411	9245.264648	7452.339844	78.448044
635.502380	918.530273	9121.030273	7376.848145	78.735970
635.837463	928.783997	9033.055664	7335.312988	79.051262
636.172424	939.409241	8937.725586	7265.617188	79.094246
636.507324	951.074890	8858.295898	7205.803223	79.101471
636.842224	945.799316	8775.967773	7119.166504	78.840797
637.177124	946.616699	8675.362305	7064.330566	79.155327
637.511963	932.722107	8594.000977	7015.365723	79.394623
637.846741	922.394043	8501.940430	6962.685059	79.691986
638.181396	917.564270	8423.104492	6894.995605	79.640251
638.516113	927.966614	8335.500977	6833.621094	79.724968
638.850769	927.075012	8253.026367	6774.179199	79.813583
639.185303	930.121399	8204.432617	6716.222656	79.541565
639.519836	925.886230	8098.625000	6658.118652	79.916924
639.854370	925.291748	8025.660156	6628.769043	80.326508
640.188843	929.824219	7967.109375	6592.806152	80.471115
640.523254	933.019226	7954.031738	6563.011230	80.187752
640.857605	945.056335	7907.963379	6496.732910	79.732162
641.191895	930.567200	7827.791504	6463.593750	80.221062
641.526184	922.839783	7743.829590	6432.237793	80.771240
641.860413	916.821289	7695.234863	6435.210449	81.411217
642.194580	924.771667	7660.685059	6406.975098	81.387680
642.528748	919.570496	7625.763184	6367.742676	81.240913
642.862793	931.681824	7598.642090	6334.232910	81.034698
643.196838	929.972900	7554.208984	6314.839844	81.290382
643.530823	939.037781	7524.859375	6305.997559	81.492638
643.864746	929.155518	7489.343262	6287.124512	81.674019
644.198669	931.904724	7484.810059	6258.740723	81.289680
644.532532	937.848938	7472.921875	6232.214844	81.014641
644.866333	937.180176	7453.825684	6211.707520	80.939301
645.200073	943.495911	7416.303223	6194.171875	81.118988
645.533813	932.722107	7402.705566	6200.338379	81.416222
645.867554	923.880066	7409.541504	6202.345215	81.386688
646.201172	923.805725	7449.738770	6205.614746	80.935692
646.534729	930.790100	7452.116699	6211.335938	80.973488
646.868225	935.471191	7450.259277	6247.892578	81.544037
647.201782	923.285645	7416.748535	6271.521484	82.363388
647.535217	917.118469	7428.562988	6295.298340	82.595802
647.868591	923.954346	7437.925781	6290.542969	82.385818
648.201965	933.167786	7439.113770	6286.010254	82.276161
648.535278	933.316406	7444.463379	6244.994629	81.578224
648.868591	921.502258	7448.921875	6217.131348	81.128983
649.201782	921.205078	7474.779785	6199.596191	80.542168
649.534912	922.616882	7496.550781	6217.726074	80.547043
649.868103	918.232910	7482.952637	6220.549316	80.769882
650.201172	919.867676	7503.607910	6235.558594	80.739685
650.534180	929.304138	7498.259277	6242.988770	80.890862
650.867188	942.752930	7525.304688	6262.752441	80.819717
651.200134	937.254456	7520.178223	6260.152344	80.859177
651.533020	926.406250	7493.355469	6248.189941	81.038902
651.865845	941.786926	7475.671387	6222.704590	80.823555
652.198608	958.133545	7443.052246	6215.497559	81.070625
652.531433	957.687805	7401.219238	6175.150391	80.972099
652.864136	942.009949	7329.740723	6131.757813	81.245567
653.196777	2715.392822	9191.618164	8005.747559	81.688858
653.529358	2799.652344	9184.485352	8017.337891	81.720001
653.861938	2795.491211	9131.359375	7967.257813	81.626801
654.194519	1000.411804	7151.785645	6005.220703	81.360832
654.526978	927.372314	7081.495605	5932.255371	81.325684
654.859375	922.171143	7023.984863	5904.242676	81.649025
655.191833	934.430969	6995.378418	5896.218262	81.864876
655.524170	920.759277	6938.239746	5883.066406	82.464867
655.856445	934.802490	6920.927246	5902.830566	82.992393
656.188660	984.436707	6961.421875	5972.006348	83.446243
656.520874	996.845215	6957.037598	6012.353516	84.150108
656.853088	990.826721	6998.572754	6064.588379	84.453667
657.185181	932.796387	6961.644531	6073.726563	85.272179
657.517212	924.697327	7048.207031	6155.980469	85.429489
657.849243	931.904785	7117.309082	6268.325684	86.274406
658.181274	943.793152	7242.063965	6432.460938	87.145630
658.513123	940.523743	7336.873535	6585.227051	88.248817
658.844971	936.660095	7454.644043	6713.027832	88.622002
659.176819	930.121399	7543.806641	6810.290527	88.909119
659.508667	930.047180	7615.880371	6845.806641	88.482010
659.840393	930.270020	7656.970215	6824.927734	87.630745
660.172058	932.276184	7670.789551	6709.238770	85.730522
660.503662	941.638367	7651.396973	6575.048340	83.958458
660.835266	942.455750	7607.781250	6432.164063	82.362198
661.166931	938.591980	7500.933594	6292.623047	81.587204
661.498413	935.025452	7393.937500	6189.045410	81.345276
661.829773	938.740540	7264.725098	6075.510254	81.201111
662.161194	951.817871	7169.915527	5982.707031	80.907204
662.492615	944.090332	7048.281250	5858.546875	80.509552
662.823975	948.622803	6941.285156	5779.562988	80.614265
663.155212	933.687988	6811.775879	5693.742676	80.979645
663.486450	934.505310	6694.525879	5610.747559	81.184471
663.817627	931.979004	6578.763184	5536.964355	81.550583
664.148743	936.288574	6482.392090	5457.534668	81.521126
664.479858	939.706543	6409.798340	5438.736328	82.247795
664.810913	932.573425	6342.628906	5399.430176	82.565819
665.141907	930.418640	6280.585938	5395.937988	83.465042
665.472778	932.722107	6243.509277	5351.950684	83.212311
665.803711	957.985046	6224.636719	5349.201660	83.377769
666.134583	957.613464	6197.070313	5331.517090	83.480095
666.465454	973.365540	6154.346191	5349.350098	84.462479
666.796143	943.495911	6109.986816	5341.325684	85.122185
667.126831	953.972656	6112.438965	5348.086914	85.182571
667.457458	944.387634	6104.935059	5329.140137	84.966812
667.788147	948.474304	6101.441895	5327.133789	84.973549
668.118774	948.771423	6089.479980	5333.969727	85.303383
668.449219	950.183105	6094.234863	5355.740234	85.643715
668.779663	955.978821	6094.532715	5372.903809	85.956573
669.110107	935.248352	6083.164063	5346.675293	85.693459
669.440552	934.356689	6072.314941	5349.201172	85.926056
669.770874	919.570496	6058.123535	5307.220215	85.386871
670.101135	926.926453	6030.408691	5294.812012	85.586380
670.431396	917.044250	5989.244629	5225.041992	84.933510
670.761597	915.409607	5926.682129	5178.379883	85.067619
671.091797	913.031921	5902.682129	5146.354980	84.842079
671.421875	906.790466	5866.274902	5135.581055	85.266739
671.751892	914.220703	5856.466309	5147.469238	85.654350
672.081909	923.434265	5809.209473	5136.101563	86.223106
672.411865	931.161682	5782.535156	5131.494629	86.580284
672.741821	920.536438	5738.473145	5083.494629	86.405411
673.071716	911.768555	5729.037109	5040.547363	85.707878
673.401550	908.276367	5700.133301	4992.325684	85.228951
673.731262	912.511719	5682.300781	4986.529785	85.412964
674.060974	909.985413	5623.453125	4967.879395	86.091476
674.390625	920.387756	5607.552246	4960.375000	86.192566
674.720276	923.211243	5567.726074	4939.941895	86.483322
675.049927	933.985168	5552.345215	4916.982422	86.242683
675.379395	928.412415	5531.169434	4890.159668	86.073357
675.708923	935.768494	5501.894043	4838.444824	85.470192
676.038330	931.087402	5486.587402	4833.615234	85.666290
676.367737	930.047119	5453.299805	4817.491699	85.943558
676.697083	944.684875	5459.615234	4858.060547	86.676331
677.026428	946.245178	5445.795410	4868.388184	87.167442
677.355652	939.929504	5452.333984	4879.607910	87.307747
677.684875	934.653992	5477.671387	4917.354004	87.666397
678.013977	924.920227	5487.033203	4946.406250	88.149643
678.343079	933.687927	5512.444824	5021.898438	89.286469
678.672180	921.725281	5519.131348	5041.662598	89.614388
679.001221	923.805664	5576.865234	5105.562988	89.871132
679.330139	921.056458	5634.523926	5175.036133	90.251595
679.659058	914.220703	5695.080566	5238.713379	90.454285
679.987976	920.164856	5747.538574	5306.477539	90.863335
680.316772	921.502380	5779.710938	5317.845703	90.493095
680.645630	921.056458	5805.643066	5327.505371	90.211296
680.974304	909.688171	5817.011719	5290.205078	89.264893
681.302979	902.257996	5815.822754	5270.812012	88.908035
681.631653	907.013367	5804.751953	5227.047363	88.204666
681.960266	925.514709	5807.427246	5209.363770	87.749405
682.288757	936.883057	5788.404785	5167.531738	87.202507
682.617249	933.390808	5762.027344	5140.187988	87.121841
682.945679	930.790222	5693.520996	5083.197754	87.185432
683.274109	933.242188	5627.836426	5011.792969	86.877602
683.602478	942.604309	5533.100098	4931.620605	86.897293
683.930725	936.511536	5437.918457	4843.422852	86.793121
684.259033	925.068848	5349.572754	4765.553223	86.800339
684.587280	917.935852	5289.164551	4689.541504	86.282509
684.915344	924.325867	5241.091309	4630.173828	85.847794
685.243469	934.430969	5213.524902	4597.480469	85.603394
685.571533	940.078064	5184.249512	4590.422363	86.008408
685.899536	939.334961	5172.286621	4599.115234	86.459297
686.227539	919.867676	5123.023926	4587.970215	87.270195
686.555420	913.031921	5112.026855	4581.060059	87.354904
686.883301	911.397156	5106.454590	4590.793457	87.707886
687.211121	920.387878	5151.036133	4615.981934	87.352898
687.538940	928.783997	5186.701660	4640.501953	87.172142
687.866638	922.245422	5204.979980	4633.666504	86.660080
688.194336	917.712891	5183.729004	4617.765625	86.733208
688.521973	909.836853	5149.327637	4598.224121	87.000717
688.849609	913.700500	5107.643066	4573.406738	87.261719
689.177063	919.273254	5093.971191	4522.583496	86.313080
689.504578	924.028625	5036.684082	4463.735840	86.068657
689.832031	920.462097	4960.672363	4394.411621	85.984375
690.159485	921.353699	4872.549316	4347.897949	86.721703
690.486816	918.158691	4817.714355	4300.046875	86.724960
690.814087	942.827332	4792.451172	4283.328613	86.774742
691.141296	951.297852	4733.528809	4254.945313	87.346527
691.468506	948.548523	4682.854004	4205.682617	87.221954
691.795715	921.873779	4618.285645	4145.645996	87.213554
692.122803	911.025635	4576.304688	4115.404785	87.425247
692.449829	905.898743	4540.787598	4116.816406	88.336060
692.776855	907.013367	4500.738281	4100.990234	88.876495
693.103821	900.103210	4477.185059	4083.008789	88.980507
693.430664	901.812073	4440.924805	4041.399170	88.711136
693.757568	901.886414	4422.051758	4024.680908	88.711586
694.084351	907.087585	4401.767578	4006.625732	88.693047
694.411133	918.530273	4380.219238	4012.867188	89.388069
694.737854	922.839844	4364.393066	4009.003174	89.673561
695.064575	919.496277	4353.693359	4019.777100	90.276733
695.391174	914.740784	4346.263184	4035.974854	90.957710
695.717773	909.242432	4340.393066	4040.061768	91.246925
696.044250	914.146423	4341.953613	4042.439453	91.262222
696.370789	910.282654	4366.102051	4084.123291	91.840469
696.697205	917.787170	4419.302734	4144.531738	92.152802
697.023621	916.524109	4470.052246	4225.521484	93.118645
697.349915	935.619873	4550.298340	4335.118164	94.047043
697.676208	925.291809	4630.545410	4485.952637	96.097626
698.002380	927.075012	4766.965332	4675.424316	97.616051
698.328674	906.418762	4903.459473	4824.401367	98.022087
698.654724	910.876953	5045.005859	4945.812012	97.600609
698.980896	911.025635	5151.185059	5034.529297	97.248802
699.306946	929.155518	5207.357422	5074.281738	96.889435
699.632935	935.248291	5210.478027	5026.950195	95.707184
699.958862	939.112061	5177.339355	4881.688477	93.024178
700.284729	920.610657	5096.200684	4699.275391	90.494156
700.610596	919.644775	5018.479980	4546.509277	88.485252
700.936340	918.678772	4886.815430	4410.386719	87.993645
701.262146	919.421875	4754.779785	4270.103027	87.362930
701.587830	917.192810	4618.954590	4145.126465	87.199928
701.913513	911.917297	4491.376465	4032.408936	87.177742
702.239075	914.146301	4385.197754	3949.487061	87.447296
702.564697	914.294922	4277.013184	3866.044922	87.778687
702.890137	913.626221	4187.850098	3785.203857	87.702545
703.215698	910.579834	4122.018066	3731.259766	87.832298
703.541016	903.000977	4043.702393	3688.164063	88.679649
703.866455	906.864685	3992.062256	3658.888916	89.200905
704.191711	920.759277	3955.133789	3629.613525	89.272247
704.517029	922.468262	3928.905029	3609.552002	89.377693
704.842163	927.298035	3919.988525	3604.573486	89.460487
705.167419	922.542542	3908.620361	3588.969971	89.295311
705.492493	930.641541	3916.125000	3572.177734	88.479347
705.817566	923.359863	3922.143799	3556.202393	87.797005
706.142578	920.164978	3931.431396	3558.208740	87.605789
706.467590	923.582825	3958.403320	3572.326172	87.278419
706.792480	932.424805	3971.108643	3583.322998	87.238365
707.117371	935.545593	3996.000000	3582.208740	86.479416
707.442200	947.136719	4030.625244	3591.273438	85.751472
707.766907	940.821106	4055.071045	3579.458984	84.727875
708.091675	946.245178	4075.578369	3580.945313	84.193657
708.416321	930.047180	4063.392822	3572.029053	84.318237
708.741028	936.437195	4077.807617	3593.205078	84.573532
709.065552	928.932617	4084.271729	3609.254639	84.945610
709.390137	929.229919	4072.903564	3623.966797	85.719360
709.714600	932.053284	4057.820068	3658.814453	87.234955
710.039063	938.146179	4042.587891	3692.696533	88.729332
710.363403	950.777588	4075.058350	3744.708740	89.426376
710.687744	943.718933	4107.900391	3763.507080	89.115883
711.012085	937.477356	4140.816406	3791.742432	89.102806
711.336304	933.836609	4171.354980	3811.655518	88.889656
711.660461	930.864441	4175.738281	3822.726563	89.120941
711.984619	933.316467	4183.391602	3816.410889	88.708549
712.308716	916.598450	4165.410645	3784.237549	88.267311
712.632751	914.369324	4150.772949	3745.748779	87.485359
712.956726	921.056458	4121.720703	3698.566406	86.779175
713.280701	930.195801	4060.420898	3657.997314	87.143944
713.604553	949.068665	4008.854492	3637.861328	87.875191
713.928467	947.879883	3938.341064	3625.378174	89.534630
714.252258	947.136780	3871.320313	3608.734375	91.020195
714.575989	940.003723	3812.621094	3591.867920	92.315262
714.899719	931.904785	3766.999268	3554.716553	92.512321
715.223267	929.675720	3746.491455	3544.016846	92.811935
715.546936	931.533203	3728.584717	3535.769287	93.106476
715.870422	924.400146	3716.102295	3545.428711	93.886398
716.193970	921.502380	3687.867188	3524.401123	94.090942
716.517395	917.267090	3659.260498	3510.580811	94.577682
716.840820	918.678772	3604.127686	3478.630859	95.326782
717.164124	922.616882	3579.012939	3455.968506	95.367996
717.487488	922.616882	3545.948486	3407.300049	94.714798
717.810730	923.359863	3528.190186	3353.579102	93.296646
718.133972	919.198914	3478.110352	3289.604492	92.633354
718.457092	912.214539	3428.550537	3221.989014	91.791176
718.780212	908.945129	3380.847900	3180.305420	91.887123
719.103210	907.756348	3332.105469	3148.429443	92.423698
719.426208	905.155762	3281.133789	3126.137939	93.476547
719.749207	928.412598	3250.372314	3118.856689	94.336006
720.072083	934.356689	3219.982666	3090.844482	94.349983
720.394958	937.105957	3195.165771	3065.433350	94.254692
720.717773	915.260925	3144.194092	3033.408936	95.029678
721.040527	907.682068	3127.327148	3006.287842	94.546906
721.363281	909.242371	3106.076416	2992.467529	94.828514
721.685913	924.623047	3108.751221	2983.253906	94.254120
722.008545	938.517639	3069.891357	2973.594971	95.481956
722.331055	935.248352	3041.507568	2945.136719	95.424553
722.653503	917.861511	3011.860596	2921.062744	95.663902
722.976013	916.078308	3017.730713	2911.552002	94.947845
723.298401	925.811951	3025.012451	2920.319580	95.012726
723.620789	926.257751	3004.430420	2907.168213	95.319824
723.943115	918.381653	2990.461670	2897.880615	95.531975
724.265381	905.898743	2977.904297	2894.833984	95.990829
724.587585	907.533508	2990.981689	2899.440674	95.606270
724.909790	905.007141	2991.279053	2920.691406	96.616562
725.231873	913.403381	2981.619385	2928.418701	97.427704
725.553894	937.180237	2979.687500	2959.923096	99.032349
725.875916	1515.403931	3505.379639	3408.637451	95.138527
726.197937	1547.651367	3538.592773	3423.720703	94.230263
726.519775	1529.967407	3541.713623	3410.792236	93.492149
726.841675	949.514465	3028.133545	2972.108643	97.304703
727.163513	921.130859	3007.031250	2976.789795	98.550194
727.485291	916.969910	3018.250977	2991.352783	98.719917
727.806946	932.796387	3060.603516	3027.687256	98.453041
728.128662	930.418701	3083.265625	3044.479736	98.198387
728.450256	933.242188	3106.968506	3066.844727	98.154144
728.771790	931.087402	3089.507080	3059.042969	98.588593
729.093323	917.787170	3091.216064	3054.510498	98.311165
729.414795	924.028564	3089.061279	3036.455078	97.570190
729.736145	911.025696	3089.507080	3018.919678	96.759789
730.057495	914.369324	3075.538330	3005.619141	96.764748
730.378845	908.945251	3069.965576	3009.334229	97.194321
730.700134	911.545837	3076.132813	3026.869873	97.724144
731.021301	915.558167	3097.606201	3064.169922	98.467667
731.342468	918.307373	3111.575195	3081.854248	98.644897
731.663574	925.217529	3121.011475	3100.503906	99.066055
731.984680	926.183411	3144.862549	3104.664795	98.188210
732.305664	916.152527	3150.361084	3099.017822	97.701950
732.626648	910.877014	3156.305420	3093.296631	97.193909
732.947571	904.264160	3142.261963	3087.352539	97.546494
733.268433	906.790466	3131.488281	3083.191406	97.829056
733.589233	901.514954	3106.893799	3069.965576	98.325539
733.909973	917.192871	3103.847656	3049.160889	97.499069
734.230713	935.768494	3097.680420	3052.281494	97.900055
734.551331	936.362976	3063.798096	3018.028076	97.848579
734.871948	926.406311	3007.179688	2971.217529	98.271690
735.192505	918.010071	2955.985107	2902.487305	97.374954
735.513062	920.164856	2928.864502	2862.735352	96.707863
735.833435	929.675598	2896.840088	2836.729248	96.944290
736.153931	921.948181	2865.261475	2806.339844	96.967979
736.474304	930.492981	2838.661133	2770.674561	96.437080
736.794617	930.047119	2833.385742	2746.451416	95.432533
737.114807	945.427917	2836.729248	2746.376953	95.222748
737.434998	940.375244	2831.230713	2757.076904	96.078293
737.755188	937.477478	2824.097900	2776.172607	97.459724
738.075256	926.480652	2800.766846	2784.717529	99.143707
738.395325	917.935852	2802.327393	2799.800781	99.865921
738.715271	928.338196	2819.119385	2822.760498	100.192574
739.035278	925.068848	2830.264893	2837.769531	100.393906
739.355164	926.332031	2826.846924	2837.471924	100.559059
739.675049	915.186707	2813.546875	2806.562256	99.632072
739.994873	920.387878	2824.692383	2796.234375	98.505592
740.314636	927.000732	2826.326904	2775.800781	97.339790
740.634277	925.514648	2820.531250	2749.943359	96.275078
740.953979	915.558105	2782.710938	2713.906982	96.315033
741.273499	916.969910	2756.259521	2686.563477	96.210709
741.593140	923.211243	2717.399170	2684.037354	98.140564
741.912598	922.393860	2693.993896	2654.910645	97.793900
742.232117	920.462097	2669.028320	2627.418701	97.620361
742.551453	906.938965	2650.229492	2590.044189	96.547600
742.870850	921.576660	2639.678467	2585.883545	96.868935
743.190063	922.319641	2613.152344	2569.833740	97.438034
743.509338	928.932617	2586.106201	2552.372803	97.964401
743.828552	921.502380	2559.951904	2523.320557	97.764267
744.147705	915.706726	2543.827881	2512.620850	98.083252
744.466797	922.542664	2525.995117	2513.661133	99.230789
744.785828	933.985168	2514.924316	2520.793945	100.371277
745.104858	944.090332	2516.558838	2519.307861	100.174820
745.423706	943.644531	2521.760254	2494.416748	98.267334
745.742615	942.307129	2517.376221	2477.475830	97.466751
746.061401	951.372009	2516.038818	2474.354980	97.335930
746.380249	944.981995	2492.038818	2471.977295	98.703247
746.698975	940.449524	2481.339355	2461.054688	98.683571
747.017639	928.783997	2463.878174	2453.401611	99.317528
747.336304	932.276184	2456.076416	2447.457275	99.434364
747.654907	938.443359	2451.766846	2456.671143	100.324074
747.973389	941.266846	2451.098145	2457.488037	100.423218
748.291931	940.226563	2449.463623	2461.649170	100.807396
748.610352	933.242188	2439.209717	2460.460449	101.411102
748.928711	934.430969	2433.265625	2458.008545	101.650810
749.247070	940.895325	2460.683350	2461.649414	100.063568
749.565308	934.208008	2465.661865	2447.680176	98.825844
749.883545	930.418640	2461.797607	2437.351807	98.403671
750.201782	923.657043	2443.444824	2421.822510	98.577278
750.519836	931.681824	2442.627441	2405.922119	97.570702
750.837952	933.910889	2435.420166	2400.497803	97.674179
751.155884	934.059509	2414.689697	2394.182373	98.614960
751.473877	925.366028	2399.829346	2397.526123	99.843796
751.791809	912.585999	2384.820068	2374.417725	99.293434
752.109619	909.465332	2383.111084	2374.194580	99.394936
752.427490	910.356934	2375.829346	2368.844971	99.523407
752.745300	929.155579	2388.906982	2392.621826	100.254486
753.062988	926.852112	2377.092773	2386.826172	100.671158
753.380615	929.304138	2359.408691	2393.364990	102.374390
753.698303	927.966614	2350.566406	2398.789063	103.389755
754.015808	926.034851	2360.968994	2408.894287	103.339897
754.333374	926.703552	2362.232178	2398.120361	102.500000
754.650757	924.028625	2345.662598	2388.535156	103.015724
754.968262	924.102966	2345.513916	2382.368164	102.592796
755.285583	932.722107	2362.752197	2393.290771	102.135521
755.602905	928.486816	2376.646729	2390.987305	100.990265
755.920105	928.338196	2360.003174	2391.804443	102.221275
756.237305	909.093811	2341.575928	2372.188721	102.137047
756.554443	909.539551	2317.427490	2362.083252	103.171829
756.871582	913.997742	2320.102295	2352.126953	102.277542
757.188599	922.171143	2316.015869	2357.996826	103.011879
757.505615	927.446594	2349.377686	2361.711914	100.867432
757.822510	937.254578	2370.777100	2387.569336	101.171394
758.139465	945.427795	2406.962402	2417.810303	100.742226
758.456238	942.009949	2408.002686	2454.887695	103.198174
758.773010	929.229797	2407.928467	2471.159912	104.276154
759.089783	927.446533	2408.151367	2503.853271	106.463264
759.406433	919.496155	2419.370850	2500.881104	105.434471
759.723145	920.907959	2426.206787	2513.289551	105.785080
760.039673	917.638672	2438.763916	2502.144287	104.166679
760.356201	926.926453	2435.940186	2513.289795	105.125839
760.672668	930.195740	2449.760498	2507.048096	103.770004
760.989136	925.143127	2442.033203	2502.589844	103.992157
761.305481	923.508484	2432.745361	2495.308350	104.145340
761.621826	927.892334	2432.522461	2507.270752	104.967888
761.938049	949.365906	2464.546875	2534.391357	104.609650
762.254333	943.644531	2507.048096	2574.886475	104.339149
762.570496	931.087402	2535.134521	2613.523926	104.886978
762.886597	906.270264	2574.292236	2692.953369	107.113884
763.202637	911.099915	2664.495850	2836.877930	109.831329
763.518677	919.644775	2808.197266	3026.126953	111.539513
763.834656	927.297852	2958.214111	3198.063477	111.809906
764.150574	918.678772	3083.637451	3295.251221	109.774498
764.466370	920.536377	3126.955811	3312.192383	108.395348
764.782288	918.232971	3118.930908	3249.481201	105.932220
765.097961	936.362854	3072.045898	3149.618164	103.632202
765.413696	925.291809	2993.953857	3011.414795	100.844070
765.729309	925.514709	2885.620361	2877.001221	99.560272
766.044861	924.920349	2777.064209	2761.237549	99.145493
766.360474	932.796387	2692.656250	2674.897949	98.990929
766.675903	930.567200	2605.201904	2591.307129	99.170280
766.991394	918.455872	2531.791016	2526.069580	99.645363
767.306763	919.867676	2467.296387	2479.333252	100.777863
767.622131	923.508545	2421.005615	2451.766846	102.054176
767.937378	918.604553	2368.993652	2403.916016	102.407791
768.252625	928.263855	2332.362305	2386.900635	103.884224
768.567810	920.610657	2295.879883	2364.535400	104.992149
768.882996	934.951172	2257.985352	2350.343994	106.980820
769.197998	925.366150	2225.812256	2305.465088	106.125038
769.513062	936.511536	2205.601807	2285.105957	106.264656
769.828064	929.452820	2190.592773	2272.325684	106.480873
770.142944	926.034851	2175.732178	2261.105957	106.831558
770.457825	925.514648	2161.837646	2237.477783	106.118156
770.772705	917.564270	2134.048584	2215.781250	106.718758
771.087402	918.753113	2126.023682	2201.589600	106.259239
771.402100	916.226868	2102.024170	2195.645508	107.895226
771.716736	924.474426	2090.804443	2185.465820	108.116173
772.031372	930.195801	2066.953125	2158.865479	108.085487
772.345947	926.629211	2061.231934	2128.252686	105.906982
772.660461	931.236023	2069.479492	2105.442139	103.159485
772.974854	929.304138	2057.219727	2107.745361	104.479561
773.289246	934.951111	2051.795410	2114.507080	105.615074
773.603638	933.985168	2033.591187	2109.602783	106.912636
773.917908	927.372314	2022.891602	2087.906494	105.934616
774.232178	922.616943	2002.978516	2062.940674	105.550194
774.546265	920.313477	1988.935181	2052.166748	105.917114
774.860474	925.440430	1978.978516	2060.117188	107.701538
775.174561	936.585876	1977.566895	2064.798584	108.379761
775.488586	937.848938	1978.755859	2077.281250	109.465340
775.802551	939.037842	1972.365845	2054.544678	107.952835
776.116516	932.276184	1953.344238	2038.123535	108.303009
776.430359	929.675598	1936.254517	2016.947388	108.016541
776.744202	940.003723	1942.570313	2033.442749	109.063972
777.057922	934.876892	1944.799316	2040.352661	109.461456
777.371704	933.985168	1944.130737	2039.312500	109.422585
777.685303	922.245422	1928.824219	2010.929077	108.156815
777.998962	922.839844	1924.737793	2008.031128	108.313553
778.312500	924.102966	1913.295044	1991.907227	107.947105
778.626038	923.062683	1898.954712	1997.925781	110.141594
778.939453	925.514648	1904.824585	2003.349976	110.060692
779.252869	939.260681	1923.920288	2027.349609	110.504059
779.566223	943.124329	1926.446655	2032.476563	110.782829
779.879578	936.362854	1924.440430	2018.730591	109.542786
780.192749	922.245422	1908.613892	1991.164429	108.369133
780.505920	911.917297	1908.836914	1987.374878	107.878059
780.819031	912.214539	1889.889648	1968.353516	108.025551
781.132141	957.019043	1933.282593	2030.321899	109.939865
781.445190	961.625793	1933.133911	2025.417969	109.499062
781.758118	972.176819	1943.462036	2035.300171	109.455315
782.071045	925.960510	1882.385132	1975.709351	109.757607
782.383911	922.096741	1867.598755	1951.412476	108.864464
782.696838	911.768738	1846.942749	1932.093750	109.105362
783.009583	916.078308	1843.896484	1917.976074	107.984276
783.322266	917.712891	1826.212280	1912.775024	109.528099
783.634888	915.186584	1819.822266	1903.635742	109.264885
783.947510	900.623230	1806.819336	1890.112671	109.191536
784.260132	897.131042	1801.320923	1884.391235	109.187263
784.572571	897.948303	1788.540894	1897.914429	112.280983
784.885010	910.505554	1774.794922	1895.982422	114.021637
785.197449	924.102844	1783.042358	1895.313843	113.070938
785.509766	935.917053	1787.351929	1880.155884	110.899712
785.822083	932.721985	1779.029907	1873.988892	111.220383
786.134277	931.013000	1760.974487	1872.428589	113.428825
786.446533	930.641602	1751.092163	1878.818726	115.567856
786.758606	947.954102	1759.414063	1881.567871	115.053581
787.070740	948.474182	1769.593628	1895.388184	115.319885
787.382690	936.882996	1770.262329	1891.152832	114.506058
787.694641	912.734558	1778.286987	1912.626343	115.520653
788.006653	901.663574	1793.964844	1928.006836	115.022057
788.318481	912.065918	1830.670410	1971.696777	115.352242
788.630310	912.363220	1859.128418	1991.461548	113.977402
788.942017	908.945251	1867.598999	1998.297363	113.633522
789.253784	909.019531	1876.663696	2005.430542	113.307251
789.565430	915.558105	1879.264526	1997.182983	112.235931
789.877014	922.914063	1879.561646	1990.867188	111.634956
790.188538	918.455872	1860.168579	1962.409180	110.856888
790.500061	917.935791	1827.252563	1941.901733	112.608276
790.811462	920.610657	1801.989624	1914.558228	112.771873
791.122925	929.081238	1791.215820	1898.583008	112.453644
791.434204	929.452637	1786.683228	1878.669922	110.730682
791.745483	928.783997	1776.429565	1867.152954	110.702988
792.056702	914.294983	1748.788940	1838.174927	110.711403
792.367920	916.152588	1731.030640	1836.466187	112.938812
792.678955	911.397156	1713.272095	1816.775879	112.907722
792.990112	917.341370	1705.173218	1813.654907	113.769653
793.301086	914.815125	1694.473633	1797.902832	113.265961
793.612122	927.818115	1704.281616	1813.283691	114.038277
793.922974	924.400208	1699.228882	1811.946289	114.547394
794.233826	923.434265	1707.773804	1821.382690	114.484657
794.544556	918.307312	1703.241211	1808.305298	113.385086
794.855286	921.279480	1698.783203	1800.057739	113.025604
795.166016	930.864502	1702.052368	1795.525269	112.120636
795.476624	924.548767	1694.993774	1809.419800	114.851936
795.787292	916.003906	1709.854126	1832.230835	115.415588
796.097778	904.189758	1718.176147	1848.800171	116.047447
796.408264	904.784241	1740.095337	1868.787598	115.406509
796.718689	913.031921	1764.689819	1880.527466	113.601433
797.029053	918.976135	1765.135376	1877.109741	113.233253
797.339355	921.428040	1764.095337	1867.450317	112.265221
797.649658	927.223633	1745.073853	1863.958008	114.536179
797.959839	920.016357	1736.306030	1852.961304	114.290916
798.270020	920.387878	1726.349487	1836.020142	113.607430
798.580078	925.737610	1732.739380	1824.949097	111.426208
798.890137	929.527039	1719.885132	1819.599243	112.616318
799.200195	929.898621	1711.265991	1821.457031	114.102333
799.510071	921.428040	1684.442749	1800.280762	115.181625
799.820007	918.753113	1676.343628	1792.032837	115.270676
800.129883	912.660339	1665.495483	1771.822632	114.123566
800.439575	907.310547	1669.359253	1769.742188	113.172775
800.749329	909.093750	1663.637817	1768.924805	113.953720
801.058960	907.904968	1653.607056	1755.773315	113.700684
801.368591	908.127869	1638.820801	1746.559937	114.744789
801.678162	912.065857	1635.848633	1727.538452	112.668144
801.987671	916.301086	1624.257446	1728.281372	114.693550
802.297119	920.982239	1616.232788	1732.813843	116.768204
802.606506	913.180481	1595.873901	1730.138794	119.666939
802.915894	910.654114	1595.650879	1719.736450	118.114769
803.225159	901.812073	1585.397095	1706.584961	117.728279
803.534424	905.230042	1597.137085	1701.681030	115.109535
803.843628	901.366272	1596.468140	1704.652954	115.563881
804.152771	914.146301	1607.464966	1695.587891	112.710304
804.461792	924.251465	1616.604126	1703.612793	112.567101
804.770874	929.898621	1621.508301	1710.820313	112.913643
805.079773	921.873840	1617.421509	1721.965698	115.030487
805.388733	914.666504	1606.127563	1732.813843	118.321533
805.697571	913.626221	1606.276367	1739.055054	119.169662
806.006470	914.517883	1624.331909	1743.438965	116.780037
806.315125	909.465332	1640.752563	1738.312134	113.340797
806.623901	903.075256	1648.554321	1741.729980	112.498764
806.932495	898.171326	1641.718384	1743.439087	113.680466
807.241150	904.932861	1634.288208	1746.708374	115.413635
807.549622	915.706787	1617.198853	1745.148071	118.239578
807.858154	921.799622	1607.019409	1736.083008	118.835358
808.166565	919.496277	1595.428101	1725.234863	119.204117
808.474915	915.855408	1599.960327	1701.012207	114.771400
808.783264	920.239197	1597.211304	1685.705688	113.072090
809.091492	920.313477	1577.818237	1668.318970	113.764267
809.399719	914.666504	1561.174438	1654.795898	114.481102
809.707825	904.487000	1557.162109	1650.114868	114.241814
810.015930	897.279602	1564.072266	1639.712402	111.343880
810.323975	908.425110	1572.319946	1652.195313	112.031326
810.632080	912.660339	1548.022949	1643.056152	114.957321
810.939880	911.694397	1530.636108	1636.145996	117.046822
811.247864	908.647949	1520.753906	1624.034668	116.873024
811.555664	903.149597	1517.410156	1620.616699	116.801750
811.863464	914.517883	1519.639282	1621.582642	116.846764
812.171143	907.013367	1500.320679	1612.220337	118.860321
812.478882	918.530273	1496.754028	1613.855103	120.251862
812.786438	927.595215	1501.435181	1619.056274	120.497192
813.094055	931.161682	1505.298828	1628.864258	121.521935
813.401489	921.873840	1507.973633	1616.158569	118.458450
813.708984	904.487000	1491.106934	1606.127563	119.607353
814.016357	919.867676	1498.091431	1615.043945	120.226166
814.323730	934.876892	1500.023438	1629.384399	122.889809
814.630981	933.836609	1504.035645	1625.149048	121.240547
814.938232	928.486816	1494.747925	1605.458984	119.551239
815.245361	914.072021	1481.224731	1595.130859	120.083855
815.552490	917.341370	1487.466187	1606.647827	120.904480
815.859619	913.477600	1487.912109	1604.938843	120.372513
816.166565	916.449707	1500.394897	1605.533203	118.004822
816.473572	915.186584	1496.456665	1591.564331	116.362045
816.780457	910.802734	1490.809937	1596.319702	118.191116
817.087341	907.756348	1489.175171	1606.053223	120.102211
817.394043	907.087646	1494.599243	1604.269897	118.666977
817.700806	909.168152	1495.267944	1601.743652	118.166824
818.007507	908.870911	1513.323608	1597.285645	113.890587
818.314209	910.951355	1513.100586	1617.124390	117.275421
818.620667	905.750183	1529.670288	1632.059204	116.410583
818.927246	902.332214	1524.320313	1655.538940	121.096649
819.233704	899.805908	1549.063110	1681.247681	120.359352
819.540161	898.691406	1578.784180	1720.479492	120.834702
819.846497	911.694397	1620.691040	1781.184937	122.636765
820.152832	913.403381	1664.232422	1843.747681	123.908936
820.458984	916.598328	1724.046265	1906.607788	122.609695
820.765259	908.127869	1785.494507	1961.071655	120.011841
821.071350	913.180420	1863.140991	2061.305908	120.860329
821.377502	902.480774	1960.254395	2205.527588	123.187683
821.683472	908.127869	2167.856201	2504.373291	126.713463
821.989441	906.344543	2538.180908	3033.928711	130.379745
822.295349	907.682068	3145.531250	3891.085205	133.315643
822.601196	909.985413	3918.576904	4934.666504	133.772934
822.907043	912.957520	4671.040527	5894.212402	132.547760
823.212769	919.124695	5158.243652	6457.871582	130.657974
823.518494	929.452698	5283.220703	6467.011230	127.190025
823.824097	916.003906	5040.250488	5964.725098	122.415596
824.129700	914.666504	4609.295410	5191.382324	115.754951
824.435242	900.177429	4088.507080	4367.142578	108.739235
824.740723	905.378723	3635.557861	3688.610107	101.943176
825.046082	897.799805	3259.437500	3189.593018	97.042542
825.351501	894.604797	2959.774658	2857.533936	95.049286
825.656799	891.186829	2725.572510	2639.529785	95.309456
825.962036	896.833801	2524.806396	2494.639648	98.146973
826.267212	910.802734	2394.256592	2435.865967	102.804901
826.572449	924.028625	2328.127197	2453.104248	108.900871
826.877502	928.486816	2364.089844	2578.750244	114.952629
827.182495	936.214294	2503.630127	2807.825439	119.407440
827.487488	936.660095	2669.399414	3071.897461	123.229004
827.792419	938.220459	2829.150391	3275.635498	123.611931
828.097290	915.781067	2868.902344	3318.731201	123.031281
828.402100	910.431335	2834.574463	3224.366455	120.257950
828.706848	919.198975	2687.380859	3002.944336	117.846779
829.011597	922.022522	2506.453857	2716.581787	113.262039
829.316223	910.208313	2294.393799	2417.587402	108.900078
829.620789	904.264160	2136.723389	2186.951904	104.075470
829.925354	910.356934	2010.260132	2013.083618	100.256706
830.229797	931.013184	1920.056641	1900.663696	98.039223
830.534302	954.046936	1841.741577	1830.298828	98.710960
830.838562	942.752930	1743.736328	1765.061157	102.662331
831.142944	928.561096	1668.318970	1720.182251	107.010849
831.447144	903.446777	1593.644897	1657.619263	109.268982
831.751404	905.378662	1570.165039	1646.325317	111.456352
832.055542	913.180420	1549.360352	1639.786743	114.213966
832.359619	909.985352	1538.363647	1642.833130	116.625252
832.663635	922.319641	1542.821655	1645.879517	116.608788
832.967651	916.895569	1568.901978	1670.473755	115.578339
833.271545	915.260925	1616.455688	1744.850952	118.310928
833.575439	903.446777	1695.365234	1880.156128	123.334587
833.879211	900.103210	1820.119507	2064.427002	126.554688
834.183044	902.926697	1968.353516	2252.858643	126.703400
834.486694	896.685242	2095.262451	2398.268799	125.280502
834.790344	920.462158	2173.428955	2467.518799	123.471481
835.093933	920.387878	2166.072998	2423.160400	120.638237
835.397522	930.641602	2088.129639	2302.269775	118.500420
835.700928	902.555176	1971.177124	2127.138428	114.594620
836.004395	919.124695	1876.218140	1999.783569	112.910492
836.307739	918.307373	1787.129272	1868.119019	109.321793
836.611023	921.279480	1716.764282	1775.389160	107.369705
836.914307	907.459167	1640.827026	1668.467651	103.768997
837.217529	920.016296	1601.297974	1619.725098	102.704773
837.520691	926.926453	1546.313843	1560.803101	102.339287
837.823730	919.198975	1491.775757	1519.193359	104.788460
838.126831	909.539612	1429.955688	1484.568359	110.494041
838.429749	908.870911	1397.931274	1475.057617	115.770309
838.732727	918.753235	1381.287476	1460.197144	117.060287
839.035522	916.003967	1369.622070	1442.661621	116.101555
839.338379	916.672668	1355.578857	1419.850586	114.643616
839.641113	910.431335	1357.436401	1437.311890	117.869034
839.943848	909.093811	1378.389648	1467.181519	118.920235
840.246460	902.852356	1405.361694	1509.162476	120.656487
840.549072	903.669678	1437.014526	1538.363647	119.002548
840.851563	911.917297	1454.772827	1564.220825	120.161530
841.154053	916.078308	1462.277466	1575.366333	120.704697
841.456482	922.245422	1437.609009	1561.323120	124.005211
841.758850	916.672668	1410.117065	1516.667358	121.593170
842.061157	911.694336	1378.686890	1473.868774	120.381882
842.363403	903.966858	1359.962646	1423.194336	113.866730
842.665588	896.462341	1327.715210	1374.228882	110.785706
842.967712	904.041260	1308.025024	1345.027832	109.159477
843.269775	906.939148	1282.910767	1328.829834	112.213440
843.571777	912.437500	1271.988281	1321.250977	113.701180
843.873840	913.106140	1263.592163	1306.241821	112.168716
844.175659	920.907959	1260.842896	1298.291382	111.016365
844.477600	936.660156	1267.455933	1309.362549	112.668427
844.779297	937.700378	1247.914185	1309.139648	119.736534
845.081116	939.855164	1237.140259	1304.235718	122.569397
845.382751	924.548767	1221.536743	1281.053345	120.040070
845.684387	910.877014	1214.849487	1258.762451	114.446365
845.985962	899.954529	1196.050903	1229.561401	111.317429
846.287537	901.737793	1174.205811	1212.546143	114.071495
846.588989	908.499329	1172.794067	1206.453247	112.735474
846.890381	909.539612	1175.394653	1212.397583	113.918457
847.191711	907.236145	1179.630005	1219.456299	114.620850
847.493042	915.112305	1178.218262	1217.895874	115.080467
847.794250	925.811829	1193.450317	1227.332397	112.659645
848.095459	930.270020	1189.363647	1222.725708	112.876450
848.396606	920.462097	1184.385376	1225.994995	115.765800
848.697693	907.459167	1161.574585	1213.214844	120.321579
848.998657	909.168152	1160.237061	1209.128296	119.473236
849.299622	920.016296	1157.562134	1205.487305	120.175125
849.600464	929.972839	1151.171997	1200.063232	122.102814
849.901367	921.576660	1147.011108	1188.546265	118.424492
850.202087	915.483826	1151.469238	1177.846802	111.177628
850.502808	911.768738	1157.636353	1180.150269	109.156929
850.803467	911.545837	1161.054199	1189.066528	111.227013
851.104065	927.298035	1166.255493	1207.196411	117.133141
851.404663	928.858398	1170.490723	1201.697998	112.915192
851.705139	929.007019	1164.472290	1190.478149	111.044456
852.005615	916.301086	1149.983276	1178.292603	112.114456
852.306030	912.586121	1144.410522	1173.908691	112.724358
852.606384	918.753174	1149.611694	1180.224487	113.260414
852.906616	924.697327	1156.819092	1176.212036	108.354645
853.206909	931.013123	1158.007935	1182.973633	110.998360
853.506958	925.068848	1152.732422	1184.385376	113.903389
853.807129	917.267090	1138.763550	1181.338867	119.221672
854.107178	909.093750	1134.230957	1173.462769	117.425735
854.407166	909.093750	1134.230957	1174.577393	117.920822
854.707092	905.081482	1136.162964	1173.462891	116.141464
855.007019	901.737793	1134.008179	1176.657837	118.362076
855.306763	910.951355	1127.246582	1163.283325	116.660904
855.606567	909.911133	1120.262085	1150.354614	114.305870
855.906250	908.945251	1110.305542	1139.655151	114.575668
856.205933	900.177429	1110.082642	1143.890381	116.106194
856.505493	905.824463	1115.655273	1152.583862	117.599220
856.805054	916.969788	1124.274414	1160.311279	117.383530
857.104492	923.434265	1125.389038	1151.840698	113.097816
857.403931	922.096741	1119.073242	1149.388794	115.390442
857.703308	912.288757	1120.782104	1148.645752	113.364288
858.002563	906.493164	1123.011353	1150.206055	112.560005
858.301819	909.911133	1129.327026	1147.456909	108.262794
858.601013	918.307312	1126.652222	1144.782104	108.701859
858.900208	922.245361	1121.525269	1143.667480	111.111115
859.199219	918.381653	1118.924683	1149.240234	115.116730
859.498291	923.137024	1122.491211	1149.165894	113.380547
859.797302	924.102966	1129.772949	1152.435181	111.018738
860.096191	933.019226	1141.958618	1160.237061	108.748199
860.395020	926.257751	1132.224854	1149.760376	108.513748
860.693787	917.489990	1125.983398	1147.011108	110.085548
860.992554	899.805969	1111.642944	1130.738892	109.014458
861.291260	902.480896	1116.844116	1139.878052	110.745285
861.589844	911.025696	1122.119629	1136.757324	106.934212
861.888428	923.582825	1127.543823	1142.107056	107.140205
862.186890	919.347595	1131.110352	1145.227905	106.666687
862.485413	912.511719	1127.469604	1143.667480	107.535370
862.783813	907.013367	1127.395142	1141.438354	106.372223
863.082153	908.499329	1127.395142	1137.351685	104.548531
863.380371	912.437439	1130.441528	1142.924438	105.725998
863.678589	908.350769	1123.902954	1142.181519	108.479881
863.976746	904.338379	1119.296265	1135.791382	107.673653
864.274902	909.836731	1116.026855	1138.094727	110.702682
864.572937	918.010071	1122.342651	1149.834595	113.454506
864.870911	931.161682	1128.138184	1162.317505	117.351982
865.168884	915.855286	1124.943237	1159.494019	116.524521
865.466736	897.428223	1109.934082	1145.079224	116.538437
865.764587	881.601807	1098.862915	1126.280640	112.619713
866.062317	886.208496	1102.206665	1126.726440	111.351845
866.360107	900.103088	1113.946411	1128.212524	106.671295
866.657715	900.474609	1114.615112	1131.704712	107.980553
866.955322	900.549011	1103.395386	1122.491089	109.413872
867.252808	901.514954	1095.519409	1115.729614	110.417389
867.550293	912.660217	1095.445190	1119.147461	112.967300
867.847717	907.607727	1099.308716	1119.667603	110.620125
868.145081	910.802734	1098.119995	1124.348633	114.002251
868.442383	903.223877	1097.971313	1132.299072	117.626808
868.739624	914.072083	1101.091919	1135.197021	118.236092
869.036804	923.062683	1109.785400	1135.940063	114.007217
869.333984	922.393982	1106.144653	1127.320923	111.524460
869.631042	911.322937	1103.172485	1119.890503	108.714127
869.928101	900.846191	1095.519409	1122.936890	114.083847
870.224976	897.799805	1088.757813	1112.163086	112.256767
870.521851	943.644592	1121.005127	1147.159668	114.746536
870.818726	939.186340	1121.748169	1140.695435	110.378548
871.115479	947.954102	1136.162964	1159.791138	112.554230
871.412231	917.787170	1110.528442	1136.682983	113.569763
871.708862	921.279480	1113.946411	1129.475708	108.060181
872.005493	915.929688	1111.568726	1115.952515	102.240753
872.302063	908.499329	1105.921753	1120.559326	107.414345
872.598572	909.093750	1108.819458	1121.896851	106.547676
872.895020	906.938965	1107.184937	1122.268188	107.532364
873.191406	913.700500	1116.695679	1123.308472	103.257614
873.487671	913.329041	1110.454102	1130.590210	110.214890
873.783997	915.558044	1114.020630	1135.494141	110.819931
874.080200	900.549011	1101.909302	1125.017578	111.476082
874.376343	893.415955	1104.732788	1122.119751	108.227913
874.672424	906.195984	1114.392212	1132.299194	108.601013
874.968445	925.663269	1126.503540	1137.054565	105.253441
875.264465	927.966614	1129.698608	1140.472412	105.340652
875.560364	917.415710	1122.639771	1138.020508	107.494606
875.856201	898.022644	1117.884399	1124.868896	103.176765
876.152039	901.514954	1121.079468	1120.336426	99.661583
876.447754	897.502625	1122.713989	1116.992798	97.459633
876.743469	910.505554	1137.871826	1141.066772	101.405197
877.039063	899.285828	1130.441528	1144.410522	106.043114
877.334595	903.595398	1123.382813	1139.580811	107.369850
877.630127	898.245605	1108.522339	1126.280640	108.445206
877.925537	909.836853	1117.735840	1127.618164	104.753426
878.221008	905.601563	1121.822388	1124.423096	101.202805
878.516296	898.245605	1111.122925	1126.503540	107.225105
878.811646	894.753418	1113.723511	1128.807007	106.888382
879.106812	900.846191	1122.416870	1157.116333	115.660675
879.401978	905.304382	1128.807007	1161.648804	114.694145
879.697083	905.527344	1134.528320	1179.184204	119.500305
879.992126	905.750183	1155.333008	1198.800049	117.415878
880.287109	909.985535	1197.759888	1243.307251	115.827461
880.582031	918.233093	1244.199097	1307.133423	119.307022
880.876892	917.267090	1318.204590	1401.572266	120.793182
881.171753	913.180420	1467.330078	1593.347656	122.740715
881.466492	919.050293	1712.454712	1898.137329	123.403275
881.761230	916.152527	2033.665527	2300.040771	123.836433
882.055786	913.923523	2360.597412	2675.195068	121.746277
882.350403	898.617188	2598.217529	2918.611084	118.851112
882.644958	895.124939	2687.455322	2953.607422	114.849503
882.939453	900.400391	2630.390625	2810.574463	110.415306
883.233826	908.722229	2487.209229	2559.505615	104.580109
883.528137	907.087585	2315.495850	2294.319580	98.496437
883.822449	908.870911	2153.070068	2051.944092	91.872200
884.116577	900.177429	2001.640991	1846.274048	85.894493
884.410828	897.799805	1866.038452	1675.897949	80.362228
884.704956	902.332275	1750.794922	1556.567749	77.108345
884.999023	903.669678	1635.031250	1469.113403	77.313843
885.292969	908.350830	1529.744263	1393.101685	78.010292
885.586914	901.663574	1431.962036	1327.343872	80.271835
885.880798	909.688232	1367.021484	1291.083984	83.395584
886.174622	913.774841	1331.653320	1275.257690	86.504295
886.468384	910.431152	1292.792969	1257.350586	90.730667
886.762085	903.149597	1262.848999	1234.019653	91.985153
887.055664	897.279602	1223.171387	1206.453247	94.870033
887.349304	893.861633	1208.385132	1193.227417	95.180740
887.642822	897.056641	1195.456543	1179.704224	94.721069
887.936340	896.833801	1189.809448	1164.918091	91.503952
888.229736	901.737793	1174.280273	1151.394897	91.603004
888.523071	896.611023	1163.952026	1143.741821	92.440292
888.816284	921.873840	1170.193481	1152.286621	92.788788
889.109619	931.607483	1175.469116	1150.800659	89.884239
889.402710	946.245117	1161.351563	1137.500488	88.911964
889.695862	924.400085	1132.299194	1110.751343	89.635429
889.988892	909.465271	1112.460327	1097.153931	92.459717
890.281921	886.951538	1113.649170	1095.147827	91.838760
>>>>>End Processed Spectral Data<<<<<
