Jaz Data File
++++++++++++++++++++++++++++++++++++
Date: Fri Jun 04 12:55:20 2021
User: jaz
Dark Spectrum Present: Yes
Reference Spectrum Present: Yes
Processed Spectrum Present: Yes
Spectrometers: JAZA3586
Integration Time (usec): 40000 (JAZA3586)
Spectra Averaged: 10 (JAZA3586)
Boxcar Smoothing: 1 (JAZA3586)
Correct for Electrical Dark: No (JAZA3586)
Strobe/Lamp Enabled: Yes (JAZA3586)
Correct for Detector Non-linearity: No (JAZA3586)
Correct for Stray Light: No (JAZA3586)
Number of Pixels in Processed Spectrum: 2048
>>>>>Begin Processed Spectral Data<<<<<
W	D	R	S	P
191.335022	0.000000	0.000000	0.000000	0.000000
191.713211	424.640045	428.652374	422.931061	-42.593327
192.091385	846.753845	859.013672	847.794006	8.484305
192.469528	1283.133667	1284.322388	1270.427856	-1068.864258
192.847641	1300.743530	1286.997437	1279.344238	155.675446
193.225739	1322.068359	1296.508179	1289.523682	127.325699
193.603790	1320.879517	1312.483276	1301.857910	226.549103
193.981842	1316.569946	1320.507935	1311.665894	-124.531929
194.359863	1311.517334	1326.526489	1313.597778	13.861169
194.737854	1320.433716	1328.755615	1309.436890	-132.143219
195.115829	1324.743164	1333.882446	1307.950806	-183.738266
195.493774	1330.464478	1333.882446	1315.083862	-449.992859
195.871704	1333.287964	1328.012573	1321.845337	216.905777
196.249603	1341.015503	1325.783569	1326.972290	92.195862
196.627457	1339.083618	1321.325317	1319.021851	112.971214
197.005310	1337.448975	1324.074585	1323.925903	101.111687
197.383133	1336.260132	1323.703003	1317.312988	150.887543
197.760910	1337.746216	1323.257202	1320.433594	119.487930
198.138687	1332.767944	1327.120972	1318.873291	246.054901
198.516449	1331.504761	1324.891846	1316.421387	228.089645
198.894180	1329.275757	1324.594604	1309.288208	426.979248
199.271866	1323.405762	1314.043579	1310.328491	139.681854
199.649536	1314.786621	1314.340820	1309.362427	1216.730591
200.027191	1305.350220	1314.266479	1313.003418	85.834175
200.404816	1308.693726	1323.405762	1301.560913	-48.482838
200.782410	1306.984863	1334.402466	1302.155273	-17.614923
201.159988	1308.470825	1347.999878	1300.669189	-19.736460
201.537537	1319.021973	1351.120605	1307.207764	-36.805958
201.915070	1320.730835	1354.910034	1308.693726	-35.217648
202.292557	1328.607056	1349.931763	1307.950684	-96.865913
202.670029	1321.696777	1358.328125	1308.619507	-35.699669
203.047485	1324.445923	1354.315674	1300.743408	-79.352905
203.424911	1316.644165	1357.807861	1297.399780	-46.750866
203.802292	1313.523438	1351.194946	1295.913696	-46.745518
204.179688	1312.409058	1339.603638	1296.285278	-59.290413
204.557037	1314.340820	1338.266357	1297.622681	-69.875710
204.934357	1311.665894	1337.300415	1291.975708	-76.811211
205.311661	1305.201538	1348.891724	1293.684692	-26.360258
205.688934	1300.371948	1336.185913	1292.347168	-22.406847
206.066177	1294.873535	1337.968994	1298.588745	8.620885
206.443390	1302.229492	1342.129883	1295.393555	-17.132507
206.820587	1311.814575	1350.749146	1295.244995	-42.557499
207.197769	1314.340820	1357.807861	1287.889038	-60.854805
207.574921	1309.808350	1355.132935	1292.198608	-38.852516
207.952042	1303.566895	1349.931763	1295.542114	-17.307890
208.329147	1304.681519	1337.448853	1298.291382	-19.501547
208.706223	1313.077759	1336.111450	1306.241821	-29.677994
209.083267	1313.077759	1348.148438	1303.864136	-26.271585
209.460297	1318.798950	1357.064819	1298.811523	-52.233040
209.837280	1305.944580	1354.687134	1287.220215	-38.414822
210.214264	1301.635010	1349.783203	1287.666138	-29.012245
210.591217	1299.034546	1337.449097	1288.632080	-27.079494
210.968124	1302.378052	1341.387085	1296.582520	-14.856898
211.345016	1308.842407	1343.096069	1301.189331	-22.342360
211.721893	1307.505005	1352.532593	1309.585449	4.620377
212.098724	1305.573120	1352.086670	1307.207764	3.514338
212.475555	1302.675415	1353.349731	1297.920044	-9.384184
212.852356	1304.161377	1352.458130	1292.347168	-24.461704
213.229126	1305.350220	1356.098999	1280.310181	-49.341164
213.605865	1304.458496	1352.681030	1287.443237	-35.284870
213.982590	1309.362549	1356.173218	1284.025391	-54.126888
214.359283	1309.659668	1347.479858	1291.009766	-49.312027
214.735931	1311.220093	1341.461304	1287.889038	-77.149872
215.112579	1301.189331	1335.740112	1291.752808	-27.312040
215.489197	1299.034546	1342.055786	1292.867310	-14.335329
215.865799	1299.703247	1345.102173	1294.799194	-10.802134
216.242355	1297.325562	1344.582153	1294.576294	-5.817744
216.618896	1293.758911	1341.164185	1293.015991	-1.567167
216.995407	1295.319336	1343.764771	1291.158325	-8.589067
217.371902	1300.148926	1345.770874	1287.443237	-27.849947
217.748367	1297.028198	1343.616089	1282.539307	-31.100124
218.124802	1300.074585	1346.142456	1274.588989	-55.321842
218.501236	1296.433960	1348.074219	1276.446411	-38.705360
218.877609	1302.303711	1352.755371	1285.585571	-33.136948
219.253983	1296.136719	1351.938110	1287.814819	-14.913426
219.630295	1302.155151	1357.807983	1286.923096	-27.369776
220.006592	1306.910522	1352.903931	1278.006836	-62.843105
220.382889	1313.597778	1354.241333	1281.424683	-79.159157
220.759140	1318.278809	1349.931763	1278.526978	-125.586479
221.135391	1308.470825	1357.956421	1282.984985	-51.501534
221.511581	1302.749634	1357.064819	1291.975708	-19.835938
221.887772	1295.913818	1357.287720	1294.056152	-3.026801
222.263931	1305.944702	1350.080444	1303.938477	-4.545580
222.640060	1308.025024	1354.018555	1302.229492	-12.600756
223.016159	1309.436890	1356.619019	1310.997314	3.307237
223.392212	1306.464722	1357.510742	1308.025269	3.057137
223.768265	1308.470825	1349.411743	1302.229492	-15.244732
224.144302	1308.025146	1348.520020	1294.724976	-32.844086
224.520294	1308.470947	1357.584961	1285.214233	-47.352501
224.896286	1302.006714	1370.885254	1283.728149	-26.537386
225.272217	1302.006714	1379.801636	1286.700317	-19.675316
225.648148	1308.768188	1379.801392	1294.724976	-19.769928
226.024048	1314.043579	1373.485718	1297.474121	-27.874935
226.399902	1316.569824	1362.711914	1299.034546	-38.002785
226.775772	1310.774292	1361.597290	1296.731079	-27.631611
227.151581	1307.356323	1365.683960	1297.399780	-17.070026
227.527374	1293.164551	1384.631226	1295.913696	3.005625
227.903137	1293.015991	1398.674438	1292.718872	-0.281207
228.278870	1296.731079	1412.197388	1302.601074	5.083730
228.654572	1310.031250	1420.890991	1303.566895	-5.831112
229.030273	1309.585327	1435.454102	1313.597778	3.187805
229.405930	1306.910522	1448.977417	1306.390259	-0.366210
229.781555	1302.823853	1453.138306	1303.789673	0.642533
230.157181	1296.879761	1451.578003	1302.303711	3.506149
230.532761	1295.839478	1445.410767	1295.839478	0.000000
230.908325	1295.913696	1437.311890	1299.257446	2.364776
231.283859	1301.040527	1427.503906	1300.892090	-0.117376
231.659332	1296.136719	1414.277954	1302.378174	5.283045
232.034821	1297.845581	1410.934204	1308.322388	9.264245
232.410263	1298.514282	1407.590820	1297.176880	-1.226114
232.785690	1299.331665	1412.940552	1304.087036	4.185739
233.161087	1296.433960	1418.364746	1302.898071	5.301460
233.536469	1301.114868	1417.473022	1307.579224	5.555567
233.911804	1303.789917	1419.256348	1300.669067	-2.702820
234.287140	1300.594849	1418.438965	1291.678589	-7.566148
234.662430	1303.789917	1429.955933	1294.056274	-7.714948
235.037704	1302.006714	1435.008423	1297.176880	-3.631407
235.412933	1312.854858	1436.717407	1292.718750	-16.256817
235.788162	1297.251343	1435.082886	1289.672241	-5.498815
236.163345	1301.858032	1437.088867	1291.678589	-7.527457
236.538513	1295.616577	1442.884644	1298.291504	1.816366
236.913635	1300.000366	1450.166138	1299.405884	-0.395884
237.288742	1291.975708	1453.212524	1297.102539	3.179690
237.663834	1286.997437	1458.785522	1303.418335	9.558811
238.038879	1291.529907	1458.116699	1308.916748	10.437106
238.413910	1300.966309	1468.964844	1317.090088	9.597571
238.788910	1313.597778	1468.370239	1312.186035	-0.912141
239.163879	1314.786621	1478.104004	1304.607300	-6.232846
239.538834	1312.334717	1478.772583	1300.446167	-7.142936
239.913757	1305.721802	1495.936646	1301.486450	-2.226615
240.288651	1300.223267	1508.345215	1310.997192	5.176737
240.663528	1298.960327	1529.298706	1314.563721	6.774118
241.038361	1301.040649	1541.484253	1316.272583	6.334930
241.413177	1309.288208	1571.651245	1307.504883	-0.679717
241.787979	1310.551392	1610.140015	1303.864136	-2.232146
242.162735	1307.950806	1656.876343	1309.362427	0.404562
242.537476	1300.074707	1675.006226	1320.136353	5.350749
242.912170	1300.074829	1676.789429	1327.195190	7.199180
243.286865	1295.913696	1665.941284	1317.833008	5.923697
243.661514	1297.771362	1655.390503	1315.381226	4.924195
244.036148	1296.359741	1646.994141	1306.093262	2.775974
244.410751	1299.257324	1641.421509	1310.848511	3.387609
244.785339	1299.257446	1636.963257	1309.956909	3.168279
245.159882	1297.325562	1650.189087	1316.124023	5.327403
245.534378	1295.170776	1678.275513	1319.541992	6.361502
245.908890	1290.563965	1730.956055	1326.006348	8.047915
246.283356	1291.827148	1793.964844	1327.343750	7.073080
246.657791	1297.102539	1862.992188	1343.318970	8.167040
247.032196	1304.458618	1920.130859	1347.628418	7.011815
247.406586	1302.898071	1966.570190	1352.978149	7.545907
247.780960	1307.876587	1974.817749	1343.021606	5.269583
248.155289	1313.226440	1975.709351	1340.941284	4.183481
248.529602	1318.056030	1928.229858	1340.049683	3.604490
248.903870	1310.105591	1877.183960	1340.272461	5.319700
249.278122	1302.155151	1814.621094	1332.842285	5.988132
249.652344	1301.040649	1775.983765	1328.904297	5.866734
250.026550	1304.087036	1756.293457	1327.343750	5.142942
250.400711	1299.851807	1741.878540	1331.133301	7.076833
250.774857	1297.325562	1741.061523	1330.018677	7.367696
251.148987	1304.978638	1754.658691	1319.467651	3.222072
251.523071	1309.882690	1771.896973	1318.947632	1.962048
251.897125	1315.455444	1790.844116	1316.941406	0.312578
252.271164	1306.464722	1793.741821	1320.062134	2.790489
252.645187	1298.662964	1794.931030	1322.885620	4.880962
253.019165	1299.851807	1788.912476	1320.507935	4.223633
253.393112	1298.737183	1778.287109	1322.885620	5.035646
253.767044	1297.697144	1760.008667	1320.656616	4.966234
254.140930	1299.257324	1736.677734	1320.359375	4.824203
254.514801	1303.418335	1718.250610	1329.572998	6.304877
254.888657	1312.631958	1716.095703	1325.560547	3.204399
255.262466	1300.966431	1722.931274	1329.201538	6.691341
255.636276	1295.245117	1747.228516	1320.879395	5.671509
256.010010	1289.746704	1772.268555	1318.873291	6.036325
256.383759	1302.303711	1798.571655	1326.749390	4.925903
256.757446	1302.526733	1826.509399	1326.452271	4.566093
257.131134	1311.442993	1860.763062	1323.331421	2.164208
257.504791	1309.882690	1901.332397	1322.811401	2.185936
257.878418	1315.752563	1956.539063	1336.185669	3.188754
258.252014	1311.443115	2031.956421	1352.755371	5.733726
258.625580	1306.984863	2133.454102	1356.247559	5.960620
258.999115	1300.520508	2256.276367	1353.349731	5.527481
259.372650	1303.269653	2378.578857	1356.247559	4.926760
259.746124	1300.000366	2486.614990	1365.238159	5.497808
260.119598	1304.235718	2543.679443	1372.371094	5.497254
260.493042	1300.074707	2545.462646	1369.176147	5.548588
260.866425	1304.904419	2502.367188	1363.900757	4.926778
261.239838	1308.025024	2416.175781	1357.065063	4.425394
261.613159	1309.882690	2321.439941	1358.402466	4.796543
261.986511	1304.087158	2227.075439	1355.058960	5.522476
262.359802	1299.554565	2161.020508	1357.213501	6.693119
262.733063	1297.102661	2133.156982	1354.167114	6.825448
263.106293	1298.142822	2118.519287	1355.950317	7.046460
263.479523	1302.303711	2111.980469	1348.594360	5.717176
263.852692	1305.127319	2108.339600	1349.708862	5.550406
264.225861	1301.932251	2105.144775	1348.297241	5.772444
264.598969	1298.291504	2114.061279	1359.442505	7.496110
264.972076	1299.777466	2131.002197	1357.807983	6.981327
265.345154	1303.864258	2167.113037	1363.603516	6.920283
265.718201	1300.223267	2210.728760	1354.761597	5.989896
266.091217	1305.573120	2258.728516	1357.807983	5.480204
266.464203	1305.424438	2308.808350	1358.328125	5.272527
266.837158	1313.151978	2347.966064	1361.820435	4.703111
267.210114	1304.235718	2380.213379	1367.987427	5.925003
267.583038	1310.402832	2390.541504	1362.266113	4.801539
267.955902	1301.783569	2405.402100	1363.306274	5.574635
268.328766	1302.749512	2389.129883	1359.591187	5.232207
268.701569	1293.981812	2403.024170	1362.711914	6.197248
269.074371	1292.272949	2419.742432	1369.324829	6.834054
269.447144	1295.170776	2463.878174	1364.272339	5.912649
269.819885	1302.229614	2532.608398	1363.529297	4.982180
270.192596	1308.768066	2613.747070	1363.529175	4.196321
270.565277	1311.442993	2737.089111	1380.395874	4.836606
270.937927	1304.309937	2847.577393	1386.637329	5.334616
271.310577	1307.653442	2934.437500	1397.485718	5.522078
271.683136	1304.458496	2992.616455	1395.033569	5.365320
272.055725	1313.151978	2996.406006	1405.287476	5.473654
272.428284	1309.437012	2981.619873	1401.869507	5.527655
272.800812	1299.331665	2935.626221	1408.185181	6.652440
273.173279	1293.981812	2876.704102	1402.017944	6.825969
273.545776	1289.598022	2841.781982	1404.247070	7.386305
273.918152	1304.012817	2807.454102	1395.925171	6.113465
274.290558	1303.715698	2797.943359	1386.265991	5.524613
274.662964	1307.430786	2797.794922	1381.436157	4.965590
275.035278	1300.743408	2814.810303	1378.686890	5.147955
275.407593	1303.269653	2844.976807	1388.123413	5.503883
275.779907	1307.430664	2886.363525	1383.516724	4.818828
276.152161	1311.220215	2931.316650	1393.101685	5.054111
276.524384	1308.322388	2975.526611	1399.194458	5.450566
276.896606	1306.316162	2998.634766	1399.194458	5.488227
277.268799	1304.830200	3004.430664	1403.727051	5.818830
277.640930	1307.430664	3003.984619	1398.377319	5.360670
278.013031	1306.093140	3007.253906	1418.810547	6.625912
278.385162	1302.006470	3010.968994	1412.346069	6.456525
278.757233	1295.839478	3017.210693	1411.157227	6.699180
279.129272	1299.851807	3044.033936	1403.950073	5.968314
279.501282	1301.932251	3075.240967	1403.430054	5.723640
279.873230	1305.052979	3142.262451	1407.442261	5.573087
280.245178	1300.297607	3229.121826	1402.909668	5.319928
280.617126	1299.034546	3337.752197	1422.897095	6.075513
280.988983	1301.412231	3441.033203	1438.203491	6.393247
281.360870	1298.440063	3537.775391	1453.658569	6.931454
281.732697	1297.028320	3619.954346	1448.680176	6.528484
282.104492	1296.136597	3657.179932	1446.748413	6.379036
282.476288	1297.325317	3658.443359	1443.924805	6.208901
282.848053	1299.851685	3638.975586	1443.479004	6.140218
283.219757	1300.891968	3636.969482	1442.587280	6.065522
283.591461	1302.452393	3626.269775	1441.398438	5.979215
283.963135	1295.839478	3662.678467	1443.181641	6.225272
284.334747	1295.467896	3707.408447	1444.593384	6.182801
284.706360	1293.758911	3793.897217	1440.804077	5.881482
285.077942	1301.040649	3872.806396	1443.776245	5.550101
285.449524	1294.204834	3949.263672	1450.983521	5.904904
285.821014	1294.427734	3972.817627	1458.413696	6.122558
286.192535	1291.604248	4002.835938	1462.872070	6.316975
286.563995	1296.359497	4000.607422	1458.710938	6.003571
286.935425	1295.096558	3988.124268	1460.642944	6.147222
287.306824	1296.285278	3911.889648	1451.578003	5.937164
287.678223	1298.662964	3856.534180	1448.160034	5.844590
288.049561	1297.696899	3808.534424	1446.748169	5.936317
288.420898	1299.926147	3807.197266	1448.977173	5.944751
288.792145	1302.155151	3832.608643	1455.664551	6.066477
289.163452	1306.761841	3916.496826	1455.887329	5.714200
289.534668	1297.696899	4027.579102	1460.642944	5.968977
289.905914	1293.684692	4122.537598	1457.076294	5.775896
290.277039	1295.988159	4208.877441	1468.147461	5.910259
290.648193	1300.594849	4249.224121	1476.915161	5.979738
291.019318	1296.508179	4258.585938	1480.035767	6.195908
291.390381	1291.975708	4208.431641	1468.296021	6.045704
291.761475	1296.582397	4126.996094	1457.596558	5.688715
292.132507	1305.870239	4090.067627	1453.509888	5.302773
292.503510	1305.127319	4095.565674	1460.271484	5.559849
292.874481	1309.065308	4156.419434	1460.791504	5.328673
293.245422	1304.904297	4233.174316	1463.689331	5.422486
293.616364	1302.898193	4345.297363	1465.472534	5.343623
293.987213	1296.582520	4482.312012	1475.354858	5.611661
294.358093	1288.632202	4586.261719	1485.905762	5.982284
294.728943	1293.238892	4688.427246	1499.800293	6.083945
295.099731	1297.399780	4763.918945	1506.487671	6.031638
295.470490	1302.006714	4871.286621	1515.626953	5.984968
295.841248	1306.018921	4955.100098	1519.044922	5.837799
296.211975	1302.823853	5066.331543	1529.521484	6.023573
296.582642	1301.709351	5171.172363	1544.307739	6.269562
296.953308	1296.508179	5220.955078	1541.038452	6.230949
297.323883	1291.901489	5207.803223	1534.351196	6.191414
297.694519	1294.724976	5113.513184	1521.719727	5.944157
298.065063	1293.758911	5003.545410	1518.078979	6.046711
298.435608	1300.817749	4873.887207	1512.283325	5.918317
298.806122	1295.839478	4701.059082	1500.915039	6.022388
299.176575	1297.771362	4553.122559	1488.729370	5.865973
299.547028	1290.786987	4430.819824	1480.407349	6.038802
299.917450	1298.142822	4389.582031	1468.816040	5.520833
300.287872	1299.851929	4382.077637	1472.605469	5.604831
300.658234	1305.796021	4389.433105	1472.605469	5.409503
301.028564	1299.331665	4372.121094	1478.921265	5.844513
301.398865	1299.851807	4353.173828	1474.834595	5.730898
301.769135	1297.251099	4301.013184	1471.862671	5.813096
302.139374	1298.365845	4275.081543	1469.187622	5.738599
302.509583	1288.632202	4232.654297	1459.305542	5.797285
302.879791	1284.322632	4192.308105	1456.779175	5.930448
303.249939	1287.889038	4135.317871	1453.138306	5.803456
303.620087	1289.746460	4085.089111	1459.008179	6.055133
303.990173	1295.244995	4064.729736	1454.995728	5.768247
304.360260	1297.696899	4069.262451	1455.441772	5.691544
304.730286	1305.350220	4063.912842	1449.125977	5.211981
305.100281	1308.842407	4046.749268	1453.509766	5.283867
305.470276	1302.898315	4046.303467	1452.320923	5.446611
305.840179	1299.480347	4073.498047	1454.401367	5.584717
306.210144	1295.468018	4113.621582	1452.692383	5.578985
306.579987	1295.913696	4158.054688	1452.618164	5.475078
306.949890	1295.988159	4187.181641	1460.122681	5.677051
307.319702	1296.359497	4263.118652	1466.512817	5.735326
307.689484	1302.898193	4344.851563	1472.977051	5.591107
308.059265	1306.613403	4446.645996	1476.766602	5.418835
308.429016	1304.978638	4526.967285	1481.596313	5.481636
308.798737	1304.830078	4600.007324	1484.345337	5.447818
309.168396	1302.898315	4644.812012	1481.150391	5.333833
309.538055	1306.167603	4654.693848	1477.286743	5.110282
309.907684	1306.018921	4653.431152	1477.658203	5.127522
310.277313	1298.737183	4667.474121	1484.345337	5.509726
310.646851	1296.731079	4694.148926	1490.215332	5.695038
311.016388	1298.960083	4679.288574	1492.147095	5.715036
311.385895	1310.477173	4629.653809	1489.175171	5.383805
311.755371	1315.827026	4560.478027	1481.150513	5.095263
312.124817	1306.316284	4514.484863	1466.438477	4.991078
312.494232	1306.390503	4473.617676	1461.460327	4.896075
312.863617	1304.235718	4458.163086	1465.101074	5.100478
313.232971	1307.653564	4471.686523	1473.051392	5.227437
313.602295	1300.743530	4547.920898	1478.327148	5.468861
313.971619	1299.034546	4624.750000	1484.271118	5.569827
314.340820	1297.919922	4648.154785	1487.540649	5.659924
314.710083	1301.263550	4631.288574	1483.528320	5.473376
315.079285	1299.331665	4575.561523	1476.766602	5.415827
315.448486	1303.418457	4512.775879	1477.955444	5.438378
315.817596	1305.573120	4390.770508	1474.017456	5.459759
316.186707	1304.755859	4286.747559	1466.289917	5.416986
316.555786	1304.458618	4211.032227	1461.163086	5.391381
316.924866	1303.492676	4186.289551	1462.723267	5.523476
317.293884	1307.282104	4173.286621	1462.797729	5.426217
317.662872	1306.464722	4185.025879	1463.094849	5.441265
318.031830	1307.653687	4208.877441	1469.559204	5.580594
318.400757	1310.105591	4244.245605	1464.135132	5.249563
318.769684	1310.402710	4275.527344	1461.460083	5.094470
319.138550	1296.359619	4273.446777	1448.457397	5.108946
319.507416	1300.743530	4254.202637	1457.002075	5.290696
319.876190	1298.811523	4193.273926	1449.200195	5.195738
320.244995	1309.882690	4146.834473	1450.909180	4.971057
320.613770	1300.372070	4092.593750	1443.181763	5.114554
320.982483	1296.136597	4101.807129	1448.382935	5.426380
321.351166	1297.325439	4136.877930	1457.447876	5.639002
321.719818	1293.461792	4205.236816	1468.742065	6.019705
322.088440	1293.684692	4306.288574	1477.806763	6.111725
322.457062	1292.570190	4453.259277	1475.429199	5.785416
322.825623	1291.455688	4601.344238	1473.571655	5.502178
323.194183	1294.724976	4736.649902	1474.463257	5.222028
323.562653	1295.393677	4797.652344	1475.057617	5.129945
323.931183	1296.508179	4824.104004	1479.812866	5.196307
324.299591	1297.845703	4788.364746	1485.608398	5.379220
324.668060	1297.771362	4735.758301	1482.116211	5.362000
325.036407	1299.183105	4672.006348	1477.063843	5.273942
325.404755	1306.093262	4596.143066	1467.775879	4.914291
325.773102	1296.805420	4533.952148	1467.776001	5.281521
326.141388	1290.638306	4450.584473	1465.844116	5.544582
326.509674	1286.031616	4377.768066	1461.831665	5.686127
326.877899	1299.108887	4296.926270	1460.494507	5.383437
327.246124	1313.523560	4268.765625	1449.869141	4.613686
327.614288	1309.288208	4230.945313	1451.949585	4.882892
327.982422	1299.183105	4242.091309	1451.949585	5.191004
328.350525	1292.644409	4243.948730	1460.865845	5.699902
328.718628	1297.920044	4288.678711	1454.921509	5.249553
329.086700	1303.566895	4318.251465	1455.367554	5.035375
329.454712	1306.018921	4372.714844	1456.184692	4.896663
329.822693	1305.647461	4412.244141	1463.094849	5.068163
330.190674	1308.025024	4464.107422	1474.611816	5.278277
330.558563	1302.823853	4502.224609	1481.150391	5.573748
330.926483	1302.675293	4574.446777	1487.243164	5.641222
331.294312	1296.805298	4641.394043	1482.636597	5.556178
331.662231	1301.857788	4732.266113	1489.620972	5.473494
332.029999	1300.966187	4802.036621	1494.673706	5.532809
332.397766	1303.269653	4872.847168	1505.670410	5.670160
332.765503	1300.148926	4919.359863	1504.407227	5.643724
333.133240	1297.399780	4953.910645	1509.905640	5.811712
333.500916	1297.771362	4963.272949	1507.750977	5.728537
333.868561	1298.811523	4956.660645	1506.636353	5.681613
334.236176	1303.715454	4920.846680	1499.577515	5.414845
334.603790	1297.399780	4873.589844	1488.060547	5.331394
334.971344	1300.594849	4836.958496	1489.621094	5.345215
335.338867	1297.994263	4821.651855	1490.215454	5.455161
335.706360	1307.356445	4823.287109	1498.314453	5.431222
336.073853	1305.796021	4837.404297	1493.856079	5.325054
336.441284	1298.662964	4871.806152	1489.546753	5.342182
336.808655	1291.381226	4898.852539	1485.608521	5.384029
337.176086	1287.889038	4934.814941	1489.992554	5.541750
337.543396	1303.269653	4937.267090	1491.478516	5.179113
337.910706	1308.619507	4959.706543	1495.788086	5.126379
338.277954	1312.483276	4949.007324	1487.391968	4.809777
338.645264	1294.427612	4933.255371	1486.500122	5.278418
339.012421	1283.728149	4878.791504	1474.834595	5.315802
339.379669	1281.796265	4803.002441	1476.023438	5.515927
339.746796	1288.186279	4707.448730	1478.772827	5.573908
340.113953	1296.730957	4641.542480	1488.803589	5.742405
340.481018	1300.743286	4611.598145	1486.351685	5.606056
340.848114	1307.207764	4618.730957	1481.744751	5.270596
341.215118	1306.093140	4668.365723	1485.905762	5.347949
341.582153	1307.579224	4767.782715	1498.314453	5.512255
341.949066	1297.845581	4938.901855	1507.899414	5.769036
342.316010	1300.520508	5145.983398	1517.410156	5.640144
342.682922	1297.919922	5392.520020	1519.490723	5.411293
343.049835	1308.025024	5683.489746	1530.784790	5.091111
343.416656	1307.876465	5968.291504	1536.283203	4.900996
343.783478	1308.768066	6191.274902	1550.251953	4.945899
344.150269	1309.882690	6312.312988	1557.979492	4.959526
344.516998	1307.059204	6329.105469	1566.152832	5.159124
344.883728	1301.709351	6249.750000	1564.072266	5.302360
345.250427	1297.473999	6143.349121	1554.858765	5.311420
345.617065	1295.244995	6000.242188	1546.016602	5.329899
345.983704	1294.873535	5876.304688	1541.409790	5.381206
346.350281	1290.563965	5729.334473	1529.892944	5.391786
346.716827	1295.765137	5615.576660	1524.468872	5.294299
347.083405	1301.783691	5520.692871	1518.970581	5.147939
347.449860	1304.532837	5468.755371	1528.184082	5.370780
347.816376	1301.412231	5445.423828	1527.961060	5.466897
348.182770	1292.941650	5466.451172	1528.184082	5.636561
348.549194	1296.136597	5505.980469	1527.143921	5.487313
348.915558	1299.108765	5576.047363	1522.462769	5.222287
349.281921	1300.891968	5640.616699	1529.670288	5.271724
349.648193	1297.176880	5680.591797	1530.636108	5.325967
350.014526	1298.737183	5701.842285	1539.403809	5.465839
350.380737	1298.439941	5732.603516	1540.815552	5.466095
350.746948	1300.520508	5783.426270	1542.747437	5.403347
351.113159	1292.644409	5845.617676	1551.143677	5.677593
351.479309	1298.662964	5906.769531	1557.979492	5.627399
351.845428	1301.486450	6014.806152	1559.391235	5.471828
352.211517	1308.545288	6135.993652	1555.824707	5.122363
352.577576	1309.436890	6258.295410	1556.121948	4.984686
352.943604	1304.681519	6377.625000	1573.062866	5.290446
353.309601	1301.337891	6511.890625	1586.883179	5.480134
353.675537	1292.050049	6655.666504	1595.056641	5.649297
354.041473	1296.731079	6801.746094	1594.982300	5.417809
354.407379	1294.353394	6903.986328	1594.239258	5.345909
354.773254	1301.560669	7048.058594	1603.824219	5.259961
355.139038	1295.987915	7186.707520	1612.369141	5.370842
355.504913	1299.851807	7431.980957	1625.520630	5.310861
355.870636	1293.461792	7667.892578	1635.848755	5.371255
356.236389	1306.241821	7926.614746	1641.049927	5.057239
356.602081	1312.928955	8150.414063	1660.963013	5.090088
356.967804	1317.164307	8338.994141	1662.151733	4.913070
357.333405	1312.706177	8439.749023	1678.943970	5.138706
357.699036	1302.155151	8440.045898	1667.575806	5.119449
358.064606	1307.579224	8382.610352	1666.684204	5.075666
358.430176	1303.864136	8329.112305	1645.731079	4.866261
358.795654	1304.755737	8397.098633	1648.257202	4.843272
359.161163	1299.405884	8580.625977	1667.947632	5.061538
359.526581	1302.006470	8944.710938	1704.281616	5.263518
359.892029	1301.932129	9422.625000	1721.594116	5.167810
360.257416	1301.189087	9957.530273	1735.117188	5.012835
360.622772	1289.820923	10384.326172	1751.389526	5.075247
360.988098	1290.118164	10643.344727	1779.327515	5.230381
361.353394	1284.322388	10748.706055	1784.900024	5.289067
361.718658	1291.604126	10601.734375	1775.909302	5.201916
362.083893	1296.062378	10217.217773	1752.280884	5.113895
362.449097	1300.817749	9601.620117	1721.296875	5.065524
362.814209	1299.034546	8987.136719	1687.563354	5.053638
363.179382	1289.746582	8425.037109	1666.238647	5.276478
363.544434	1291.084106	8028.929688	1659.774292	5.471930
363.909546	1292.124390	7761.217285	1650.114868	5.533859
364.274536	1301.635132	7631.707031	1633.545288	5.243387
364.639587	1305.052979	7533.255859	1622.177124	5.091744
365.004517	1306.836304	7474.928223	1623.514526	5.134136
365.369507	1306.241821	7380.935059	1628.864258	5.310925
365.734344	1301.263550	7353.740723	1629.310059	5.420037
366.099274	1300.371948	7344.823730	1618.164673	5.257594
366.464081	1299.406006	7356.118652	1616.975952	5.243272
366.828918	1306.984985	7312.502441	1607.984985	5.012058
367.193665	1302.303833	7218.880859	1614.078003	5.269502
367.558411	1300.966309	7144.578125	1606.499146	5.228493
367.923126	1289.300781	7066.782715	1608.802368	5.530118
368.287781	1295.690796	7045.458496	1604.492798	5.370687
368.652435	1307.876465	7012.244629	1602.115234	5.158131
369.017059	1309.139648	7037.061035	1601.223633	5.099301
369.381653	1307.356323	7065.742188	1606.202026	5.189748
369.746185	1296.953979	7129.865723	1612.146118	5.403685
370.110687	1293.758911	7208.106934	1613.409180	5.404658
370.475220	1296.656738	7293.927246	1614.895386	5.306391
370.839661	1298.440063	7351.139160	1615.489868	5.238156
371.204041	1306.241821	7379.375000	1615.935547	5.099406
371.568451	1301.263550	7363.919434	1613.706543	5.153566
371.932770	1299.554565	7344.972656	1607.613647	5.095745
372.297150	1303.864136	7317.257813	1605.161743	5.010442
372.661377	1304.681519	7322.458984	1604.567383	4.983333
373.025696	1299.777588	7361.170410	1609.025391	5.101927
373.389862	1292.941650	7408.798340	1614.895386	5.264246
373.754059	1288.111938	7507.917969	1621.285278	5.356651
374.118225	1292.272949	7606.963379	1633.173828	5.398537
374.482361	1294.724976	7787.222656	1639.266602	5.306766
374.846436	1298.662964	7982.638672	1644.393433	5.172527
375.210510	1290.415405	8287.428711	1653.532715	5.189604
375.574524	1292.198730	8560.044922	1670.622437	5.206820
375.938538	1286.180054	8864.389648	1686.671875	5.284781
376.302460	1288.483398	9067.235352	1696.554077	5.245966
376.666412	1291.232666	9207.444336	1707.699341	5.260934
377.030304	1301.412109	9201.351563	1702.052368	5.071434
377.394196	1315.083984	9096.287109	1694.919312	4.881447
377.757996	1308.396606	8890.691406	1686.969116	4.992849
378.121796	1304.978638	8619.040039	1672.554321	5.025603
378.485565	1298.885864	8326.139648	1656.356323	5.086915
378.849304	1295.319336	8121.138184	1632.802368	4.944213
379.212982	1288.780640	7982.786621	1630.053101	5.098180
379.576630	1279.864380	7946.081543	1631.464844	5.274363
379.940277	1282.539307	7930.106934	1630.721680	5.237741
380.303864	1288.111938	7932.558594	1634.511230	5.213366
380.667450	1294.353394	7946.007324	1635.774414	5.132874
381.030945	1289.895264	7964.285645	1645.805176	5.332470
381.394501	1283.802490	8002.626465	1652.121094	5.481891
381.757935	1290.341187	8062.662598	1646.548340	5.259750
382.121399	1291.901489	8130.352051	1640.827026	5.102407
382.484741	1306.836304	8260.233398	1650.263306	4.938982
382.848145	1297.474121	8375.922852	1661.929077	5.148797
383.211487	1302.526733	8488.713867	1677.086792	5.212223
383.574768	1290.266724	8571.338867	1679.241577	5.342274
383.938019	1290.340942	8618.149414	1681.990723	5.344706
384.301270	1292.941650	8648.093750	1685.260132	5.333927
384.664459	1296.508179	8683.981445	1682.436523	5.224092
385.027649	1301.486450	8710.953125	1682.287964	5.139391
385.390778	1300.594727	8824.636719	1682.436523	5.074955
385.753876	1301.412231	8908.524414	1686.969116	5.068374
386.116943	1296.805420	9016.114258	1696.851196	5.182404
386.479980	1295.690918	9059.878906	1691.724487	5.100772
386.842987	1302.600952	9074.516602	1692.913086	5.022084
387.205994	1308.991089	9073.922852	1691.278442	4.923254
387.568909	1308.842407	9017.006836	1690.089722	4.946019
387.931793	1301.189209	8978.071289	1690.238281	5.067801
388.294678	1307.504883	8968.634766	1695.216431	5.060762
388.657471	1310.922974	8972.202148	1700.120605	5.080060
389.020294	1302.749634	9034.245117	1701.383667	5.155976
389.383057	1293.313110	9188.719727	1713.123535	5.317148
389.745819	1291.009888	9393.202148	1730.510376	5.424464
390.108521	1296.731079	9633.347656	1746.262329	5.392251
390.471191	1286.254517	9865.022461	1747.748413	5.379489
390.833801	1285.437134	10057.467773	1762.609009	5.439697
391.196442	1282.464966	10190.097656	1770.559570	5.479510
391.558960	1288.186157	10226.729492	1778.435547	5.484668
391.921509	1290.192505	10209.194336	1774.571899	5.430870
392.284027	1300.669067	10171.893555	1770.113647	5.291768
392.646484	1302.080933	10118.619141	1772.045532	5.330489
393.008911	1300.743530	10113.565430	1775.834961	5.390911
393.371307	1299.703247	10118.024414	1787.872070	5.535848
393.733673	1306.539063	10087.633789	1798.645996	5.604164
394.096008	1304.681519	10013.554688	1802.286743	5.713773
394.458344	1302.749634	9871.338867	1817.073120	6.002429
394.820587	1303.343994	9664.257813	1812.020508	6.083982
395.182831	1310.031250	9446.030273	1817.444458	6.236643
395.545013	1305.424438	9225.871094	1806.373413	6.324757
395.907196	1297.102661	9080.163086	1816.478516	6.673157
396.269287	1288.483521	9013.588867	1826.435181	6.963680
396.631409	1285.362793	8947.682617	1842.335938	7.268989
396.993469	1293.387451	8912.908203	1855.116089	7.372231
397.355530	1295.616577	8912.313477	1871.016724	7.554458
397.717499	1304.978638	8962.765625	1885.505859	7.580874
398.079468	1304.532959	9010.467773	1906.087769	7.806384
398.441376	1305.721802	8984.982422	1923.920410	8.050236
398.803284	1306.464722	8951.768555	1948.068848	8.392134
399.165131	1304.904297	8922.270508	1963.449341	8.645311
399.526978	1306.316162	8911.125000	1976.378296	8.811032
399.888763	1305.721680	8908.079102	1987.523560	8.968295
400.250519	1302.229492	8918.852539	2003.201538	9.203187
400.612244	1302.675293	8944.264648	2026.903931	9.477461
400.973938	1299.628784	9026.739258	2048.971680	9.697582
401.335602	1297.176880	9120.065430	2078.321289	9.985371
401.697205	1300.371948	9304.707031	2107.596680	10.084845
402.058807	1301.857910	9492.990234	2144.747803	10.290273
402.420349	1304.755737	9731.577148	2176.177979	10.341055
402.781860	1300.074707	9919.859375	2211.026123	10.568145
403.143341	1294.502075	10077.678711	2235.174316	10.709931
403.504822	1295.913818	10235.051758	2271.508545	10.913745
403.866241	1297.771362	10343.459961	2296.325439	11.039006
404.227631	1300.520630	10463.903320	2322.182861	11.149401
404.588959	1302.526733	10489.910156	2343.433594	11.329741
404.950287	1298.514404	10439.532227	2343.730713	11.434354
405.311554	1297.325562	10312.771484	2341.427490	11.581256
405.672821	1295.765259	10175.163086	2331.247803	11.661631
406.034027	1299.703247	10073.888672	2325.898193	11.695615
406.395203	1306.390503	9908.639648	2313.192383	11.703938
406.756348	1307.281982	9822.077148	2300.709473	11.667075
407.117493	1307.059082	9782.028320	2309.848877	11.832372
407.478516	1300.817749	9859.080078	2322.183105	11.934260
407.839600	1300.446289	9929.221680	2332.214111	11.957292
408.200592	1297.622681	10052.416016	2339.718506	11.903147
408.561554	1304.607178	10166.692383	2342.913330	11.716274
408.922485	1308.248047	10294.641602	2360.746338	11.712132
409.283417	1307.505005	10365.155273	2370.777100	11.738939
409.644257	1306.613403	10462.640625	2399.086182	11.931733
410.005096	1304.978638	10521.116211	2405.625000	11.942599
410.365906	1303.789917	10516.436523	2401.909912	11.919702
410.726715	1292.495728	10472.225586	2391.210449	11.968923
411.087433	1289.152222	10383.433594	2380.585205	12.001311
411.448120	1285.585693	10345.093750	2377.687256	12.054756
411.808807	1290.340942	10294.567383	2374.269287	12.037995
412.169434	1287.889160	10271.459961	2362.306396	11.959803
412.530029	1291.084106	10317.007813	2362.009033	11.864989
412.890564	1297.845581	10415.458008	2366.318604	11.718781
413.251099	1307.059204	10566.664063	2381.625244	11.604880
413.611572	1312.409058	10719.132813	2393.364990	11.491312
413.972076	1316.198364	10880.147461	2402.207031	11.355232
414.332489	1313.374878	11003.637695	2415.581299	11.374371
414.692871	1313.597778	11204.627930	2429.847412	11.285474
415.053223	1308.693726	11385.925781	2438.466553	11.211142
415.413574	1309.659790	11659.286133	2460.906250	11.123556
415.773834	1309.659668	11847.495117	2477.475586	11.082123
416.134094	1304.384277	12131.479492	2500.286377	11.045456
416.494263	1299.034424	12411.972656	2512.174805	10.916468
416.854462	1295.616455	12819.448242	2551.332520	10.896688
417.214630	1296.508179	13214.961914	2587.443604	10.831400
417.574738	1300.594849	13598.437500	2623.109131	10.754035
417.934784	1305.721802	14018.323242	2669.473877	10.727561
418.294861	1310.922974	14511.098633	2723.566162	10.701700
418.654846	1310.551514	15098.536133	2774.091797	10.614607
419.014832	1303.418335	15698.307617	2814.587158	10.497953
419.374756	1298.960205	16325.570313	2857.013672	10.368629
419.734680	1297.325562	16968.437500	2927.378174	10.401640
420.094543	1297.622925	17468.419922	2969.210938	10.337079
420.454376	1304.681519	17762.955078	2991.501709	10.249071
420.814148	1299.183105	17932.664063	2978.276123	10.094658
421.173920	1306.613403	18086.173828	2978.944580	9.966477
421.533691	1301.337769	18183.732422	2976.938477	9.925137
421.893341	1307.653442	18218.060547	2971.960205	9.841908
422.253021	1300.148926	18204.314453	2954.573486	9.787082
422.612640	1299.331665	18198.148438	2944.022705	9.732581
422.972260	1300.223267	18192.501953	2932.580078	9.663331
423.331757	1300.149048	18210.630859	2931.465088	9.646774
423.691315	1306.018921	18328.996094	2932.802734	9.556400
424.050781	1302.823853	18360.500000	2933.917236	9.562225
424.410248	1308.990967	18213.083984	2906.350830	9.449545
424.769653	1299.405884	17915.798828	2857.534180	9.377055
425.128998	1300.149048	17536.408203	2800.395264	9.240098
425.488373	1297.251221	17109.984375	2745.336914	9.157719
425.847656	1303.715576	16696.416016	2703.355713	9.092882
426.206940	1304.607300	16273.039063	2652.012695	9.001647
426.566193	1312.111694	15910.516602	2621.177002	8.967180
426.925385	1318.353149	15492.860352	2575.183838	8.866838
427.284576	1322.662720	15127.290039	2544.496826	8.850903
427.643677	1317.536011	14812.023438	2501.475342	8.773503
428.002777	1309.139648	14591.641602	2482.008057	8.830176
428.361847	1303.567017	14398.604492	2457.191162	8.809628
428.720856	1303.567017	14204.301758	2440.770020	8.815025
429.079865	1303.046753	14103.918945	2414.764160	8.684701
429.438812	1302.600952	14080.143555	2395.593994	8.554016
429.797760	1297.474243	14049.010742	2374.863525	8.449094
430.156616	1292.793091	13902.559570	2358.442627	8.450985
430.515503	1289.449463	13796.379883	2355.322021	8.522255
430.874268	1287.591919	13778.250977	2351.978271	8.521459
431.233093	1290.935547	13907.090820	2346.628418	8.367786
431.591827	1296.582520	14081.405273	2342.021729	8.177190
431.950562	1304.012695	14250.741211	2338.826904	7.992863
432.309204	1305.796021	14386.937500	2340.164063	7.907322
432.667877	1303.418213	14534.207031	2342.095947	7.850460
433.026459	1301.189087	14599.666992	2343.804932	7.840114
433.385010	1298.960083	14655.096680	2352.275391	7.886377
433.743561	1301.709351	14622.403320	2351.012207	7.877238
434.102051	1298.514282	14653.089844	2355.098877	7.911780
434.460510	1300.297607	14713.203125	2349.303467	7.820870
434.818939	1299.034546	14730.440430	2332.065186	7.691158
435.177338	1302.080933	14718.848633	2311.334717	7.522332
435.535675	1305.201660	14670.625977	2294.393799	7.401128
435.894012	1304.681519	14646.106445	2290.084229	7.386038
436.252289	1302.749634	14806.601563	2300.114990	7.385784
436.610535	1297.325562	14895.913086	2313.489258	7.472568
436.968719	1294.130493	15168.083008	2332.139404	7.481710
437.326935	1296.731079	15418.631836	2347.000000	7.437164
437.685028	1298.960083	15733.526367	2358.814209	7.342473
438.043152	1300.669067	15986.898438	2364.906982	7.246502
438.401215	1302.972534	16245.843750	2384.300049	7.236411
438.759277	1306.316162	16580.279297	2397.079834	7.141327
439.117249	1310.922852	17076.027344	2426.652344	7.077209
439.475250	1309.436768	17483.429688	2439.432617	6.986499
439.833130	1306.761963	17900.044922	2465.141357	6.981014
440.191071	1299.777466	18022.867188	2470.788330	7.002359
440.548889	1298.737183	18116.267578	2463.432373	6.925483
440.906708	1298.737183	18020.789063	2462.020752	6.956583
441.264496	1299.628906	17846.251953	2438.689697	6.883947
441.622223	1295.170654	17550.005859	2432.745361	6.998377
441.979950	1289.449341	17254.800781	2399.680664	6.954005
442.337616	1284.396851	17044.300781	2390.912842	7.021083
442.695251	1288.929321	16889.677734	2371.520020	6.939351
443.052887	1290.489624	16810.617188	2351.012451	6.833210
443.410461	1299.034546	16924.968750	2358.962891	6.783136
443.768005	1296.359619	17115.705078	2356.139404	6.699265
444.125458	1304.830200	17400.658203	2374.417725	6.645123
444.482941	1300.000366	17722.312500	2376.349609	6.554188
444.840393	1299.406006	18217.392578	2406.144775	6.541788
445.197754	1289.078003	18656.150391	2437.574951	6.613072
445.555084	1290.712524	19001.658203	2469.748047	6.657101
445.912415	1292.049927	19237.048828	2486.391846	6.655570
446.269714	1293.015991	19362.546875	2490.478760	6.626972
446.626953	1298.737305	19373.244141	2480.224854	6.536762
446.984161	1290.340942	19192.169922	2471.160156	6.596082
447.341309	1301.114990	18986.945313	2449.537842	6.493463
447.698456	1298.068481	18693.300781	2437.649170	6.551109
448.055542	1306.539185	18478.568359	2411.346191	6.433759
448.412598	1300.520630	18126.964844	2404.064697	6.558392
448.769653	1303.789917	17744.900391	2374.789307	6.514154
449.126617	1304.830200	17308.595703	2350.864014	6.536173
449.483582	1304.161499	17031.669922	2322.108643	6.472399
449.840515	1300.669067	16817.900391	2299.966553	6.439921
450.197388	1304.830078	16626.349609	2292.090576	6.443620
450.554230	1308.545166	16485.025391	2290.306885	6.468968
450.911041	1307.133423	16419.341797	2285.700195	6.475339
451.267822	1303.121216	16493.271484	2279.904541	6.430373
451.624573	1301.189331	16564.751953	2270.468018	6.350278
451.981262	1297.102539	16534.882813	2269.650635	6.382479
452.337921	1297.176880	16387.984375	2250.554932	6.317608
452.694580	1291.975708	16051.096680	2234.357178	6.385078
453.051147	1293.684692	15859.471680	2213.255127	6.313222
453.407715	1293.833374	15529.195313	2188.883789	6.287514
453.764221	1296.210938	15444.563477	2170.902588	6.182286
454.120728	1296.731079	15109.234375	2147.274414	6.157778
454.477142	1295.467896	15028.839844	2145.268311	6.187850
454.833557	1296.879639	14900.148438	2151.732422	6.284172
455.189911	1298.142822	14926.377930	2169.787842	6.395876
455.546265	1300.000366	14986.338867	2179.670166	6.427357
455.902557	1297.771362	15038.945313	2172.091553	6.362777
456.258820	1296.953979	15269.653320	2182.270752	6.336047
456.615051	1295.839478	15565.602539	2196.685547	6.312972
456.971252	1293.536133	15915.198242	2217.416016	6.318570
457.327393	1297.845581	16440.443359	2247.583008	6.271958
457.683502	1298.142822	17044.970703	2281.985107	6.247876
458.039612	1303.566895	17978.287109	2339.569580	6.213014
458.395630	1293.015991	18833.138672	2393.364990	6.273325
458.751648	1295.393677	19601.873047	2447.234375	6.291984
459.107605	1294.056274	20207.812500	2488.843750	6.317029
459.463562	1301.783569	20406.275391	2503.407227	6.289744
459.819458	1300.149048	20271.193359	2485.425781	6.247820
460.175323	1301.932251	19698.466797	2451.618164	6.249470
460.531158	1301.114868	19034.869141	2406.887939	6.235415
460.886932	1301.337769	18316.808594	2379.321777	6.335317
461.242676	1297.325562	17619.626953	2334.294189	6.353078
461.598419	1303.567017	17086.876953	2301.155029	6.320525
461.954102	1300.074707	16582.955078	2264.969727	6.313568
462.309723	1296.731079	16224.592773	2241.638672	6.329825
462.665344	1291.529907	15956.954102	2211.620361	6.273876
463.020905	1291.529907	15822.541992	2206.939453	6.299696
463.376373	1291.232788	15761.390625	2215.409912	6.386780
463.731873	1294.799194	15723.199219	2223.063232	6.433589
464.087341	1293.090332	15751.731445	2220.908203	6.417048
464.442749	1298.291382	15886.665039	2219.422119	6.314143
464.798126	1290.489746	15990.093750	2232.499512	6.408402
465.153503	1290.563843	16136.098633	2234.134033	6.355919
465.508820	1294.056152	16277.719727	2244.313477	6.341956
465.864105	1300.594727	16398.982422	2252.784180	6.306564
466.219330	1304.458618	16594.917969	2272.102783	6.328418
466.574524	1300.371948	16643.140625	2270.245117	6.321370
466.929657	1296.805420	16534.437500	2267.496094	6.370351
467.284790	1295.467896	16326.983398	2267.421631	6.466106
467.639893	1297.028320	16088.546875	2256.647949	6.487634
467.994934	1300.371948	15914.454102	2248.474609	6.487597
468.349945	1301.412109	15716.585938	2237.552002	6.494128
468.704926	1304.532837	15587.448242	2236.809082	6.527213
469.059875	1296.433960	15477.108398	2220.908447	6.519256
469.414764	1297.028320	15435.276367	2210.654541	6.462090
469.769653	1296.211060	15418.187500	2213.626709	6.496368
470.124451	1299.629028	15518.718750	2227.521240	6.525680
470.479248	1295.022217	15575.930664	2235.322998	6.584321
470.834015	1292.124390	15623.335938	2237.552002	6.596983
471.188721	1292.347290	15817.637695	2247.880127	6.578408
471.543365	1294.873535	16086.984375	2263.112305	6.545643
471.898010	1300.669189	16310.859375	2275.223633	6.492619
472.252625	1306.316162	16526.115234	2294.393555	6.492053
472.607178	1308.396606	16696.044922	2309.922852	6.508637
472.961700	1300.817749	16793.232422	2307.842529	6.500115
473.316193	1299.257446	16802.742188	2314.083984	6.545796
473.670654	1300.520508	16750.359375	2316.387451	6.575259
474.025055	1304.087036	16867.757813	2341.575928	6.666094
474.379456	1303.789795	16966.431641	2345.959961	6.653860
474.733795	1304.309937	17108.423828	2354.133057	6.642720
475.088104	1302.006592	17350.947266	2360.746094	6.596943
475.442383	1298.588623	17685.162109	2377.092773	6.581633
475.796570	1293.907593	18008.007813	2398.343262	6.607808
476.150787	1296.062500	18396.166016	2432.299561	6.644621
476.504944	1296.582520	18684.533203	2465.512939	6.722646
476.859070	1296.359497	18981.521484	2488.769775	6.742434
477.213135	1296.730957	19186.521484	2511.729248	6.791574
477.567200	1294.353394	19450.669922	2517.450439	6.736482
477.921173	1301.040527	19764.302734	2532.608154	6.670369
478.275146	1298.885864	20039.966797	2536.546387	6.603998
478.629089	1306.316284	20320.083984	2569.462402	6.643323
478.983002	1297.251099	20719.164063	2602.898682	6.722549
479.336823	1295.765137	21259.791016	2656.693604	6.816904
479.690643	1294.353394	21907.931641	2706.550781	6.850811
480.044403	1303.344116	22753.498047	2768.816406	6.831989
480.398163	1310.031372	23886.244141	2837.249268	6.764721
480.751862	1310.551392	25531.828125	2934.214600	6.703458
481.105499	1311.963135	27669.814453	3071.080078	6.673977
481.459137	1306.241821	30815.791016	3282.248291	6.696159
481.812744	1306.539063	34931.792969	3562.369873	6.708740
482.166290	1303.344116	39897.363281	3909.735107	6.753355
482.519806	1300.669067	44787.750000	4286.747070	6.866587
482.873291	1298.291382	48945.207031	4615.908203	6.962920
483.226715	1292.570190	51703.769531	4859.695313	7.076056
483.580139	1300.594849	52695.125000	4946.555176	7.094063
483.933502	1306.613403	51953.578125	4902.716309	7.100333
484.286804	1313.597778	49816.332031	4740.365234	7.065102
484.640106	1307.356445	46908.863281	4511.363770	7.026100
484.993347	1302.229614	43996.941406	4293.582520	7.006379
485.346558	1300.148926	41926.570313	4142.451172	6.996192
485.699738	1303.418335	41045.566406	4079.591064	6.985463
486.052887	1296.582397	41389.515625	4104.408203	7.003293
486.405975	1299.926147	42308.117188	4158.945801	6.971826
486.759064	1297.102661	43244.480469	4240.679199	7.017308
487.112061	1310.699951	43626.324219	4283.328613	7.024896
487.464996	1305.052979	43235.046875	4264.976074	7.059203
487.817963	1304.607178	42071.535156	4177.076660	7.046078
488.170868	1297.325562	40258.031250	4057.003174	7.083233
488.523743	1299.405884	38223.769531	3922.218018	7.103202
488.876587	1301.040527	36395.328125	3796.943359	7.111991
489.229401	1307.950684	35259.390625	3716.770508	7.094897
489.582153	1307.579224	35020.136719	3707.854248	7.119824
489.934845	1301.263550	35588.550781	3746.714111	7.132237
490.287537	1292.347290	36748.714844	3831.196533	7.160489
490.640198	1291.604248	37937.929688	3929.870850	7.199266
490.992798	1297.399780	38531.605469	3987.083984	7.223691
491.345337	1293.833374	38232.246094	3974.155029	7.256191
491.697876	1299.257324	36966.644531	3875.481445	7.222912
492.050354	1288.632080	35090.871094	3747.532227	7.274371
492.402832	1288.186279	32666.896484	3571.657471	7.277135
492.755219	1281.424683	30129.531250	3396.228760	7.330825
493.107605	1292.049927	27807.943359	3236.106445	7.331666
493.459930	1297.399780	26052.763672	3115.736084	7.345222
493.812225	1307.282104	24816.884766	3033.334229	7.341902
494.164490	1311.740356	24123.791016	2980.579346	7.315603
494.516724	1309.585449	23778.357422	2955.242188	7.324195
494.868896	1304.532959	23764.537109	2952.195313	7.335984
495.221039	1298.068481	23942.419922	2961.037842	7.343860
495.573120	1294.873535	24145.412109	2972.851563	7.343276
495.925201	1293.387329	24340.162109	2992.170654	7.371024
496.277222	1296.433838	24487.650391	3013.941406	7.405854
496.629211	1302.600952	24556.900391	3028.207275	7.420591
496.981140	1301.486450	24481.632813	3022.931885	7.426379
497.333069	1305.572998	24227.294922	2998.858154	7.387251
497.684967	1300.743286	23833.937500	2968.914063	7.403171
498.036804	1298.514282	23381.431641	2928.641846	7.381848
498.388580	1288.631958	22929.671875	2907.465576	7.480388
498.740326	1297.548340	22530.515625	2872.468994	7.417337
499.092072	1297.399780	22086.560547	2848.469482	7.460954
499.443756	1306.316040	21672.320313	2816.593018	7.415677
499.795410	1297.919922	21341.376953	2805.893555	7.523520
500.147003	1304.384277	21104.423828	2788.209229	7.494051
500.498566	1302.080933	20857.146484	2770.897217	7.511180
500.850098	1302.526733	20638.248047	2749.497803	7.483409
501.201599	1299.777466	20472.107422	2731.813721	7.469286
501.553009	1295.096436	20387.849609	2730.476563	7.517931
501.904449	1295.987915	20373.138672	2738.501221	7.561471
502.255859	1286.105835	20416.232422	2751.875732	7.662102
502.607178	1289.077881	20517.431641	2759.900391	7.649238
502.958405	1291.232666	20571.970703	2771.268555	7.676241
503.309692	1301.709473	20638.324219	2777.212891	7.630619
503.660919	1301.560913	20715.300781	2780.110596	7.615996
504.012115	1308.693848	20688.998047	2778.698975	7.585046
504.363251	1304.978638	20651.996094	2769.410889	7.569292
504.714294	1306.687622	20541.359375	2765.844482	7.586076
505.065369	1298.811523	20549.830078	2753.064453	7.554161
505.416443	1304.458618	20448.482422	2757.225342	7.588617
505.767395	1300.743530	20434.437500	2756.482422	7.608248
506.118317	1301.932373	20356.865234	2765.324219	7.679858
506.469238	1301.114990	20504.802734	2768.073486	7.638942
506.820160	1302.303833	20642.927734	2777.658447	7.628268
507.170929	1304.681519	20899.718750	2776.098389	7.509130
507.521729	1298.365723	21170.775391	2792.296143	7.517611
507.872498	1300.743530	21424.519531	2812.803711	7.513800
508.223236	1299.777466	21643.044922	2850.029297	7.620466
508.573883	1302.675293	21776.123047	2878.190430	7.695407
508.924500	1301.709351	21939.958984	2892.233398	7.706681
509.275116	1297.251221	22103.500000	2897.880615	7.693023
509.625702	1299.257446	22311.470703	2899.366455	7.615138
509.976196	1303.715576	22494.626953	2909.100342	7.575817
510.326660	1309.362549	22707.802734	2924.257813	7.546790
510.677124	1310.625732	22846.453125	2947.514893	7.600772
511.027557	1301.189331	23031.687500	2971.885986	7.688258
511.377869	1302.378052	23151.390625	2990.313232	7.725453
511.728180	1299.257324	23168.775391	2993.433594	7.746747
512.078430	1303.864136	23074.634766	2980.727783	7.702362
512.428650	1302.675293	22947.281250	2962.078125	7.666588
512.778931	1305.052979	22827.802734	2951.303955	7.648888
513.129028	1305.127319	22663.072266	2935.254639	7.632416
513.479126	1306.910522	22550.132813	2931.613525	7.648100
513.829285	1306.910522	22443.134766	2920.394531	7.633738
514.179382	1304.235718	22381.984375	2924.332275	7.686289
514.529297	1300.149048	22353.750000	2920.171631	7.694753
514.879272	1297.251221	22483.929688	2925.744141	7.686400
515.229187	1302.006714	22700.447266	2936.369385	7.637765
515.579163	1297.176880	23095.291016	2971.440186	7.680772
515.928955	1301.189331	23562.210938	3009.483154	7.673924
516.278748	1305.275879	24191.033203	3061.643799	7.674502
516.628540	1307.876465	24941.267578	3114.250000	7.643311
516.978333	1306.018921	25831.861328	3173.543701	7.614519
517.327942	1301.709351	26734.119141	3239.153076	7.618011
517.677612	1298.811523	27384.937500	3284.254639	7.611108
518.027222	1288.260620	27780.226563	3325.567139	7.690280
518.376831	1292.793091	27773.687500	3321.182861	7.659823
518.726379	1292.495728	27529.603516	3308.477295	7.683703
519.075867	1299.257324	26945.882813	3258.397217	7.638978
519.425293	1297.548462	26346.111328	3219.165771	7.671567
519.774658	1308.991089	25710.302734	3169.605469	7.625059
520.124084	1311.665894	25168.708984	3121.828857	7.587541
520.473389	1307.133423	24682.250000	3074.200928	7.559609
520.822693	1304.012817	24324.037109	3047.080811	7.571964
521.171997	1296.285278	24142.291016	3051.315674	7.682001
521.521240	1297.474121	24113.240234	3059.340088	7.722143
521.870361	1287.591797	24227.666016	3065.953125	7.752204
522.219482	1293.758911	24428.431641	3076.355469	7.705303
522.568604	1298.588623	24691.833984	3100.132080	7.701127
522.917664	1306.910645	25091.212891	3122.869141	7.635113
523.266724	1302.229492	25742.103516	3160.912109	7.605123
523.615662	1295.393677	26656.474609	3208.094482	7.541874
523.964600	1287.889038	27725.615234	3291.610596	7.579024
524.313538	1292.792969	28940.166016	3378.396240	7.543586
524.662354	1290.638184	30190.607422	3490.816406	7.613081
525.011169	1297.176880	31469.876953	3585.403564	7.583765
525.359985	1295.468018	32678.263672	3687.569580	7.622334
525.708740	1301.263550	33952.628906	3767.445313	7.553073
526.057434	1303.492554	35522.269531	3876.967529	7.520652
526.406067	1305.127197	37582.093750	4008.037109	7.450761
526.754700	1303.566895	40353.808594	4212.369629	7.448873
527.103333	1307.059082	43569.480469	4440.330566	7.413847
527.451782	1306.910522	46917.562500	4724.909668	7.493861
527.800293	1303.566772	49573.363281	4963.050293	7.581311
528.148743	1300.000366	51118.191406	5132.980469	7.693936
528.497131	1303.195313	51113.062500	5131.048340	7.684929
528.845642	1304.235718	49604.644531	4999.755371	7.651114
529.193909	1297.919922	46928.707031	4781.603027	7.634501
529.542175	1293.536011	43509.515625	4526.596191	7.658380
529.890503	1293.610352	40068.484375	4267.279785	7.669063
530.238770	1295.393677	37094.218750	4034.637695	7.651771
530.586914	1297.845581	35050.078125	3869.091553	7.618002
530.934998	1297.399780	34026.484375	3785.575195	7.602337
531.283142	1299.406006	33945.199219	3773.984131	7.580083
531.631226	1304.755737	34600.996094	3816.856445	7.544697
531.979248	1307.653564	35762.417969	3896.063232	7.512486
532.327148	1307.059204	36972.957031	3968.359375	7.461751
532.675110	1301.858032	37806.414063	4034.117432	7.484708
533.023071	1299.183105	37905.089844	4030.996826	7.462768
533.370850	1300.074707	37146.976563	3989.981689	7.503876
533.718689	1301.635132	35838.582031	3892.050781	7.500419
534.066467	1308.322388	34203.699219	3784.906250	7.528669
534.414246	1308.396606	32800.191406	3679.842529	7.530361
534.761963	1306.464844	31772.585938	3606.728516	7.550235
535.109619	1303.269653	31257.076172	3558.505859	7.529047
535.457153	1299.703125	31045.384766	3547.731689	7.557496
535.804749	1295.616577	30925.685547	3529.007813	7.537583
536.152344	1297.251221	30806.056641	3522.915039	7.542372
536.499817	1301.040649	30442.271484	3471.423096	7.447806
536.847229	1298.514282	29878.015625	3426.098633	7.444442
537.194641	1293.238770	29090.330078	3364.575928	7.451632
537.542114	1289.226440	28337.646484	3318.285156	7.501579
537.889404	1295.839478	27749.468750	3265.901611	7.447228
538.236694	1295.096558	27381.369141	3232.540039	7.427061
538.583984	1296.433960	27539.041016	3233.728760	7.382250
538.931213	1298.068481	28300.716797	3295.845703	7.398449
539.278381	1299.331665	29757.273438	3398.680908	7.377024
539.625488	1302.080933	31637.726563	3543.868408	7.389945
539.972595	1303.121216	33984.355469	3703.098877	7.343595
540.319641	1300.892090	36299.183594	3864.484619	7.324907
540.666687	1305.721802	38072.121094	3993.176758	7.309541
541.013611	1303.121216	39001.718750	4055.814209	7.301844
541.360596	1302.972534	38985.597656	4064.433350	7.328207
541.707458	1299.554565	38306.621094	4013.610107	7.333885
542.054260	1298.960205	36991.312500	3935.815186	7.387731
542.401062	1300.891968	35382.957031	3814.850342	7.376192
542.747864	1294.873535	33564.917969	3677.613281	7.383751
543.094666	1290.861206	31741.898438	3535.175049	7.370238
543.441284	1290.340942	30006.632813	3402.173096	7.354125
543.787903	1291.307007	28575.041016	3303.647705	7.375606
544.134460	1299.108765	27417.109375	3215.673096	7.338098
544.481079	1297.771240	26645.994141	3160.094727	7.346959
544.827637	1300.743408	26137.244141	3116.033203	7.308960
545.174072	1299.108765	25863.884766	3095.228516	7.311769
545.520508	1305.498901	25778.509766	3085.717529	7.274211
545.866943	1305.647461	25726.203125	3071.080078	7.229290
546.213318	1306.390503	25600.185547	3051.464111	7.183207
546.559631	1299.257446	25304.609375	3030.362305	7.211329
546.905823	1299.183105	24775.054688	2997.668945	7.235028
547.252136	1300.223267	24013.228516	2955.242188	7.286657
547.598389	1310.551392	23105.693359	2894.611084	7.267948
547.944458	1311.442993	22203.732422	2838.512451	7.309249
548.290588	1305.796021	21328.818359	2767.850586	7.301868
548.636658	1300.594849	20583.117188	2703.207275	7.274009
548.982727	1294.279175	19908.150391	2650.526611	7.286219
549.328735	1299.628906	19466.345703	2622.291748	7.280693
549.674622	1303.418335	19067.416016	2599.926514	7.298516
550.020569	1305.127319	18861.673828	2577.561279	7.247633
550.366455	1294.130615	18676.806641	2554.156006	7.248743
550.712280	1291.678589	18658.304688	2535.282959	7.160886
551.058044	1295.319458	18762.701172	2535.654541	7.100865
551.403748	1301.560791	18916.953125	2549.029053	7.081694
551.749512	1300.966309	19085.917969	2579.641846	7.189649
552.095154	1301.932251	19197.296875	2595.839844	7.230406
552.440735	1294.130493	19280.367188	2601.858154	7.270713
552.786316	1295.542358	19250.943359	2590.861572	7.214093
553.131897	1296.136719	19101.445313	2567.456299	7.140115
553.477417	1308.545288	18798.142578	2539.072510	7.035766
553.822815	1306.316162	18407.830078	2505.859131	7.014250
554.168213	1301.337891	18012.316406	2485.500244	7.086134
554.513672	1296.582397	17686.275391	2468.708008	7.151602
554.859009	1295.467896	17421.312500	2454.218994	7.185677
555.204285	1302.229492	17238.082031	2427.841553	7.063394
555.549500	1301.486450	17108.052734	2412.386475	7.028092
555.894714	1298.588623	17032.783203	2401.538330	7.009890
556.239990	1301.783691	16914.271484	2403.469971	7.056443
556.585022	1308.396606	16798.730469	2398.491943	7.037261
556.930115	1308.248047	16658.076172	2397.228760	7.094416
557.275146	1300.669067	16515.042969	2380.956299	7.100438
557.620178	1294.279053	16407.304688	2374.194580	7.145595
557.965149	1297.474121	16348.159180	2364.609619	7.090278
558.310059	1294.947632	16304.542969	2368.101807	7.149787
558.654968	1294.650513	16252.754883	2362.529297	7.139132
558.999756	1292.272949	16263.973633	2359.705811	7.129670
559.344604	1300.669067	16323.711914	2358.591553	7.041999
559.689331	1297.399780	16411.537109	2368.176514	7.084603
560.033997	1297.399780	16471.574219	2365.055664	7.036006
560.378723	1291.381348	16559.623047	2362.083496	7.012609
560.723389	1300.000488	16583.548828	2350.343750	6.872378
561.067932	1309.808472	16570.025391	2355.247803	6.850750
561.412476	1309.659790	16489.333984	2353.613037	6.877310
561.757019	1306.390381	16443.490234	2357.996826	6.947212
562.101501	1300.669067	16412.058594	2350.789307	6.949197
562.445862	1304.904297	16369.928711	2351.904053	6.949871
562.790222	1310.031250	16331.589844	2348.040283	6.910129
563.134644	1308.470947	16337.088867	2349.229248	6.925176
563.478943	1303.269775	16423.724609	2352.647217	6.940118
563.823181	1293.313110	16563.117188	2360.448975	6.988537
564.167358	1296.433838	16749.839844	2373.674805	6.970897
564.511536	1301.783569	17024.314453	2395.148193	6.954126
564.855774	1310.774292	17379.626953	2409.191406	6.835691
565.199768	1308.693848	17720.158203	2431.482178	6.841487
565.543823	1301.709473	18013.132813	2447.680176	6.857409
565.887817	1297.251099	18203.572266	2463.878174	6.900538
566.231812	1304.087036	18246.074219	2463.432373	6.843031
566.575745	1312.037476	18121.468750	2452.881592	6.786929
566.919617	1313.895020	17891.576172	2433.265625	6.752275
567.263428	1306.984863	17568.880859	2410.677490	6.786986
567.607239	1301.189331	17345.302734	2386.603516	6.765186
567.950989	1298.811646	17129.673828	2364.535645	6.731939
568.294678	1301.560791	17026.841797	2351.235596	6.675078
568.638367	1305.053101	16910.408203	2359.928955	6.759704
568.981995	1305.350220	16894.062500	2371.594238	6.839847
569.325623	1305.573120	16978.839844	2380.510498	6.858413
569.669128	1302.155151	17132.201172	2368.101807	6.733693
570.012573	1303.864136	17334.826172	2371.519775	6.659960
570.356140	1301.783691	17583.740234	2382.813965	6.639437
570.699524	1303.566895	17845.359375	2403.469971	6.649237
571.042908	1304.607300	18163.003906	2422.268555	6.629701
571.386230	1308.322266	18351.806641	2445.599854	6.672800
571.729492	1306.167480	18438.740234	2454.218994	6.700987
572.072815	1305.944702	18377.515625	2448.794678	6.694463
572.416016	1300.149048	18306.482422	2434.454346	6.669899
572.759094	1300.446289	18132.761719	2422.194336	6.664252
573.102234	1297.251343	17909.556641	2415.358643	6.730597
573.445374	1298.811646	17670.748047	2399.011963	6.720038
573.788391	1304.012817	17587.232422	2396.188721	6.707371
574.131409	1299.628906	17559.294922	2391.358887	6.714345
574.474365	1295.244995	17516.572266	2392.324707	6.763193
574.817261	1295.616577	17426.591797	2381.699463	6.732903
575.160156	1305.647339	17230.875000	2364.758545	6.650525
575.502930	1309.362549	16974.158203	2335.111328	6.548115
575.845703	1311.145874	16687.126953	2313.935303	6.521791
576.188477	1310.328491	16416.814453	2295.136963	6.519110
576.531250	1310.179810	16141.671875	2288.078125	6.593391
576.873901	1304.161255	15793.786133	2267.570557	6.648960
577.216431	1296.508179	15442.335938	2244.462402	6.701299
577.559082	1297.251343	15111.019531	2217.118896	6.659063
577.901611	1299.554565	14824.507813	2187.992188	6.568878
578.244080	1300.594849	14568.312500	2175.955322	6.597672
578.586487	1304.830078	14382.257813	2167.484619	6.596516
578.928955	1307.505005	14192.934570	2192.227539	6.866069
579.271301	1314.860962	14008.515625	2174.617920	6.773124
579.613647	1314.786621	13793.484375	2158.122803	6.758207
579.955872	1305.573120	13637.745117	2116.067383	6.572194
580.298157	1301.412231	13515.368164	2111.980713	6.636412
580.640320	1295.245117	13485.424805	2096.079834	6.569507
580.982483	1299.926147	13439.429688	2091.770264	6.522871
581.324524	1301.337891	13430.291992	2080.253174	6.421949
581.666626	1306.390503	13349.226563	2079.361328	6.418512
582.008728	1311.814575	13284.731445	2068.513428	6.320088
582.350647	1314.935181	13207.011719	2072.228760	6.368052
582.692566	1311.220093	13143.409180	2079.584717	6.493850
583.034424	1307.653564	13087.979492	2076.760986	6.528745
583.376343	1299.554688	12992.128906	2061.083252	6.512925
583.718201	1298.885864	12910.395508	2050.309326	6.471367
584.059937	1294.279175	12801.168945	2049.417725	6.562490
584.401611	1294.204834	12772.934570	2059.300049	6.665330
584.743347	1291.455688	12739.200195	2055.584961	6.674933
585.085022	1292.272949	12740.242188	2054.173096	6.655330
585.426514	1294.353516	12722.409180	2046.445679	6.581103
585.768127	1301.858032	12746.186523	2046.965698	6.510715
586.109619	1306.836182	12747.152344	2047.039917	6.470133
586.451172	1312.037476	12759.487305	2038.495117	6.346022
586.792542	1306.093140	12779.250000	2041.987427	6.414052
587.133850	1304.012695	12817.070313	2043.845093	6.426029
587.475220	1299.554565	12897.540039	2053.653076	6.501978
587.816589	1295.913818	12954.085938	2052.687256	6.491356
588.157776	1293.684692	13059.296875	2057.219482	6.489546
588.498962	1289.969604	13121.860352	2054.767334	6.463868
588.840210	1291.975708	13196.609375	2055.956299	6.417506
589.181335	1291.232666	13264.297852	2057.813721	6.402546
589.522400	1298.142700	13256.273438	2064.278076	6.406816
589.863403	1300.371948	13237.028320	2070.742676	6.453824
590.204407	1303.864136	13164.436523	2069.628174	6.456384
590.545410	1304.458618	13124.535156	2070.593994	6.481645
590.886353	1303.938354	13028.536133	2060.414307	6.452042
591.227112	1304.012695	12916.339844	2057.888184	6.492028
591.567932	1301.783691	12819.745117	2041.244507	6.420067
591.908752	1304.087036	12760.823242	2034.854370	6.378495
592.249512	1301.858032	12798.495117	2025.194946	6.291726
592.590149	1298.737183	12816.699219	2027.275391	6.325235
592.930786	1301.040649	12917.007813	2027.126953	6.250761
593.271423	1301.263550	12989.750000	2026.458008	6.204349
593.612000	1304.607178	13127.284180	2040.129761	6.221286
593.952576	1295.542358	13261.995117	2052.909912	6.329090
594.292969	1287.071655	13414.687500	2064.575195	6.411017
594.633484	1280.978882	13592.790039	2065.912842	6.375454
594.973877	1288.855103	13842.745117	2078.024170	6.286252
595.314209	1306.762085	14123.832031	2093.701904	6.139779
595.654480	1310.254150	14447.124023	2124.091797	6.195065
595.994812	1307.950806	14736.235352	2146.531006	6.244880
596.335022	1295.616577	14967.911133	2162.654785	6.341570
596.675171	1297.771362	15037.014648	2154.333008	6.234416
597.015320	1296.359741	14955.428711	2148.314697	6.237284
597.355408	1296.508179	14673.747070	2138.432373	6.293706
597.695496	1302.972534	14286.629883	2113.020752	6.238983
598.035461	1306.539185	13762.125977	2076.835205	6.184341
598.375366	1309.139771	13309.770508	2040.798462	6.096835
598.715271	1299.406128	12900.809570	2015.461304	6.172143
599.055176	1301.560669	12610.434570	1988.340820	6.072931
599.395081	1306.836304	12374.747070	1970.433960	5.995690
599.734802	1310.922852	12205.335938	1960.402954	5.961589
600.074524	1305.424438	12125.832031	1962.409180	6.071719
600.414246	1298.885864	12068.024414	1962.186157	6.159270
600.753906	1298.439941	12099.007813	1967.461792	6.194321
601.093506	1304.087036	12102.278320	1966.941772	6.138572
601.433044	1309.659790	12233.645508	1966.941772	6.016870
601.772583	1309.065430	12439.242188	1981.207642	6.038918
602.112122	1309.659790	12751.981445	2005.356079	6.080028
602.451538	1303.046875	13106.703125	2032.996704	6.184099
602.790894	1299.257446	13443.071289	2046.074097	6.149770
603.130310	1297.994263	13873.358398	2060.265869	6.061626
603.469604	1298.885864	14268.128906	2073.566162	5.973211
603.808838	1301.932251	14642.094727	2097.491455	5.963640
604.148010	1296.210938	14835.578125	2102.915771	5.958217
604.487305	1298.737305	14904.531250	2112.500732	5.981007
604.826416	1299.406006	14800.877930	2104.773193	5.965033
605.165527	1301.560669	14578.416992	2100.389404	6.016701
605.504456	1299.926147	14208.536133	2073.194580	5.990331
605.843445	1298.588623	13789.320313	2050.160645	6.017038
606.182434	1299.554688	13324.409180	2028.092773	6.058602
606.521423	1303.492676	12935.956055	2016.427246	6.128836
606.860229	1312.334595	12608.057617	1993.393433	6.029352
607.199036	1310.848633	12429.285156	1976.600952	5.987823
607.537903	1311.517456	12367.390625	1967.610352	5.934338
607.876648	1303.492676	12465.620117	1974.074707	6.007655
608.215271	1316.272827	12641.418945	1982.248047	5.880500
608.553955	1315.083862	12845.676758	1979.573120	5.762837
608.892578	1313.077637	12989.006836	1986.483276	5.767469
609.231140	1303.343872	13064.945313	1999.783569	5.921300
609.569641	1297.028198	13016.647461	2008.699829	6.072481
609.908081	1300.446167	12892.488281	2000.377930	6.038037
610.246521	1292.421509	12636.367188	1985.517212	6.109829
610.584961	1297.474121	12352.828125	1975.114746	6.129525
610.923340	1292.347290	12010.218750	1954.384399	6.176946
611.261597	1296.953979	11703.050781	1931.053345	6.093537
611.599854	1292.867432	11427.757813	1908.911255	6.078446
611.938110	1301.709351	11215.625000	1890.261230	5.936624
612.276245	1301.115112	11009.656250	1875.697876	5.918323
612.614319	1309.808350	10847.973633	1860.985962	5.778655
612.952393	1304.904297	10679.455078	1855.636108	5.874754
613.290466	1308.545288	10589.772461	1846.348267	5.794524
613.628479	1294.947754	10469.773438	1830.521973	5.837432
613.966370	1293.238892	10401.339844	1824.875000	5.836959
614.304260	1294.353394	10307.569336	1813.877930	5.764031
614.642151	1303.269653	10230.741211	1818.930542	5.776114
614.979980	1304.012817	10158.741211	1819.450562	5.821045
615.317749	1295.839478	10107.622070	1816.701538	5.910973
615.655396	1288.854858	10080.651367	1809.568359	5.922720
615.993164	1294.576294	10076.340820	1803.624146	5.796647
616.330811	1302.823853	10083.102539	1812.466309	5.804400
616.668396	1311.591675	10089.121094	1817.221680	5.760505
617.005859	1305.796021	10106.433594	1830.373169	5.960672
617.343445	1300.297729	10125.901367	1832.082153	6.025474
617.680908	1295.170776	10162.532227	1835.648804	6.095140
618.018311	1297.845581	10166.990234	1823.983276	5.932226
618.355652	1305.870239	10162.234375	1815.438477	5.753695
618.692993	1306.910522	10113.194336	1811.723267	5.732415
619.030273	1317.164429	10098.706055	1809.345581	5.604723
619.367554	1314.563721	10063.783203	1808.528320	5.645813
619.704712	1309.659668	10074.408203	1807.562378	5.680742
620.041870	1297.325562	10025.219727	1803.029907	5.794116
620.379028	1285.957397	9993.270508	1808.156738	5.997250
620.716064	1285.808594	9933.976563	1796.342651	5.903378
621.053040	1284.099731	9897.418945	1797.680054	5.962629
621.389954	1294.873535	9884.267578	1783.562500	5.689446
621.726929	1305.275879	9839.686523	1787.500610	5.650358
622.063843	1308.099487	9830.769531	1790.249634	5.657267
622.400635	1299.554565	9808.106445	1798.868774	5.868381
622.737427	1290.415405	9841.766602	1811.871948	6.097943
623.074219	1293.090210	9815.909180	1813.060669	6.100921
623.410889	1301.635010	9790.050781	1807.487915	5.959332
623.747559	1308.842407	9816.131836	1801.023560	5.785405
624.084167	1307.802246	9886.868164	1800.577759	5.743929
624.420715	1302.155273	10039.040039	1798.200073	5.677594
624.757324	1299.628906	10159.708008	1799.389038	5.640583
625.093750	1297.102539	10338.554688	1806.967773	5.639196
625.430176	1307.133423	10508.188477	1821.382446	5.589023
625.766602	1310.402832	10698.551758	1833.196777	5.568659
626.102905	1310.402710	10856.594727	1838.695190	5.534065
626.439209	1300.297607	10960.543945	1848.577515	5.675631
626.775452	1297.994263	11010.995117	1850.955078	5.692997
627.111694	1298.217163	10993.608398	1851.549438	5.707168
627.447876	1293.907593	10917.373047	1848.354492	5.761405
627.783997	1293.981812	10794.178711	1846.199707	5.812699
628.120056	1289.523804	10656.124023	1839.215210	5.868633
628.456055	1293.833374	10489.760742	1829.407227	5.824033
628.792053	1293.981812	10337.589844	1810.385742	5.710154
629.128052	1295.096313	10194.481445	1807.116577	5.753434
629.463928	1294.278931	10110.520508	1794.856567	5.677903
629.799744	1289.226440	10036.068359	1805.630493	5.903892
630.135559	1294.799194	9967.635742	1792.107422	5.734089
630.471375	1299.554565	9834.114258	1788.838013	5.732966
630.807068	1309.139648	9717.161133	1780.293335	5.603621
631.142700	1306.984863	9619.303711	1782.968140	5.726240
631.478333	1305.796021	9529.249023	1781.927856	5.789926
631.813965	1298.068481	9478.054688	1773.680298	5.814335
632.149475	1299.182983	9418.463867	1766.324219	5.753480
632.484924	1303.715576	9430.426758	1766.101440	5.689705
632.820435	1305.870361	9426.042969	1767.513062	5.685134
633.155884	1301.560791	9440.680664	1771.674194	5.775973
633.491150	1293.164551	9503.393555	1780.144531	5.931382
633.826477	1291.455566	9523.157227	1773.531738	5.856337
634.161804	1295.690918	9536.458008	1772.119751	5.781365
634.497009	1302.749634	9451.157227	1766.918579	5.696437
634.832153	1305.127319	9355.084961	1767.067261	5.738415
635.167297	1308.842407	9238.948242	1755.996094	5.638685
635.502380	1302.006592	9141.612305	1743.736328	5.634592
635.837463	1294.650757	9064.188477	1742.844727	5.768605
636.172424	1292.718750	9029.118164	1732.962280	5.690548
636.507324	1295.096313	8953.329102	1729.247192	5.669074
636.842224	1302.600952	8855.398438	1716.541504	5.480626
637.177124	1297.622681	8725.888672	1717.358887	5.650527
637.511963	1296.879761	8640.291992	1716.244263	5.710758
637.846741	1295.765137	8556.477539	1716.467163	5.794225
638.181396	1297.994263	8475.265625	1712.009155	5.768416
638.516113	1303.492676	8430.460938	1708.814087	5.687150
638.850769	1303.567017	8383.278320	1714.906860	5.810122
639.185303	1308.396606	8344.493164	1712.009155	5.736313
639.519836	1301.337891	8273.235352	1707.030762	5.818974
639.854370	1300.743408	8230.214844	1688.232056	5.591893
640.188843	1291.307007	8179.392090	1688.306519	5.763569
640.523254	1295.839478	8130.574707	1681.321899	5.640049
640.857605	1297.399780	8097.287109	1681.098999	5.642729
641.191895	1302.526733	8074.031250	1677.012329	5.530316
641.526184	1292.198608	8041.709473	1682.213745	5.778421
641.860413	1293.536011	7996.682129	1685.780151	5.851643
642.194580	1290.638184	7945.338379	1691.724243	6.027109
642.528748	1300.669067	7905.585938	1684.219727	5.807047
642.862793	1301.932251	7850.156250	1679.538696	5.766547
643.196838	1301.263550	7806.243652	1676.789551	5.772900
643.530823	1306.241821	7799.036621	1671.439819	5.624666
643.864746	1297.325562	7827.717285	1675.897827	5.797084
644.198669	1304.309937	7848.076660	1670.325195	5.593342
644.532532	1299.703125	7847.259277	1678.424194	5.784159
644.866333	1306.984741	7846.070313	1677.235352	5.662116
645.200073	1300.148926	7843.099121	1682.584961	5.845009
645.533813	1298.662842	7835.296875	1680.950562	5.848388
645.867554	1297.697144	7811.890625	1680.653198	5.878795
646.201172	1306.464722	7800.373535	1673.148804	5.646585
646.534729	1301.040649	7809.958984	1672.182739	5.702055
646.868225	1301.263550	7808.175781	1667.873169	5.634157
647.201782	1291.678467	7806.541504	1668.318970	5.781250
647.535217	1293.461792	7799.482422	1673.445923	5.840500
647.868591	1289.226440	7797.029785	1684.071167	6.067251
648.201965	1292.644409	7777.859863	1687.489136	6.088383
648.535278	1297.845581	7757.798340	1680.504517	5.923556
648.868591	1294.427734	7760.474121	1677.086792	5.917976
649.201782	1291.678467	7766.714844	1674.932007	5.918941
649.534912	1287.443237	7750.071777	1680.430298	6.080917
649.868103	1292.867310	7723.470703	1680.950562	6.034943
650.201172	1296.953979	7725.773926	1685.111328	6.037770
650.534180	1298.588623	7735.878906	1687.043335	6.034445
650.867188	1297.845581	7761.439453	1683.402344	5.965053
651.200134	1293.090210	7765.080566	1684.442749	6.046865
651.533020	1288.780640	7774.962891	1681.916382	6.061127
651.865845	1290.266724	7733.576660	1681.693481	6.074933
652.198608	1295.913696	7680.300781	1684.665527	6.089102
652.531433	1297.845581	7614.617188	1681.321899	6.070765
652.864136	1300.817749	7602.134277	1689.420898	6.167016
653.196777	1426.835083	7731.792480	1811.054565	6.093926
653.529358	1437.237671	7701.773438	1814.100952	6.015821
653.861938	1435.157104	7646.566895	1812.169067	6.069668
654.194519	1308.173706	7457.689453	1683.402466	6.101761
654.526978	1303.344116	7453.603027	1684.665649	6.200089
654.859375	1299.851685	7439.188965	1680.058960	6.192969
655.191833	1297.994263	7434.433105	1678.275513	6.197100
655.524170	1301.560791	7412.959473	1676.789429	6.139816
655.856445	1305.796021	7394.458496	1669.433594	5.972372
656.188660	1311.963135	7379.375000	1679.984497	6.065541
656.520874	1307.505005	7368.451660	1680.430298	6.152921
656.853088	1299.628906	7421.578613	1693.581909	6.435091
657.185181	1289.820923	7511.708496	1692.913452	6.478621
657.517212	1289.077759	7674.505371	1697.743042	6.399967
657.849243	1298.365723	7830.169434	1710.597290	6.311144
658.181274	1301.114868	8021.572754	1717.358765	6.193684
658.513123	1301.783569	8209.632813	1729.098633	6.185935
658.844971	1305.424561	8387.438477	1729.916016	5.993937
659.176819	1298.068604	8519.921875	1744.404907	6.180357
659.508667	1295.170776	8580.775391	1747.302734	6.205826
659.840393	1290.489624	8567.475586	1751.092163	6.329578
660.172058	1298.365723	8485.444336	1742.175781	6.175111
660.503662	1304.904419	8306.969727	1740.912720	6.226853
660.835266	1308.842407	8102.414551	1736.603149	6.296551
661.166931	1309.436768	7873.710938	1729.172852	6.394249
661.498413	1305.870239	7696.275879	1723.971680	6.542643
661.829773	1303.715454	7528.426270	1717.655884	6.649954
662.161194	1308.470825	7373.133301	1710.374390	6.626973
662.492615	1310.625732	7232.181152	1701.012207	6.592634
662.823975	1305.944580	7137.964844	1697.074097	6.706587
663.155212	1304.830078	7052.962891	1689.718140	6.695880
663.486450	1298.662964	6964.244629	1682.807983	6.780328
663.817627	1295.022095	6876.790527	1673.520386	6.780974
664.148743	1289.969604	6802.636719	1671.736938	6.925275
664.479858	1295.542236	6751.517090	1672.108398	6.901905
664.810913	1302.823853	6743.640625	1662.151978	6.604305
665.141907	1302.080933	6715.107910	1661.260254	6.635462
665.472778	1304.532837	6695.640625	1655.984741	6.519104
665.803711	1302.080933	6682.563965	1660.517212	6.661787
666.134583	1306.464844	6697.052246	1657.396484	6.510082
666.465454	1303.938477	6713.548340	1664.678223	6.668499
666.796143	1308.470825	6678.552246	1663.712280	6.615197
667.126831	1310.848633	6657.226563	1675.229126	6.815464
667.457458	1306.093140	6644.148926	1673.891602	6.890121
667.788147	1302.452271	6663.616699	1678.424194	7.012878
668.118774	1304.458496	6682.489746	1682.882324	7.036475
668.449219	1307.282104	6710.798828	1688.603516	7.056912
668.779663	1302.972534	6734.650391	1693.581909	7.191321
669.110107	1300.669189	6744.532715	1688.677856	7.127450
669.440552	1301.783691	6729.894531	1685.334351	7.066006
669.770874	1300.223267	6687.541504	1681.173462	7.071240
670.101135	1296.879761	6669.263672	1683.476685	7.196003
670.431396	1294.056274	6610.341309	1682.956665	7.315266
670.761597	1296.879761	6563.604980	1675.377808	7.186592
671.091797	1297.696899	6505.128906	1673.743164	7.221338
671.421875	1300.074707	6473.328125	1664.901001	7.052164
671.751892	1302.452271	6444.052246	1670.473633	7.157721
672.081909	1301.486450	6403.408691	1671.365356	7.249795
672.411865	1300.520508	6397.389160	1676.863770	7.383813
672.741821	1298.885864	6360.015625	1681.247559	7.554868
673.071716	1300.000366	6349.464844	1675.749146	7.441359
673.401550	1299.183105	6306.889160	1679.984497	7.604308
673.731262	1300.966431	6289.725098	1678.647095	7.570634
674.060974	1299.257324	6233.701172	1685.111450	7.819607
674.390625	1299.554565	6207.472168	1687.786255	7.910314
674.720276	1302.600952	6195.732422	1687.340454	7.862848
675.049927	1304.755859	6206.431641	1686.746094	7.793054
675.379395	1304.755859	6200.338379	1681.693359	7.699543
675.708923	1304.830078	6165.639160	1676.046509	7.636927
676.038330	1302.303833	6146.692871	1674.114624	7.675081
676.367737	1301.040527	6128.042969	1674.560547	7.738136
676.697083	1300.891968	6143.943359	1681.767944	7.864380
677.026428	1307.133423	6161.850098	1681.693481	7.715384
677.355652	1312.111816	6198.480957	1685.631714	7.644120
677.684875	1312.483398	6225.602051	1695.216675	7.790027
678.013977	1310.477051	6264.536621	1697.965820	7.821641
678.343079	1306.910645	6313.873535	1701.829468	7.887393
678.672180	1301.709473	6392.634277	1705.841797	7.938289
679.001221	1291.455688	6464.484863	1715.575562	8.198675
679.330139	1298.440063	6551.642090	1718.696289	8.000001
679.659058	1293.090210	6605.065918	1722.411499	8.082140
679.987976	1294.650635	6683.009277	1729.841675	8.076505
680.316772	1284.099609	6731.306152	1746.336914	8.485768
680.645630	1290.340942	6760.283691	1746.336914	8.336393
680.974304	1298.217163	6729.894531	1750.497681	8.326719
681.302979	1306.613281	6669.783691	1748.417114	8.237737
681.631653	1311.145874	6606.626465	1751.389282	8.313569
681.960266	1306.316040	6548.521973	1748.268555	8.430659
682.288757	1297.399780	6495.470215	1740.244019	8.519397
682.617249	1294.056152	6427.185059	1737.791992	8.644549
682.945679	1295.839478	6358.381348	1732.665039	8.628581
683.274109	1303.566895	6248.933105	1734.151245	8.706824
683.602478	1302.526733	6152.042480	1730.956177	8.834479
683.930725	1300.297485	6031.820313	1724.640503	8.968424
684.259033	1295.839478	5969.851563	1716.095703	8.991338
684.587280	1295.467896	5901.493652	1706.139160	8.915956
684.915344	1290.563843	5870.583496	1716.912964	9.308893
685.243469	1292.867310	5831.128906	1716.764282	9.340514
685.571533	1292.124268	5808.689941	1715.575562	9.375516
685.899536	1296.879761	5779.042969	1705.618774	9.119236
686.227539	1296.062378	5762.398438	1709.111206	9.248047
686.555420	1295.913696	5738.324707	1714.981079	9.433331
686.883301	1300.817627	5744.714844	1714.981079	9.319824
687.211121	1296.062134	5768.714355	1722.782837	9.540664
687.538940	1299.034424	5812.553223	1730.807617	9.566222
687.866638	1298.588745	5836.998535	1734.819946	9.611984
688.194336	1302.303711	5807.128906	1728.281372	9.456031
688.521973	1301.635132	5763.661621	1727.761230	9.550057
688.849609	1297.399780	5715.067871	1718.473267	9.531578
689.177063	1295.765137	5669.743652	1719.662109	9.691337
689.504578	1288.037598	5607.478027	1713.197876	9.842948
689.832031	1287.220337	5541.125488	1712.529175	9.998079
690.159485	1295.393677	5482.351563	1709.631348	9.893523
690.486816	1305.350220	5434.129395	1701.383789	9.592026
690.814087	1307.802124	5398.166992	1712.083130	9.883739
691.141296	1305.350220	5364.879395	1711.117554	9.995428
691.468506	1299.331665	5329.214355	1720.108032	10.441404
691.795715	1301.635132	5270.960938	1708.070923	10.239416
692.122803	1298.811523	5214.639160	1707.476563	10.436236
692.449829	1307.207764	5199.035645	1701.532349	10.132118
692.776855	1305.424561	5162.255859	1713.420898	10.578537
693.103821	1307.579224	5129.637207	1713.197876	10.612572
693.430664	1298.142822	5068.560547	1712.306152	10.984548
693.757568	1291.827026	5057.117676	1701.012207	10.867293
694.084351	1292.050049	5049.910156	1695.216431	10.728616
694.411133	1300.371948	5047.458008	1694.993652	10.531429
694.737854	1303.641235	5035.197754	1699.080444	10.597165
695.064575	1293.090210	5049.241699	1706.584961	11.008469
695.391174	1287.443237	5073.389648	1711.414673	11.198559
695.717773	1291.158325	5109.798340	1721.445435	11.268072
696.044250	1299.628906	5140.113770	1727.909790	11.151740
696.370789	1302.006470	5206.391602	1732.070679	11.014902
696.697205	1312.928955	5291.914063	1736.454590	10.644062
697.023621	1311.442993	5418.080566	1750.646484	10.694965
697.349915	1300.743286	5559.626953	1771.228149	11.047140
697.676208	1289.078003	5744.789063	1794.262085	11.337901
698.002380	1291.381226	5938.050781	1814.843872	11.265330
698.328674	1301.114868	6130.346191	1839.066772	11.139493
698.654724	1301.263550	6263.125000	1860.688843	11.274505
698.980896	1299.108765	6362.244629	1877.332642	11.420272
699.306946	1300.446167	6374.652832	1879.710327	11.415857
699.632935	1309.213867	6307.781250	1871.314087	11.245227
699.958862	1308.470825	6165.862793	1859.722778	11.348722
700.284729	1309.659790	5985.010254	1849.097534	11.537910
700.610596	1305.201538	5796.207031	1830.001587	11.685580
700.936340	1307.282104	5604.431152	1802.732788	11.529754
701.262146	1304.532715	5444.011719	1778.435547	11.448369
701.587830	1300.669067	5306.625977	1761.866211	11.512783
701.913513	1301.040649	5179.865723	1756.293457	11.736874
702.239075	1300.074707	5057.489746	1749.160278	11.951982
702.564697	1293.238892	4951.905273	1742.398804	12.276602
702.890137	1284.693970	4858.283691	1725.606323	12.338079
703.215698	1285.585693	4771.275391	1717.655884	12.395544
703.541016	1291.529907	4710.420898	1710.597290	12.257406
703.866455	1299.257324	4677.950684	1712.231812	12.222905
704.191711	1301.932129	4653.059570	1698.634399	11.837874
704.517029	1304.532837	4603.796875	1696.256836	11.873072
704.842163	1309.956909	4551.413574	1701.755249	12.087108
705.167419	1306.836182	4518.125488	1716.541504	12.758282
705.492493	1299.777466	4509.283691	1712.083374	12.846396
705.817566	1296.805298	4501.778809	1705.321777	12.746329
706.142578	1305.573120	4493.159668	1703.910034	12.496506
706.467590	1310.402710	4501.778809	1707.773804	12.451404
706.792480	1307.282104	4499.475098	1706.882202	12.518044
707.117371	1297.102661	4499.178711	1696.033813	12.458515
707.442200	1296.953979	4493.383301	1707.550781	12.845484
707.766907	1290.712524	4496.132324	1713.346558	13.184981
708.091675	1286.625977	4486.472656	1727.092407	13.765236
708.416321	1284.916870	4498.212402	1731.922241	13.911119
708.741028	1291.009766	4504.379395	1739.055176	13.943165
709.065552	1297.176758	4551.041504	1747.451538	13.838153
709.390137	1299.406006	4567.388184	1737.791992	13.414577
709.714600	1290.118164	4598.224121	1736.008789	13.478728
710.039063	1294.056274	4623.486816	1740.021118	13.394628
710.363403	1301.263550	4657.888672	1754.658813	13.507475
710.687744	1310.922852	4718.520020	1768.553345	13.429712
711.012085	1308.396606	4753.813965	1771.748413	13.448350
711.336304	1301.412231	4791.336426	1771.451172	13.468456
711.660461	1309.288208	4793.862793	1771.451172	13.263109
711.984619	1307.356323	4786.655762	1779.847290	13.580061
712.308716	1309.213989	4760.055176	1787.872070	13.870765
712.632751	1306.316040	4728.030762	1782.819702	13.925873
712.956726	1311.145874	4689.690918	1774.646118	13.718931
713.280701	1305.275757	4635.152344	1765.729858	13.827964
713.604553	1298.588501	4583.660645	1766.547241	14.245006
713.928467	1296.433716	4532.391602	1761.048706	14.357881
714.252258	1303.269653	4502.744629	1766.918579	14.491406
714.575989	1299.182983	4486.249512	1764.689575	14.606115
714.899719	1290.638184	4483.872070	1773.828979	15.131707
715.223267	1283.208008	4506.683105	1768.033203	15.040451
715.546936	1286.031616	4529.939941	1775.612183	15.092306
715.870422	1294.947876	4550.298340	1765.804199	14.464074
716.193970	1297.845581	4524.664063	1768.627563	14.589664
716.517395	1302.378052	4483.426270	1755.401733	14.241333
716.840820	1306.761841	4442.560059	1753.692749	14.252540
717.164124	1304.978638	4392.925781	1743.216187	14.191873
717.487488	1302.600952	4356.145996	1742.473145	14.405296
717.810730	1289.895142	4301.310059	1731.104858	14.651242
718.133972	1293.164429	4263.118652	1726.721069	14.598092
718.457092	1297.474121	4200.704590	1724.863281	14.721159
718.780212	1301.486450	4138.215332	1727.909790	15.032220
719.103210	1305.127319	4083.157471	1721.668335	14.994114
719.426208	1299.703247	4021.337646	1711.191772	15.119170
719.749207	1304.012695	3973.115234	1711.265991	15.258061
720.072083	1298.960083	3922.589111	1717.730103	15.961481
720.394958	1298.514282	3888.632813	1720.628052	16.297083
720.717773	1297.473999	3855.047852	1714.981079	16.324343
721.040527	1299.926147	3825.475586	1701.309448	15.892911
721.363281	1301.412231	3821.537842	1692.987427	15.537925
721.685913	1310.551392	3812.695557	1684.665527	14.951742
722.008545	1308.693848	3795.382813	1698.040039	15.657213
722.331055	1311.517334	3765.141846	1702.944214	15.953007
722.653503	1298.217163	3754.293701	1700.640625	16.384809
722.976013	1293.684692	3765.661865	1692.541626	16.135139
723.298401	1293.387451	3768.708252	1690.015259	16.023289
723.620789	1297.697021	3757.488525	1704.430176	16.535269
723.943115	1304.012817	3746.491943	1704.058594	16.378677
724.265381	1302.080933	3740.993408	1711.340210	16.780399
724.587585	1287.443237	3750.132813	1701.681030	16.820545
724.909790	1287.963379	3760.014893	1704.207153	16.837990
725.231873	1284.025269	3772.423584	1689.718140	16.303373
725.553894	1293.981934	3774.132080	1689.569458	15.950144
725.875916	1319.319214	3797.686279	1733.036621	16.693144
726.197937	1320.879517	3794.268555	1751.463867	17.408678
726.519775	1320.062256	3801.253174	1749.977661	17.326979
726.841675	1295.988159	3798.355225	1718.324829	16.877485
727.163513	1295.319458	3836.323975	1718.324707	16.647167
727.485291	1299.183228	3878.230469	1730.956055	16.741562
727.806946	1301.783691	3913.078369	1727.984009	16.321419
728.128662	1303.938354	3927.344727	1735.562988	16.452833
728.450256	1305.944458	3940.496338	1737.048950	16.363485
728.771790	1301.114868	3929.128174	1733.110962	16.438126
729.093323	1302.749634	3913.598877	1729.916016	16.361206
729.414795	1301.858032	3891.382080	1732.590820	16.633667
729.736145	1303.046997	3885.586670	1738.237915	16.851278
730.057495	1306.241821	3898.440674	1743.513306	16.868748
730.378845	1302.229614	3899.183838	1750.349243	17.255585
730.700134	1303.121216	3911.072510	1757.185059	17.410749
731.021301	1295.765259	3925.412842	1766.398804	17.897211
731.342468	1298.588745	3958.328857	1768.924927	17.683538
731.663574	1293.684692	3978.985107	1766.101440	17.592697
731.984680	1300.669189	3982.922852	1756.516235	16.994926
732.305664	1304.532837	3995.628906	1757.333618	16.825886
732.626648	1309.882690	3994.440186	1763.426392	16.894541
732.947571	1305.201538	3982.848877	1766.918579	17.243383
733.268433	1301.040649	3949.858398	1765.655640	17.540466
733.589233	1295.393677	3925.487061	1764.318237	17.829199
733.909973	1300.074707	3903.790771	1769.370605	18.024080
734.230713	1302.229492	3866.639404	1768.776245	18.193142
734.551331	1307.059204	3805.264893	1760.751587	18.160730
734.871948	1301.263550	3752.436279	1751.835327	18.381886
735.192505	1301.263672	3713.501221	1743.587524	18.336662
735.513062	1295.393677	3683.557373	1730.287476	18.210386
735.833435	1294.650513	3649.080811	1719.662109	18.051569
736.153931	1290.638306	3606.654053	1713.792358	18.270777
736.474304	1290.341064	3581.019531	1712.529297	18.430706
736.794617	1292.867310	3561.477783	1710.077148	18.390547
737.114807	1297.028320	3564.301514	1714.015259	18.391562
737.434998	1301.634888	3574.778076	1719.662109	18.389833
737.755188	1305.944580	3581.688232	1721.668457	18.267605
738.075256	1302.972534	3594.839844	1719.810913	18.187719
738.395325	1309.659668	3619.879639	1716.244507	17.599400
738.715271	1308.693848	3657.031250	1726.423828	17.788328
739.035278	1309.956909	3666.690674	1731.996460	17.907816
739.355164	1308.693848	3662.529541	1745.965454	18.576981
739.675049	1312.409058	3639.867432	1737.940552	18.283096
739.994873	1313.077759	3630.059570	1729.172852	17.958496
740.314636	1302.452393	3601.156006	1726.943726	18.466553
740.634277	1292.644409	3571.211914	1724.268921	18.942802
740.953979	1292.570190	3533.614502	1726.869507	19.379326
741.273499	1289.672363	3497.577881	1722.337036	19.596159
741.593140	1292.421509	3462.803955	1717.135864	19.568642
741.912598	1289.895142	3435.534912	1711.414551	19.645395
742.232117	1297.771362	3403.213135	1698.708862	19.042915
742.551453	1297.474121	3387.014893	1691.872925	18.874903
742.870850	1303.641235	3365.615967	1681.916504	18.345293
743.190063	1303.641235	3349.492188	1679.464478	18.370020
743.509338	1307.059082	3325.046875	1675.526367	18.259144
743.828552	1306.241821	3306.173828	1677.681030	18.572592
744.147705	1305.498779	3298.891846	1679.910156	18.782616
744.466797	1301.189209	3277.344482	1686.374512	19.491652
744.785828	1301.783569	3253.270264	1689.792480	19.882734
745.104858	1303.641235	3225.778320	1686.820313	19.935055
745.423706	1304.012695	3214.707031	1672.925781	19.307802
745.742615	1302.229614	3213.147217	1664.752441	18.971138
746.061401	1306.910645	3208.465820	1664.083618	18.783203
746.380249	1304.904419	3211.957764	1663.712280	18.814779
746.698975	1308.471069	3205.270508	1674.337524	19.288622
747.017639	1301.858032	3213.964111	1673.445801	19.433428
747.336304	1300.223267	3203.858643	1682.065063	20.058558
747.654907	1293.610352	3196.577393	1676.789551	20.135881
747.973389	1292.570068	3173.915039	1682.585327	20.730661
748.291931	1301.560669	3181.940186	1676.269531	19.927299
748.610352	1300.000366	3190.187500	1673.445923	19.757069
748.928711	1303.195557	3205.047852	1672.405640	19.413183
749.247070	1297.325562	3202.595703	1677.532593	19.955545
749.565308	1299.926147	3199.326416	1683.774048	20.208900
749.883545	1300.966431	3183.648682	1682.882446	20.285740
750.201782	1298.737305	3168.342529	1690.387085	20.948261
750.519836	1297.994263	3154.150391	1686.374634	20.923906
750.837952	1293.610352	3146.348877	1685.557251	21.155003
751.155884	1304.384155	3139.141357	1682.287964	20.596939
751.473877	1304.830078	3130.670654	1677.532593	20.412653
751.791809	1309.808472	3133.122803	1673.000000	19.919304
752.109619	1302.229492	3115.736328	1667.947266	20.166330
752.427490	1300.149048	3111.575195	1662.374634	19.996708
752.745300	1297.994263	3119.822510	1664.678223	20.127253
753.062988	1292.718750	3135.054688	1662.746460	20.084703
753.380615	1295.170776	3137.580811	1671.736938	20.438782
753.698303	1299.034546	3119.748047	1667.278687	20.225266
754.015808	1305.350220	3120.119873	1672.331177	20.221903
754.333374	1302.080933	3129.630615	1666.535645	19.942261
754.650757	1295.467896	3134.014648	1666.164063	20.162455
754.968262	1294.204712	3131.042236	1657.990845	19.805025
755.285583	1299.777466	3116.776123	1656.207642	19.616425
755.602905	1305.052856	3100.578369	1661.557495	19.855169
755.920105	1309.139526	3086.386475	1664.083618	19.971569
756.237305	1306.018921	3087.055420	1664.529663	20.129332
756.554443	1298.960083	3094.188232	1664.306641	20.350983
756.871582	1289.449341	3099.612305	1669.953735	21.020451
757.188599	1293.238892	3104.962158	1676.120728	21.133572
757.505615	1295.765015	3107.562500	1682.956665	21.370581
757.822510	1300.149048	3124.949463	1697.222656	21.759838
758.139465	1292.941650	3150.435547	1704.727173	22.168877
758.456238	1294.130493	3182.459961	1698.040039	21.389782
758.773010	1295.170654	3209.283203	1683.996948	20.313660
759.089783	1297.325439	3211.809326	1681.247681	20.053564
759.406433	1298.811523	3235.214844	1687.043335	20.049120
759.723145	1303.418335	3237.740967	1699.823242	20.493216
760.039673	1304.087036	3250.892578	1710.077148	20.854168
760.356201	1298.662964	3251.635498	1715.278320	21.332371
760.672668	1296.953979	3257.505859	1715.129761	21.329493
760.989136	1305.275757	3254.087646	1715.426880	21.046215
761.305481	1306.464722	3237.889893	1714.238159	21.112568
761.621826	1305.573120	3239.821533	1723.080078	21.584970
761.938049	1304.607178	3259.735107	1729.247192	21.719296
762.254333	1305.127319	3301.492920	1738.386353	21.702389
762.570496	1303.343994	3361.529297	1753.915649	21.891695
762.886597	1298.440063	3472.760498	1777.469604	22.031231
763.202637	1297.399780	3645.588867	1815.512695	22.064362
763.518677	1299.331787	3874.292236	1849.914917	21.382198
763.834656	1303.121216	4080.111328	1893.010376	21.242033
764.150574	1306.093262	4218.313965	1926.075073	21.288971
764.466370	1306.687622	4241.050781	1938.557983	21.533474
764.782288	1301.932129	4169.868652	1926.817993	21.788692
765.097961	1305.647461	4025.795898	1902.818359	21.953615
765.413696	1306.464722	3853.710693	1870.645142	22.148642
765.729309	1308.173706	3679.619385	1831.338989	22.061026
766.044861	1306.613403	3526.778564	1793.519043	21.931057
766.360474	1302.155273	3415.993164	1768.627563	22.067553
766.675903	1297.176880	3327.647217	1755.476074	22.571085
766.991394	1300.297607	3279.870361	1744.627930	22.445768
767.306763	1304.532837	3223.772217	1734.522827	22.404188
767.622131	1304.681519	3190.707275	1718.919067	21.963514
767.937378	1296.656738	3140.033203	1705.173218	22.161316
768.252625	1289.523804	3112.318359	1691.055664	22.028366
768.567810	1288.557739	3065.135986	1685.259888	22.329563
768.882996	1294.204712	3038.461182	1683.328125	22.308842
769.197998	1299.554565	3002.572998	1677.383789	22.185856
769.513062	1311.294434	2986.523682	1668.764771	21.338593
769.828064	1314.118042	2971.217529	1669.582153	21.450981
770.142944	1310.848511	2955.019287	1667.724609	21.705538
770.457825	1304.087036	2946.028564	1665.421265	22.006523
770.772705	1299.034424	2925.892578	1658.288086	22.082666
771.087402	1303.269653	2905.682373	1650.189331	21.649834
771.402100	1301.486450	2869.422607	1645.062378	21.912622
771.716736	1298.885864	2836.431885	1630.796265	21.587023
772.031372	1296.211060	2814.290039	1633.396851	22.211348
772.345947	1298.514282	2811.689453	1634.139771	22.180214
772.660461	1296.731079	2807.156982	1636.071655	22.466549
772.974854	1296.210938	2792.816406	1628.864258	22.227188
773.289246	1293.164551	2776.395264	1622.622681	22.212196
773.603638	1295.393677	2765.398438	1623.737305	22.336229
773.917908	1305.647461	2758.191406	1626.709473	22.103428
774.232178	1308.470825	2748.234619	1626.040649	22.057077
774.546265	1313.597900	2737.312256	1628.790039	22.138720
774.860474	1303.567017	2733.745361	1625.817871	22.532215
775.174561	1297.771362	2726.984131	1621.731079	22.667004
775.488586	1289.672363	2718.810791	1615.341187	22.787773
775.802551	1293.907593	2712.718262	1607.687988	22.115734
776.116516	1296.211060	2706.328369	1616.901489	22.742109
776.430359	1298.068481	2691.690430	1614.672485	22.718069
776.744202	1295.839478	2674.303711	1616.455688	23.258944
777.057922	1295.319214	2670.588135	1612.369019	23.053659
777.371704	1296.433838	2674.972168	1617.941772	23.322378
777.685303	1293.684692	2679.950439	1614.375122	23.133402
777.998962	1298.737305	2666.055908	1607.911011	22.611679
778.312500	1300.371948	2658.105469	1596.096680	21.780764
778.626038	1310.254272	2646.811523	1601.669312	21.803410
778.939453	1307.207764	2647.628906	1607.167847	22.378048
779.252869	1310.997070	2645.771240	1615.564087	22.817869
779.566223	1303.046875	2643.839600	1611.403198	22.998060
779.879578	1306.836304	2654.613525	1610.585815	22.537071
780.192749	1308.396606	2663.678223	1605.384766	21.913391
780.505920	1311.740234	2669.325195	1611.477417	22.078705
780.819031	1304.012817	2646.513916	1612.889282	23.007540
781.132141	1296.731079	2621.920166	1617.718872	24.222036
781.445190	1294.799194	2600.298096	1613.855103	24.439386
781.758118	1298.662964	2597.400146	1602.264038	23.376637
782.071045	1298.365845	2588.335205	1595.650879	23.045898
782.383911	1294.576294	2574.663574	1585.471313	22.724625
782.696838	1301.560913	2550.960938	1582.722168	22.503702
783.009583	1298.068481	2536.917725	1575.960571	22.431469
783.322266	1303.343994	2530.824951	1580.047363	22.542376
783.634888	1293.313110	2525.401123	1588.071899	23.923517
783.947510	1292.718628	2527.184326	1586.734497	23.817257
784.260132	1291.901367	2521.314209	1577.075195	23.195936
784.572571	1293.461670	2521.016846	1569.644897	22.498640
784.885010	1297.251221	2501.624023	1572.319946	22.839169
785.197449	1301.263550	2487.506348	1581.384888	23.614166
785.509766	1301.040649	2482.008057	1579.378540	23.568634
785.822083	1300.371948	2490.627197	1569.644897	22.623127
786.134277	1299.703247	2492.781982	1562.437622	22.021545
786.446533	1301.783691	2497.314697	1567.490234	22.224981
786.758606	1308.768188	2504.150391	1569.644897	21.823708
787.070740	1301.189331	2513.586914	1576.183594	22.681854
787.382690	1297.325562	2515.147217	1573.285767	22.660149
787.694641	1293.313232	2525.549561	1587.403442	23.866381
788.006653	1295.839478	2550.738037	1596.393921	23.950497
788.318481	1304.384277	2595.542725	1606.944946	23.433271
788.630310	1308.916870	2633.362549	1614.152344	23.046282
788.942017	1304.681519	2660.706299	1624.183105	23.561634
789.253784	1305.721802	2659.368896	1626.560913	23.701828
789.565430	1297.697021	2652.532715	1615.341187	23.445217
789.877014	1299.926147	2632.025146	1607.836548	23.114679
790.188538	1297.919922	2607.431152	1600.926392	23.138899
790.500061	1293.981812	2564.855713	1605.607422	24.520576
790.811462	1299.405884	2526.515381	1587.180298	23.451405
791.122925	1289.003418	2499.543457	1575.366211	23.655788
791.434204	1296.359497	2481.190674	1561.843140	22.406876
791.745483	1292.347168	2466.627441	1563.997925	23.133383
792.056702	1301.783569	2453.698730	1556.567749	22.118311
792.367920	1302.378052	2450.355225	1550.994995	21.656960
792.678955	1302.303833	2439.729736	1551.737915	21.929699
792.990112	1299.926147	2427.767090	1555.453125	22.656296
793.301086	1298.960083	2410.603271	1557.905273	23.293913
793.612122	1299.703247	2410.454346	1549.657593	22.503181
793.922974	1295.319336	2401.984131	1558.276733	23.761251
794.233826	1297.474243	2405.327881	1565.038086	24.151552
794.544556	1298.440063	2406.665283	1571.874023	24.673140
794.855286	1300.966431	2411.271973	1563.997925	23.690010
795.166016	1296.731079	2403.024414	1552.035278	23.077442
795.476624	1297.771362	2410.528809	1547.874390	22.475969
795.787292	1302.155151	2434.899902	1558.202271	22.604132
796.097778	1305.721802	2477.104004	1563.477905	22.004440
796.408264	1305.796021	2510.837646	1571.056641	22.012569
796.718689	1301.040649	2516.856201	1573.508789	22.410318
797.029053	1296.656738	2505.785156	1585.174194	23.861607
797.339355	1291.827148	2490.627441	1580.790405	24.104370
797.649658	1295.765137	2481.562256	1571.502563	23.253340
797.959839	1299.257446	2466.701904	1569.125000	23.116093
798.270020	1299.926147	2449.389404	1572.394165	23.703934
798.580078	1296.656860	2433.339844	1572.765747	24.290756
798.890137	1303.195435	2424.349121	1566.450073	23.480692
799.200195	1303.938477	2398.566162	1558.202515	23.228357
799.510071	1310.551392	2389.129639	1559.019653	23.036648
799.820007	1305.498779	2380.361816	1554.115723	23.130104
800.129883	1299.554565	2386.529053	1551.217896	23.152643
800.439575	1298.960083	2375.680908	1540.741211	22.455322
800.749329	1295.244995	2364.312500	1535.094238	22.435369
801.058960	1304.161255	2352.647217	1535.242798	22.039545
801.368591	1298.960083	2337.043701	1541.632813	23.376993
801.678162	1300.074585	2329.984863	1547.354126	24.009813
801.987671	1300.743286	2309.997314	1552.926880	24.987127
802.297119	1294.353394	2305.464600	1547.354126	25.022049
802.606506	1291.455444	2296.697021	1547.577148	25.478622
802.915894	1284.471069	2295.953857	1531.304688	24.403145
803.225159	1289.523682	2289.043701	1522.982910	23.357134
803.534424	1294.576294	2276.932373	1514.066528	22.343246
803.843628	1301.263428	2277.452637	1527.218140	23.146610
804.152771	1306.613281	2283.916992	1534.722656	23.340685
804.461792	1309.659668	2285.997559	1539.552368	23.546429
804.770874	1307.356323	2291.421631	1533.162476	22.946257
805.079773	1307.876465	2288.375244	1526.623657	22.309788
805.388733	1302.155273	2296.474121	1520.976685	22.007168
805.697571	1298.885864	2297.811523	1521.125366	22.247852
806.006470	1294.502075	2307.099365	1530.264648	23.282955
806.315125	1296.656860	2322.182861	1538.289185	23.561794
806.623901	1304.681396	2334.442871	1533.608032	22.231035
806.932495	1307.504883	2334.368408	1532.642212	21.924757
807.241150	1307.430542	2324.040771	1527.292480	21.626965
807.549622	1307.950806	2303.012939	1533.385254	22.655313
807.858154	1313.969360	2296.102783	1530.264648	22.023005
808.166565	1312.631958	2289.712646	1529.967285	22.243334
808.474915	1309.659790	2281.167969	1530.784546	22.760977
808.783264	1304.830078	2264.672607	1529.670044	23.424673
809.091492	1307.430664	2249.440430	1526.400757	23.244991
809.399719	1310.477051	2237.923584	1512.357544	21.767345
809.707825	1305.127319	2233.242432	1509.608398	22.031866
810.015930	1298.662964	2214.295166	1504.481567	22.478306
810.323975	1290.118164	2208.722900	1511.540405	24.104191
810.632080	1291.901367	2193.565186	1508.716797	24.046150
810.939880	1291.455566	2193.044922	1509.311157	24.163506
811.247864	1295.096313	2179.224365	1505.670288	23.817135
811.555664	1295.467896	2176.177979	1499.057251	23.116501
811.863464	1298.811523	2169.862305	1499.726196	23.065783
812.171143	1301.189331	2163.769531	1494.822266	22.448109
812.478882	1302.155151	2164.809814	1500.617798	23.006037
812.786438	1303.938477	2165.924561	1497.868530	22.498049
813.094055	1301.783691	2172.685791	1500.617798	22.830822
813.401489	1296.359619	2172.983154	1506.116211	23.927784
813.708984	1295.542358	2164.884277	1503.441284	23.914518
814.016357	1295.319336	2155.076416	1503.738403	24.241623
814.323730	1296.731079	2138.135498	1500.171997	24.178732
814.630981	1297.994263	2137.986572	1500.543579	24.113235
814.938232	1301.783691	2136.946289	1499.726196	23.701075
815.245361	1302.006470	2129.887451	1494.450684	23.245396
815.552490	1293.684692	2124.092041	1490.215332	23.666775
815.859619	1293.610474	2132.933838	1488.654907	23.238295
816.166565	1299.851929	2139.472412	1491.924316	22.876097
816.473572	1309.288208	2139.695557	1502.401001	23.255188
816.780457	1310.476929	2131.893799	1504.333008	23.600206
817.087341	1314.192139	2140.438477	1505.670288	23.174463
817.394043	1311.071411	2149.652100	1504.555786	23.072840
817.700806	1304.161255	2150.989258	1510.574219	24.374840
818.007507	1294.873535	2151.955322	1510.202759	25.123533
818.314209	1296.359497	2152.178467	1516.890015	25.768360
818.620667	1298.514282	2166.295898	1517.484375	25.233318
818.927246	1296.879639	2183.088135	1527.218140	25.991457
819.233704	1298.514282	2220.611084	1531.676270	25.286064
819.540161	1301.114868	2263.186523	1549.806274	25.849571
819.846497	1302.526733	2330.504883	1557.905273	24.842798
820.152832	1299.405884	2405.327881	1571.428223	24.596884
820.458984	1297.474121	2488.769775	1578.709839	23.607550
820.765259	1300.520508	2584.917236	1601.669434	23.446722
821.071350	1306.390503	2691.318848	1628.046875	23.225489
821.377502	1307.727783	2864.369873	1671.959961	23.398582
821.683472	1307.281982	3196.948975	1753.098267	23.592319
821.989441	1308.842407	3840.335938	1895.239380	23.164070
822.295349	1308.693848	4899.446777	2137.689209	23.086950
822.601196	1309.065430	6195.286621	2450.429443	23.358828
822.907043	1299.703247	7383.609863	2769.782471	24.163408
823.212769	1301.560913	8059.318848	2964.604248	24.609396
823.518494	1304.532837	8059.689941	2978.201904	24.776167
823.824097	1308.099487	7471.287109	2829.744873	24.689260
824.129700	1303.418335	6526.082031	2598.886230	24.804735
824.435242	1291.604248	5549.075684	2359.408447	25.080711
824.740723	1288.632080	4726.693359	2154.853271	25.195047
825.046082	1294.650513	4120.977539	1995.622437	24.801514
825.351501	1305.795898	3688.832764	1891.895874	24.594667
825.656799	1303.418335	3396.749023	1820.119507	24.683210
825.962036	1299.257324	3225.481201	1782.150757	25.069435
826.267212	1291.752808	3147.612061	1756.813477	25.059048
826.572449	1297.028198	3159.871826	1758.671265	24.781633
826.877502	1298.291382	3299.337891	1792.776001	24.711300
827.182495	1309.734131	3570.617188	1864.998413	24.559620
827.487488	1306.984985	3913.969971	1957.802368	24.964371
827.792419	1302.823853	4204.791016	2025.492188	24.902704
828.097290	1296.136719	4306.214355	2043.473633	24.827829
828.402100	1297.771362	4182.648438	2007.733887	24.609802
828.706848	1305.275879	3897.697998	1936.997559	24.368010
829.011597	1301.932251	3524.846924	1841.667358	24.280516
829.316223	1304.607300	3176.367188	1753.915649	24.004593
829.620789	1302.080933	2860.803467	1679.687378	24.225380
829.925354	1307.653564	2643.616455	1631.316284	24.226925
830.229797	1305.053101	2488.249268	1584.951538	23.656132
830.534302	1302.155151	2384.820313	1550.772095	22.963419
830.838562	1295.839478	2308.214111	1522.834351	22.422024
831.142944	1299.628906	2245.577148	1508.419434	22.072088
831.447144	1299.777466	2216.747559	1507.082031	22.607561
831.751404	1305.498901	2191.335938	1504.555664	22.471037
832.055542	1302.972534	2184.351318	1507.156372	23.166412
832.359619	1297.920044	2190.072754	1501.509399	22.820011
832.663635	1295.988159	2217.713379	1511.540405	23.385738
832.967651	1295.096558	2268.239258	1531.527710	24.295630
833.271545	1297.994263	2358.442627	1558.573853	24.572586
833.575439	1305.201660	2516.855957	1594.164917	23.848656
833.879211	1303.343994	2742.439453	1636.740356	23.167078
834.183044	1310.477051	2987.638428	1698.931763	23.161440
834.486694	1304.978638	3179.561768	1750.720703	23.778196
834.790344	1314.118042	3242.719482	1779.252930	24.117729
835.093933	1306.984985	3161.580811	1757.928101	24.314899
835.397522	1311.220215	2991.798828	1711.860352	23.839417
835.700928	1309.659790	2796.977295	1658.659668	23.465055
836.004395	1311.220093	2613.301025	1611.477417	23.059805
836.307739	1304.309937	2455.259033	1577.446777	23.731443
836.611023	1302.303711	2330.727783	1548.468750	23.936142
836.914307	1304.681519	2233.242432	1537.472046	25.070032
837.217529	1304.309937	2160.500000	1522.462891	25.479502
837.520691	1299.406128	2098.828857	1511.020142	26.470852
837.823730	1293.907593	2056.550781	1489.175171	25.604055
838.126831	1296.062378	2018.284790	1476.543823	24.989733
838.429749	1300.817749	1991.238647	1459.751343	23.019812
838.732727	1302.972534	1968.576294	1447.491333	21.712437
839.035522	1303.789917	1949.852051	1445.113647	21.874634
839.338379	1301.263550	1932.688110	1447.937134	23.228996
839.641113	1299.554565	1933.059570	1459.156860	25.193533
839.943848	1301.635132	1967.610352	1465.695435	24.634596
840.246460	1300.297485	2026.161011	1479.738647	24.721060
840.549072	1305.573120	2085.231689	1488.952148	23.520428
840.851563	1303.269653	2117.032959	1487.837524	22.680780
841.154053	1305.052979	2116.587158	1479.367188	21.479589
841.456482	1302.452393	2082.556641	1462.872070	20.563877
841.758850	1301.040649	2028.612915	1459.677124	21.803535
842.061157	1299.405884	1975.114868	1454.104126	22.894211
842.363403	1304.309937	1924.068848	1452.246704	23.870050
842.665588	1295.690796	1883.499634	1443.553223	25.154850
842.967712	1294.130493	1843.673462	1435.231323	25.676033
843.269775	1292.867310	1815.735718	1429.807251	26.190134
843.571777	1297.325562	1802.063965	1424.085938	25.114075
843.873840	1301.040649	1792.553101	1415.689819	23.325792
844.175659	1302.006470	1782.002075	1407.293579	21.935015
844.477600	1303.121094	1762.832031	1399.417358	20.947134
844.779297	1307.505005	1752.726929	1393.473145	19.309053
845.081116	1308.693726	1741.804565	1399.714722	21.015636
845.382751	1310.922852	1737.197754	1393.919067	19.470116
845.684387	1305.201538	1726.721069	1392.507324	20.712156
845.985962	1301.932251	1722.634399	1384.631226	19.657370
846.287537	1299.926147	1712.826294	1388.643555	21.486408
846.588989	1300.149048	1700.640625	1386.042969	21.447123
846.890381	1291.529907	1691.873047	1382.476440	22.717146
847.191711	1296.433960	1685.780151	1372.817017	19.618288
847.493042	1295.468018	1681.693359	1379.504395	21.758379
847.794250	1300.000366	1677.978394	1383.293823	22.036587
848.095459	1300.074707	1677.012329	1390.352539	23.950336
848.396606	1303.789795	1673.891602	1384.705444	21.863079
848.697693	1316.792725	1668.541870	1380.172974	18.018593
848.998657	1314.860962	1663.712280	1380.916016	18.935017
849.299622	1319.021851	1668.690430	1375.714844	16.213350
849.600464	1313.523560	1672.479980	1379.355835	18.339907
849.901367	1310.848633	1675.229126	1371.925415	16.761814
850.202087	1300.297607	1663.340698	1373.708618	20.221018
850.502808	1289.746582	1652.715454	1369.250610	21.903814
850.803467	1295.244995	1643.799194	1377.795288	23.683632
851.104065	1303.789795	1644.690796	1379.132813	22.101143
851.404663	1307.207642	1640.901245	1376.606445	20.797163
851.705139	1298.439941	1640.901367	1373.040039	21.783504
852.005615	1296.285278	1631.910645	1373.411499	22.979855
852.306030	1293.758911	1635.625610	1382.699219	26.016079
852.606384	1295.913696	1629.681519	1379.801392	25.133549
852.906616	1290.563965	1634.511230	1378.612671	25.599478
853.206909	1298.811523	1637.929199	1371.554077	21.450535
853.506958	1305.052979	1636.517456	1359.665527	16.476139
853.807129	1308.025024	1638.077759	1356.321899	14.633079
854.107178	1304.978638	1631.390503	1349.634644	13.680877
854.407166	1299.703125	1634.882813	1366.501343	19.929077
854.707092	1295.765015	1622.919922	1374.526001	24.074524
855.007019	1297.919800	1618.759155	1380.172974	25.636871
855.306763	1299.480225	1610.660034	1368.210327	22.086941
855.606567	1307.282104	1613.483398	1368.433228	19.970890
855.906250	1305.424438	1612.591919	1367.244507	20.125851
856.205933	1302.749634	1610.065552	1372.445679	22.678957
856.505493	1300.371948	1614.300903	1365.832642	20.852072
856.805054	1304.087036	1613.260742	1360.111328	18.120653
857.104492	1301.486450	1613.557983	1356.396240	17.595257
857.403931	1297.548462	1609.619995	1357.733765	19.285740
857.703308	1289.969604	1602.338257	1365.758423	24.262619
858.002563	1289.077881	1605.013062	1371.256836	26.011333
858.301819	1289.449463	1601.297852	1365.312622	24.326937
858.601013	1288.186401	1606.499023	1362.414673	23.319300
858.900208	1297.399902	1601.743774	1365.684082	22.436522
859.199219	1297.102661	1605.458984	1375.937866	25.566269
859.498291	1301.932251	1602.041016	1372.668457	23.570190
859.797302	1302.229492	1600.257690	1366.055664	21.416151
860.096191	1307.579224	1603.378418	1357.733765	16.955605
860.395020	1300.966309	1605.310181	1361.894653	20.019573
860.693787	1293.610352	1603.601196	1361.077271	21.764166
860.992554	1288.334839	1593.124634	1366.427124	25.621687
861.291260	1296.656860	1594.313477	1365.981323	23.290079
861.589844	1303.269653	1598.325806	1370.439453	22.765091
861.888428	1304.309937	1593.867676	1369.770630	22.607130
862.186890	1306.464722	1593.867676	1359.145386	18.329897
862.485413	1304.532837	1594.239258	1357.584961	18.312374
862.783813	1306.241821	1599.737671	1354.612793	16.480972
863.082153	1300.817749	1592.530151	1370.736450	23.968369
863.380371	1297.771362	1597.359863	1361.597290	21.304531
863.678589	1293.090210	1601.372192	1362.117432	22.390936
863.976746	1302.675293	1599.663208	1355.727417	17.863396
864.274902	1309.734009	1589.038086	1356.321899	16.679989
864.572937	1308.693726	1579.675781	1352.383911	16.122908
864.870911	1303.864136	1585.620117	1346.885498	15.269014
865.168884	1297.325439	1592.158691	1351.269409	18.296432
865.466736	1300.743286	1598.325806	1360.036987	19.925129
865.764587	1291.901367	1594.016235	1360.631470	22.749659
866.062317	1297.474121	1585.174194	1358.848145	21.332642
866.360107	1300.446289	1574.697632	1352.755371	19.073410
866.657715	1306.018921	1573.954468	1358.922485	19.744884
866.955322	1307.059204	1578.115601	1361.077271	19.928719
867.252808	1298.960205	1586.883301	1361.002930	21.548367
867.550293	1300.149048	1590.152466	1359.145386	20.343325
867.847717	1288.260620	1583.688110	1358.253784	23.692163
868.145081	1294.650757	1578.115601	1360.036987	23.066786
868.442383	1288.260620	1575.291992	1356.173218	23.660339
868.739624	1294.353394	1578.635620	1356.470581	21.850534
869.036804	1297.251221	1576.480835	1348.891602	18.493877
869.333984	1297.325562	1573.508789	1348.297241	18.455748
869.631042	1307.356445	1578.041138	1350.452026	15.920953
869.928101	1303.938477	1583.762573	1352.161011	17.233160
870.224976	1312.854858	1583.316772	1355.578857	15.796679
870.521851	1303.492676	1584.208374	1357.584961	19.269419
870.818726	1303.344116	1585.322876	1357.436401	19.183105
871.115479	1293.758911	1585.322876	1357.733521	21.941877
871.412231	1296.359497	1573.508789	1361.745972	23.592510
871.708862	1304.235596	1570.165161	1364.866699	22.799685
872.005493	1314.489380	1575.440796	1367.541626	20.330315
872.302063	1315.529663	1579.378784	1354.092896	14.615638
872.598572	1312.037598	1579.824585	1347.777100	13.346243
872.895020	1299.926147	1581.607788	1344.656372	15.879709
873.191406	1297.176880	1585.991577	1354.538574	19.861073
873.487671	1292.792969	1587.180298	1365.683960	24.760235
873.783997	1293.907593	1578.561401	1370.067749	26.755362
874.080200	1296.805298	1579.452759	1367.838745	25.131464
874.376343	1292.718750	1572.839844	1357.584961	23.156488
874.672424	1300.594727	1573.285767	1349.931763	18.092649
874.968445	1295.988037	1567.044312	1347.554077	19.024109
875.264465	1298.885864	1567.415894	1354.166992	20.586573
875.560364	1300.892090	1564.666626	1355.281616	20.619703
875.856201	1303.195313	1566.895874	1354.687134	19.526625
876.152039	1311.591553	1568.530396	1353.944214	16.483557
876.447754	1308.099243	1571.056641	1352.161011	16.756239
876.743469	1311.071411	1572.691406	1358.105225	17.977913
877.039063	1308.247925	1573.434448	1355.356079	17.764158
877.334595	1303.641235	1569.199219	1361.300171	21.712372
877.630127	1301.858032	1566.152832	1357.064941	20.888382
877.925537	1302.601074	1561.917603	1359.888428	22.091671
878.221008	1306.241821	1567.861694	1352.978149	17.864212
878.516296	1300.892090	1577.521118	1353.052368	18.855679
878.811646	1292.867310	1599.588867	1358.625122	21.438927
879.106812	1290.638306	1622.102539	1366.649902	22.932066
879.401978	1293.907593	1641.941528	1375.863403	23.548223
879.697083	1294.650635	1672.256958	1374.377441	21.113737
879.992126	1293.387573	1695.216797	1381.881958	22.022884
880.287109	1291.604370	1741.358521	1386.042969	20.997828
880.582031	1291.009766	1802.807007	1399.045898	21.109167
880.876892	1293.981934	1951.709595	1425.274780	19.961582
881.171753	1298.514282	2200.846680	1479.441406	20.051050
881.466492	1304.012817	2617.164795	1577.149536	20.800085
881.761230	1311.443115	3129.110596	1701.532349	21.460979
882.055786	1311.517456	3643.953857	1827.549683	22.124170
882.350403	1306.539063	3943.542725	1903.115601	22.623274
882.644958	1293.164551	3970.440186	1915.970093	23.262661
882.939453	1284.248169	3723.531982	1860.614624	23.628513
883.233826	1293.015869	3361.306641	1777.024048	23.401360
883.528137	1297.845581	2988.455811	1676.938110	22.423414
883.822449	1307.356323	2664.421387	1601.817993	21.698420
884.116577	1300.149048	2406.219482	1539.106445	21.604176
884.410828	1303.418335	2205.230225	1501.434937	21.957640
884.704956	1304.755737	2059.745605	1466.215698	21.385712
884.999023	1306.241821	1952.749878	1446.376953	21.675697
885.292969	1303.789917	1869.530762	1436.866211	23.522484
885.586914	1301.040649	1819.079224	1422.674194	23.479631
885.880798	1304.087036	1781.259155	1414.277954	23.092489
886.174622	1304.012817	1753.841431	1402.761108	21.952425
886.468384	1305.647461	1726.200806	1397.411255	21.819775
886.762085	1299.257446	1709.779907	1391.615601	22.497711
887.055664	1301.709351	1697.074219	1378.761353	19.488834
887.349304	1301.560791	1683.625366	1372.148315	18.475286
887.642822	1301.858032	1661.854614	1360.111450	16.181658
887.936340	1301.635010	1638.151978	1359.294067	17.134071
888.229736	1299.703125	1624.108887	1352.458130	16.262043
888.523071	1302.006470	1605.904663	1351.566406	16.308073
888.816284	1299.480347	1597.656860	1352.755371	17.866941
889.109619	1301.040649	1578.635620	1357.362183	20.289104
889.402710	1298.662964	1570.833862	1356.767700	21.348621
889.695862	1301.709351	1561.620239	1345.473755	16.838234
889.988892	1301.635132	1558.202515	1344.879272	16.854887
890.281921	1307.133423	1556.344971	1353.944092	18.783506
>>>>>End Processed Spectral Data<<<<<
