Jaz Data File
++++++++++++++++++++++++++++++++++++
Date: Fri Jun 04 11:42:55 2021
User: jaz
Dark Spectrum Present: Yes
Reference Spectrum Present: Yes
Processed Spectrum Present: Yes
Spectrometers: JAZA3586
Integration Time (usec): 32700 (JAZA3586)
Spectra Averaged: 10 (JAZA3586)
Boxcar Smoothing: 1 (JAZA3586)
Correct for Electrical Dark: No (JAZA3586)
Strobe/Lamp Enabled: Yes (JAZA3586)
Correct for Detector Non-linearity: No (JAZA3586)
Correct for Stray Light: No (JAZA3586)
Number of Pixels in Processed Spectrum: 2048
>>>>>Begin Processed Spectral Data<<<<<
W	D	R	S	P
191.335022	0.000000	0.000000	0.000000	0.000000
191.713211	403.835297	413.123077	401.829132	-21.600042
192.091385	811.311340	818.147278	813.317627	29.349108
192.469528	1227.035034	1231.419067	1226.960938	-1.690149
192.847641	1239.889526	1226.886597	1233.648071	48.000374
193.225739	1250.737671	1243.307495	1240.781128	134.001450
193.603790	1255.344482	1251.777954	1245.610718	272.919861
193.981842	1258.465210	1273.177124	1258.465088	-0.000830
194.359863	1257.573608	1281.276123	1256.979126	-2.508099
194.737854	1264.186523	1280.681763	1260.991455	-19.369638
195.115829	1271.096680	1273.622925	1262.848999	-326.479828
195.493774	1282.242065	1270.576538	1263.814941	157.962204
195.871704	1281.424683	1272.656982	1263.443359	205.085968
196.249603	1276.817993	1278.749878	1265.226685	-600.000000
196.627457	1269.982178	1276.297852	1266.192627	-60.002319
197.005310	1269.090454	1275.109009	1267.455688	-27.162096
197.383133	1273.994507	1267.158691	1261.140015	188.046219
197.760910	1276.520630	1259.802612	1266.861450	57.777065
198.138687	1275.480469	1264.335083	1267.010132	75.998596
198.516449	1270.353516	1266.044067	1272.731323	-55.176613
198.894180	1268.644653	1274.291626	1264.112183	-80.263725
199.271866	1269.759155	1272.582642	1257.424927	-436.843933
199.649536	1270.204956	1278.972778	1258.688110	-131.353546
200.027191	1267.084351	1277.783813	1264.112183	-27.778666
200.404816	1259.951294	1277.189453	1263.369141	19.827213
200.782410	1252.892456	1284.619751	1258.688110	18.267092
201.159988	1255.641724	1290.563843	1256.830444	3.403919
201.537537	1262.403198	1298.142822	1255.715942	-18.711040
201.915070	1270.279419	1294.130493	1254.007080	-68.224762
202.292557	1269.536377	1303.121094	1250.366211	-57.080029
202.670029	1261.734619	1310.848633	1260.248535	-3.025784
203.047485	1254.081421	1316.941406	1257.796509	5.910100
203.424911	1256.979126	1313.151978	1269.982056	23.148067
203.802292	1257.127563	1309.511230	1265.746826	16.454103
204.179688	1262.031738	1306.316284	1264.557983	5.704575
204.557037	1254.601440	1312.631958	1260.322754	9.859146
204.934357	1252.669556	1313.894897	1261.585938	14.563221
205.311661	1252.446655	1315.158081	1272.136841	31.398083
205.688934	1252.372437	1306.464722	1262.180298	18.131720
206.066177	1249.028809	1301.040649	1260.842896	22.714226
206.443390	1242.192871	1294.799316	1253.041138	20.621553
206.820587	1241.524292	1296.656860	1258.167969	30.188467
207.197769	1240.706909	1299.257324	1254.824341	24.111582
207.574921	1243.456177	1299.554565	1251.926392	15.098856
207.952042	1243.307495	1294.724854	1247.022583	7.225358
208.329147	1252.149536	1292.495850	1243.827515	-20.626472
208.706223	1254.006958	1297.994263	1255.344360	3.040428
209.083267	1254.675781	1302.898193	1261.437256	14.021436
209.460297	1252.520996	1306.539063	1254.155640	3.026105
209.837280	1252.669556	1309.659668	1240.632446	-21.121399
210.214264	1252.075195	1309.956909	1235.877319	-27.984444
210.591217	1252.892456	1299.406128	1251.406494	-3.194678
210.968124	1249.400269	1293.907593	1249.251709	-0.333787
211.345016	1248.508667	1294.427734	1254.453003	12.945246
211.721893	1246.428101	1297.548340	1255.790405	18.314281
212.098724	1249.177368	1288.706421	1260.842896	29.511274
212.475555	1249.994629	1282.242065	1263.963501	43.317776
212.852356	1252.000854	1298.068481	1262.180176	22.096474
213.229126	1251.555054	1306.093262	1263.369019	21.661814
213.605865	1254.972900	1307.505005	1258.762329	7.213548
213.982590	1256.533325	1294.130493	1255.418701	-2.964649
214.359283	1253.115356	1291.009766	1252.297974	-2.157001
214.735931	1248.434326	1292.941650	1245.165039	-7.345504
215.112579	1247.542603	1299.182983	1240.261108	-14.100389
215.489197	1249.400269	1301.114868	1240.558228	-17.097765
215.865799	1251.034790	1305.944702	1243.753174	-13.261024
216.242355	1249.474609	1304.830200	1248.359985	-2.013571
216.618896	1251.406494	1304.830078	1244.496216	-12.934883
216.995407	1252.000854	1299.926147	1240.335205	-24.341322
217.371902	1251.109253	1292.941650	1244.347534	-16.163834
217.748367	1253.412720	1290.415405	1244.644897	-23.695097
218.124802	1252.892578	1298.588745	1245.685181	-15.772433
218.501236	1253.858398	1297.994141	1235.059937	-42.592377
218.877609	1248.137085	1305.052979	1235.431396	-22.323622
219.253983	1253.041138	1299.554565	1241.226929	-25.399567
219.630295	1247.394043	1310.477051	1244.719116	-4.240328
220.006592	1252.223755	1309.956909	1250.737671	-2.574056
220.382889	1250.217651	1307.579224	1247.839844	-4.145297
220.759140	1254.155640	1297.697021	1246.873901	-16.723719
221.135391	1255.270142	1298.737305	1247.765503	-17.265076
221.511581	1247.914185	1306.613159	1254.007080	10.379901
221.887772	1245.387939	1320.433472	1256.458984	14.752437
222.263931	1238.106323	1321.845337	1261.511597	27.950262
222.640060	1241.449829	1319.467773	1267.307251	33.142918
223.016159	1244.124878	1310.551392	1272.062500	42.057938
223.392212	1244.793457	1315.604004	1266.415649	30.535271
223.768265	1248.805786	1321.251099	1258.019409	12.718039
224.144302	1245.313599	1332.767944	1254.229980	10.195470
224.520294	1248.359985	1323.405762	1248.805786	0.594038
224.896286	1244.199097	1318.873413	1247.765625	4.776111
225.272217	1251.480835	1311.666016	1253.635498	3.580056
225.648148	1245.982422	1317.981812	1262.551880	23.013330
226.024048	1250.291870	1318.055908	1261.883179	17.105398
226.399902	1244.644897	1325.932007	1256.087524	14.076804
226.775772	1248.582886	1336.928833	1250.366211	2.018570
227.151581	1242.861694	1350.600586	1259.133911	15.103382
227.527374	1243.010254	1354.761597	1267.381470	21.808432
227.903137	1242.861694	1355.801636	1271.319458	25.197254
228.278870	1246.576660	1353.572510	1275.926392	27.430719
228.654572	1247.319702	1362.786133	1279.492920	27.863699
229.030273	1255.195801	1368.953247	1289.969604	30.568377
229.405930	1261.808716	1381.584839	1294.650757	27.419523
229.781555	1265.598267	1386.042969	1288.854980	19.309038
230.157181	1262.774658	1395.628052	1293.684692	23.266273
230.532761	1251.555054	1394.662109	1281.201782	20.716469
230.908325	1249.846069	1391.467163	1280.607422	21.720882
231.283859	1251.926636	1384.631226	1270.427856	13.941658
231.659332	1256.682007	1373.114258	1274.886108	15.634931
232.034821	1258.168091	1369.399048	1281.053223	20.574427
232.410263	1250.960571	1366.575562	1282.836548	27.570799
232.785690	1249.846069	1373.337280	1276.595093	21.660669
233.161087	1251.629395	1368.061646	1266.564209	12.827043
233.536469	1248.657227	1372.594238	1272.508423	19.244612
233.911804	1247.245483	1374.749023	1280.235962	25.874166
234.287140	1248.434448	1386.340210	1287.814819	28.556002
234.662430	1251.629272	1390.649780	1282.539307	22.234154
235.037704	1253.709839	1399.937500	1282.836548	19.918741
235.412933	1249.846069	1402.241089	1283.802368	22.281765
235.788162	1255.864624	1402.538086	1287.368896	21.479191
236.163345	1255.344482	1399.417358	1290.935425	24.703430
236.538513	1254.304321	1399.120117	1292.347168	26.269819
236.913635	1245.239380	1395.776489	1286.923096	27.689993
237.288742	1241.598511	1400.903442	1284.693970	27.052181
237.663834	1244.719116	1399.863281	1287.146118	27.346825
238.038879	1246.353882	1402.612305	1292.347168	29.434116
238.413910	1254.898560	1407.813477	1291.455566	23.906763
238.788910	1248.359985	1420.742188	1289.449341	23.836193
239.163879	1251.257813	1428.544312	1290.638306	22.212912
239.538834	1239.815308	1431.144897	1302.823853	32.931938
239.913757	1241.078247	1442.141602	1315.826904	37.176670
240.288651	1245.016235	1468.147461	1328.384155	37.362732
240.663528	1253.561157	1496.233887	1330.241577	31.598284
241.038361	1254.378540	1520.456543	1343.021729	33.314739
241.413177	1253.561157	1545.496460	1353.275513	34.156319
241.787979	1254.527222	1566.152710	1369.101929	36.766796
242.162735	1257.722168	1600.777710	1373.485840	33.744877
242.537476	1257.202148	1630.647461	1379.281372	32.689987
242.912170	1258.688110	1650.709351	1394.067749	34.533752
243.286865	1260.545654	1653.012695	1399.714722	35.460064
243.661514	1262.774780	1638.746582	1398.377319	36.067211
244.036148	1251.777832	1623.514526	1383.145142	35.338806
244.410751	1249.251587	1607.911011	1375.566040	35.218494
244.785339	1253.115356	1612.369141	1376.457886	34.332981
245.159882	1255.047241	1625.297852	1385.002808	35.099354
245.534378	1255.790405	1655.539063	1401.795288	36.524170
245.908890	1250.663452	1697.594360	1414.946777	36.758102
246.283356	1260.991577	1767.513184	1441.175659	35.572834
246.657791	1257.424927	1842.112915	1468.816284	36.154556
247.032196	1252.818115	1903.412720	1516.369995	40.509384
247.406586	1240.335327	1938.632324	1533.756714	42.019569
247.780960	1243.233154	1949.257690	1541.261230	42.212143
248.155289	1241.969971	1936.626099	1524.245972	40.635357
248.529602	1250.217529	1903.338501	1503.218384	38.737213
248.903870	1247.542603	1852.589722	1486.128540	39.432621
249.278122	1246.205200	1793.147461	1468.444702	40.633083
249.652344	1245.610840	1748.194336	1454.252930	41.513916
250.026550	1248.434448	1710.448608	1440.061035	41.476345
250.400711	1255.121582	1689.346680	1429.212891	40.092411
250.774857	1254.304199	1687.637695	1430.847534	40.740753
251.148987	1256.756104	1713.792358	1438.352051	39.733379
251.523071	1252.520874	1746.634155	1448.011353	39.563900
251.897125	1252.520996	1767.735962	1464.283691	41.101814
252.271164	1246.502441	1771.005249	1467.330078	42.102280
252.645187	1243.456055	1771.896973	1473.645874	43.560181
253.019165	1240.483887	1770.782349	1464.209351	42.188595
253.393112	1241.747070	1759.562866	1466.735718	43.449554
253.767044	1245.462280	1737.123413	1452.246704	42.058323
254.140930	1251.406372	1713.569336	1449.646118	42.893906
254.514801	1256.310425	1698.188843	1435.231445	40.491009
254.888657	1261.437256	1698.040039	1433.670898	39.448589
255.262466	1258.539429	1707.922363	1434.414063	39.136917
255.636276	1260.025513	1728.727173	1444.073242	39.267567
256.010010	1254.229980	1742.918945	1458.190918	41.736351
256.383759	1249.846069	1763.500854	1472.902710	43.425400
256.757446	1243.307373	1792.701660	1485.311401	44.049244
257.131134	1243.901733	1840.106812	1502.401001	43.357441
257.504791	1247.691284	1883.499634	1521.125366	43.005741
257.878418	1250.588989	1950.817871	1548.988770	42.614605
258.252014	1253.338257	2027.721191	1590.003906	43.475346
258.625580	1243.158691	2142.444580	1644.839355	44.666626
258.999115	1249.474487	2266.381592	1710.448730	45.331009
259.372650	1252.000854	2403.841553	1771.451172	45.097408
259.746124	1259.876953	2521.091309	1821.902710	44.562271
260.119598	1248.434204	2597.771729	1857.567993	45.143173
260.493042	1244.421997	2592.793457	1864.255249	45.969028
260.866425	1246.279663	2543.605225	1837.283325	45.555538
261.239838	1253.264038	2430.665039	1793.222046	45.860161
261.613159	1251.629272	2332.957031	1746.113892	45.729393
261.986511	1254.973022	2226.852539	1706.807739	46.490814
262.359802	1250.589233	2173.651611	1670.176758	45.456032
262.733063	1249.103149	2146.754150	1649.966187	44.656891
263.106293	1249.400269	2132.933838	1636.442993	43.806229
263.479523	1250.812012	2116.661621	1635.625854	44.443497
263.852692	1245.239380	2106.482178	1628.715698	44.525925
264.225861	1234.242554	2094.445068	1635.254272	46.618290
264.598969	1241.747070	2104.475830	1636.814819	45.792812
264.972076	1248.211426	2117.553467	1647.217163	45.897438
265.345154	1255.567383	2170.976807	1665.198242	44.748379
265.718201	1253.709839	2216.524414	1688.752319	45.184452
266.091217	1256.310547	2273.663086	1712.751953	44.865608
266.464203	1259.876953	2317.427490	1736.454712	45.064301
266.837158	1257.796387	2356.882324	1760.454468	45.734192
267.210114	1258.093628	2389.649902	1780.738892	46.188183
267.583038	1253.115356	2409.785889	1782.002075	45.724922
267.955902	1249.920410	2427.544189	1778.212769	44.860878
268.328766	1249.697510	2438.838135	1778.212524	44.445122
268.701569	1252.149536	2445.376953	1783.859741	44.560677
269.074371	1249.548950	2456.447998	1805.259155	46.044464
269.447144	1252.446655	2480.299072	1825.692383	46.686859
269.819885	1259.802612	2541.747314	1864.552612	47.174423
270.192596	1248.880127	2640.570068	1915.004272	47.864407
270.565277	1247.765625	2764.432617	1974.594727	47.922787
270.937927	1238.106323	2888.889648	2027.201172	47.801235
271.310577	1252.372437	2975.675049	2064.947021	47.152172
271.683136	1249.400391	3046.857422	2096.376953	47.120823
272.055725	1249.623169	3069.371094	2098.606201	46.653881
272.428284	1247.914185	3061.197998	2086.049072	46.221935
272.800812	1250.960571	3005.768311	2065.615479	46.424168
273.173279	1246.353882	2929.681885	2042.878906	47.318470
273.545776	1248.582886	2884.951904	2024.823608	47.436775
273.918152	1251.332153	2853.521484	2005.801880	47.089924
274.290558	1251.257935	2862.661133	2007.733765	46.945160
274.662964	1248.062866	2850.846680	2001.120728	46.984367
275.035278	1246.576782	2868.605225	2005.801880	46.807137
275.407593	1256.904785	2897.137451	2017.987671	46.400909
275.779907	1253.338257	2950.858398	2043.919312	46.572704
276.152161	1248.360107	3002.647217	2072.154297	46.958916
276.524384	1243.233154	3033.705811	2093.033447	47.462345
276.896606	1240.929688	3057.482666	2101.949707	47.398563
277.268799	1238.031982	3052.281494	2101.503906	47.593891
277.640930	1232.162109	3060.083252	2106.036377	47.806999
278.013031	1235.357056	3071.599854	2109.231445	47.590351
278.385162	1238.700562	3082.745361	2118.444824	47.707314
278.757233	1244.867798	3093.742432	2116.141602	47.124546
279.129272	1247.468384	3123.166260	2133.454102	47.234989
279.501282	1245.610840	3163.364014	2144.302490	46.861694
279.873230	1245.982300	3227.264404	2181.156494	47.200455
280.245178	1246.353882	3304.984619	2223.508789	47.466251
280.617126	1246.651001	3428.178955	2278.864502	47.316082
280.988983	1247.988525	3537.923828	2319.433838	46.789326
281.360870	1247.319702	3639.346924	2362.900879	46.637474
281.732697	1248.359985	3707.408447	2405.624756	47.061489
282.104492	1249.771851	3750.801025	2430.516357	47.210342
282.476288	1256.533325	3773.463623	2438.912354	46.977028
282.848053	1254.750122	3762.615479	2434.677490	47.049072
283.219757	1248.359985	3767.890869	2429.178955	46.866623
283.591461	1244.198975	3740.399170	2418.627686	47.048660
283.963135	1245.536499	3750.578369	2414.169678	46.651241
284.334747	1250.588989	3796.869141	2441.141602	46.756542
284.706360	1248.731567	3884.397705	2487.134766	46.986347
285.077942	1249.177246	3991.096436	2548.805908	47.398502
285.449524	1255.195801	4070.377686	2597.251709	47.672085
285.821014	1256.087524	4108.866211	2608.396973	47.403236
286.192535	1262.626099	4144.902832	2606.539307	46.626793
286.563995	1257.944946	4133.386230	2599.332031	46.649780
286.935425	1256.533325	4118.748535	2592.273193	46.668041
287.306824	1252.595215	4045.262939	2561.437744	46.867107
287.678223	1253.932739	3963.827393	2525.623779	46.927696
288.049561	1256.087524	3918.205078	2500.955322	46.762314
288.420898	1254.304199	3909.585938	2495.977295	46.762386
288.792145	1247.468384	3958.848877	2517.153564	46.827999
289.163452	1246.353882	4039.244385	2568.496338	47.339573
289.534668	1240.855469	4150.327148	2618.056396	47.335087
289.905914	1243.753296	4259.923828	2667.021729	47.187931
290.277039	1253.041016	4366.548340	2707.591064	46.717411
290.648193	1265.301025	4415.661621	2743.776611	46.930359
291.019318	1267.232788	4430.894043	2743.776611	46.671997
291.390381	1254.601440	4363.798340	2713.684082	46.927959
291.761475	1250.143188	4294.177246	2665.090088	46.482620
292.132507	1249.177368	4250.933105	2639.826904	46.327869
292.503510	1253.635620	4249.818359	2636.408936	46.151169
292.874481	1252.298096	4307.997559	2658.625732	46.023102
293.245422	1250.440552	4376.950684	2698.971924	46.330612
293.616364	1252.446655	4513.444824	2766.141846	46.418156
293.987213	1243.976196	4630.322754	2847.206055	47.343937
294.358093	1240.261108	4755.076660	2906.499268	47.406136
294.728943	1234.093872	4861.255371	2948.183594	47.257053
295.099731	1245.387939	4955.545898	2988.306885	46.976948
295.470490	1248.880127	5068.337402	3039.055664	46.869892
295.841248	1256.979126	5146.132324	3081.705322	46.918339
296.211975	1253.858398	5275.864746	3137.135010	46.824306
296.582642	1249.994751	5404.037109	3202.669922	47.006626
296.953308	1240.409668	5463.851074	3234.620117	47.217667
297.323883	1239.443726	5462.067871	3220.725830	46.920639
297.694519	1244.347656	5341.622559	3156.825439	46.676823
298.065063	1244.124756	5235.221191	3091.736328	46.293335
298.435608	1242.267212	5069.228516	3021.000000	46.478985
298.806122	1239.592285	4894.691406	2944.022461	46.631573
299.176575	1247.839966	4724.018066	2866.598877	46.567200
299.547028	1256.458984	4617.319824	2807.379639	46.146530
299.917450	1256.384644	4581.357422	2776.321045	45.712749
300.287872	1255.047241	4569.691895	2781.225342	46.043491
300.658234	1250.291870	4560.775391	2781.522461	46.253986
301.028564	1255.047241	4532.540039	2776.469727	46.420319
301.398865	1245.833618	4508.763184	2750.909912	46.126534
301.769135	1243.753296	4455.116699	2722.897705	46.059704
302.139374	1241.152710	4408.380371	2700.755615	46.084560
302.509583	1255.716064	4365.284668	2680.545166	45.820797
302.879791	1254.675781	4320.108887	2665.981689	46.039364
303.249939	1257.202026	4291.873535	2644.954102	45.729897
303.620087	1254.898682	4251.898926	2631.208008	45.922897
303.990173	1251.332153	4240.604980	2614.638428	45.606617
304.360260	1250.886230	4215.861816	2606.985352	45.737278
304.730286	1247.616943	4220.840332	2597.474609	45.400478
305.100281	1259.579590	4220.394531	2599.629150	45.259483
305.470276	1260.768677	4239.639160	2603.270264	45.067471
305.840179	1255.567505	4236.518066	2612.929443	45.534531
306.210144	1252.743896	4277.235840	2627.938477	45.468613
306.579987	1252.372314	4310.746582	2644.136475	45.506664
306.949890	1253.784058	4358.151855	2659.443115	45.280045
307.319702	1246.502441	4417.073730	2689.832764	45.522720
307.689484	1240.929810	4517.084961	2735.826172	45.629593
308.059265	1247.468384	4625.046875	2791.404541	45.711330
308.429016	1258.019409	4713.318848	2834.203125	45.616417
308.798737	1257.796509	4784.649414	2862.586670	45.502041
309.168396	1256.310547	4848.326660	2887.552490	45.412991
309.538055	1248.285767	4871.583496	2889.186768	45.287498
309.907684	1251.257813	4874.332520	2894.462646	45.353878
310.277313	1247.171143	4882.951660	2886.140625	45.078888
310.646851	1255.567383	4880.425293	2896.022705	45.255714
311.016388	1257.202026	4880.500000	2885.917236	44.951183
311.385895	1255.864502	4805.454102	2872.022705	45.530846
311.755371	1248.285645	4764.810547	2848.617920	45.508915
312.124817	1246.799683	4690.879395	2828.110107	45.913876
312.494232	1246.056641	4670.148926	2816.221436	45.856380
312.863617	1249.623169	4635.226563	2798.612061	45.752224
313.232971	1255.047363	4654.173828	2804.184570	45.574570
313.602295	1255.493164	4725.801758	2816.816162	44.990898
313.971619	1253.858521	4811.546875	2852.258545	44.928047
314.340820	1245.536621	4840.599121	2858.277100	44.859875
314.710083	1247.765625	4831.237305	2857.756836	44.928253
315.079285	1245.907959	4756.637207	2820.308350	44.845394
315.448486	1251.183472	4674.310059	2789.843994	44.948982
315.817596	1249.103027	4553.642090	2735.454834	44.979095
316.186707	1255.641724	4463.290039	2685.894775	44.588833
316.555786	1253.635620	4389.210449	2648.520508	44.485779
316.924866	1259.208252	4335.341309	2620.434082	44.251202
317.293884	1252.149414	4330.956543	2620.359619	44.439621
317.662872	1253.338257	4342.548340	2620.805664	44.265926
318.031830	1248.657227	4387.204102	2638.341064	44.277939
318.400757	1247.245483	4400.504395	2651.938232	44.547337
318.769684	1247.319702	4424.430176	2663.901123	44.587101
319.138550	1242.415894	4428.367676	2674.006348	44.934467
319.507416	1246.428101	4402.956543	2665.015869	44.941391
319.876190	1245.908081	4364.393066	2643.468018	44.815350
320.244995	1257.053345	4297.223145	2605.499268	44.354294
320.613770	1258.911011	4260.443848	2579.418945	43.994453
320.982483	1258.836670	4259.923828	2574.366455	43.835106
321.351166	1257.499390	4304.356934	2587.666748	43.657028
321.719818	1250.812134	4375.167480	2621.028564	43.855972
322.088440	1245.759399	4486.621094	2668.433838	43.898029
322.457062	1252.075195	4640.873535	2746.822998	44.108490
322.825623	1248.062866	4818.457031	2822.983398	44.110554
323.194183	1245.685181	4927.607910	2878.932861	44.358551
323.562653	1232.830688	5006.888672	2908.654297	44.403759
323.931183	1239.072144	5010.083496	2910.585938	44.325348
324.299591	1244.421997	4994.703125	2893.347900	43.968060
324.668060	1246.353882	4925.304688	2859.168701	43.838989
325.036407	1242.861694	4873.738281	2821.125732	43.467854
325.404755	1250.812012	4804.934082	2787.541016	43.237934
325.773102	1249.623169	4740.810547	2757.596924	43.193722
326.141388	1254.006958	4652.019043	2720.742676	43.164520
326.509674	1253.041016	4567.610840	2686.711914	43.253605
326.877899	1248.137085	4491.822266	2644.433838	43.046619
327.246124	1249.846069	4442.633789	2622.737549	42.999775
327.614288	1248.731567	4409.123047	2600.000732	42.756382
327.982422	1259.728394	4396.789063	2605.722168	42.906208
328.350525	1261.437256	4411.054688	2616.050049	43.008804
328.718628	1259.282471	4458.163086	2634.922852	43.003803
329.086700	1260.917114	4509.060547	2646.588623	42.660416
329.454712	1258.539429	4551.784668	2671.628662	42.908718
329.822693	1254.750000	4589.827637	2686.117676	42.918571
330.190674	1253.041138	4632.254395	2699.343506	42.799973
330.558563	1248.359985	4672.304199	2705.584961	42.559834
330.926483	1248.805786	4745.120117	2731.739502	42.414196
331.294312	1240.483887	4834.135254	2780.481689	42.853291
331.662231	1241.598511	4938.456055	2818.673828	42.659889
332.029999	1242.638672	5027.768066	2853.150391	42.548393
332.397766	1249.325806	5094.714844	2867.490479	42.080647
332.765503	1245.908081	5138.851074	2873.211914	41.801380
333.133240	1248.285645	5157.426270	2875.366943	41.622482
333.500916	1246.651001	5151.853516	2871.206055	41.599762
333.868561	1251.926514	5152.373535	2867.342041	41.416164
334.236176	1251.406372	5127.259277	2860.208984	41.508350
334.603790	1245.610840	5102.145020	2845.868408	41.494709
334.971344	1240.186646	5072.126465	2846.834717	41.927799
335.338867	1233.648071	5047.829590	2837.026611	42.037289
335.706360	1235.208374	5034.380859	2830.636719	41.994102
336.073853	1239.815308	5040.622559	2825.212158	41.712109
336.441284	1236.694580	5068.931641	2837.546631	41.773304
336.808655	1239.295166	5103.854004	2850.624023	41.695026
337.176086	1240.335327	5131.419922	2870.834229	41.903458
337.543396	1252.297974	5159.878418	2878.338867	41.612473
337.910706	1256.607544	5169.314453	2881.533936	41.529469
338.277954	1260.174194	5176.001953	2868.233643	41.065636
338.645264	1260.842896	5140.856934	2863.404053	41.302971
339.012421	1255.864624	5103.333984	2847.205811	41.360725
339.379669	1252.595215	5020.040527	2803.813232	41.174267
339.746796	1248.508545	4962.901855	2752.469971	40.490097
340.113953	1248.954468	4892.388184	2715.615967	40.254925
340.481018	1248.805664	4858.654785	2716.730225	40.664429
340.848114	1249.697388	4832.574707	2723.417725	41.132313
341.215118	1247.468384	4872.623535	2753.287354	41.538055
341.582153	1251.109131	5001.019043	2803.813232	41.406437
341.949066	1251.406372	5185.141602	2872.097412	41.199799
342.316010	1257.276367	5433.906738	2954.647705	40.639732
342.682922	1249.103027	5685.271973	3046.188721	40.509857
343.049835	1244.867798	6012.130371	3175.549561	40.498749
343.416656	1240.409546	6306.963379	3295.473877	40.561386
343.783478	1243.901855	6538.564941	3391.621826	40.563866
344.150269	1242.638672	6650.093750	3434.643311	40.536716
344.516998	1246.576660	6658.489746	3451.435547	40.740841
344.883728	1246.130859	6581.884277	3422.829102	40.794582
345.250427	1253.709839	6456.980469	3381.739990	40.897938
345.617065	1247.914185	6312.759277	3318.433838	40.880215
345.983704	1251.034912	6167.869141	3277.121826	41.207146
346.350281	1252.297974	6040.885254	3229.196289	41.283539
346.716827	1256.756226	5904.094238	3174.955322	41.275223
347.083405	1251.926636	5820.578125	3131.339844	41.137154
347.449860	1247.022583	5760.095703	3102.064453	41.103741
347.816376	1243.084473	5749.024902	3092.702148	41.048428
348.182770	1250.291870	5735.946777	3096.194336	41.151237
348.549194	1253.561157	5767.451172	3114.472656	41.226337
348.915558	1254.601440	5844.429199	3146.719971	41.224174
349.281921	1250.960571	5929.728516	3170.199951	41.020187
349.648193	1244.347656	5985.307129	3185.655029	40.947563
350.014526	1246.874023	6012.204590	3201.630127	41.020367
350.380737	1254.601440	6037.765137	3219.462891	41.078701
350.746948	1257.796387	6064.736328	3236.552490	41.164570
351.113159	1254.601440	6123.138672	3249.852539	40.982559
351.479309	1237.140259	6198.184082	3280.093750	41.179913
351.845428	1243.901978	6339.210938	3325.715576	40.857452
352.211517	1247.542847	6452.447754	3395.411377	41.266243
352.577576	1255.047363	6588.719238	3443.188232	41.025036
352.943604	1248.582886	6718.451660	3514.964111	41.433926
353.309601	1246.353882	6873.893066	3567.570557	41.247459
353.675537	1252.298096	7036.467285	3645.365479	41.372707
354.041473	1248.285767	7189.457031	3691.061768	41.116066
354.407379	1243.307495	7297.790527	3749.166748	41.388496
354.773254	1236.174316	7427.375000	3807.197021	41.527046
355.139038	1240.186768	7566.023438	3882.688721	41.773159
355.504913	1251.926636	7827.346191	3983.368896	41.540199
355.870636	1251.480835	8092.160645	4098.166504	41.614075
356.236389	1250.812012	8382.089844	4222.846191	41.676041
356.602081	1237.586060	8659.165039	4328.950684	41.653732
356.967804	1235.505615	8859.187500	4406.522461	41.594299
357.333405	1242.118530	8955.930664	4458.460449	41.695881
357.699036	1248.211426	8933.194336	4464.033203	41.845528
358.064606	1257.722168	8878.877930	4439.216309	41.745560
358.430176	1254.155640	8834.593750	4390.473633	41.373833
358.795654	1262.774658	8892.624023	4408.677734	41.231522
359.161163	1258.316528	9070.430664	4499.698730	41.491741
359.526581	1251.629272	9420.991211	4673.937988	41.891994
359.892029	1246.948242	9933.977539	4900.709961	42.059967
360.257416	1245.982300	10515.841797	5136.546875	41.970047
360.622772	1249.846069	11021.247070	5325.796387	41.713058
360.988098	1244.273315	11325.739258	5456.568848	41.782570
361.353394	1247.468384	11418.247070	5500.036621	41.811630
361.718658	1248.880127	11229.742188	5440.594238	41.997513
362.083893	1250.291870	10800.941406	5261.673340	42.001137
362.449097	1243.530273	10185.937500	5012.907715	42.151711
362.814209	1241.226929	9547.528320	4743.039551	42.158504
363.179382	1241.449829	8957.192383	4486.323730	42.055241
363.544434	1246.799683	8545.926758	4278.870605	41.540184
363.909546	1252.595215	8267.663086	4154.710938	41.369747
364.274536	1259.282593	8089.263184	4102.550781	41.629227
364.639587	1258.911133	7943.554688	4056.780029	41.855171
365.004517	1248.582886	7856.769531	4038.947266	42.225868
365.369507	1242.341431	7804.312012	3993.325439	41.923138
365.734344	1245.164917	7811.370605	3987.455811	41.763710
366.099274	1254.304199	7800.299316	3973.709717	41.543041
366.464081	1255.047241	7775.333496	3968.508545	41.615681
366.828918	1254.378418	7686.765137	3938.638916	41.730396
367.193665	1247.839844	7615.285645	3890.044922	41.495525
367.558411	1249.846069	7542.915527	3857.946045	41.444008
367.923126	1244.942017	7459.622559	3820.868408	41.449051
368.287781	1249.920410	7408.576172	3799.841064	41.403851
368.652435	1247.988525	7378.557129	3780.522461	41.309937
369.017059	1251.406372	7424.922363	3784.163330	41.026165
369.381653	1246.725342	7456.353027	3800.064453	41.119034
369.746185	1249.697388	7529.614746	3814.107422	40.835094
370.110687	1246.428101	7614.766113	3842.862549	40.770992
370.475220	1242.935913	7698.728027	3870.725830	40.704380
370.839661	1244.719116	7742.937500	3900.298096	40.866264
371.204041	1245.090698	7772.361816	3917.610596	40.943913
371.568451	1247.394165	7769.166504	3911.444092	40.848557
371.932770	1238.403442	7767.160645	3902.007080	40.798016
372.297150	1239.295166	7715.223145	3886.032471	40.870396
372.661377	1236.991821	7748.213379	3886.032471	40.684231
373.025696	1244.942139	7785.513184	3888.410156	40.416470
373.389862	1244.867798	7876.162598	3901.338867	40.059616
373.754059	1247.988403	7944.595215	3921.623779	39.925224
374.118225	1248.359985	8044.309082	3956.545898	39.850002
374.482361	1249.251587	8193.879883	4013.312744	39.801426
374.846436	1254.155640	8406.015625	4104.630859	39.856419
375.210510	1248.582886	8727.746094	4204.345215	39.519958
375.574524	1248.211304	9053.860352	4308.294434	39.203442
375.938538	1247.468384	9388.074219	4418.336914	38.951260
376.302460	1244.050415	9648.357422	4507.500488	38.830688
376.666412	1245.536621	9811.377930	4571.177734	38.824451
377.030304	1243.530396	9796.962891	4565.085449	38.833008
377.394196	1250.960571	9651.701172	4515.302246	38.857788
377.757996	1254.750000	9408.434570	4415.364746	38.763023
378.121796	1247.319702	9112.040039	4306.437500	38.896713
378.485565	1239.889404	8825.974609	4180.345703	38.761185
378.849304	1234.614014	8622.384766	4080.185547	38.517323
379.212982	1242.044312	8499.116211	3997.263672	37.965992
379.576630	1244.421997	8433.953125	3964.941650	37.840012
379.940277	1247.542603	8413.668945	3948.966797	37.697136
380.303864	1251.183472	8401.038086	3940.570557	37.614574
380.667450	1257.127808	8418.870117	3939.010498	37.447353
381.030945	1255.493164	8415.452148	3931.134033	37.369499
381.394501	1254.081299	8492.503906	3927.270264	36.930546
381.757935	1255.864624	8557.815430	3941.982422	36.786304
382.121399	1251.629272	8644.006836	3970.143311	36.774559
382.484741	1252.966797	8782.209961	4032.854492	36.921211
382.848145	1252.149414	8924.648438	4054.402344	36.523342
383.211487	1253.189819	9072.659180	4090.439209	36.284428
383.574768	1253.709839	9137.155273	4097.572266	36.073853
383.938019	1252.297974	9181.364258	4113.324219	36.082764
384.301270	1256.830566	9196.374023	4116.964844	36.023914
384.664459	1257.276245	9219.184570	4117.484863	35.923656
385.027649	1254.824341	9235.234375	4119.268555	35.893448
385.390778	1248.137207	9340.892578	4148.543457	35.839539
385.753876	1249.474609	9420.024414	4173.212891	35.783863
386.116943	1251.257813	9535.491211	4208.060547	35.691929
386.479980	1252.446655	9572.715820	4215.936523	35.617714
386.842987	1249.251587	9623.391602	4207.763184	35.329144
387.205994	1252.372437	9631.787109	4203.453613	35.218224
387.568909	1252.743896	9621.385742	4159.540527	34.734390
387.931793	1250.663452	9562.538086	4133.014648	34.677509
388.294678	1248.211426	9519.813477	4098.092285	34.453796
388.657471	1253.784180	9495.887695	4098.389648	34.513100
389.020294	1258.539551	9545.595703	4112.729980	34.441547
389.383057	1257.053467	9703.415039	4158.277344	34.348801
389.745819	1250.366211	9918.299805	4212.666992	34.175396
390.108521	1247.617065	10178.582031	4281.471191	33.970058
390.471191	1248.805786	10465.686523	4360.975098	33.765972
390.833801	1251.777954	10704.420898	4433.717773	33.661907
391.196442	1248.657227	10865.508789	4469.680176	33.493530
391.558960	1247.839966	10885.497070	4466.707520	33.398861
391.921509	1246.502441	10839.726563	4433.197266	33.218182
392.284027	1241.970093	10792.395508	4389.061523	32.952366
392.646484	1239.815308	10765.201172	4359.860840	32.755054
393.008911	1238.626465	10738.674805	4334.375000	32.586658
393.371307	1245.685059	10743.875977	4335.415527	32.529671
393.733673	1241.895630	10714.824219	4301.904785	32.302673
394.096008	1249.548828	10638.514648	4270.548828	32.176067
394.458344	1246.799683	10508.633789	4218.240234	32.082634
394.820587	1250.737793	10270.270508	4135.912598	31.988071
395.182831	1250.366333	10065.195313	4049.795654	31.758179
395.545013	1248.805786	9788.937500	3946.217529	31.585129
395.907196	1246.205200	9622.945313	3883.951904	31.488939
396.269287	1243.381714	9517.138672	3831.494141	31.280981
396.631409	1250.291870	9491.652344	3811.729492	31.080275
396.993469	1255.864624	9469.063477	3784.163086	30.783356
397.355530	1254.898682	9478.277344	3779.853516	30.704590
397.717499	1251.777954	9524.643555	3772.348877	30.467930
398.079468	1249.103027	9549.906250	3763.730225	30.293783
398.441376	1248.582886	9528.358398	3748.795166	30.196621
398.803284	1244.942017	9478.797852	3716.547852	30.017601
399.165131	1238.700684	9482.586914	3695.371338	29.799908
399.526978	1240.484009	9509.781250	3655.173828	29.200668
399.888763	1249.400269	9526.277344	3640.164795	28.884865
400.250519	1261.585938	9504.358398	3628.796143	28.718616
400.612244	1265.003784	9512.383789	3631.025391	28.688160
400.973938	1263.889282	9582.971680	3636.078125	28.515032
401.335602	1257.499268	9702.152344	3654.950928	28.390173
401.697205	1253.115356	9870.893555	3681.923096	28.183687
402.058807	1241.449951	10025.962891	3719.742920	28.212070
402.420349	1239.146606	10268.264648	3755.333740	27.867472
402.781860	1239.443726	10481.959961	3802.218750	27.728107
403.143341	1241.301147	10696.545898	3835.208984	27.433533
403.504822	1241.375488	10853.101563	3880.385498	27.456150
403.866241	1240.929688	10996.208008	3912.186768	27.382685
404.227631	1242.118530	11115.687500	3917.387939	27.095263
404.588959	1246.502441	11149.867188	3887.072510	26.663361
404.950287	1247.839966	11067.984375	3842.416748	26.420961
405.311554	1254.155640	10983.502930	3803.779297	26.205494
405.672821	1255.790161	10861.645508	3776.733154	26.243814
406.034027	1260.397095	10753.089844	3714.987549	25.857683
406.395203	1252.297974	10558.788086	3647.446289	25.736324
406.756348	1246.502441	10455.210938	3587.112549	25.417353
407.117493	1245.239258	10406.913086	3571.955078	25.396187
407.478516	1253.784058	10458.553711	3567.645264	25.137634
407.839600	1260.025513	10495.780273	3555.236328	24.851362
408.200592	1257.499146	10620.831055	3560.437744	24.595287
408.561554	1255.790283	10773.151367	3588.598389	24.511080
408.922485	1252.892578	10947.835938	3626.492920	24.482870
409.283417	1250.886353	11035.217773	3628.721924	24.302485
409.644257	1248.731567	11119.476563	3629.242188	24.116829
410.005096	1251.332153	11194.448242	3616.908203	23.791094
410.365906	1250.812134	11206.708008	3603.905029	23.635170
410.726715	1254.155762	11163.315430	3584.511963	23.517191
411.087433	1256.533325	11074.152344	3558.357422	23.445850
411.448120	1256.904785	11006.239258	3527.298584	23.287682
411.808807	1253.041016	10968.940430	3484.277344	22.964794
412.169434	1251.480713	10950.140625	3454.036377	22.709896
412.530029	1255.715942	11024.815430	3449.875244	22.460199
412.890564	1261.957397	11142.288086	3450.544189	22.150948
413.251099	1258.390991	11296.614258	3467.410889	22.006084
413.611572	1257.647827	11460.971680	3486.358154	21.842983
413.972076	1252.372314	11598.655273	3512.289795	21.842796
414.332489	1248.062866	11701.043945	3519.868408	21.733566
414.692871	1246.130981	11906.639648	3564.821533	21.750278
415.053223	1241.226929	12089.944336	3579.533447	21.553761
415.413574	1247.171265	12404.987305	3615.347412	21.224371
415.773834	1243.158813	12597.133789	3622.851807	20.959118
416.134094	1241.672729	12895.905273	3666.170654	20.803585
416.494263	1242.192749	13157.674805	3708.374756	20.697292
416.854462	1256.533325	13571.688477	3772.126221	20.426805
417.214630	1266.118286	13996.700195	3838.107178	20.203230
417.574738	1261.882935	14460.350586	3905.796875	20.031977
417.934784	1250.143188	14940.569336	3976.681641	19.915659
418.294861	1244.867676	15489.518555	4067.108154	19.812634
418.654846	1245.239258	16104.668945	4162.513184	19.632475
419.014832	1246.651001	16730.000000	4259.329590	19.457541
419.374756	1249.771729	17380.373047	4360.232422	19.282980
419.734680	1257.276245	18072.353516	4467.525391	19.091490
420.094543	1255.641724	18675.097656	4550.373047	18.914091
420.454376	1253.784180	19024.765625	4593.617188	18.793747
420.814148	1246.056641	19215.279297	4605.505371	18.695570
421.173920	1245.759399	19328.291016	4613.232910	18.622801
421.533691	1241.524170	19451.486328	4601.790527	18.452900
421.893341	1245.462280	19458.767578	4586.558594	18.344261
422.253021	1248.434204	19398.880859	4550.447266	18.192461
422.612640	1248.211426	19316.181641	4523.921387	18.129927
422.972260	1245.090698	19353.630859	4499.400879	17.971134
423.331757	1244.421997	19483.882813	4488.552734	17.786331
423.691315	1246.948242	19673.353516	4494.051270	17.622009
424.050781	1245.536499	19659.978516	4477.259277	17.549936
424.410248	1248.657227	19441.751953	4436.095215	17.520044
424.769653	1256.013184	19108.429688	4346.560547	17.311647
425.128998	1256.087524	18733.722656	4246.846191	17.111919
425.488373	1246.428101	18267.843750	4130.859863	16.945896
425.847656	1238.849243	17824.554688	4043.479736	16.909925
426.206940	1238.923462	17377.029297	3961.895508	16.872936
426.566193	1247.394043	17001.501953	3884.397705	16.738516
426.925385	1251.480713	16565.716797	3797.612305	16.625914
427.284576	1249.846069	16153.262695	3707.631592	16.491425
427.643677	1247.914185	15820.164063	3633.551758	16.371101
428.002777	1242.935913	15626.976563	3568.536865	16.167925
428.361847	1245.833618	15459.870117	3529.602295	16.066996
428.720856	1238.403442	15258.362305	3477.961670	15.974071
429.079865	1239.592285	15094.895508	3449.206299	15.947786
429.438812	1239.146484	15031.664063	3431.671143	15.896479
429.797760	1244.867676	15015.688477	3422.829102	15.815771
430.156616	1249.548828	14889.596680	3386.346436	15.665617
430.515503	1251.926514	14782.006836	3349.864014	15.505729
430.874268	1258.167969	14759.195313	3332.848633	15.366836
431.233093	1254.601440	14876.221680	3337.603760	15.291884
431.591827	1246.799683	15062.721680	3349.938232	15.222572
431.950562	1237.140259	15216.975586	3353.133545	15.136038
432.309204	1238.849365	15356.441406	3349.938232	14.953605
432.667877	1248.062866	15523.696289	3346.446045	14.699056
433.026459	1250.217529	15619.546875	3340.278564	14.545293
433.385010	1245.387817	15707.668945	3358.780029	14.613131
433.743561	1244.719116	15695.706055	3350.012451	14.568509
434.102051	1243.976074	15716.213867	3341.021729	14.490127
434.460510	1255.270142	15720.078125	3303.052979	14.157001
434.818939	1257.722046	15681.812500	3292.205078	14.104757
435.177338	1260.619995	15659.149414	3278.310303	14.013169
435.535675	1257.424927	15620.808594	3275.487061	14.050047
435.894012	1252.297974	15646.815430	3251.115967	13.885967
436.252289	1249.697510	15796.906250	3269.468506	13.884251
436.610535	1249.994629	15897.734375	3260.923096	13.728592
436.968719	1252.372314	16186.402344	3293.022217	13.664429
437.326935	1252.075073	16484.654297	3304.093018	13.471245
437.685028	1247.096802	16818.568359	3341.616211	13.451006
438.043152	1242.044189	17039.693359	3349.492920	13.340268
438.401215	1240.260864	17339.580078	3368.811279	13.221368
438.759277	1244.644897	17734.646484	3396.897705	13.051866
439.117249	1251.703613	18298.976563	3458.569092	12.945562
439.475250	1255.715942	18699.021484	3499.732422	12.864630
439.833130	1252.446655	19135.701172	3550.109619	12.848126
440.191071	1254.081421	19267.585938	3550.704102	12.749450
440.548889	1256.013184	19354.521484	3560.437744	12.732677
440.906708	1260.396973	19236.972656	3540.673584	12.684711
441.264496	1260.397095	19031.378906	3516.153320	12.693481
441.622223	1263.963623	18786.775391	3462.283936	12.545476
441.979950	1263.517822	18494.023438	3403.436279	12.419359
442.337616	1256.310425	18302.023438	3353.133057	12.301174
442.695251	1250.886353	18057.345703	3322.743408	12.327743
443.052887	1245.313599	17951.091797	3301.567139	12.308637
443.410461	1248.434326	18015.509766	3291.090576	12.182543
443.768005	1243.679077	18256.625000	3290.718750	12.032248
444.125458	1245.164917	18570.775391	3312.564209	11.932620
444.482941	1247.691284	18958.189453	3346.594482	11.851182
444.840393	1259.282593	19492.724609	3401.727295	11.750085
445.197754	1262.403198	19945.525391	3428.253174	11.592548
445.555084	1253.635376	20312.505859	3456.264893	11.556977
445.912415	1244.496216	20523.230469	3467.039063	11.528469
446.269714	1250.291870	20683.054688	3476.995850	11.458505
446.626953	1260.174194	20684.615234	3473.355225	11.393796
446.984161	1259.282471	20516.021484	3441.181641	11.330575
447.341309	1251.629272	20271.937500	3404.253174	11.317503
447.698456	1245.462280	19946.861328	3349.566650	11.251055
448.055542	1251.183472	19719.646484	3309.740479	11.146338
448.412598	1252.743774	19363.734375	3263.227295	11.100904
448.769653	1252.966675	19047.947266	3211.660889	11.007004
449.126617	1252.223755	18586.898438	3151.550049	10.956804
449.483582	1253.338379	18259.298828	3094.188232	10.824733
449.840515	1252.520996	17921.296875	3056.145264	10.820376
450.197388	1251.926636	17699.427734	3026.944336	10.792020
450.554230	1249.326050	17601.126953	3005.470703	10.739763
450.911041	1250.737671	17560.927734	2985.408936	10.635506
451.267822	1240.929688	17654.773438	2979.019287	10.589169
451.624573	1239.740845	17689.472656	2977.830322	10.566066
451.981262	1235.134155	17668.814453	2965.050049	10.526649
452.337921	1246.502441	17487.888672	2934.437256	10.392799
452.694580	1240.781250	17152.634766	2890.375732	10.367080
453.051147	1250.812012	16908.177734	2861.917969	10.289764
453.407715	1251.926514	16541.939453	2819.862549	10.254642
453.764221	1259.876953	16433.011719	2797.497314	10.133835
454.120728	1255.567383	16111.281250	2757.002686	10.106787
454.477142	1258.167969	16022.340820	2739.987061	10.036588
454.833557	1261.140137	15867.867188	2725.498047	10.025229
455.189911	1258.242310	15871.656250	2718.216064	9.990642
455.546265	1251.183594	15969.140625	2719.628174	9.977231
455.902557	1252.000854	16033.414063	2716.135986	9.905245
456.258820	1256.681885	16287.082031	2727.281250	9.784166
456.615051	1263.666382	16556.875000	2751.132568	9.726318
456.971252	1265.969727	16917.763672	2762.649414	9.562352
457.327393	1256.979126	17501.412109	2823.057617	9.640709
457.683502	1254.081421	18184.994141	2874.549561	9.571062
458.039612	1245.982300	19151.599609	2970.919922	9.633500
458.395630	1254.675659	20081.574219	3034.820313	9.455326
458.751648	1249.994629	20897.044922	3092.925049	9.380189
459.107605	1247.765503	21627.365234	3144.788330	9.308440
459.463562	1244.496216	21835.935547	3155.859375	9.282319
459.819458	1243.976074	21726.931641	3142.930420	9.270901
460.175323	1251.406372	21124.337891	3085.048828	9.226834
460.531158	1250.812012	20404.939453	3018.250732	9.227456
460.886932	1258.539429	19627.287109	2941.867920	9.164089
461.242676	1250.291870	18891.392578	2864.518555	9.150373
461.598419	1252.743774	18337.615234	2810.128906	9.115581
461.954102	1246.651001	17802.560547	2765.844482	9.176140
462.309723	1252.520874	17331.109375	2716.730225	9.106579
462.665344	1258.836670	16943.472656	2670.216797	8.998488
463.020905	1254.304199	16746.869141	2635.220215	8.913411
463.376373	1247.765503	16744.638672	2637.077881	8.965115
463.731873	1235.431274	16764.476563	2628.681641	8.971900
464.087341	1237.066162	16807.720703	2618.427734	8.871571
464.442749	1244.050659	16906.916016	2616.198486	8.760516
464.798126	1248.805908	17034.494141	2625.263672	8.719656
465.153503	1255.047241	17222.998047	2639.381104	8.669452
465.508820	1255.195801	17382.824219	2640.718750	8.590990
465.864105	1249.771729	17480.976563	2646.217041	8.603460
466.219330	1238.329102	17697.421875	2662.415039	8.652274
466.574524	1227.555298	17726.845703	2662.341064	8.696045
466.929657	1228.892700	17636.197266	2646.365967	8.639281
467.284790	1236.991699	17456.828125	2620.954102	8.532530
467.639893	1243.307495	17228.201172	2597.994629	8.474796
467.994934	1240.558228	17074.171875	2573.846436	8.420619
468.349945	1237.586304	16829.642578	2539.146973	8.347589
468.704926	1237.957642	16687.500000	2524.063477	8.324556
469.059875	1239.443726	16530.498047	2516.558838	8.352040
469.414764	1241.672729	16466.003906	2517.747803	8.381814
469.769653	1241.969971	16412.505859	2498.503174	8.282722
470.124451	1244.199097	16493.568359	2485.128662	8.137580
470.479248	1245.908081	16523.662109	2482.230957	8.092308
470.834015	1250.217529	16594.767578	2487.803711	8.065314
471.188721	1251.555054	16795.906250	2503.258789	8.052466
471.543365	1250.217529	17069.416016	2517.599121	8.011667
471.898010	1241.152588	17352.064453	2529.784912	7.998507
472.252625	1244.793457	17588.716797	2540.781494	7.929479
472.607178	1236.768799	17799.068359	2552.149658	7.942019
472.961700	1239.443726	17862.447266	2544.793945	7.852674
473.316193	1239.666626	17940.169922	2539.369873	7.782419
473.670654	1253.189575	17961.345703	2525.698242	7.616093
474.025055	1255.121460	18098.435547	2542.639404	7.644089
474.379456	1251.852173	18159.363281	2550.143799	7.678786
474.733795	1241.895630	18269.404297	2561.289063	7.748600
475.088104	1243.678833	18545.513672	2572.285889	7.678996
475.442383	1253.115234	18882.998047	2583.579834	7.546645
475.796570	1253.263916	19190.759766	2606.539307	7.544394
476.150787	1244.867798	19580.921875	2626.229492	7.533582
476.504944	1231.790405	19960.607422	2660.706299	7.629505
476.859070	1235.282715	20361.396484	2669.771240	7.500157
477.213135	1242.861694	20637.951172	2681.139404	7.415679
477.567200	1249.697388	20909.232422	2690.724609	7.329915
477.921173	1253.263916	21158.888672	2706.476563	7.300512
478.275146	1253.784180	21393.312500	2715.467285	7.257782
478.629089	1256.310303	21668.531250	2718.736572	7.164464
478.983002	1250.886230	22130.546875	2750.092529	7.180223
479.336823	1248.954468	22651.037109	2780.482422	7.155976
479.690643	1242.490112	23352.603516	2830.636475	7.182896
480.044403	1246.428101	24246.240234	2873.063232	7.072384
480.398163	1246.279541	25445.265625	2956.356445	7.066730
480.751862	1247.617065	27115.216797	3057.556641	6.996937
481.105499	1247.691284	29357.822266	3209.580322	6.979295
481.459137	1248.657227	32655.525391	3415.621826	6.899652
481.812744	1246.873901	37012.121094	3710.901123	6.889446
482.166290	1247.839844	42177.199219	4062.352783	6.876513
482.519806	1245.982300	47278.675781	4450.212891	6.960771
482.873291	1249.846069	51445.269531	4791.187988	7.055109
483.226715	1252.669556	54138.000000	5046.046387	7.172834
483.580139	1254.601440	55107.875000	5146.280762	7.226449
483.933502	1255.715942	54493.839844	5072.646484	7.169544
484.286804	1251.480835	52532.843750	4873.144043	7.062338
484.640106	1253.041016	49733.484375	4600.973145	6.905737
484.993347	1253.486938	46826.984375	4370.931641	6.840477
485.346558	1256.904907	44675.324219	4193.348633	6.763130
485.699738	1250.663452	43699.281250	4107.528809	6.730173
486.052887	1250.737793	43888.457031	4088.655518	6.655886
486.405975	1242.490112	44789.082031	4131.305176	6.633848
486.759064	1247.096802	45903.175781	4194.536621	6.600311
487.112061	1244.124634	46471.074219	4222.475098	6.585345
487.464996	1251.777832	46198.980469	4193.199707	6.544171
487.817963	1256.681763	44921.792969	4091.627930	6.492475
488.170868	1256.830444	43077.375000	3948.595459	6.436466
488.523743	1253.263916	40840.121094	3795.011719	6.420686
488.876587	1248.731445	38910.253906	3665.724609	6.417672
489.229401	1254.081177	37600.222656	3590.158936	6.427306
489.582153	1256.161743	37364.312500	3572.697510	6.415547
489.934845	1256.161743	37990.238281	3603.087646	6.388961
490.287537	1261.288696	39260.664063	3672.634766	6.345752
490.640198	1264.260620	40621.292969	3745.897217	6.305447
490.992798	1260.025391	41356.371094	3798.057861	6.329835
491.345337	1244.050415	41163.707031	3785.054932	6.365296
491.697876	1234.391113	39805.300781	3715.284424	6.432032
492.050354	1243.976196	37794.453125	3576.858643	6.382632
492.402832	1258.613647	35130.031250	3406.259766	6.340585
492.755219	1269.684814	32380.755859	3206.608154	6.225833
493.107605	1262.700317	29854.015625	3047.451904	6.242286
493.459930	1254.378540	27942.650391	2922.994873	6.252246
493.812225	1251.926514	26629.500000	2836.357666	6.243430
494.164490	1256.979126	25831.193359	2775.652344	6.179946
494.516724	1258.762329	25434.267578	2734.934570	6.106066
494.868896	1250.812012	25416.656250	2735.529297	6.143867
495.221039	1249.251587	25633.177734	2740.730469	6.116648
495.573120	1250.812012	25893.531250	2755.739502	6.106987
495.925201	1261.808716	26186.583984	2776.766846	6.078122
496.277222	1261.883179	26423.531250	2787.838135	6.064607
496.629211	1259.133911	26528.896484	2785.832031	6.041601
496.981140	1251.703613	26411.498047	2761.237549	5.999786
497.333069	1255.270142	26056.478516	2733.745850	5.961305
497.684967	1247.691284	25622.552734	2703.355713	5.971991
498.036804	1244.496216	25087.125000	2664.495361	5.955716
498.388580	1241.821411	24592.568359	2642.056152	5.996531
498.740326	1249.846069	24114.203125	2616.570557	5.977533
499.092072	1248.508545	23647.880859	2599.629150	6.031957
499.443756	1245.833618	23216.626953	2564.186768	6.000481
499.795410	1244.124634	22839.541016	2538.106445	5.991928
500.147003	1249.177368	22519.962891	2507.716553	5.916750
500.498566	1251.109253	22217.626953	2492.484619	5.920751
500.850098	1252.892456	22021.916016	2477.698486	5.897273
501.201599	1254.527222	21890.250000	2470.194092	5.891080
501.553009	1254.527222	21842.771484	2469.302246	5.900333
501.904449	1252.520874	21802.423828	2459.940186	5.875548
502.255859	1246.873901	21864.169922	2458.751465	5.877965
502.607178	1243.753174	21926.880859	2458.008545	5.870753
502.958405	1239.815063	22007.796875	2461.277588	5.881469
503.309692	1236.991699	22022.583984	2462.614990	5.896504
503.660919	1238.403442	22146.966797	2452.138428	5.804966
504.012115	1242.638672	22140.798828	2452.732910	5.790434
504.363251	1250.960571	22144.884766	2452.881592	5.752491
504.714294	1251.629395	21995.908203	2458.677002	5.818701
505.065369	1257.945068	21957.568359	2446.639893	5.742592
505.416443	1267.084229	21841.134766	2427.098389	5.638239
505.767395	1271.542480	21802.351563	2418.256592	5.585333
506.118317	1263.517700	21741.496094	2416.250244	5.629132
506.469238	1253.709839	21892.478516	2436.534912	5.731083
506.820160	1254.527100	22043.537109	2435.494629	5.680730
507.170929	1253.041138	22290.818359	2442.107666	5.652054
507.521729	1257.127808	22496.931641	2440.027100	5.569257
507.872498	1249.697388	22754.984375	2457.488281	5.616251
508.223236	1253.858398	23027.750000	2484.682861	5.652754
508.573883	1249.920288	23265.443359	2491.964600	5.641675
508.924500	1257.647827	23507.896484	2510.466064	5.630581
509.275116	1257.053345	23678.197266	2512.175049	5.597938
509.625702	1252.966797	23910.541016	2527.258301	5.624130
509.976196	1252.000854	24030.466797	2514.180908	5.541111
510.326660	1250.886230	24222.835938	2518.119141	5.516436
510.677124	1264.409302	24386.451172	2519.456787	5.427927
511.027557	1258.093628	24634.322266	2539.072754	5.479836
511.377869	1266.861450	24803.361328	2547.394531	5.440627
511.728180	1262.774780	24825.578125	2553.858643	5.479331
512.078430	1262.923340	24799.650391	2549.994873	5.468354
512.428650	1255.790405	24692.654297	2539.592529	5.477705
512.778931	1247.022583	24548.802734	2529.413330	5.503403
513.129028	1249.251587	24353.755859	2519.159424	5.496365
513.479126	1254.824341	24167.849609	2506.825195	5.464145
513.829285	1254.527222	24032.099609	2499.320557	5.464996
514.179382	1254.824341	23919.458984	2478.367188	5.398467
514.529297	1249.251587	23883.125000	2474.503662	5.413356
514.879272	1247.394043	23994.726563	2476.137939	5.401706
515.229187	1245.536499	24138.279297	2491.964600	5.444643
515.579163	1245.239258	24565.890625	2509.277100	5.420251
515.928955	1248.359985	25105.476563	2530.750732	5.375296
516.278748	1248.657227	25856.453125	2561.066162	5.333305
516.628540	1251.406372	26615.677734	2604.236084	5.333604
516.978333	1255.418823	27507.460938	2646.811768	5.300132
517.327942	1255.864624	28407.119141	2697.411865	5.309321
517.677612	1257.647827	29184.326172	2735.603516	5.292272
518.027222	1258.093628	29651.986328	2745.336914	5.237898
518.376831	1255.715942	29800.888672	2742.736328	5.209359
518.726379	1248.805908	29587.494141	2731.367920	5.231583
519.075867	1245.165039	29020.115234	2711.826416	5.280519
519.425293	1247.542847	28275.826172	2683.071289	5.311208
519.774658	1249.846069	27500.404297	2641.461670	5.301280
520.124084	1252.000854	26850.476563	2611.294678	5.310058
520.473389	1251.035034	26358.146484	2577.338135	5.282579
520.822693	1251.109253	26057.369141	2543.233643	5.208864
521.171997	1244.347656	25904.603516	2522.503174	5.183059
521.521240	1240.706909	25890.115234	2527.481201	5.220305
521.870361	1236.917358	25969.765625	2529.115967	5.224625
522.219482	1238.106323	26175.509766	2545.537109	5.242850
522.568604	1243.307495	26469.005859	2546.725830	5.167026
522.917664	1249.474731	26907.912109	2573.771729	5.161253
523.266724	1256.013306	27573.146484	2608.471436	5.139079
523.615662	1258.019409	28453.333984	2653.275635	5.130502
523.964600	1260.917236	29579.466797	2720.742676	5.155015
524.313538	1263.443481	30792.978516	2776.024170	5.122264
524.662354	1255.641724	32131.765625	2847.057373	5.154195
525.011169	1256.533325	33444.250000	2903.230469	5.115918
525.359985	1251.183472	34770.035156	2959.774658	5.097404
525.708740	1261.363037	36142.183594	3022.337646	5.048547
526.057434	1250.514893	37824.097656	3104.961914	5.070455
526.406067	1247.839966	39926.792969	3216.341797	5.089336
526.754700	1239.889526	42777.562500	3352.316162	5.085568
527.103333	1248.508667	46056.542969	3522.171875	5.074231
527.451782	1246.576782	49562.589844	3725.612549	5.130878
527.800293	1250.366333	52148.699219	3889.227539	5.184573
528.148743	1246.874023	53610.750000	3997.783936	5.253450
528.497131	1254.081299	53559.925781	3994.811768	5.239817
528.845642	1250.143188	52255.390625	3912.930420	5.220614
529.193909	1246.799683	49807.265625	3753.699219	5.162429
529.542175	1246.502441	46423.519531	3548.920898	5.096438
529.890503	1245.462280	42848.816406	3360.563477	5.083968
530.238770	1247.171143	39608.550781	3195.091064	5.077815
530.586914	1243.381714	37406.964844	3090.918945	5.108834
530.934998	1246.576782	36253.558594	3025.458252	5.081505
531.283142	1239.072266	36207.042969	3011.712158	5.069325
531.631226	1237.883423	36926.816406	3046.857422	5.068725
531.979248	1228.966919	38191.453125	3099.092041	5.059522
532.327148	1240.484009	39443.378906	3164.775635	5.037031
532.675110	1241.747192	40369.265625	3189.147217	4.977060
533.023071	1252.372437	40571.289063	3193.456299	4.936768
533.370850	1249.994507	39916.832031	3151.624268	4.917986
533.718689	1256.087402	38631.472656	3097.531494	4.926890
534.066467	1253.784058	36898.730469	3012.603760	4.934275
534.414246	1255.270142	35308.800781	2934.808838	4.932055
534.761963	1256.904785	34026.332031	2865.781982	4.909690
535.109619	1260.174072	33406.949219	2839.552734	4.913023
535.457153	1260.322754	33177.875000	2824.321045	4.900120
535.804749	1251.852173	33210.792969	2825.509766	4.923998
536.152344	1247.394165	33158.035156	2821.274170	4.932148
536.499817	1244.942139	32850.050781	2803.515869	4.931398
536.847229	1246.353882	32157.025391	2765.696045	4.915267
537.194641	1253.858398	31208.107422	2716.061523	4.881454
537.542114	1256.161743	30266.841797	2681.956543	4.914724
537.889404	1254.824341	29612.382813	2654.613037	4.936210
538.236694	1248.211426	29273.341797	2635.368896	4.949691
538.583984	1244.570679	29430.865234	2633.585693	4.927980
538.931213	1250.589111	30163.265625	2673.263428	4.920590
539.278381	1258.093628	31669.382813	2743.181885	4.883345
539.625488	1264.335083	33707.503906	2836.283203	4.845236
539.972595	1264.855103	36317.238281	2949.966553	4.807409
540.319641	1266.489746	38767.667969	3056.813721	4.774047
540.666687	1261.511475	40710.015625	3151.401367	4.790777
541.013611	1256.458984	41757.609375	3202.893311	4.805874
541.360596	1251.257813	41828.199219	3224.960938	4.864100
541.707458	1254.452881	41045.937500	3197.023193	4.881875
542.054260	1251.183472	39525.703125	3125.395264	4.896761
542.401062	1250.812012	37709.300781	3034.077393	4.891222
542.747864	1251.777954	35774.457031	2932.876953	4.869550
543.094666	1254.155640	33857.152344	2831.899658	4.839261
543.441284	1250.960571	32077.748047	2740.209961	4.831024
543.787903	1247.765503	30613.833984	2670.217041	4.843861
544.134460	1248.434326	29362.353516	2615.307129	4.861907
544.481079	1250.440552	28484.468750	2572.657471	4.855018
544.827637	1252.000854	27888.710938	2528.670166	4.792894
545.174072	1252.372437	27566.013672	2507.419678	4.769569
545.520508	1252.075195	27459.240234	2499.914795	4.761445
545.866943	1248.805786	27341.541016	2493.376465	4.769798
546.213318	1245.685181	27249.109375	2479.704834	4.745605
546.559631	1248.657227	26931.837891	2481.562256	4.800437
546.905823	1246.353760	26427.546875	2461.128906	4.824137
547.252136	1247.988403	25667.578125	2430.367920	4.841930
547.598389	1243.010132	24776.318359	2371.965576	4.797266
547.944458	1241.747070	23822.119141	2333.848389	4.836507
548.290588	1245.462280	22876.171875	2302.789795	4.888085
548.636658	1242.861694	22007.724609	2267.198975	4.933032
548.982727	1245.685181	21283.939453	2228.635742	4.905370
549.328735	1241.078369	20729.937500	2190.593018	4.872089
549.674622	1245.982300	20311.242188	2159.608643	4.792100
550.020569	1250.514771	20068.197266	2140.587158	4.729979
550.366455	1249.994751	19921.304688	2133.082764	4.729652
550.712280	1253.189697	19910.974609	2137.094971	4.737461
551.058044	1257.424927	19980.669922	2143.187744	4.730819
551.403748	1267.530151	20109.511719	2150.469238	4.686020
551.749512	1265.969727	20292.666016	2157.676514	4.686609
552.095154	1255.715942	20462.523438	2159.905762	4.707653
552.440735	1247.245483	20563.351563	2166.890381	4.761026
552.786316	1245.313599	20558.001953	2162.952393	4.751482
553.131897	1250.291870	20362.289063	2165.404297	4.788157
553.477417	1256.830566	20059.060547	2154.630371	4.774964
553.822815	1263.071899	19630.482422	2139.918213	4.773925
554.168213	1258.242188	19239.650391	2107.968018	4.725580
554.513672	1253.412598	18890.873047	2081.813721	4.696827
554.859009	1246.130981	18620.039063	2061.900635	4.695372
555.204285	1252.223755	18383.013672	2064.723877	4.742923
555.549500	1256.161865	18188.638672	2057.293701	4.731333
555.894714	1260.099854	18051.326172	2053.058350	4.722457
556.239990	1254.824341	17964.169922	2042.358887	4.713138
556.585022	1263.740601	17873.966797	2040.501343	4.676401
556.930115	1264.037842	17757.830078	2032.328003	4.658056
557.275146	1265.375366	17602.462891	2020.067993	4.619505
557.620178	1248.657227	17508.693359	2011.226074	4.689835
557.965149	1252.372437	17403.111328	2005.281860	4.661765
558.310059	1253.486938	17393.376953	2003.572876	4.647404
558.654968	1259.802612	17378.365234	1997.851563	4.578876
558.999756	1249.697388	17416.185547	1998.148926	4.629648
559.344604	1245.016479	17444.642578	2001.417969	4.669253
559.689331	1242.861694	17478.080078	1999.411987	4.659933
560.033997	1241.821411	17521.623047	2000.006348	4.657212
560.378723	1250.514893	17603.578125	2006.099243	4.620445
560.723389	1254.229980	17633.150391	2015.238403	4.646267
561.067932	1253.189697	17696.457031	2020.142456	4.664236
561.412476	1245.759399	17657.447266	2011.969116	4.668684
561.757019	1241.821289	17609.224609	1998.074341	4.620483
562.101501	1241.375610	17520.804688	1994.210571	4.624455
562.445862	1236.025757	17426.068359	1993.616333	4.679361
562.790222	1239.592285	17377.251953	2005.207642	4.744277
563.134644	1248.731567	17366.255859	2004.390259	4.688429
563.478943	1248.582886	17462.476563	2011.077515	4.702724
563.823181	1244.421997	17609.818359	2003.721558	4.639665
564.167358	1237.957642	17818.089844	2009.219849	4.651725
564.511536	1247.914185	18120.798828	2010.705933	4.520814
564.855774	1259.356812	18493.949219	2035.671753	4.504400
565.199768	1269.387695	18876.162109	2047.931641	4.421844
565.543823	1264.632324	19163.119141	2064.575439	4.469334
565.887817	1254.155640	19367.228516	2074.234619	4.527553
566.231812	1244.644897	19368.564453	2080.178955	4.610118
566.575745	1246.205200	19251.091797	2074.977783	4.603043
566.919617	1242.564453	19028.779297	2057.813721	4.583602
567.263428	1247.171265	18732.236328	2033.888306	4.499366
567.607239	1250.514771	18501.525391	2019.622192	4.458333
567.950989	1253.412598	18272.376953	2011.746216	4.455815
568.294678	1248.954468	18184.402344	2013.306641	4.513327
568.638367	1251.257813	18099.548828	2003.795776	4.466554
568.981995	1253.784180	18108.984375	2002.829712	4.444003
569.325623	1258.985352	18176.822266	2001.938354	4.391537
569.669128	1257.202026	18287.013672	2011.300415	4.428107
570.012573	1251.480713	18489.562500	2021.331177	4.465987
570.356140	1248.582886	18772.359375	2038.643677	4.508507
570.699524	1248.731445	19069.570313	2048.600342	4.488390
571.042908	1255.195801	19384.539063	2060.191650	4.440292
571.386230	1256.384766	19561.306641	2066.135742	4.423679
571.729492	1255.938843	19673.429688	2076.909912	4.457562
572.072815	1251.109253	19613.318359	2069.256592	4.455604
572.416016	1249.623169	19512.042969	2059.448486	4.434381
572.759094	1245.387817	19349.244141	2046.073853	4.422738
573.102234	1245.982300	19138.001953	2034.705688	4.408241
573.445374	1251.034912	18966.662109	2027.349731	4.382091
573.788391	1253.858398	18833.808594	2023.337402	4.377026
574.131409	1255.270142	18778.824219	2032.476685	4.435211
574.474365	1246.130981	18721.091797	2026.532227	4.465826
574.817261	1248.137207	18619.740234	2013.232056	4.404284
575.160156	1249.177368	18445.056641	1990.049805	4.308430
575.502930	1248.359985	18195.029297	1981.207886	4.324436
575.845703	1248.805786	17890.609375	1969.839478	4.332666
576.188477	1251.480591	17490.634766	1965.678589	4.398000
576.531250	1259.431030	17103.220703	1944.947876	4.326723
576.873901	1257.127686	16727.177734	1933.059570	4.369294
577.216431	1248.434204	16437.025391	1916.267090	4.396938
577.559082	1247.988403	16096.125000	1900.217773	4.392668
577.901611	1243.604614	15794.307617	1889.592407	4.439564
578.244080	1246.353760	15466.409180	1875.103638	4.421571
578.586487	1250.886230	15246.992188	1869.307983	4.418528
578.928955	1256.607544	15013.011719	1868.564941	4.448527
579.271301	1257.127686	14839.812500	1855.933472	4.408597
579.613647	1249.697388	14628.644531	1847.834351	4.470733
579.955872	1243.307495	14475.135742	1829.481567	4.430031
580.298157	1250.440552	14383.074219	1828.218384	4.399558
580.640320	1243.530396	14329.577148	1828.738647	4.472002
580.982483	1246.725342	14281.280273	1821.828491	4.412143
581.324524	1238.700684	14227.633789	1817.890259	4.459100
581.666626	1250.217529	14175.992188	1816.924438	4.384317
582.008728	1249.251587	14118.184570	1822.422852	4.453915
582.350647	1253.264038	14064.464844	1816.775879	4.398587
582.692566	1248.954468	13987.859375	1810.757202	4.410133
583.034424	1251.703735	13911.327148	1801.320801	4.341496
583.376343	1249.920410	13814.362305	1797.085571	4.354871
583.718201	1247.468384	13761.085938	1781.110474	4.264491
584.059937	1244.942139	13708.851563	1780.218872	4.294613
584.401611	1247.617065	13651.342773	1773.680298	4.241171
584.743347	1253.932739	13630.612305	1787.797852	4.313476
585.085022	1258.985352	13602.674805	1785.791504	4.267817
585.426514	1263.072021	13572.284180	1792.553101	4.301503
585.768127	1258.390991	13533.276367	1786.757446	4.304451
586.109619	1257.722168	13525.102539	1780.070313	4.258025
586.451172	1260.619995	13563.144531	1778.138306	4.206603
586.792542	1264.260864	13598.735352	1776.132324	4.149925
587.133850	1256.607544	13631.875000	1779.921753	4.228710
587.475220	1247.245483	13684.109375	1784.454224	4.319487
587.816589	1243.307373	13768.442383	1787.723511	4.346589
588.157776	1247.616943	13910.583008	1790.621460	4.288131
588.498962	1248.211426	14028.206055	1790.249878	4.241304
588.840210	1246.725464	14103.696289	1788.317993	4.212443
589.181335	1255.121460	14125.096680	1797.754395	4.216270
589.522400	1254.452759	14130.593750	1803.847046	4.266762
589.863403	1261.362915	14091.213867	1803.252563	4.223663
590.204407	1257.722168	14016.761719	1797.531372	4.230798
590.545410	1260.248413	13949.295898	1784.379761	4.130580
590.886353	1254.155640	13831.452148	1781.853516	4.195638
591.227112	1252.446655	13721.854492	1771.302368	4.161029
591.567932	1248.583008	13612.777344	1772.714355	4.239106
591.908752	1251.852173	13563.514648	1767.735962	4.190204
592.249512	1252.223755	13603.340820	1770.633911	4.197273
592.590149	1254.229980	13621.324219	1763.500854	4.117951
592.930786	1253.189575	13723.862305	1768.776367	4.134394
593.271423	1250.886353	13840.070313	1770.931152	4.130886
593.612000	1250.440552	14035.859375	1782.968140	4.165116
593.952576	1248.805786	14188.699219	1786.831909	4.157887
594.292969	1242.638672	14308.622070	1787.500488	4.170079
594.633484	1238.700806	14441.104492	1793.221802	4.200152
594.973877	1240.558350	14665.647461	1799.686157	4.164798
595.314209	1248.954468	14936.852539	1824.577637	4.205344
595.654480	1249.994751	15278.348633	1838.695190	4.196504
595.994812	1245.833740	15612.637695	1855.190308	4.241421
596.335022	1245.313599	15911.557617	1857.270874	4.172556
596.675171	1248.657227	15991.878906	1856.007446	4.119522
597.015320	1254.750000	15894.541992	1850.955078	4.072497
597.355408	1249.325806	15575.782227	1838.769531	4.114372
597.695496	1252.446655	15162.510742	1821.382690	4.090104
598.035461	1250.366089	14664.532227	1804.738770	4.132740
598.375366	1250.812012	14204.823242	1784.602661	4.120659
598.715271	1243.604614	13797.198242	1767.438843	4.172783
599.055176	1241.672729	13434.155273	1742.844604	4.110499
599.395081	1243.678955	13166.367188	1730.510376	4.083235
599.734802	1252.744019	12937.886719	1722.634155	4.021262
600.074524	1247.765625	12822.495117	1727.909790	4.148211
600.414246	1247.542725	12764.018555	1729.395874	4.184033
600.753906	1241.672852	12813.578125	1730.436035	4.223705
601.093506	1247.022583	12886.618164	1727.389648	4.127008
601.433044	1249.920288	13037.898438	1733.036621	4.098382
601.772583	1250.737671	13253.153320	1745.519531	4.122352
602.112122	1255.641724	13591.082031	1757.779297	4.070690
602.451538	1251.034912	13954.496094	1773.977539	4.116537
602.790894	1255.195801	14350.679688	1789.804077	4.082386
603.130310	1250.143188	14791.590820	1806.447754	4.108162
603.469604	1256.979126	15165.260742	1832.676636	4.139243
603.808838	1257.870728	15540.489258	1843.673340	4.101507
604.148010	1248.657227	15805.750000	1865.369751	4.236509
604.487305	1241.970093	15943.877930	1859.351196	4.199327
604.826416	1233.127930	15860.659180	1853.704224	4.242522
605.165527	1243.901855	15549.182617	1832.007813	4.111111
605.504456	1241.821411	15174.622070	1812.837769	4.098360
605.843445	1244.793457	14659.036133	1801.246582	4.148226
606.182434	1246.874023	14173.690430	1782.670898	4.144848
606.521423	1251.109131	13695.997070	1765.581177	4.134003
606.860229	1253.486816	13355.691406	1747.674316	4.083450
607.199036	1254.378540	13141.105469	1736.603149	4.056833
607.537903	1257.870728	13116.510742	1725.606445	3.944261
607.876648	1262.254517	13235.916992	1725.829224	3.871620
608.215271	1262.774658	13428.210938	1735.265625	3.883880
608.553955	1260.099731	13680.765625	1747.302734	3.922519
608.892578	1252.892456	13882.422852	1748.417358	3.923542
609.231140	1254.155640	14027.165039	1758.151001	3.945784
609.569641	1252.818237	13994.100586	1763.797852	4.010426
609.908081	1254.824341	13873.135742	1764.986816	4.043033
610.246521	1249.697388	13612.109375	1746.708374	4.020340
610.584961	1253.709839	13290.601563	1729.470093	3.952518
610.923340	1252.669556	12913.070313	1719.810669	4.006218
611.261597	1250.960571	12525.507813	1716.021362	4.124874
611.599854	1239.889526	12214.030273	1704.058594	4.229662
611.938110	1247.394043	11922.168945	1690.386841	4.149903
612.276245	1253.709839	11705.575195	1675.823608	4.038645
612.614319	1265.672485	11482.073242	1664.232300	3.901176
612.952393	1256.533325	11338.520508	1653.235474	3.934762
613.290466	1257.350708	11227.958008	1649.743164	3.935492
613.628479	1250.589233	11098.671875	1653.829956	4.094611
613.966370	1254.750122	10988.257813	1652.640991	4.087847
614.304260	1249.325928	10858.004883	1646.250977	4.130901
614.642151	1250.068970	10809.485352	1643.353394	4.114105
614.979980	1245.685059	10774.042969	1644.616333	4.186779
615.317749	1241.375488	10756.061523	1649.743286	4.291974
615.655396	1246.279541	10720.098633	1643.799194	4.195981
615.993164	1253.338257	10683.467773	1638.895142	4.088564
616.330811	1256.161987	10707.468750	1632.802368	3.985061
616.668396	1253.338379	10714.898438	1627.749634	3.957183
617.005859	1247.914185	10750.860352	1629.235718	4.012666
617.343445	1244.347656	10736.668945	1628.715698	4.049253
617.680908	1245.685181	10736.149414	1638.152222	4.135383
618.018311	1254.750122	10712.075195	1643.501953	4.110590
618.355652	1269.090454	10685.176758	1640.232544	3.941575
618.692993	1270.502319	10639.035156	1628.790039	3.824374
619.030273	1264.557983	10625.661133	1628.269897	3.885353
619.367554	1259.654053	10604.781250	1628.567017	3.947651
619.704712	1262.849121	10605.895508	1638.598022	4.021696
620.041870	1256.161743	10560.200195	1635.774414	4.080085
620.379028	1248.657227	10483.222656	1629.012817	4.118825
620.716064	1240.186646	10453.204102	1620.913940	4.132493
621.053040	1248.359985	10453.798828	1620.690918	4.044684
621.389954	1247.914185	10465.909180	1626.932495	4.111722
621.726929	1247.171021	10421.476563	1630.647461	4.179896
622.063843	1238.031982	10366.046875	1633.768188	4.335403
622.400635	1245.016357	10354.529297	1637.186157	4.305058
622.737427	1254.081421	10373.403320	1636.591797	4.194504
623.074219	1261.140137	10390.121094	1639.638062	4.146114
623.410889	1258.539429	10438.268555	1643.353149	4.191994
623.747559	1254.601440	10481.661133	1647.737183	4.260683
624.084167	1254.898560	10567.407227	1640.158325	4.137014
624.420715	1256.087524	10676.112305	1643.501953	4.112669
624.757324	1255.195923	10819.961914	1644.467896	4.069854
625.093750	1255.641724	11003.340820	1650.263306	4.048356
625.430176	1255.344482	11225.133789	1650.486328	3.963392
625.766602	1256.087524	11426.941406	1661.706055	3.988048
626.102905	1252.149414	11590.629883	1675.080566	4.090845
626.439209	1246.725464	11670.729492	1687.712036	4.230491
626.775452	1246.428101	11743.543945	1692.095825	4.245621
627.111694	1247.394043	11729.352539	1692.318726	4.244671
627.447876	1249.177246	11648.883789	1687.043335	4.210370
627.783997	1243.827515	11503.027344	1683.922485	4.289759
628.120056	1242.935913	11356.799805	1672.628540	4.248550
628.456055	1241.821411	11191.996094	1667.130005	4.274383
628.792053	1249.251587	10993.980469	1659.476929	4.209715
629.128052	1252.297974	10804.953125	1648.777344	4.150463
629.463928	1249.474487	10646.540039	1648.034302	4.241322
629.799744	1242.638672	10524.757813	1648.628906	4.373896
630.135559	1239.072266	10407.657227	1654.721680	4.533409
630.471375	1245.610840	10281.936523	1644.467896	4.413929
630.807068	1248.657227	10218.258789	1631.093262	4.263690
631.142700	1257.202026	10168.624023	1623.365845	4.108927
631.478333	1260.694214	10122.036133	1620.765259	4.063392
631.813965	1255.195923	10065.789063	1630.573242	4.260523
632.149475	1247.096802	10018.607422	1636.740234	4.442147
632.484924	1243.010254	10005.604492	1633.322266	4.454298
632.820435	1247.468384	9991.338867	1627.378296	4.344872
633.155884	1244.421997	9992.452148	1628.418457	4.389519
633.491150	1242.564453	10014.372070	1637.706421	4.504681
633.826477	1247.765625	10008.353516	1636.294434	4.434963
634.161804	1249.474609	10014.817383	1643.650513	4.496982
634.497009	1254.229858	9971.053711	1637.631836	4.398414
634.832153	1245.908081	9906.039063	1640.827026	4.560196
635.167297	1250.960571	9802.833008	1624.108765	4.363351
635.502380	1251.629395	9727.935547	1622.028320	4.369815
635.837463	1254.675781	9646.500000	1613.706421	4.278338
636.172424	1252.744019	9571.454102	1616.084351	4.367749
636.507324	1251.480835	9472.185547	1616.009888	4.434279
636.842224	1251.629517	9395.133789	1611.923218	4.424308
637.177124	1254.898804	9276.100586	1603.824219	4.350039
637.511963	1251.406616	9199.866211	1601.446655	4.403873
637.846741	1256.236084	9121.550781	1597.954224	4.344622
638.181396	1252.149536	9072.659180	1594.239136	4.374262
638.516113	1254.006958	8996.127930	1585.545898	4.282275
638.850769	1252.966675	8911.497070	1587.626343	4.369763
639.185303	1256.830444	8816.834961	1589.483887	4.400175
639.519836	1256.904785	8743.275391	1593.198853	4.492084
639.854370	1253.412598	8696.316406	1591.118530	4.537287
640.188843	1252.223755	8664.216797	1593.496094	4.604326
640.523254	1253.041016	8626.100586	1594.759277	4.634687
640.857605	1250.217651	8559.301758	1587.626343	4.616292
641.191895	1247.468384	8511.450195	1584.579712	4.640862
641.526184	1245.982300	8449.036133	1580.716187	4.647111
641.860413	1252.966797	8409.879883	1591.341431	4.727941
642.194580	1253.041016	8371.761719	1595.651001	4.812803
642.528748	1249.548828	8350.659180	1598.325806	4.911584
642.862793	1243.158813	8339.588867	1592.753296	4.926343
643.196838	1236.694458	8284.084961	1590.003906	5.013337
643.530823	1237.214478	8273.237305	1591.712891	5.038335
643.864746	1240.558228	8224.940430	1587.774902	4.971330
644.198669	1246.279419	8230.438477	1582.945313	4.820421
644.532532	1260.694214	8184.519043	1587.551880	4.720767
644.866333	1263.517700	8194.327148	1589.558105	4.704218
645.200073	1263.889282	8197.967773	1595.502319	4.782366
645.533813	1256.013184	8222.487305	1584.579712	4.716396
645.867554	1251.183594	8227.540039	1591.415649	4.876931
646.201172	1251.703613	8227.465820	1583.093750	4.750594
646.534729	1248.954468	8232.889648	1589.483765	4.875895
646.868225	1253.041016	8222.190430	1592.753296	4.874516
647.201782	1255.418823	8253.546875	1602.635376	4.961564
647.535217	1257.870850	8248.866211	1608.876831	5.020830
647.868591	1254.824341	8260.678711	1606.424805	5.018666
648.201965	1254.898804	8242.624023	1603.675659	4.991279
648.535278	1253.115479	8226.425781	1598.474243	4.952579
648.868591	1255.121582	8227.985352	1589.335083	4.793059
649.201782	1253.264038	8213.125977	1592.084351	4.868205
649.534912	1249.028687	8234.674805	1592.678711	4.919374
649.868103	1245.759399	8216.766602	1599.217407	5.070401
650.201172	1247.839844	8218.252930	1594.759277	4.977028
650.534180	1258.316528	8181.621094	1598.548706	4.914303
650.867188	1259.431030	8175.230957	1609.025391	5.055010
651.200134	1254.081177	8176.791504	1618.387695	5.262484
651.533020	1245.536499	8199.231445	1617.421509	5.348020
651.865845	1251.852173	8199.602539	1617.941772	5.269182
652.198608	1253.784058	8173.225098	1622.845703	5.333692
652.531433	1250.514771	8108.507324	1626.189453	5.477910
652.864136	1250.291870	8068.829590	1621.359741	5.442045
653.196777	1358.253784	8126.636719	1665.198242	4.534975
653.529358	1368.804688	8079.529297	1660.591431	4.348066
653.861938	1362.191772	8018.303223	1661.780273	4.500954
654.194519	1256.087524	7830.020996	1608.431030	5.359706
654.526978	1255.047241	7773.476563	1614.003540	5.506792
654.859375	1257.796509	7716.931641	1613.854980	5.512479
655.191833	1255.270142	7706.975098	1617.198730	5.609813
655.524170	1242.044189	7728.152344	1616.975708	5.780531
655.856445	1236.768677	7763.668457	1616.232788	5.813849
656.188660	1239.295044	7790.342285	1621.285278	5.830979
656.520874	1246.873901	7819.841309	1624.851929	5.750493
656.853088	1251.555054	7870.738281	1634.511353	5.785553
657.185181	1254.898560	7953.066406	1634.214233	5.662976
657.517212	1254.006958	8071.356934	1642.387329	5.696940
657.849243	1253.264038	8231.627930	1656.727905	5.781640
658.181274	1250.663452	8452.158203	1672.182617	5.853218
658.513123	1250.589111	8646.310547	1678.349731	5.783893
658.844971	1247.022583	8803.981445	1691.873047	5.886633
659.176819	1248.582886	8901.911133	1698.708862	5.881441
659.508667	1248.508667	8978.071289	1709.557007	5.964740
659.840393	1249.697388	8975.991211	1697.891602	5.800895
660.172058	1254.973022	8880.289063	1699.154663	5.825092
660.503662	1251.480835	8719.499023	1698.485962	5.985592
660.835266	1254.081421	8546.893555	1694.770874	6.042792
661.166931	1245.982300	8381.569336	1686.523071	6.173855
661.498413	1246.725464	8228.133789	1669.359253	6.053704
661.829773	1241.672729	8048.470215	1667.947388	6.262485
662.161194	1242.564453	7841.908691	1658.659546	6.305098
662.492615	1240.855469	7666.108887	1655.613281	6.455120
662.823975	1242.415894	7540.462891	1649.817749	6.468701
663.155212	1236.694580	7466.605957	1645.062134	6.554950
663.486450	1244.421997	7377.368652	1641.124146	6.468378
663.817627	1257.499146	7306.781250	1633.099487	6.209007
664.148743	1261.585815	7260.341797	1633.471069	6.199373
664.479858	1259.802612	7207.513184	1633.396851	6.281312
664.810913	1254.155640	7166.274902	1628.121094	6.325405
665.141907	1251.703613	7130.386719	1634.808472	6.516848
665.472778	1243.976196	7118.646484	1638.449341	6.714813
665.803711	1245.239380	7121.321777	1646.399780	6.827004
666.134583	1247.839966	7103.042969	1642.536011	6.740945
666.465454	1253.264038	7102.076660	1647.291382	6.736877
666.796143	1244.793457	7075.253418	1654.721680	7.030804
667.126831	1249.251587	7052.442871	1655.836304	7.006226
667.457458	1248.434326	7039.736816	1648.703125	6.911550
667.788147	1249.548706	7032.380859	1645.582520	6.848441
668.118774	1239.815063	7053.779785	1656.727905	7.170887
668.449219	1247.319824	7069.087402	1665.272461	7.179136
668.779663	1247.171265	7078.300293	1668.170410	7.219857
669.110107	1247.468384	7066.040527	1655.241699	7.008133
669.440552	1242.713013	7053.482910	1659.179810	7.167153
669.770874	1240.409668	7046.201172	1661.186035	7.247528
670.101135	1252.372437	7033.123535	1670.325195	7.230077
670.431396	1256.236206	7000.431152	1664.901001	7.114397
670.761597	1259.356812	6925.533691	1661.780396	7.102207
671.091797	1253.486938	6852.122559	1665.792847	7.364399
671.421875	1248.508667	6774.476074	1667.130249	7.575535
671.751892	1250.291870	6751.219238	1663.935181	7.519520
672.081909	1250.366211	6719.269531	1654.350098	7.386927
672.411865	1254.378540	6689.845215	1639.712402	7.089251
672.741821	1247.394165	6645.264160	1646.251099	7.389154
673.071716	1241.970093	6632.929688	1653.012695	7.624665
673.401550	1241.152710	6604.025879	1661.334473	7.835012
673.731262	1247.839966	6601.722656	1647.068359	7.456801
674.060974	1248.508667	6563.531250	1649.668945	7.547668
674.390625	1242.192993	6553.276855	1648.257202	7.645599
674.720276	1245.462280	6524.818848	1668.913452	8.020886
675.049927	1251.480835	6516.423340	1667.798828	7.907361
675.379395	1257.722168	6500.670410	1685.482788	8.158780
675.708923	1258.316528	6500.225098	1676.789429	7.983216
676.038330	1251.034912	6479.865723	1681.693359	8.236228
676.367737	1255.270142	6456.609375	1679.092896	8.148339
676.697083	1258.093750	6431.866699	1687.934937	8.308080
677.026428	1254.155640	6448.881348	1681.916504	8.234523
677.355652	1244.570557	6489.525391	1683.625488	8.370996
677.684875	1238.626343	6545.029785	1689.421021	8.495296
678.013977	1249.771606	6602.391113	1702.126831	8.451099
678.343079	1260.099731	6681.151855	1707.625000	8.255322
678.672180	1254.601440	6737.324219	1713.197876	8.364392
679.001221	1248.285645	6817.645996	1716.912964	8.414383
679.330139	1248.880005	6906.066406	1726.052246	8.434797
679.659058	1254.898560	6990.027832	1730.287476	8.289070
679.987976	1260.768555	7064.330566	1737.866211	8.220773
680.316772	1249.623169	7070.646484	1743.587524	8.485868
680.645630	1247.394043	7070.200684	1747.154175	8.582805
680.974304	1246.502441	7022.795410	1756.516235	8.829431
681.302979	1239.592285	7005.780762	1761.717407	9.054944
681.631653	1237.734741	6963.205078	1769.073608	9.280266
681.960266	1233.722290	6920.257813	1766.250000	9.364713
682.288757	1241.004028	6838.450684	1752.726929	9.142077
682.617249	1239.146484	6754.860840	1738.015015	9.044496
682.945679	1238.329102	6658.044434	1733.705444	9.140265
683.274109	1240.558228	6579.877441	1737.271851	9.302939
683.602478	1251.926392	6476.299316	1734.597046	9.238825
683.930725	1259.505371	6361.947266	1726.349243	9.149421
684.259033	1259.282593	6254.876953	1715.427124	9.130937
684.587280	1259.579712	6184.735840	1714.609741	9.238895
684.915344	1258.539551	6151.299316	1705.693359	9.139091
685.243469	1263.443481	6101.144531	1703.390015	9.094124
685.571533	1252.223877	6057.603027	1691.650024	9.144464
685.899536	1255.790405	6023.646973	1697.371460	9.261626
686.227539	1259.059570	6022.606934	1699.451782	9.245048
686.555420	1259.802612	6042.892090	1717.878906	9.576997
686.883301	1253.041138	6054.408203	1723.525879	9.798974
687.211121	1242.341431	6068.823730	1727.909790	10.060502
687.538940	1243.604736	6075.732910	1735.637207	10.182522
687.866638	1239.666626	6102.036621	1737.048828	10.229213
688.194336	1244.793579	6084.798340	1735.860229	10.145995
688.521973	1248.211426	6046.012207	1722.559937	9.886790
688.849609	1256.607544	5973.938965	1726.646606	9.964087
689.177063	1253.784058	5929.803223	1732.739380	10.242801
689.504578	1257.573608	5876.453125	1733.779785	10.309994
689.832031	1250.291992	5840.490723	1725.532227	10.353370
690.159485	1249.548950	5773.320801	1722.708618	10.459406
690.486816	1244.570557	5736.467285	1726.572266	10.730473
690.814087	1251.109253	5676.951172	1723.080078	10.663979
691.141296	1248.359985	5647.304688	1722.708618	10.783237
691.468506	1243.084473	5596.183594	1714.386719	10.826821
691.795715	1247.914185	5542.166016	1713.049438	10.831578
692.122803	1257.499146	5478.265625	1707.773804	10.668077
692.449829	1257.647827	5448.172852	1715.501343	10.925922
692.776855	1249.177246	5411.095703	1711.860474	11.117066
693.103821	1245.462158	5376.024902	1700.492188	11.016176
693.430664	1248.880249	5341.028320	1686.523071	10.694697
693.757568	1245.239258	5309.672363	1683.625366	10.785911
694.084351	1247.245483	5304.768555	1690.238281	10.917813
694.411133	1249.400269	5273.041016	1695.587891	11.089152
694.737854	1253.338257	5282.998047	1701.755249	11.127913
695.064575	1242.713013	5286.416016	1705.396118	11.442064
695.391174	1242.044312	5310.861816	1714.089478	11.601532
695.717773	1241.895630	5331.963379	1715.426880	11.577589
696.044250	1253.784180	5366.142578	1730.584595	11.594330
696.370789	1260.397095	5443.269043	1730.064575	11.228349
696.697205	1261.214355	5550.041504	1743.587769	11.247211
697.023621	1262.477539	5674.201660	1755.773438	11.181477
697.349915	1257.202026	5821.394531	1772.937134	11.299592
697.676208	1255.121460	6011.460938	1800.206421	11.460178
698.002380	1249.920410	6236.821777	1830.744751	11.646998
698.328674	1250.217529	6438.776855	1874.063110	12.023483
698.654724	1244.942017	6588.720215	1902.149536	12.298555
698.980896	1249.548828	6678.402832	1925.034790	12.442514
699.306946	1252.075195	6696.755859	1920.576660	12.278066
699.632935	1260.768555	6621.338379	1901.926758	11.960635
699.958862	1259.208374	6493.314941	1877.183960	11.806706
700.284729	1258.390991	6302.653809	1864.181030	12.009486
700.610596	1258.762573	6124.327637	1854.298706	12.239815
700.936340	1266.192749	5920.292480	1839.363892	12.315403
701.262146	1268.347534	5733.049316	1818.484741	12.321925
701.587830	1264.335083	5544.692871	1797.382690	12.453341
701.913513	1251.480713	5376.545410	1774.571777	12.680798
702.239075	1246.502319	5253.425293	1757.333618	12.748718
702.564697	1245.164917	5143.011230	1748.120117	12.903413
702.890137	1244.867676	5059.197754	1739.723999	12.973610
703.215698	1239.443726	4976.053223	1736.157349	13.293164
703.541016	1243.010376	4911.187012	1722.262695	13.065137
703.866455	1252.075317	4861.626953	1710.448608	12.698898
704.191711	1256.236206	4820.314941	1702.349731	12.516938
704.517029	1255.195923	4789.107422	1711.934937	12.924460
704.842163	1245.239380	4749.281738	1713.123657	13.352700
705.167419	1248.285645	4721.194824	1710.002808	13.294824
705.492493	1245.759399	4717.702148	1707.328003	13.294246
705.817566	1249.474609	4700.984375	1706.956421	13.254542
706.142578	1250.663452	4691.102051	1718.844849	13.608190
706.467590	1254.527222	4663.907227	1716.690063	13.555628
706.792480	1251.926636	4670.892090	1722.114258	13.752337
707.117371	1247.171143	4687.387207	1724.937500	13.887685
707.442200	1240.706787	4699.646973	1731.550659	14.190586
707.766907	1238.254883	4705.368652	1741.284180	14.508590
708.091675	1238.180542	4710.866699	1736.528931	14.350516
708.416321	1243.456055	4715.919434	1735.711548	14.175974
708.741028	1243.158813	4724.687012	1730.064575	13.985403
709.065552	1244.199097	4725.430176	1736.826172	14.150945
709.390137	1242.861572	4739.176270	1742.918945	14.302413
709.714600	1244.496216	4768.376953	1753.321289	14.439338
710.039063	1244.942017	4818.531250	1758.671021	14.375714
710.363403	1245.908081	4870.617676	1772.640015	14.531701
710.687744	1248.211426	4926.196289	1784.454102	14.579796
711.012085	1247.319824	4965.874512	1795.599609	14.744432
711.336304	1243.530396	4983.854980	1793.370483	14.700331
711.660461	1246.651001	4977.836426	1797.457031	14.762226
711.984619	1247.616943	4931.917480	1802.807007	15.069077
712.308716	1255.344360	4905.020020	1804.961792	15.059349
712.632751	1250.068970	4864.153809	1807.636597	15.427629
712.956726	1244.644897	4829.676270	1799.760376	15.484258
713.280701	1241.375610	4792.005371	1798.051636	15.678233
713.604553	1244.124756	4747.126465	1782.225098	15.361121
713.928467	1249.846191	4734.271973	1777.469727	15.142338
714.252258	1252.818237	4697.640625	1777.395386	15.227989
714.575989	1255.716064	4697.937988	1778.584351	15.189848
714.899719	1260.545532	4692.365723	1777.320923	15.058347
715.223267	1256.087524	4702.916504	1780.590454	15.216969
715.546936	1255.864624	4693.554199	1784.008423	15.363337
715.870422	1246.874023	4671.560547	1796.119751	16.037840
716.193970	1256.533325	4649.642090	1793.073242	15.812634
716.517395	1256.384644	4628.985352	1791.735840	15.873543
716.840820	1259.133789	4589.530273	1780.739136	15.661960
717.164124	1256.756104	4550.075684	1771.822754	15.639741
717.487488	1251.629272	4492.491211	1763.872437	15.805770
717.810730	1249.251587	4444.417480	1752.281128	15.743456
718.133972	1244.644897	4370.263184	1735.859985	15.715774
718.457092	1250.812012	4305.768555	1732.590820	15.770398
718.780212	1248.657349	4255.985840	1723.971680	15.805201
719.103210	1245.536621	4217.348145	1729.544556	16.286629
719.426208	1237.437378	4176.407227	1726.646606	16.645603
719.749207	1247.839844	4135.095215	1727.092407	16.598898
720.072083	1251.109131	4086.129883	1721.668335	16.598087
720.394958	1260.099731	4050.241455	1718.547729	16.430994
720.717773	1254.750122	4009.300781	1710.522949	16.546177
721.040527	1253.041138	3985.746826	1706.510620	16.594158
721.363281	1244.421997	3951.641602	1696.479858	16.698233
721.685913	1250.960571	3929.871094	1696.999878	16.650026
722.008545	1247.839966	3911.592529	1694.845093	16.781031
722.331055	1253.784058	3906.762695	1694.176270	16.599916
722.653503	1247.394043	3900.075439	1698.485840	17.005125
722.976013	1254.229858	3896.806396	1706.064819	17.098272
723.298401	1254.973022	3881.722900	1704.281616	17.105114
723.620789	1246.056519	3879.047852	1698.783203	17.194386
723.943115	1237.883179	3860.397705	1687.637695	17.149742
724.265381	1235.356934	3858.540283	1693.507690	17.465448
724.587585	1241.004028	3836.769775	1701.160767	17.727207
724.909790	1239.295044	3845.760498	1705.470337	17.885344
725.231873	1235.431274	3843.457031	1707.922363	18.116810
725.553894	1236.397339	3871.171875	1707.030762	17.862381
725.875916	1282.836548	3923.332275	1751.983887	17.767397
726.197937	1284.322510	3935.072266	1753.172852	17.687462
726.519775	1287.740479	3935.146484	1757.036499	17.726635
726.841675	1247.542603	3944.879883	1728.355469	17.825462
727.163513	1252.669556	3982.105469	1740.318359	17.866283
727.485291	1257.870728	4014.798828	1744.702148	17.658472
727.806946	1260.248413	4018.068115	1751.240845	17.803644
728.128662	1260.248413	4033.002930	1750.051880	17.664871
728.450256	1256.681885	4044.445557	1751.240845	17.740347
728.771790	1256.458984	4036.346680	1745.445313	17.590147
729.093323	1254.898560	4020.074463	1756.887817	18.153973
729.414795	1253.115356	4016.656982	1762.312012	18.425512
729.736145	1245.833740	4013.090088	1774.869141	19.117687
730.057495	1245.908081	4029.436768	1775.092163	19.011267
730.378845	1239.295044	4034.786377	1777.766968	19.262157
730.700134	1237.957642	4043.405273	1781.036255	19.358002
731.021301	1240.112427	4068.222656	1776.578125	18.969051
731.342468	1250.217651	4092.965576	1784.231079	18.785112
731.663574	1253.932739	4111.615723	1782.447876	18.494534
731.984680	1254.675781	4111.318359	1792.553101	18.829002
732.305664	1245.387817	4113.324219	1799.686157	19.327427
732.626648	1247.319702	4123.429688	1799.240356	19.189833
732.947571	1244.570557	4131.082520	1791.438477	18.945631
733.268433	1253.412598	4112.061035	1786.757446	18.657238
733.589233	1259.876953	4097.646484	1788.243530	18.619080
733.909973	1263.071899	4059.900391	1794.484985	19.000559
734.230713	1260.694214	4014.130127	1790.769897	19.251425
734.551331	1248.285767	3935.294922	1786.906128	20.045347
734.871948	1240.335327	3861.066406	1775.389160	20.416206
735.192505	1238.477783	3819.234131	1765.655640	20.427261
735.513062	1243.010254	3785.797852	1751.835327	20.010523
735.833435	1247.245483	3759.643311	1744.925171	19.808950
736.153931	1245.239258	3719.817139	1743.959106	20.153734
736.474304	1249.994629	3700.349854	1744.033325	20.161921
736.794617	1253.561279	3689.501709	1743.513184	20.113461
737.114807	1256.756226	3684.300537	1733.259399	19.629019
737.434998	1262.626221	3673.303711	1729.024414	19.347183
737.755188	1260.842896	3691.062256	1727.612671	19.206900
738.075256	1259.505371	3721.229248	1744.553345	19.703590
738.395325	1252.298096	3743.891357	1756.144653	20.221863
738.715271	1253.041138	3744.039795	1765.061035	20.554806
739.035278	1250.812012	3743.816650	1765.804077	20.657486
739.355164	1256.310425	3735.717773	1769.073608	20.680878
739.675049	1258.985229	3730.145264	1767.438843	20.575502
739.994873	1259.431030	3712.758545	1769.222046	20.779573
740.314636	1251.926514	3699.681396	1762.683228	20.866335
740.634277	1246.502441	3653.316406	1763.723633	21.489870
740.953979	1243.753296	3610.517822	1752.281128	21.486202
741.273499	1248.508667	3576.487061	1749.754761	21.531389
741.593140	1245.982300	3548.772217	1738.683594	21.395842
741.912598	1253.412720	3508.054443	1726.721069	20.992620
742.232117	1252.149536	3463.324219	1716.690063	21.008766
742.551453	1252.892456	3441.479248	1717.210327	21.215418
742.870850	1253.189575	3427.287109	1713.792358	21.185928
743.190063	1249.697510	3412.352295	1713.346313	21.438873
743.509338	1248.582886	3403.881836	1698.114258	20.857033
743.828552	1240.781128	3398.309326	1696.331055	21.114435
744.147705	1236.025757	3382.111328	1694.622070	21.368969
744.466797	1237.957642	3361.083984	1700.789185	21.799528
744.785828	1245.833862	3336.117920	1701.160767	21.783014
745.104858	1253.338257	3329.281982	1699.451782	21.489672
745.423706	1256.681885	3300.080811	1697.891479	21.591946
745.742615	1251.480713	3280.910889	1692.764648	21.744228
746.061401	1246.948364	3263.821045	1690.163940	21.975388
746.380249	1246.725464	3276.155518	1685.928711	21.641705
746.698975	1253.858521	3271.400146	1683.625366	21.301510
747.017639	1257.945190	3266.050049	1680.430298	21.038996
747.336304	1248.137207	3240.267578	1682.956665	21.826857
747.654907	1241.524292	3227.338623	1689.198120	22.543589
747.973389	1240.781128	3219.462891	1699.303101	23.173103
748.291931	1251.035034	3220.800049	1690.981323	22.334963
748.610352	1257.202026	3235.586182	1685.557251	21.651772
748.928711	1255.344482	3240.044678	1677.829712	21.287106
749.247070	1249.548950	3252.081299	1690.312500	22.010309
749.565308	1247.914185	3234.546143	1692.541626	22.380966
749.883545	1254.750000	3231.871094	1696.776855	22.357096
750.201782	1257.573486	3223.103516	1692.838867	22.144938
750.519836	1254.378540	3217.828125	1703.166870	22.857136
750.837952	1243.455933	3216.044922	1701.086426	23.199486
751.155884	1244.050415	3214.558594	1702.646851	23.273003
751.473877	1242.564453	3222.285889	1695.142212	22.860680
751.791809	1255.716064	3218.496338	1700.046265	22.637796
752.109619	1256.236206	3210.992188	1701.234985	22.764927
752.427490	1267.530151	3194.645264	1708.070923	22.860117
752.745300	1261.288696	3198.434570	1705.990601	22.956553
753.062988	1263.072021	3206.682373	1714.386719	23.220430
753.380615	1246.725464	3206.459717	1705.470337	23.408525
753.698303	1245.239258	3201.852783	1705.321655	23.514219
754.015808	1242.192871	3185.506104	1692.467285	23.170450
754.333374	1254.229858	3191.822021	1693.804688	22.686653
754.650757	1249.548828	3184.391602	1693.656250	22.953154
754.968262	1253.561157	3173.766357	1696.628296	23.073948
755.285583	1250.886230	3172.651611	1705.916016	23.677696
755.602905	1251.183472	3161.209229	1703.315430	23.671511
755.920105	1243.678833	3166.707764	1699.600464	23.708517
756.237305	1239.072144	3165.370361	1699.154663	23.884283
756.554443	1246.799683	3166.410889	1697.074097	23.456543
756.871582	1247.765503	3167.599365	1697.296875	23.415119
757.188599	1248.062866	3173.692139	1689.420898	22.920198
757.505615	1246.428101	3197.022705	1694.993652	22.996349
757.822510	1246.874023	3225.927002	1709.557007	23.379009
758.139465	1251.257690	3251.932861	1726.275024	23.742851
758.456238	1246.205200	3269.096680	1737.271973	24.275488
758.773010	1255.493042	3286.632080	1744.404907	24.070822
759.089783	1258.390869	3300.006592	1748.714478	24.016449
759.406433	1263.963501	3304.985107	1755.847656	24.099899
759.723145	1255.938843	3312.117920	1753.990112	24.222172
760.039673	1252.669556	3327.349854	1760.305786	24.468168
760.356201	1254.675659	3346.148438	1754.435913	23.895138
760.672668	1257.499268	3353.430420	1749.160278	23.457880
760.989136	1251.480835	3360.786377	1741.432983	23.228125
761.305481	1241.004150	3362.495361	1742.175903	23.623560
761.621826	1243.976196	3357.962891	1746.336914	23.763664
761.938049	1253.932739	3355.065186	1755.253296	23.859543
762.254333	1251.034912	3379.956299	1765.804199	24.179817
762.570496	1238.254883	3458.048828	1784.974243	24.629284
762.886597	1235.059937	3593.948486	1812.168945	24.465292
763.202637	1248.805908	3799.098389	1861.803223	24.036354
763.518677	1249.251587	4035.455078	1928.675781	24.385303
763.834656	1245.313599	4258.883301	1993.913574	24.840969
764.150574	1240.038086	4396.194824	2048.154541	25.604446
764.466370	1248.508667	4411.724121	2055.064697	25.497980
764.782288	1249.697388	4314.610352	2038.420898	25.733959
765.097961	1254.006958	4166.896484	1993.170532	25.375612
765.413696	1253.561157	4006.105469	1949.331909	25.277367
765.729309	1252.743896	3839.816162	1895.685425	24.852091
766.044861	1249.474487	3683.854736	1847.834351	24.579556
766.360474	1247.245483	3557.762939	1818.039063	24.704144
766.675903	1244.421997	3464.290039	1800.949219	25.070282
766.991394	1248.359985	3394.222656	1781.259155	24.833796
767.306763	1249.474609	3320.811279	1768.553345	25.060085
767.622131	1252.298096	3280.242188	1751.835327	24.632692
767.937378	1245.982422	3238.335693	1745.148071	25.054073
768.252625	1243.753296	3214.930420	1735.117188	24.927435
768.567810	1247.022583	3163.809814	1731.179077	25.258751
768.882996	1250.068970	3116.999023	1737.048950	26.084532
769.197998	1251.852173	3071.228516	1734.002563	26.500860
769.513062	1252.000854	3040.095703	1730.361694	26.752542
769.828064	1254.155640	3004.579102	1717.507324	26.470833
770.142944	1255.195801	2986.300537	1713.272095	26.461500
770.457825	1248.359985	2976.938232	1707.550781	26.564651
770.772705	1243.158813	2975.898438	1704.132813	26.603765
771.087402	1246.056763	2946.548828	1694.324829	26.361080
771.402100	1252.075073	2921.062744	1680.801880	25.687836
771.716736	1248.062866	2896.840576	1676.863892	26.007206
772.031372	1247.765503	2893.050781	1668.319214	25.561142
772.345947	1245.982300	2887.998047	1673.000000	26.005701
772.660461	1247.542603	2868.307861	1674.783203	26.360424
772.974854	1250.291870	2852.778564	1677.829712	26.679649
773.289246	1251.777954	2834.574219	1670.919556	26.481083
773.603638	1260.471313	2829.298828	1656.133423	25.220243
773.917908	1252.743774	2817.559326	1650.709351	25.432108
774.232178	1252.297974	2800.841064	1647.439941	25.517015
774.546265	1246.428101	2783.156982	1651.377930	26.351416
774.860474	1246.279663	2764.432617	1648.926147	26.522129
775.174561	1249.177368	2758.414307	1645.731079	26.275112
775.488586	1246.502441	2758.265625	1635.922974	25.759361
775.802551	1254.675659	2753.807373	1633.322388	25.257736
776.116516	1254.006958	2735.826172	1631.093384	25.447533
776.430359	1248.434204	2724.457764	1633.173828	26.065954
776.744202	1241.969971	2729.287354	1636.145874	26.502474
777.057922	1239.295044	2723.937744	1641.421387	27.085732
777.371704	1247.245483	2730.253174	1641.569946	26.589508
777.685303	1249.400269	2714.278320	1647.514282	27.177280
777.998962	1249.846069	2726.166992	1640.158203	26.438164
778.312500	1251.480835	2697.931885	1641.124146	26.937883
778.626038	1251.109253	2694.662354	1636.145874	26.672840
778.939453	1246.874023	2677.572998	1646.399780	27.925215
779.252869	1247.542725	2693.919189	1648.925903	27.750948
779.566223	1244.793457	2693.845215	1653.235718	28.186865
779.879578	1253.858398	2693.844971	1648.257202	27.389061
780.192749	1254.229858	2687.381104	1640.307007	26.939037
780.505920	1261.734375	2680.545166	1637.409058	26.478138
780.819031	1265.375366	2680.916504	1634.288452	26.061630
781.132141	1259.431030	2672.148682	1635.625854	26.629158
781.445190	1252.595337	2675.195313	1631.316284	26.621746
781.758118	1247.616943	2656.248047	1628.121216	27.012344
782.071045	1255.641724	2644.582764	1626.858032	26.726570
782.383911	1257.722168	2628.458740	1618.016113	26.284697
782.696838	1246.799683	2617.610596	1617.867554	27.069223
783.009583	1250.143311	2607.208008	1610.957397	26.587831
783.322266	1252.520874	2584.545898	1608.356812	26.713907
783.634888	1264.186523	2577.784180	1609.173950	26.262793
783.947510	1254.601440	2577.189697	1607.167969	26.657316
784.260132	1254.601440	2574.960693	1619.427856	27.630844
784.572571	1252.297974	2559.059814	1610.140015	27.383877
784.885010	1251.257813	2549.400635	1610.734375	27.691603
785.197449	1248.508545	2543.456299	1592.010132	26.526289
785.509766	1253.486938	2531.642334	1594.759399	26.700388
785.822083	1258.167969	2517.079102	1593.570435	26.642267
786.134277	1256.904785	2512.323486	1599.440430	27.284575
786.446533	1251.406372	2522.948975	1594.982056	27.020384
786.758606	1254.081421	2530.007813	1591.564331	26.450029
787.070740	1251.852173	2538.106689	1592.901733	26.514936
787.382690	1259.356812	2545.685547	1598.623047	26.374769
787.694641	1254.452759	2565.004150	1614.746704	27.491783
788.006653	1259.654053	2594.502197	1628.121216	27.603676
788.318481	1259.208130	2641.759033	1647.142700	28.059334
788.630310	1259.505493	2677.275635	1656.802124	28.022640
788.942017	1258.390869	2703.504639	1665.718384	28.186537
789.253784	1249.548828	2712.197998	1660.888672	28.122932
789.565430	1254.675659	2702.984375	1653.384155	27.529247
789.877014	1257.796387	2677.721436	1648.925903	27.545786
790.188538	1255.047241	2636.854980	1647.439941	28.397055
790.500061	1253.784058	2601.115234	1640.827148	28.726648
790.811462	1250.291870	2567.158936	1630.127441	28.843882
791.122925	1252.000854	2541.153076	1622.920044	28.772335
791.434204	1249.400146	2520.051025	1620.616577	29.214668
791.745483	1240.260986	2497.834717	1610.511353	29.441643
792.056702	1240.558228	2486.912109	1604.047241	29.164190
792.367920	1243.158813	2467.593506	1595.799683	28.800301
792.678955	1252.149414	2465.364258	1590.375488	27.878498
792.990112	1253.412720	2447.680420	1584.654297	27.735956
793.301086	1256.384766	2444.485107	1579.007202	27.154478
793.612122	1258.093750	2443.519287	1577.966797	26.983816
793.922974	1257.796509	2437.129150	1584.579712	27.709164
794.233826	1251.034790	2429.996094	1587.180542	28.512026
794.544556	1250.960571	2420.634033	1592.976074	29.240255
794.855286	1245.685059	2431.110840	1590.895508	29.121220
795.166016	1252.446655	2436.237549	1598.102905	29.199097
795.476624	1250.737671	2450.801025	1598.697266	28.995102
795.787292	1248.731567	2472.125732	1598.994629	28.630434
796.097778	1240.335449	2504.001709	1597.805786	28.288351
796.408264	1236.843140	2522.651855	1600.406250	28.275055
796.718689	1240.409668	2534.317383	1611.402954	28.672314
797.029053	1243.976196	2542.936523	1622.399902	29.132814
797.339355	1243.455933	2536.174561	1625.743530	29.572374
797.649658	1242.118530	2522.205811	1618.610352	29.411419
797.959839	1241.375610	2490.850098	1614.375122	29.852510
798.270020	1242.713013	2476.509766	1615.266968	30.195732
798.580078	1245.387817	2456.447998	1623.142944	31.192102
798.890137	1245.536499	2457.859863	1618.238892	30.742821
799.200195	1242.935791	2438.021240	1612.889160	30.956228
799.510071	1240.260864	2433.860107	1598.474487	30.011213
799.820007	1243.753174	2414.912842	1591.118530	29.659948
800.129883	1245.462158	2397.897461	1584.208374	29.393946
800.439575	1250.514771	2378.950439	1588.072144	29.913746
800.749329	1255.270142	2359.111572	1586.808960	30.035004
801.058960	1260.917114	2365.872803	1589.558105	29.742458
801.368591	1261.363037	2357.031006	1588.963745	29.899633
801.678162	1250.514771	2361.043213	1591.489868	30.703859
801.987671	1244.421997	2343.730713	1585.322876	31.010477
802.297119	1247.394043	2330.058838	1576.480835	30.396000
802.606506	1254.824341	2309.774414	1575.589233	30.405695
802.915894	1259.059692	2309.922852	1571.056641	29.689589
803.225159	1259.802612	2308.511230	1562.660522	28.879129
803.534424	1255.567383	2315.049805	1561.545898	28.879999
803.843628	1253.412598	2312.597900	1559.688354	28.916164
804.152771	1246.948242	2319.136475	1562.214722	29.404024
804.461792	1252.520874	2314.529541	1557.533691	28.720369
804.770874	1253.041138	2306.356445	1554.413086	28.611750
805.079773	1256.236084	2305.910889	1552.332520	28.208397
805.388733	1256.384644	2319.879639	1559.391235	28.491587
805.697571	1255.195801	2337.786377	1569.645020	29.045996
806.006470	1250.663452	2359.408447	1574.177368	29.178389
806.315125	1241.746948	2371.742920	1572.171265	29.241194
806.623901	1240.855469	2378.281494	1571.874023	29.102425
806.932495	1244.719238	2371.594238	1575.068970	29.315561
807.241150	1249.177368	2349.229004	1575.143188	29.631865
807.549622	1256.161743	2335.706055	1575.589233	29.589104
807.858154	1256.013184	2325.972412	1573.359985	29.659710
808.166565	1252.818237	2317.576172	1568.084595	29.609205
808.474915	1245.982300	2304.201660	1564.369507	30.087070
808.783264	1247.319824	2283.842773	1559.019531	30.071665
809.091492	1254.750000	2273.366211	1556.196167	29.593695
809.399719	1258.167969	2254.790283	1551.663696	29.449043
809.707825	1261.288574	2233.688232	1553.224121	30.022177
810.015930	1254.601440	2214.444092	1553.744263	31.165819
810.323975	1258.242188	2212.437744	1554.858765	31.085512
810.632080	1249.251587	2212.883789	1554.190063	31.644695
810.939880	1251.183472	2209.540039	1547.725586	30.942776
811.247864	1246.576660	2196.165527	1547.205444	31.658836
811.555664	1249.028687	2180.933350	1539.775269	31.199177
811.863464	1252.520996	2172.462891	1536.654419	30.886019
812.171143	1250.366211	2157.602539	1527.663940	30.565104
812.478882	1253.115479	2158.865479	1526.549316	30.188665
812.786438	1245.759399	2165.329590	1530.190063	30.930826
813.094055	1245.833862	2180.115967	1536.208618	31.079987
813.401489	1246.576782	2180.413330	1534.574097	30.840227
813.708984	1248.583008	2172.685791	1523.577148	29.757961
814.016357	1253.709839	2163.397705	1518.896118	29.151348
814.323730	1251.629395	2160.277100	1522.016968	29.757141
814.630981	1254.453003	2156.859375	1528.258423	30.341698
814.938232	1252.669556	2148.314697	1529.967285	30.960669
815.245361	1251.406372	2137.540771	1527.738281	31.183973
815.552490	1250.514771	2132.413818	1524.691772	31.089386
815.859619	1249.697510	2134.048584	1522.239868	30.818344
816.166565	1257.424927	2140.587158	1524.097290	30.195173
816.473572	1259.133911	2157.379639	1528.183960	29.952833
816.780457	1256.904785	2166.370361	1530.858887	30.122536
817.087341	1255.493042	2186.431885	1531.824829	29.683130
817.394043	1255.493042	2191.113037	1528.481323	29.177259
817.700806	1246.353882	2212.289063	1527.515259	29.107685
818.007507	1249.920288	2214.518311	1531.676392	29.209692
818.314209	1244.570435	2212.511963	1538.214966	30.337011
818.620667	1253.858398	2217.118896	1555.824707	31.348354
818.927246	1239.517944	2239.929688	1562.289063	32.263828
819.233704	1241.226929	2290.009766	1573.062988	31.640112
819.540161	1240.037964	2332.956787	1575.291992	30.675108
819.846497	1250.737671	2397.748779	1595.056641	30.018801
820.152832	1253.858398	2468.113525	1627.081055	30.736757
820.458984	1259.876953	2563.072510	1662.597656	30.902554
820.765259	1259.653931	2655.430420	1699.006226	31.477266
821.071350	1264.260864	2761.757813	1737.346313	31.591747
821.377502	1265.969849	2929.236084	1793.593384	31.722134
821.683472	1263.443481	3259.065674	1895.165161	31.655375
821.989441	1262.254639	3916.422119	2099.497803	31.544474
822.295349	1255.270142	5003.693848	2441.958984	31.658342
822.601196	1257.796387	6422.949707	2899.738281	31.788832
822.907043	1245.759399	7770.726563	3336.935303	32.048832
823.212769	1251.034912	8622.682617	3596.772217	31.821074
823.518494	1249.994629	8667.188477	3604.127686	31.738863
823.824097	1252.000977	8045.498535	3392.513672	31.508257
824.129700	1248.880127	6992.332031	3077.395752	31.836525
824.435242	1249.623047	5905.282715	2733.374268	31.869839
824.740723	1257.053345	4974.492676	2446.788818	32.004166
825.046082	1259.431152	4302.275879	2226.852539	31.793322
825.351501	1255.344604	3844.050781	2076.538086	31.722160
825.656799	1252.743774	3543.571045	1978.607056	31.685642
825.962036	1245.833740	3344.216797	1920.130859	32.134129
826.267212	1245.462280	3259.734619	1894.868042	32.240215
826.572449	1243.901978	3253.567627	1901.703735	32.731899
826.877502	1254.229980	3404.178955	1942.495972	32.013130
827.182495	1258.688110	3678.579102	2033.888306	32.034508
827.487488	1256.830566	4028.322021	2147.125732	32.123325
827.792419	1248.137207	4316.988281	2245.131104	32.487530
828.097290	1239.889526	4435.277832	2290.752686	32.886871
828.402100	1242.564453	4323.824219	2244.982178	32.532722
828.706848	1245.833618	4012.570068	2153.664307	32.812332
829.011597	1252.149414	3619.954346	2027.795410	32.758018
829.316223	1249.697388	3244.131104	1908.242554	33.019154
829.620789	1242.713013	2938.152344	1811.054321	33.521770
829.925354	1239.220825	2691.095947	1732.219360	33.955986
830.229797	1246.056519	2515.518555	1680.281738	34.205452
830.534302	1252.966675	2402.801514	1637.186157	33.415188
830.838562	1251.257690	2320.994141	1614.003784	33.909855
831.142944	1246.725220	2267.347412	1590.895508	33.721615
831.447144	1244.421997	2216.078369	1573.211548	33.838047
831.751404	1243.307495	2193.490723	1555.899048	32.898029
832.055542	1247.394043	2186.283447	1557.013550	32.977207
832.359619	1249.994751	2193.490723	1559.019653	32.753178
832.663635	1246.725464	2209.837158	1572.765625	33.852787
832.967651	1242.267212	2247.880127	1583.613892	33.944141
833.271545	1239.963745	2348.337402	1623.960327	34.645046
833.575439	1242.415649	2518.639404	1680.207397	34.303684
833.879211	1241.375610	2765.175781	1770.708008	34.737652
834.183044	1241.375610	3020.182861	1852.366821	34.348366
834.486694	1246.279419	3213.889893	1913.740845	33.922436
834.790344	1249.771729	3299.115234	1934.174194	33.396179
835.093933	1249.994629	3252.304688	1915.895630	33.256638
835.397522	1245.982300	3114.101563	1859.796997	32.857361
835.700928	1247.839966	2902.338623	1783.562500	32.379749
836.004395	1250.440552	2681.362305	1716.764526	32.589062
836.307739	1255.195923	2493.599365	1661.706055	32.825340
836.611023	1249.920410	2356.065186	1625.594727	33.962490
836.914307	1255.121582	2269.427979	1585.025757	32.525101
837.217529	1257.424927	2187.695068	1557.013550	32.204475
837.520691	1259.951294	2126.395264	1527.218262	30.846422
837.823730	1247.914185	2072.674561	1506.041992	31.297310
838.126831	1243.530396	2037.529297	1484.196899	30.310684
838.429749	1242.713013	2000.452148	1478.698608	31.143383
838.732727	1245.759399	1966.644165	1476.543579	32.014019
839.035522	1250.068970	1939.375366	1482.042114	33.653126
839.338379	1252.000854	1921.839844	1478.772827	33.854698
839.641113	1256.533325	1928.675781	1475.206421	32.533741
839.943848	1255.195801	1962.929199	1483.379517	32.241478
840.246460	1251.703613	2025.789429	1508.493774	33.173344
840.549072	1245.388062	2084.116943	1533.682617	34.372795
840.851563	1249.400269	2123.869141	1550.697876	34.454926
841.154053	1241.004028	2128.104248	1547.651367	34.567383
841.456482	1251.257813	2104.253174	1534.053833	33.153290
841.758850	1245.610962	2055.807861	1512.060425	32.887001
842.061157	1258.167969	1990.718628	1486.425781	31.159321
842.363403	1258.093628	1929.121582	1463.689331	30.638918
842.665588	1257.350586	1879.784546	1443.627563	29.927187
842.967712	1255.567383	1842.558960	1435.974487	30.734190
843.269775	1255.270264	1815.438477	1427.132446	30.680460
843.571777	1251.777954	1784.825684	1419.553589	31.474787
843.873840	1247.022583	1766.250000	1407.442017	30.895794
844.175659	1237.288940	1748.640259	1408.705078	33.522186
844.477600	1242.787354	1741.655884	1411.157227	33.750351
844.779297	1246.056641	1740.838501	1410.191406	33.173157
845.081116	1255.121460	1729.841797	1400.234741	30.568161
845.382751	1257.202026	1720.628296	1396.445313	30.046480
845.684387	1263.369141	1705.916382	1391.392700	28.928789
845.985962	1259.505493	1700.417847	1388.866333	29.339355
846.287537	1254.527222	1683.551147	1376.680786	28.472437
846.588989	1251.777954	1671.216797	1364.197998	26.802488
846.890381	1248.285767	1658.139526	1365.386841	28.571428
847.191711	1250.514771	1659.848633	1367.838867	28.662201
847.493042	1249.474487	1652.938477	1376.903809	31.583815
847.794250	1250.663452	1658.659668	1369.473511	29.120382
848.095459	1246.502319	1652.195190	1371.108032	30.714296
848.396606	1243.158691	1660.888672	1374.897461	31.536823
848.697693	1247.839966	1655.687500	1379.801392	32.355579
848.998657	1251.703613	1654.573242	1376.234985	30.911085
849.299622	1251.703735	1653.384155	1369.770630	29.393242
849.600464	1254.229980	1654.127075	1366.947144	28.186543
849.901367	1255.938843	1659.551270	1363.900757	26.748907
850.202087	1254.081299	1655.687500	1357.213501	25.679934
850.502808	1248.657227	1651.452271	1351.120728	25.438124
850.803467	1248.062866	1643.204712	1351.640747	26.212835
851.104065	1246.948242	1639.192261	1359.293945	28.641788
851.404663	1247.542603	1632.876587	1357.436401	28.519104
851.705139	1242.267212	1629.235840	1352.086548	28.379391
852.005615	1251.183472	1625.000488	1349.783203	26.376469
852.306030	1254.898560	1622.920044	1354.018555	26.933208
852.606384	1256.087524	1616.604370	1360.111450	28.854109
852.906616	1256.904785	1612.443359	1359.814087	28.944624
853.206909	1251.257813	1609.471191	1361.671753	30.823511
853.506958	1257.722046	1613.186157	1362.265991	29.410549
853.807129	1255.344360	1612.146118	1357.064941	28.508991
854.107178	1257.053345	1606.499023	1351.417969	27.004089
854.407166	1255.790161	1598.846069	1356.173218	29.261427
854.707092	1251.034912	1593.050293	1362.043091	32.457073
855.007019	1250.291870	1593.941895	1368.359009	34.356796
855.306763	1244.570679	1588.071899	1363.529175	34.631172
855.606567	1247.319824	1579.155640	1357.361938	33.161613
855.906250	1244.199097	1572.691406	1354.464233	33.567036
856.205933	1249.771851	1577.966797	1346.439575	29.454361
856.505493	1251.034912	1588.740723	1346.142456	28.162840
856.805054	1259.133789	1587.997681	1344.805054	26.050674
857.104492	1259.505493	1584.951538	1347.479858	27.031935
857.403931	1259.951294	1582.648071	1345.473633	26.502384
857.703308	1253.486816	1587.329102	1350.526245	29.067448
858.002563	1248.062866	1593.273438	1351.789429	30.047331
858.301819	1246.130981	1592.827515	1359.516968	32.704678
858.601013	1246.725342	1587.849243	1356.619019	32.215179
858.900208	1252.372437	1579.750122	1354.018433	31.048542
859.199219	1245.908081	1579.304321	1346.885376	30.287472
859.498291	1251.480835	1580.716187	1341.164185	27.239891
859.797302	1251.035034	1580.047363	1343.541870	28.116526
860.096191	1257.722168	1572.839966	1343.913208	27.352007
860.395020	1251.926636	1570.387817	1353.275513	31.824562
860.693787	1246.130981	1566.821411	1352.978149	33.317852
860.992554	1243.753052	1563.775024	1359.516846	36.173702
861.291260	1247.617065	1560.431274	1350.600464	32.921585
861.589844	1246.279419	1555.007324	1351.789429	34.175728
861.888428	1251.703613	1553.744263	1341.981445	29.889299
862.186890	1246.353882	1550.475098	1341.164063	31.175129
862.485413	1254.824341	1557.087891	1336.705933	27.089470
862.783813	1255.790405	1552.704102	1336.483032	27.177132
863.082153	1260.025513	1548.914551	1340.718384	27.932133
863.380371	1252.520996	1549.731934	1344.284790	30.874971
863.678589	1247.171265	1556.790649	1346.662476	32.133392
863.976746	1247.988647	1568.753540	1338.266235	28.144472
864.274902	1252.223633	1572.765747	1331.058960	24.594374
864.572937	1252.075195	1569.570679	1331.653442	25.064371
864.870911	1254.378540	1563.998047	1334.625488	25.917923
865.168884	1254.527100	1565.484009	1342.650146	28.339312
865.466736	1252.223755	1568.604614	1344.433350	29.145124
865.764587	1252.000854	1563.329224	1345.102173	29.904541
866.062317	1252.000854	1554.487183	1342.204346	29.820684
866.360107	1254.081421	1550.028931	1339.455200	28.847609
866.657715	1251.183472	1551.738159	1336.631592	28.430141
866.955322	1243.381714	1548.245728	1329.349976	28.198889
867.252808	1247.988525	1551.292358	1325.932007	25.698153
867.550293	1249.251587	1553.447144	1323.703003	24.474854
867.847717	1252.818237	1553.001099	1325.040405	24.059391
868.145081	1248.657227	1551.069336	1332.322021	27.665821
868.442383	1246.948242	1542.673218	1342.130005	32.185905
868.739624	1252.075073	1537.769043	1352.903931	35.292610
869.036804	1253.486938	1536.505981	1357.733765	36.833855
869.333984	1254.304199	1536.728882	1351.343628	34.359402
869.631042	1258.167969	1541.781372	1346.216675	31.045326
869.928101	1261.065796	1538.140625	1337.077515	27.433643
870.224976	1256.904907	1536.505859	1345.696655	31.756598
870.521851	1256.756226	1538.586304	1344.730591	31.215393
870.818726	1253.486938	1544.827759	1345.770874	31.675594
871.115479	1253.858521	1549.137329	1342.947388	30.171101
871.412231	1250.291870	1550.846313	1337.597534	29.048203
871.708862	1252.743896	1547.502808	1336.334473	28.358965
872.005493	1250.737671	1549.286011	1328.458374	26.032871
872.302063	1247.988525	1549.434570	1333.585205	28.395357
872.598572	1250.217651	1541.781616	1333.065063	28.414833
872.895020	1253.189697	1544.604980	1338.266235	29.194262
873.191406	1251.852295	1543.936157	1346.959717	32.561684
873.487671	1244.793457	1550.251953	1351.417847	34.906342
873.783997	1243.456055	1540.815430	1358.105103	38.555721
874.080200	1250.068970	1538.363403	1351.640747	35.231960
874.376343	1251.703613	1546.388184	1344.507690	31.492683
874.672424	1253.041016	1553.298340	1340.792603	29.225460
874.968445	1249.103027	1548.394409	1339.678101	30.263174
875.264465	1245.387939	1541.930054	1349.708862	35.179127
875.560364	1245.387939	1544.456421	1345.993774	33.639732
875.856201	1243.530273	1544.456421	1342.724487	32.962975
876.152039	1252.000854	1544.159180	1337.077515	29.120054
876.447754	1248.285645	1541.484253	1339.380859	31.069456
876.743469	1246.353760	1548.988770	1343.616089	32.138493
877.039063	1243.158813	1544.233398	1346.959717	34.476807
877.334595	1250.143433	1543.713257	1350.006104	34.016666
877.630127	1249.920410	1541.112793	1351.269287	34.804783
877.925537	1248.731567	1553.595581	1350.526245	33.390190
878.221008	1251.332031	1558.499634	1349.634644	32.002922
878.516296	1254.972778	1561.100220	1354.538696	32.524338
878.811646	1252.446655	1565.707031	1358.476685	33.847252
879.106812	1248.582886	1583.316772	1358.773804	32.918961
879.401978	1244.942017	1604.715820	1356.916260	31.123512
879.697083	1243.381714	1621.359741	1358.402344	30.430508
879.992126	1246.874023	1653.086914	1373.485718	31.168802
880.287109	1251.035034	1704.281372	1389.163696	30.475407
880.582031	1254.675659	1780.813110	1413.683594	30.221748
880.876892	1251.406372	1904.675903	1455.441772	31.232958
881.171753	1256.830444	2150.097900	1545.719604	32.340725
881.466492	1257.202026	2565.821533	1690.535522	33.113789
881.761230	1255.121582	3110.906250	1879.933105	33.668320
882.055786	1247.171265	3673.526611	2070.742432	33.942726
882.350403	1242.936035	4038.873047	2203.298584	34.348503
882.644958	1243.381836	4124.395996	2226.926758	34.138844
882.939453	1241.375610	3908.545898	2147.794434	33.984287
883.233826	1242.638794	3533.837158	2019.696655	33.914913
883.528137	1246.799683	3113.135498	1881.716431	34.019428
883.822449	1252.966797	2748.234619	1767.364624	34.401718
884.116577	1251.555054	2462.391846	1668.913452	34.468594
884.410828	1252.966919	2254.938965	1595.353882	34.171310
884.704956	1249.028809	2096.005371	1534.796997	33.739799
884.999023	1255.790405	1979.127319	1490.066772	32.388279
885.292969	1249.474609	1894.645142	1458.636719	32.419662
885.586914	1251.480835	1824.057617	1440.581177	33.026199
885.880798	1248.434326	1779.252930	1421.931152	32.684769
886.174622	1246.576660	1744.999390	1410.859985	32.960640
886.468384	1244.644897	1721.965454	1401.720825	32.907848
886.762085	1250.291870	1708.813965	1402.092407	33.106483
887.055664	1250.886230	1692.764526	1400.606323	33.882652
887.349304	1252.595337	1673.371582	1388.494995	32.297371
887.642822	1248.731567	1635.180054	1373.560059	32.301456
887.936340	1248.137085	1602.561035	1359.591187	31.446548
888.229736	1244.867798	1578.041016	1356.767700	33.586105
888.523071	1243.381836	1568.381836	1353.275513	33.813438
888.816284	1245.759399	1554.264282	1349.560181	33.646397
889.109619	1260.174194	1542.301636	1345.399292	30.208014
889.402710	1263.666382	1532.642212	1348.297241	31.464113
889.695862	1263.740601	1521.422485	1336.631470	28.287153
889.988892	1248.582886	1512.803345	1325.932007	29.274464
890.281921	1238.031982	1501.286499	1316.272705	29.720562
>>>>>End Processed Spectral Data<<<<<
