Jaz Data File
++++++++++++++++++++++++++++++++++++
Date: Fri Jun 04 11:49:51 2021
User: jaz
Dark Spectrum Present: Yes
Reference Spectrum Present: Yes
Processed Spectrum Present: Yes
Spectrometers: JAZA3586
Integration Time (usec): 40000 (JAZA3586)
Spectra Averaged: 10 (JAZA3586)
Boxcar Smoothing: 1 (JAZA3586)
Correct for Electrical Dark: No (JAZA3586)
Strobe/Lamp Enabled: Yes (JAZA3586)
Correct for Detector Non-linearity: No (JAZA3586)
Correct for Stray Light: No (JAZA3586)
Number of Pixels in Processed Spectrum: 2048
>>>>>Begin Processed Spectral Data<<<<<
W	D	R	S	P
191.335022	0.000000	0.000000	0.000000	0.000000
191.713211	383.699249	385.259644	369.061615	-938.072815
192.091385	766.209656	765.392395	749.491516	2045.631104
192.469528	1150.726196	1154.069946	1132.596313	-542.202087
192.847641	1155.853149	1160.014038	1151.543579	-103.573311
193.225739	1163.877808	1177.029419	1156.076050	-59.321690
193.603790	1172.719727	1178.218262	1155.035767	-321.612213
193.981842	1184.534058	1180.224365	1154.812866	689.636047
194.359863	1191.146973	1181.264648	1157.784912	337.593262
194.737854	1193.598999	1187.060181	1169.153320	373.854675
195.115829	1192.855957	1188.546265	1171.382324	498.263702
195.493774	1186.094360	1186.094360	1174.131714	0.000000
195.871704	1180.595825	1186.094360	1168.187378	-225.668228
196.249603	1184.979858	1194.639160	1172.125366	-133.078903
196.627457	1194.861938	1196.719604	1168.930420	-1395.919312
197.005310	1200.954956	1200.731934	1172.942749	12560.262695
197.383133	1193.004517	1199.914673	1169.376221	-341.935760
197.760910	1190.403931	1203.629761	1171.382446	-143.820724
198.138687	1194.193359	1204.744263	1169.747681	-231.692749
198.516449	1199.023071	1197.388306	1168.781860	1849.880493
198.894180	1197.611206	1189.215088	1173.908691	282.303253
199.271866	1198.057007	1184.385498	1169.301880	210.328842
199.649536	1192.632935	1188.546387	1170.193481	549.105347
200.027191	1191.221069	1192.781616	1166.181152	-1604.560425
200.404816	1191.964233	1188.917847	1167.667358	797.563721
200.782410	1188.843628	1194.267578	1165.661133	-427.409821
201.159988	1185.945801	1204.595703	1162.317505	-126.693939
201.537537	1180.075806	1226.812134	1167.741577	-26.391094
201.915070	1179.704224	1230.155762	1168.633179	-21.943920
202.292557	1181.190308	1230.007202	1167.741577	-27.549335
202.670029	1175.989136	1212.248901	1164.546509	-31.557365
203.047485	1171.233765	1209.796997	1158.527954	-32.947990
203.424911	1169.599243	1206.676147	1159.939697	-26.052731
203.802292	1173.165649	1217.524414	1163.134766	-22.613081
204.179688	1182.453491	1212.100220	1160.756958	-73.183563
204.557037	1185.648560	1207.790649	1157.116333	-128.859680
204.934357	1185.574219	1207.344849	1157.933594	-126.962906
205.311661	1177.326660	1210.762817	1163.283325	-42.000446
205.688934	1174.725952	1215.146606	1167.147095	-18.749962
206.066177	1177.252319	1201.029175	1154.218384	-96.875450
206.443390	1180.001465	1204.892944	1162.243164	-71.342888
206.820587	1182.304932	1206.973389	1159.494019	-92.469963
207.197769	1183.122192	1214.403687	1169.004761	-45.130299
207.574921	1182.973633	1211.282959	1155.853149	-95.800529
207.952042	1181.487427	1207.419312	1156.596191	-95.986992
208.329147	1178.961304	1210.762817	1155.853149	-72.663696
208.706223	1188.843384	1225.177490	1172.868408	-43.966888
209.083267	1187.431763	1224.360229	1174.428711	-35.211460
209.460297	1178.961304	1223.765869	1169.673340	-20.729950
209.837280	1169.822144	1209.945679	1160.534180	-23.148418
210.214264	1168.558960	1208.162231	1152.360962	-40.900658
210.591217	1167.964478	1212.248901	1150.354614	-39.765366
210.968124	1163.357788	1212.843262	1146.045166	-34.985260
211.345016	1163.952148	1217.004272	1150.800415	-24.790211
211.721893	1156.373291	1216.558472	1154.887207	-2.469186
212.098724	1153.549683	1214.849487	1151.320679	-3.636233
212.475555	1153.178223	1217.227173	1160.088501	10.789058
212.852356	1168.707520	1210.911377	1163.580688	-12.147779
213.229126	1169.376221	1210.391235	1162.614746	-16.485365
213.605865	1171.085083	1205.933105	1149.388672	-62.260094
213.982590	1163.580566	1205.264526	1146.342285	-41.354710
214.359283	1166.701294	1204.075562	1152.063599	-39.165169
214.735931	1167.370117	1203.703979	1159.642578	-21.268147
215.112579	1173.016968	1207.567871	1158.156494	-43.010376
215.489197	1171.976807	1206.156128	1161.723022	-29.999964
215.865799	1169.896362	1202.440918	1160.757202	-28.081993
216.242355	1169.079102	1209.351074	1158.899536	-25.277046
216.618896	1170.044922	1218.787598	1158.007935	-24.694965
216.995407	1166.032593	1227.555298	1157.636353	-13.647385
217.371902	1160.980103	1223.097046	1159.494019	-2.392397
217.748367	1163.134766	1215.295288	1153.326782	-18.803461
218.124802	1166.701416	1221.016602	1148.200073	-34.062927
218.501236	1165.289673	1212.694702	1149.537476	-33.228958
218.877609	1168.113159	1216.781372	1151.320679	-34.504002
219.253983	1169.227661	1202.440918	1150.354614	-56.823837
219.630295	1176.286499	1212.546143	1149.388794	-74.180832
220.006592	1176.880859	1215.443848	1146.788208	-78.035057
220.382889	1178.366821	1219.827759	1148.497070	-72.043114
220.759140	1175.840576	1210.688599	1144.633423	-89.552147
221.135391	1171.902710	1208.013672	1152.063599	-54.939304
221.511581	1165.958374	1219.233398	1151.989380	-26.220531
221.887772	1168.187500	1226.737915	1152.658081	-26.523157
222.263931	1166.032593	1223.171387	1151.023438	-26.267889
222.640060	1173.537109	1216.484253	1160.162720	-31.141512
223.016159	1167.221558	1215.146606	1162.466064	-9.922771
223.392212	1174.354492	1222.502563	1156.521851	-37.037083
223.768265	1177.178101	1217.227051	1157.116211	-50.093422
224.144302	1183.568115	1225.103271	1154.144165	-70.841072
224.520294	1173.462891	1223.840210	1160.014038	-26.696245
224.896286	1162.540283	1232.162109	1151.915039	-15.261370
225.272217	1159.493896	1225.549072	1151.692261	-11.810786
225.648148	1169.450562	1230.007324	1142.627319	-44.294380
226.024048	1169.822144	1228.967041	1139.878052	-50.628361
226.399902	1167.592896	1239.220825	1137.351685	-42.219860
226.775772	1159.568237	1235.654175	1147.977051	-15.234335
227.151581	1165.883911	1249.548950	1151.394897	-17.317883
227.527374	1166.329956	1250.069092	1148.497192	-21.295614
227.903137	1171.679565	1254.750122	1135.642700	-43.381031
228.278870	1167.370117	1259.208130	1140.546875	-29.207125
228.654572	1173.314331	1262.848999	1151.023438	-24.896383
229.030273	1171.010864	1275.480469	1157.190552	-13.229028
229.405930	1170.193481	1276.446411	1157.339233	-12.097782
229.781555	1172.794067	1289.895142	1161.277222	-9.834962
230.157181	1173.685669	1294.056152	1168.633179	-4.197450
230.532761	1168.038818	1294.056152	1168.038940	0.000097
230.908325	1158.676636	1288.334839	1164.100830	4.183456
231.283859	1158.899536	1286.180054	1167.147095	6.479828
231.659332	1166.181274	1290.043823	1162.911987	-2.639448
232.034821	1169.376221	1285.882813	1166.626953	-2.359753
232.410263	1171.902466	1278.824097	1158.750977	-12.300120
232.785690	1167.667236	1273.251465	1167.444458	-0.210996
233.161087	1169.598999	1279.938599	1155.407349	-12.861793
233.536469	1167.741577	1279.418579	1157.710571	-8.982159
233.911804	1165.363892	1277.115234	1151.543579	-12.367022
234.287140	1167.667236	1277.040894	1157.562012	-9.239176
234.662430	1173.091431	1286.774536	1158.899536	-12.483732
235.037704	1181.338989	1299.183105	1152.732422	-24.274921
235.412933	1181.264648	1301.040649	1147.010986	-28.598101
235.788162	1165.735474	1298.588745	1149.834595	-11.968752
236.163345	1156.224731	1290.564087	1154.961548	-0.940293
236.538513	1152.212280	1294.204834	1165.438232	9.314539
236.913635	1155.853149	1301.858032	1163.952148	5.547074
237.288742	1162.614746	1301.932251	1168.113037	3.946590
237.663834	1159.791138	1301.635132	1165.363770	3.928705
238.038879	1169.747681	1302.452515	1156.224609	-10.190338
238.413910	1169.970703	1307.505005	1157.190552	-9.292337
238.788910	1169.747681	1315.083862	1154.441406	-10.531633
239.163879	1164.472290	1323.628662	1163.877808	-0.373521
239.538834	1162.391846	1337.969116	1161.648804	-0.423199
239.913757	1165.512573	1340.123901	1172.422729	3.957450
240.288651	1170.119263	1348.668579	1167.741577	-1.331669
240.663528	1174.874634	1364.346558	1160.608398	-7.529472
241.038361	1180.521606	1400.531860	1153.029663	-12.495755
241.413177	1178.664063	1438.649292	1157.933594	-7.973710
241.787979	1176.806641	1472.011230	1159.642578	-5.814294
242.162735	1175.246216	1500.766479	1160.236938	-4.610858
242.537476	1175.246216	1516.369995	1163.877808	-3.332634
242.912170	1173.388550	1528.109863	1172.942749	-0.125676
243.286865	1166.032593	1518.004517	1182.973633	4.813179
243.661514	1168.187378	1513.100586	1180.670288	3.619145
244.036148	1168.187378	1497.571289	1177.698120	2.887434
244.410751	1172.199707	1489.695313	1170.936646	-0.397820
244.785339	1165.883911	1481.521851	1167.815918	0.612096
245.159882	1165.586792	1497.868530	1168.113159	0.760309
245.534378	1161.202881	1527.143921	1170.936646	2.659927
245.908890	1160.979980	1575.589233	1171.828247	2.616504
246.283356	1163.729370	1636.814819	1169.153320	1.146505
246.657791	1163.803589	1706.510620	1172.422607	1.588153
247.032196	1163.580688	1770.411133	1182.973633	3.195776
247.406586	1164.695190	1815.067017	1192.187134	4.227112
247.780960	1168.484619	1828.887207	1188.694946	3.060304
248.155289	1168.261719	1810.311523	1182.527832	2.221964
248.529602	1166.552612	1761.197388	1183.419434	2.836453
248.903870	1161.277222	1706.436401	1187.803345	4.865757
249.278122	1160.979980	1662.226196	1191.072632	6.003567
249.652344	1155.927368	1627.898315	1183.419434	5.824949
250.026550	1164.249268	1600.926392	1177.772339	3.096812
250.400711	1164.620850	1582.425171	1174.800293	2.436414
250.774857	1174.057251	1583.613892	1178.069702	0.979706
251.148987	1168.930298	1596.245483	1178.144043	2.156194
251.523071	1168.113159	1620.468140	1179.630005	2.545975
251.897125	1163.803589	1637.260620	1185.202637	4.519744
252.271164	1168.187378	1657.842407	1179.704224	2.352033
252.645187	1174.131470	1654.573120	1177.400879	0.680501
253.019165	1177.475220	1654.647461	1173.462891	-0.840856
253.393112	1178.515503	1638.449341	1175.246094	-0.710843
253.767044	1178.515503	1613.632202	1175.840454	-0.614789
254.140930	1171.828247	1584.951294	1169.896362	-0.467629
254.514801	1163.506348	1572.542603	1170.044922	1.598532
254.888657	1158.305176	1578.041138	1162.986206	1.115232
255.262466	1161.128662	1593.124634	1166.329956	1.204014
255.636276	1172.199707	1599.960571	1171.085327	-0.260515
256.010010	1175.766235	1613.929565	1181.190308	1.237911
256.383759	1177.326538	1631.762207	1189.140747	2.599754
256.757446	1170.490723	1667.055786	1184.534058	2.828096
257.131134	1172.125366	1707.179321	1185.425659	2.485785
257.504791	1165.883911	1747.674316	1180.595947	2.528752
257.878418	1167.295776	1800.354980	1187.357422	3.169000
258.252014	1167.072876	1870.570923	1196.793823	4.224738
258.625580	1169.599121	1976.526733	1197.908325	3.508271
258.999115	1173.091431	2103.510010	1205.858765	3.521784
259.372650	1171.902466	2242.010498	1201.846558	2.798231
259.746124	1174.131714	2349.823486	1213.066284	3.311631
260.119598	1175.914917	2406.367920	1218.490356	3.460144
260.493042	1173.388550	2409.562988	1217.821533	3.594394
260.866425	1174.428711	2355.916260	1213.363403	3.295396
261.239838	1168.633179	2268.907959	1202.663940	3.092933
261.613159	1163.803589	2167.633301	1197.388306	3.345659
261.986511	1163.060547	2085.826172	1196.125244	3.583217
262.359802	1165.883911	2037.083374	1200.434692	3.965886
262.733063	1166.478394	2002.978394	1203.703979	4.450160
263.106293	1165.512573	1986.706055	1193.598877	3.420181
263.479523	1158.973877	1971.102417	1184.905518	3.193046
263.852692	1162.614746	1967.461792	1177.103760	1.800220
264.225861	1156.224609	1959.213989	1183.865234	3.442215
264.598969	1162.020386	1958.545288	1186.837402	3.115661
264.972076	1167.221313	1976.600952	1199.245972	3.956692
265.345154	1176.434937	2015.312622	1198.800171	2.666090
265.718201	1177.623901	2060.711670	1199.468872	2.473703
266.091217	1179.630005	2110.791748	1195.084961	1.659750
266.464203	1184.459595	2160.946045	1193.598999	0.935948
266.837158	1180.893066	2207.533936	1201.846558	2.040976
267.210114	1179.184204	2238.740967	1210.168457	2.924266
267.583038	1173.834351	2248.028809	1224.954712	4.758948
267.955902	1178.961304	2261.180420	1221.462524	3.927229
268.328766	1169.896362	2265.935791	1221.462402	4.704762
268.701569	1164.769409	2285.700195	1209.202515	3.963947
269.074371	1159.716797	2302.641357	1212.471802	4.615791
269.447144	1171.307983	2326.418213	1205.264526	2.939680
269.819885	1178.292480	2376.052490	1215.592651	3.114161
270.192596	1181.190308	2465.661377	1217.078491	2.794005
270.565277	1174.725952	2581.648193	1223.988647	3.501451
270.937927	1177.103638	2701.498291	1225.474854	3.173143
271.310577	1177.029419	2780.630615	1232.236450	3.442691
271.683136	1181.041626	2834.797119	1237.437500	3.410170
272.055725	1171.605347	2859.762939	1237.734741	3.917253
272.428284	1170.490723	2848.617432	1240.335327	4.162058
272.800812	1165.140991	2819.936768	1240.335327	4.544025
273.173279	1166.998535	2747.640381	1243.084595	4.813618
273.545776	1162.614624	2709.300049	1239.146484	4.948121
273.918152	1168.781738	2664.718506	1236.991699	4.559682
274.290558	1164.769409	2662.266602	1230.898804	4.415995
274.662964	1163.283325	2652.532715	1227.629517	4.320713
275.035278	1161.277222	2674.303467	1223.319946	4.100572
275.407593	1168.335938	2687.752441	1223.097046	3.604088
275.779907	1176.806519	2724.755127	1225.623413	3.153651
276.152161	1177.252319	2765.770264	1227.480957	3.161981
276.524384	1181.413208	2811.540771	1230.973145	3.040249
276.896606	1173.091309	2844.531250	1231.716187	3.507447
277.268799	1170.416504	2855.007813	1231.047485	3.599151
277.640930	1163.060547	2867.490479	1225.846313	3.683681
278.013031	1170.267944	2871.057373	1223.542847	3.132363
278.385162	1177.846680	2892.381836	1226.663574	2.847238
278.757233	1188.620605	2898.846436	1236.620239	2.806625
279.129272	1188.174805	2925.520752	1241.747070	3.083569
279.501282	1173.834351	2943.799561	1235.951538	3.509515
279.873230	1165.215210	3005.396484	1228.595581	3.444246
280.245178	1166.701294	3088.912842	1226.960815	3.134906
280.617126	1168.558960	3204.676025	1242.192749	3.616383
280.988983	1172.942749	3308.551758	1253.784058	3.785398
281.360870	1172.571167	3404.996338	1261.734497	3.994012
281.732697	1176.063477	3466.370850	1256.087524	3.494031
282.104492	1173.685669	3499.583984	1256.310425	3.552380
282.476288	1169.004761	3511.175049	1253.635498	3.613347
282.848053	1175.023193	3506.791016	1262.551880	3.753748
283.219757	1173.016968	3510.877930	1267.381470	4.036361
283.591461	1173.611450	3487.769775	1268.124634	4.084128
283.963135	1168.336060	3508.722900	1272.582764	4.454251
284.334747	1166.849976	3569.651367	1274.663208	4.486981
284.706360	1167.890259	3659.260498	1281.573364	4.563076
285.077942	1172.422607	3750.504150	1278.006836	4.095457
285.449524	1177.549561	3834.094482	1274.737427	3.658431
285.821014	1179.407104	3860.323486	1275.406250	3.580833
286.192535	1173.537231	3893.759766	1276.743652	3.794043
286.563995	1167.518677	3876.150391	1278.081177	4.081858
286.935425	1163.654907	3864.558838	1271.988281	4.011004
287.306824	1167.592896	3792.113525	1266.118286	3.754034
287.678223	1173.983032	3713.872803	1264.335083	3.557322
288.049561	1180.521606	3666.393555	1266.786987	3.470226
288.420898	1173.165649	3650.344482	1264.855103	3.701366
288.792145	1171.159546	3690.690674	1276.669312	4.187675
289.163452	1166.924194	3781.785889	1282.093384	4.404408
289.534668	1174.205811	3891.233643	1289.672363	4.249738
289.905914	1167.815918	4000.755615	1285.139893	4.141421
290.277039	1171.233765	4079.516357	1283.133667	3.847628
290.648193	1176.732178	4127.144531	1292.347168	3.918604
291.019318	1181.710449	4131.603027	1300.074829	4.012498
291.390381	1175.394653	4094.154297	1299.628906	4.256405
291.761475	1169.376099	4036.569580	1287.814819	4.130824
292.132507	1168.558838	3992.433594	1280.904663	3.978428
292.503510	1171.902466	3973.486328	1279.715820	3.848300
292.874481	1167.147095	4019.182861	1279.715698	3.946956
293.245422	1170.490723	4092.593750	1276.594971	3.631092
293.616364	1173.016968	4219.279785	1275.777710	3.373338
293.987213	1176.880859	4340.690430	1292.124390	3.642556
294.358093	1170.490723	4442.262207	1294.947754	3.803965
294.728943	1168.187378	4547.623535	1309.734009	4.188469
295.099731	1162.094604	4641.765625	1303.641113	4.067813
295.470490	1170.119263	4767.113770	1312.111694	3.947530
295.841248	1162.391724	4860.363770	1310.774170	4.012536
296.211975	1168.261719	4963.718750	1316.272583	3.899685
296.582642	1167.593018	5049.390137	1329.572754	4.172803
296.953308	1180.967529	5088.250000	1334.848389	3.938309
297.323883	1175.097534	5076.881836	1335.071411	4.100019
297.694519	1164.100708	4989.798828	1318.873413	4.045607
298.065063	1152.880981	4884.734863	1306.390503	4.113492
298.435608	1155.035767	4732.785645	1305.573120	4.207599
298.806122	1164.918091	4571.475098	1304.012695	4.083143
299.176575	1170.713745	4409.940918	1306.836304	4.202316
299.547028	1168.187378	4311.712402	1296.211060	4.072616
299.917450	1168.856079	4277.162109	1289.598022	3.884493
300.287872	1163.357666	4286.301270	1296.359619	4.258865
300.658234	1171.159546	4277.533691	1302.601074	4.231349
301.028564	1169.747681	4250.487793	1305.201538	4.396796
301.398865	1174.354370	4208.580566	1291.901367	3.874036
301.769135	1170.342163	4164.370117	1283.356567	3.774661
302.139374	1167.370117	4113.992676	1285.734253	4.016943
302.509583	1163.803467	4074.835205	1284.396729	4.142630
302.879791	1162.465942	4040.061523	1289.003540	4.397337
303.249939	1168.633179	4004.768311	1279.492798	3.908827
303.620087	1177.103638	3962.638672	1280.607422	3.715759
303.990173	1181.636108	3946.960938	1273.177124	3.310317
304.360260	1181.338989	3939.604736	1273.622925	3.345723
304.730286	1180.670288	3938.118408	1278.081055	3.532642
305.100281	1182.081909	3930.836670	1279.121338	3.530305
305.470276	1174.354492	3935.443604	1293.907593	4.329926
305.840179	1164.843750	3955.208008	1293.387573	4.606704
306.210144	1159.345337	3985.375000	1300.743530	5.003422
306.579987	1168.856079	4013.758545	1293.461792	4.379964
306.949890	1173.685791	4058.563232	1294.130493	4.175037
307.319702	1172.942749	4135.986328	1296.582520	4.172729
307.689484	1167.444336	4244.022461	1301.263550	4.349612
308.059265	1169.153320	4352.653320	1310.402832	4.436925
308.429016	1171.605347	4428.813965	1319.319214	4.534984
308.798737	1170.044922	4499.550293	1321.994141	4.563717
309.168396	1164.026367	4535.215332	1320.136597	4.630717
309.538055	1163.952026	4554.236816	1314.786621	4.449025
309.907684	1169.970703	4546.063965	1314.563721	4.282850
310.277313	1170.044922	4559.363770	1318.278931	4.373563
310.646851	1171.679565	4556.911621	1325.560547	4.545656
311.016388	1164.695190	4552.676270	1329.275513	4.857770
311.385895	1174.280151	4495.537598	1324.668945	4.528068
311.755371	1176.732178	4448.355469	1324.891846	4.528629
312.124817	1177.103638	4386.535645	1323.480103	4.560822
312.494232	1167.890015	4343.736816	1321.919800	4.850039
312.863617	1162.465942	4318.771484	1321.622559	5.042497
313.232971	1164.769409	4339.650391	1327.492310	5.125323
313.602295	1168.410278	4408.529297	1336.854492	5.198704
313.971619	1167.890015	4480.825684	1339.009277	5.165185
314.340820	1165.735352	4517.977051	1341.089722	5.230958
314.710083	1172.274048	4519.462891	1337.894775	4.948054
315.079285	1177.400879	4470.200195	1336.631592	4.835725
315.448486	1177.623901	4397.532227	1333.436646	4.839043
315.817596	1173.983032	4278.647949	1336.483032	5.234059
316.186707	1171.456665	4186.958008	1331.653442	5.312442
316.555786	1173.908691	4103.664551	1334.031128	5.465385
316.924866	1172.422729	4052.469971	1328.161133	5.407495
317.293884	1171.308228	4034.043213	1320.062134	5.196217
317.662872	1170.416626	4040.359375	1317.907349	5.139152
318.031830	1170.119263	4074.538330	1325.634888	5.354449
318.400757	1173.834473	4110.575195	1341.387085	5.705393
318.769684	1176.286377	4135.317871	1354.464233	6.021492
319.138550	1181.116089	4149.360840	1359.813965	6.020322
319.507416	1176.212036	4119.491699	1364.123535	6.384425
319.876190	1175.914917	4094.971436	1354.761353	6.126857
320.244995	1175.394775	4026.241455	1350.823364	6.153561
320.613770	1179.555786	3977.201904	1352.458130	6.180280
320.982483	1174.131592	3957.363037	1363.009155	6.786269
321.351166	1165.363892	4000.607178	1371.033813	7.254049
321.719818	1161.574341	4063.095459	1374.228882	7.329071
322.088440	1163.357788	4166.673340	1377.275269	7.122711
322.457062	1171.233765	4312.975098	1391.838501	7.021735
322.825623	1171.010864	4472.652344	1407.590820	7.165525
323.194183	1168.410278	4602.607910	1427.949585	7.557495
323.562653	1167.072754	4667.102051	1432.927856	7.595797
323.931183	1168.781860	4695.114746	1441.249878	7.726667
324.299591	1175.617676	4667.845703	1441.026978	7.599999
324.668060	1177.326660	4627.127441	1441.250000	7.650393
325.036407	1177.921021	4544.131836	1441.546997	7.831535
325.404755	1167.295776	4476.516113	1445.484985	8.406488
325.773102	1157.933594	4395.080566	1451.503540	9.068787
326.141388	1169.450562	4333.483398	1450.091919	8.869737
326.509674	1176.212036	4251.898926	1441.101196	8.612357
326.877899	1182.007690	4180.642578	1438.500610	8.553657
327.246124	1176.286499	4136.061035	1438.872192	8.871815
327.614288	1175.469116	4102.104980	1442.364380	9.119525
327.982422	1171.828125	4100.915527	1443.627563	9.279322
328.350525	1176.212036	4106.859863	1450.909180	9.373257
328.718628	1182.750732	4155.082520	1461.608887	9.381798
329.086700	1188.546509	4205.311035	1470.525269	9.347058
329.454712	1177.698242	4263.563965	1478.698608	9.754163
329.822693	1172.497070	4285.037598	1484.642578	10.028641
330.190674	1169.673462	4325.756348	1495.565063	10.325825
330.558563	1165.140991	4370.263672	1499.205933	10.422845
330.926483	1164.397949	4443.153809	1514.215210	10.669208
331.294312	1161.500122	4517.753906	1538.586426	11.235333
331.662231	1165.215332	4611.821289	1556.641968	11.356873
332.029999	1163.877808	4712.873047	1573.508789	11.542168
332.397766	1165.140991	4781.974609	1580.567383	11.485914
332.765503	1158.305054	4799.287109	1593.198853	11.944409
333.133240	1153.995605	4801.219238	1598.102905	12.176585
333.500916	1154.664429	4800.178711	1596.394043	12.117073
333.868561	1164.843750	4808.574707	1603.824341	12.047558
334.236176	1168.113159	4782.420410	1597.062622	11.868096
334.603790	1168.484619	4747.200684	1603.452759	12.154307
334.971344	1163.209106	4717.331055	1605.087402	12.432839
335.338867	1168.335938	4699.869629	1614.375366	12.630191
335.706360	1167.072876	4692.439453	1622.845703	12.928381
336.073853	1173.685669	4701.876465	1627.006714	12.848540
336.441284	1167.964478	4728.253418	1638.969604	13.229407
336.808655	1172.794067	4762.655762	1645.879517	13.178375
337.176086	1168.336060	4801.590332	1659.922852	13.530206
337.543396	1165.661133	4834.952148	1669.582031	13.733468
337.910706	1166.478394	4860.512207	1677.012329	13.820500
338.277954	1162.986206	4863.336426	1692.541626	14.310954
338.645264	1172.125488	4839.931152	1687.191895	14.042903
339.012421	1165.215332	4792.971191	1685.780273	14.349504
339.379669	1169.524780	4700.464355	1667.353149	14.099034
339.746796	1163.580566	4602.310547	1675.972290	14.900609
340.113953	1166.998535	4525.406738	1667.204468	14.894137
340.481018	1169.970581	4496.651855	1678.275513	15.279641
340.848114	1171.679565	4505.270996	1665.867065	14.824478
341.215118	1169.450562	4545.840332	1681.916382	15.177923
341.582153	1171.233765	4649.492676	1693.061890	15.002567
341.949066	1169.376099	4820.909668	1739.500977	15.613299
342.316010	1173.016968	5041.365234	1783.934082	15.792713
342.682922	1168.261597	5292.211426	1826.880981	15.970597
343.049835	1171.159546	5589.570801	1871.759888	15.856386
343.416656	1175.617554	5875.785156	1923.474609	15.911285
343.783478	1176.806396	6091.039551	1971.771362	16.176785
344.150269	1178.143921	6198.630371	1998.668823	16.343534
344.516998	1167.295776	6216.834473	2001.789551	16.526138
344.883728	1167.518555	6143.868652	1996.514038	16.658705
345.250427	1166.626953	6024.167480	1986.037476	16.868835
345.617065	1167.667114	5877.270996	1974.891968	17.139973
345.983704	1167.741577	5745.235840	1962.037476	17.352200
346.350281	1166.924194	5615.873535	1951.635132	17.638119
346.716827	1167.964478	5483.689453	1937.889160	17.839985
347.083405	1166.255493	5394.823730	1923.846069	17.916006
347.449860	1174.057251	5351.133301	1933.356812	18.177776
347.816376	1180.893188	5342.811035	1934.322754	18.102942
348.182770	1181.859131	5348.383789	1937.443481	18.134644
348.549194	1174.800415	5378.401855	1931.870728	18.010040
348.915558	1165.215210	5460.283691	1948.143066	18.228531
349.281921	1171.902466	5538.970703	1967.758789	18.224041
349.648193	1174.800293	5575.453125	1990.867065	18.544220
350.014526	1183.939575	5580.803223	1998.594604	18.528093
350.380737	1174.725952	5601.831543	2012.043335	18.913427
350.746948	1175.766235	5636.753418	2015.387085	18.821413
351.113159	1167.072876	5693.743652	2035.002930	19.173695
351.479309	1171.605347	5752.219238	2045.331055	19.074425
351.845428	1164.620850	5869.320313	2072.005615	19.286776
352.211517	1167.815918	5997.417969	2100.537842	19.312605
352.577576	1165.809692	6131.683594	2137.169189	19.560696
352.943604	1169.822144	6244.697754	2179.224609	19.890192
353.309601	1169.747681	6376.808105	2213.923828	20.053083
353.675537	1166.701294	6515.977051	2251.075195	20.271416
354.041473	1163.654907	6669.263672	2281.613525	20.305813
354.407379	1164.918091	6783.838379	2312.077881	20.416018
354.773254	1162.243164	6909.410156	2347.074463	20.615919
355.139038	1157.190552	7022.052246	2382.442383	20.891401
355.504913	1154.812866	7238.719238	2438.020996	21.091846
355.870636	1157.116211	7498.779297	2501.846924	21.204700
356.236389	1159.642456	7767.383301	2563.220947	21.241428
356.602081	1162.763184	8009.609863	2622.365967	21.317883
356.967804	1164.992432	8172.259277	2662.117920	21.365328
357.333405	1161.128784	8266.846680	2690.055664	21.516853
357.699036	1159.196655	8243.664063	2690.798828	21.619158
358.064606	1160.088257	8198.116211	2688.124023	21.711136
358.430176	1164.174927	8144.395996	2680.990479	21.730194
358.795654	1161.054321	8185.856934	2702.241211	21.939220
359.161163	1165.438110	8336.393555	2740.135742	21.959383
359.526581	1161.797363	8693.417969	2818.673828	21.998938
359.892029	1164.472290	9201.425781	2928.418701	21.947948
360.257416	1153.995483	9748.887695	3062.014893	22.199455
360.622772	1157.339233	10188.983398	3172.206299	22.308971
360.988098	1161.128784	10459.964844	3246.285889	22.423853
361.353394	1168.707520	10546.528320	3270.211670	22.409304
361.718658	1174.428833	10405.352539	3239.673096	22.373104
362.083893	1174.874634	10002.260742	3166.113281	22.557512
362.449097	1177.103638	9426.042969	3058.968750	22.813419
362.814209	1176.286255	8811.039063	2946.028564	23.180086
363.179382	1178.515381	8274.202148	2820.085693	23.134764
363.544434	1174.057251	7898.676270	2723.789063	23.045645
363.909546	1170.342163	7654.666016	2662.043701	23.004736
364.274536	1168.410278	7522.036621	2629.944824	23.003155
364.639587	1166.404175	7387.919922	2604.681885	23.117804
365.004517	1168.781738	7319.263672	2591.381836	23.129896
365.369507	1166.106812	7259.375488	2590.935791	23.383656
365.734344	1165.512329	7272.527344	2601.412354	23.512304
366.099274	1168.633179	7254.100098	2599.703369	23.516193
366.464081	1163.654907	7207.810059	2603.344482	23.819532
366.828918	1164.769531	7141.160156	2594.279541	23.919287
367.193665	1168.410278	7076.442871	2575.258057	23.812458
367.558411	1166.701294	7027.031250	2561.140381	23.794548
367.923126	1165.586792	6936.901855	2546.354248	23.924660
368.287781	1160.162598	6865.497559	2547.245850	24.312038
368.652435	1171.976685	6827.899902	2537.809570	24.148716
369.017059	1177.400879	6849.447266	2543.976563	24.093168
369.381653	1177.549438	6901.162109	2561.140381	24.173386
369.746185	1171.902466	6968.554688	2584.694580	24.372553
370.110687	1168.261719	7070.052246	2608.322754	24.400410
370.475220	1163.209106	7148.516113	2630.242188	24.510572
370.839661	1166.329834	7213.457031	2642.724854	24.414818
371.204041	1163.134888	7246.893066	2645.697021	24.369183
371.568451	1166.849976	7250.087891	2645.473877	24.306528
371.932770	1167.518677	7216.948730	2650.526611	24.514837
372.297150	1168.187500	7179.203125	2653.795898	24.714766
372.661377	1169.450562	7193.171875	2663.157959	24.797087
373.025696	1165.809692	7220.664063	2674.749268	24.921154
373.389862	1166.032593	7279.363281	2691.318848	24.950169
373.754059	1170.119263	7368.824219	2703.281494	24.733589
374.118225	1169.896362	7496.327637	2727.801270	24.625336
374.482361	1173.462769	7656.003906	2765.250000	24.554989
374.846436	1163.803589	7831.135254	2830.116211	24.992197
375.210510	1161.500000	8100.111328	2877.001221	24.723986
375.574524	1161.945923	8372.504883	2953.087158	24.840532
375.938538	1168.930420	8662.136719	3010.671875	24.578817
376.302460	1177.549438	8870.036133	3076.875732	24.690666
376.666412	1176.435059	9015.223633	3125.246826	24.861134
377.030304	1178.812622	9026.815430	3134.460205	24.919048
377.394196	1170.490845	8908.375977	3114.101318	25.118109
377.757996	1169.153320	8708.501953	3049.160889	24.935942
378.121796	1170.416504	8452.827148	2984.963135	24.916840
378.485565	1180.150024	8218.847656	2925.818115	24.801010
378.849304	1180.744507	8007.307129	2875.812500	24.830477
379.212982	1170.119141	7879.952637	2836.506592	24.835005
379.576630	1160.162598	7797.550293	2829.447510	25.149727
379.940277	1159.939819	7785.438965	2830.636719	25.216167
380.303864	1167.369995	7761.216309	2837.249268	25.324814
380.667450	1165.512573	7785.661621	2822.685791	25.032265
381.030945	1165.363892	7785.810547	2825.658203	25.078281
381.394501	1162.837524	7838.193848	2830.116211	24.976624
381.757935	1172.719849	7889.314941	2847.057373	24.928368
382.121399	1175.320435	7980.707031	2854.190430	24.669722
382.484741	1177.103760	8113.783203	2891.787842	24.719090
382.848145	1174.948853	8251.911133	2924.778076	24.725710
383.211487	1174.280151	8361.137695	2955.761963	24.788050
383.574768	1174.948853	8425.631836	2974.635010	24.820919
383.938019	1172.794067	8448.961914	2981.322266	24.855503
384.301270	1166.329834	8484.256836	2992.170654	24.950247
384.664459	1167.518677	8508.850586	2991.353271	24.843374
385.027649	1160.534302	8540.131836	2985.334717	24.727640
385.390778	1168.261719	8637.541992	2992.616455	24.424772
385.753876	1170.565063	8745.801758	3000.789795	24.160627
386.116943	1180.447388	8861.193359	3033.037109	24.119919
386.479980	1179.109863	8860.895508	3046.485596	24.309135
386.842987	1171.456665	8876.203125	3048.566406	24.363029
387.205994	1168.930298	8868.846680	3039.055420	24.287603
387.568909	1171.233765	8862.976563	3034.448486	24.223570
387.931793	1172.274048	8815.125977	3025.235107	24.244366
388.294678	1171.531006	8771.584961	3020.182617	24.324192
388.657471	1165.215210	8799.299805	3009.854492	24.163202
389.020294	1165.140991	8834.891602	3016.319092	24.136093
389.383057	1166.478394	9009.502930	3035.414795	23.829283
389.745819	1174.725952	9175.123047	3077.693115	23.785910
390.108521	1179.332886	9398.997070	3112.689453	23.521114
390.471191	1176.360718	9631.044922	3159.723389	23.458742
390.833801	1173.239868	9843.624023	3199.846436	23.373898
391.196442	1170.639282	10008.725586	3231.425049	23.317104
391.558960	1178.738403	10056.649414	3230.459229	23.110399
391.921509	1171.753906	10036.959961	3200.292236	22.882021
392.284027	1170.416382	9977.889648	3178.521729	22.800014
392.646484	1159.345337	9905.963867	3162.026611	22.896635
393.008911	1163.803589	9867.029297	3148.726563	22.806751
393.371307	1164.100708	9886.645508	3145.160156	22.711943
393.733673	1165.140991	9882.782227	3133.048828	22.573856
394.096008	1166.255493	9808.553711	3103.921875	22.420731
394.458344	1167.592896	9700.741211	3064.913086	22.234703
394.820587	1177.103638	9502.129883	3003.093018	21.933737
395.182831	1178.366821	9317.487305	2946.177002	21.719915
395.545013	1179.555664	9072.138672	2880.567627	21.552031
395.907196	1173.388550	8906.146484	2833.385742	21.467079
396.269287	1177.401001	8808.735352	2801.732422	21.285025
396.631409	1186.020020	8777.900391	2784.271484	21.052116
396.993469	1186.168579	8759.028320	2772.606201	20.948990
397.355530	1176.732178	8777.827148	2764.432617	20.887787
397.717499	1166.404175	8785.924805	2762.203857	20.943571
398.079468	1159.196777	8800.934570	2765.324219	21.017830
398.441376	1160.831421	8792.909180	2751.058350	20.836094
398.803284	1148.199951	8758.582031	2721.337158	20.670937
399.165131	1156.298950	8759.100586	2704.173340	20.359262
399.526978	1159.196777	8739.336914	2699.343506	20.318182
399.888763	1164.843750	8750.779297	2691.393311	20.123419
400.250519	1157.413452	8760.067383	2673.189209	19.937456
400.612244	1160.162720	8780.129883	2663.752686	19.732237
400.973938	1164.695190	8861.788086	2668.879150	19.542234
401.335602	1164.026489	8950.356445	2662.935303	19.250517
401.697205	1157.636353	9111.221680	2677.349854	19.107275
402.058807	1161.054321	9253.214844	2678.315918	18.749771
402.420349	1165.289551	9483.924805	2707.739990	18.542110
402.781860	1173.388550	9666.858398	2709.448730	18.085190
403.143341	1172.274048	9867.178711	2733.374268	17.954197
403.504822	1176.435059	10054.124023	2748.606201	17.709238
403.866241	1169.524780	10187.720703	2762.278076	17.661551
404.227631	1171.233765	10279.930664	2760.048828	17.442835
404.588959	1170.936523	10277.107422	2737.237549	17.200436
404.950287	1166.329834	10245.083008	2718.587891	17.097702
405.311554	1161.648682	10149.157227	2690.650146	17.012518
405.672821	1154.218384	10045.801758	2665.907227	17.001347
406.034027	1158.676636	9921.047852	2616.421875	16.636425
406.395203	1160.162598	9777.569336	2577.784424	16.450680
406.756348	1164.249268	9644.493164	2547.171631	16.307577
407.117493	1172.868286	9606.375977	2530.007568	16.092228
407.478516	1175.394775	9639.886719	2510.688965	15.775243
407.839600	1180.744629	9708.541992	2498.206055	15.449024
408.200592	1174.725952	9816.578125	2501.995850	15.358627
408.561554	1168.558960	9955.153320	2515.221436	15.326329
408.922485	1162.020264	10077.083008	2517.078857	15.199654
409.283417	1159.419800	10157.850586	2518.787842	15.106724
409.644257	1161.871704	10249.019531	2517.376221	14.916722
410.005096	1166.775513	10307.719727	2519.976807	14.803737
410.365906	1175.766235	10290.332031	2496.199951	14.487073
410.726715	1183.642334	10237.726563	2468.782227	14.194036
411.087433	1183.642334	10168.104492	2422.565674	13.789622
411.448120	1182.007690	10145.887695	2398.863281	13.575099
411.808807	1174.131592	10101.900391	2376.944092	13.472712
412.169434	1174.057251	10096.773438	2361.340332	13.306297
412.530029	1167.592896	10140.166992	2348.411865	13.160315
412.890564	1172.274048	10249.317383	2337.414795	12.836127
413.251099	1171.976929	10385.291992	2347.148682	12.755145
413.611572	1177.698120	10545.116211	2345.885498	12.470751
413.972076	1171.382324	10686.811523	2353.538818	12.423574
414.332489	1166.032471	10797.151367	2347.297119	12.265081
414.692871	1161.425903	10973.620117	2368.028076	12.296966
415.053223	1159.716919	11147.562500	2375.904053	12.176671
415.413574	1162.391724	11416.389648	2387.197998	11.944671
415.773834	1161.277222	11614.778320	2389.947266	11.753671
416.134094	1161.723022	11894.528320	2393.290771	11.474798
416.494263	1162.466064	12162.090820	2401.166748	11.261299
416.854462	1168.261597	12535.981445	2418.256348	10.996002
417.214630	1180.150024	12963.149414	2453.698975	10.808360
417.574738	1184.459595	13373.002930	2477.252686	10.606626
417.934784	1177.772339	13822.757813	2507.568115	10.516389
418.294861	1170.045044	14254.307617	2535.060303	10.432497
418.654846	1166.106934	14804.074219	2578.750244	10.358167
419.014832	1170.193481	15354.954102	2624.000732	10.249079
419.374756	1167.964478	16006.664063	2663.529541	10.078815
419.734680	1168.484619	16642.322266	2713.906982	9.987325
420.094543	1167.667236	17147.656250	2743.850830	9.863483
420.454376	1170.713501	17477.560547	2757.522461	9.730937
420.814148	1168.856079	17651.652344	2762.426514	9.668082
421.173920	1166.404175	17810.882813	2767.701904	9.620594
421.533691	1171.308228	17875.748047	2763.318115	9.530459
421.893341	1166.701416	17892.021484	2743.107666	9.425268
422.253021	1163.357788	17863.638672	2712.940918	9.278785
422.612640	1158.305176	17797.953125	2680.767822	9.149609
422.972260	1168.410278	17825.742188	2667.839111	9.001615
423.331757	1174.503052	17901.904297	2655.802002	8.855524
423.691315	1170.787964	18089.591797	2668.879395	8.854594
424.050781	1162.911987	18095.908203	2652.532959	8.797150
424.410248	1157.785034	17901.533203	2617.833740	8.719963
424.769653	1158.453735	17554.908203	2567.827637	8.595601
425.128998	1166.552612	17149.958984	2518.119141	8.456060
425.488373	1173.239868	16714.322266	2471.531494	8.353933
425.847656	1175.469116	16282.178711	2420.634033	8.242462
426.206940	1169.822144	15923.816406	2374.566406	8.165546
426.566193	1164.398071	15566.864258	2341.204346	8.170867
426.925385	1162.614746	15216.527344	2290.975830	8.028804
427.284576	1163.729126	14807.491211	2245.874023	7.931426
427.643677	1163.209106	14538.589844	2208.053955	7.811702
428.002777	1167.964355	14305.725586	2192.450439	7.798026
428.361847	1166.032471	14156.301758	2176.698486	7.780178
428.720856	1168.484497	13930.421875	2152.326904	7.709193
429.079865	1168.187378	13810.870117	2141.255859	7.696693
429.438812	1173.760132	13755.291992	2136.946289	7.655555
429.797760	1175.246216	13755.069336	2133.008057	7.613476
430.156616	1173.091431	13643.540039	2115.843994	7.559893
430.515503	1178.292603	13564.926758	2093.850586	7.391500
430.874268	1177.623901	13549.250000	2074.754883	7.251521
431.233093	1171.308105	13661.745117	2068.885010	7.186112
431.591827	1166.552856	13823.797852	2073.714600	7.167134
431.950562	1172.719971	13973.073242	2086.197510	7.136346
432.309204	1178.218262	14087.127930	2100.686523	7.145981
432.667877	1180.001587	14235.956055	2106.705078	7.097938
433.026459	1171.753906	14342.059570	2096.525635	7.021642
433.385010	1178.589844	14444.299805	2098.457275	6.934174
433.743561	1177.401001	14436.051758	2087.386475	6.863334
434.102051	1179.778564	14472.164063	2085.082764	6.810698
434.460510	1174.577393	14481.971680	2071.634277	6.741041
434.818939	1167.369995	14454.256836	2076.463867	6.842038
435.177338	1163.580688	14421.042969	2078.395752	6.900379
435.535675	1161.797363	14402.096680	2080.624756	6.939627
435.894012	1165.661133	14420.299805	2085.379883	6.938844
436.252289	1168.410278	14552.708008	2102.766846	6.980990
436.610535	1164.175171	14617.203125	2096.451172	6.929860
436.968719	1164.918091	14916.791992	2104.996094	6.835999
437.326935	1168.410278	15150.175781	2105.144775	6.699687
437.685028	1171.605347	15463.139648	2122.085693	6.650653
438.043152	1176.955200	15677.651367	2117.553223	6.486571
438.401215	1171.679688	15988.459961	2130.556396	6.471559
438.759277	1172.794067	16341.843750	2155.447754	6.478017
439.117249	1165.363892	16803.783203	2198.171875	6.604299
439.475250	1169.153320	17187.111328	2223.286133	6.580944
439.833130	1168.856079	17603.949219	2253.824463	6.601534
440.191071	1173.091431	17749.062500	2256.945068	6.538704
440.548889	1171.382446	17827.822266	2266.753174	6.576260
440.906708	1168.707520	17725.136719	2252.635498	6.546870
441.264496	1163.729126	17543.093750	2243.719238	6.593602
441.622223	1165.661133	17286.601563	2220.759766	6.544895
441.979950	1166.404175	16981.587891	2191.187256	6.479742
442.337616	1166.255493	16760.982422	2170.828369	6.441747
442.695251	1162.391724	16517.197266	2157.825439	6.482881
443.052887	1165.958374	16460.132813	2151.881104	6.446394
443.410461	1170.565063	16571.736328	2160.723389	6.429111
443.768005	1170.119263	16827.708984	2176.698242	6.428697
444.125458	1171.085327	17054.033203	2200.995361	6.484375
444.482941	1161.648804	17364.544922	2209.837158	6.469142
444.840393	1163.803589	17880.876953	2229.824707	6.376840
445.197754	1168.484497	18359.458984	2252.264160	6.304353
445.555084	1175.989136	18727.332031	2275.446533	6.264235
445.912415	1175.394775	18895.775391	2293.724854	6.310982
446.269714	1171.531006	19017.111328	2302.492920	6.337491
446.626953	1166.998535	19019.712891	2311.557861	6.411122
446.984161	1169.747681	18864.121094	2310.740234	6.448336
447.341309	1171.902466	18673.982422	2296.697021	6.426633
447.698456	1178.589722	18365.404297	2281.019287	6.414392
448.055542	1179.555786	18149.703125	2263.558105	6.387702
448.412598	1177.326660	17790.896484	2250.183594	6.457715
448.769653	1178.292480	17446.798828	2225.663818	6.438030
449.126617	1168.707520	16991.025391	2193.119385	6.474474
449.483582	1167.667114	16730.373047	2172.537354	6.456912
449.840515	1159.716797	16497.876953	2155.819092	6.494275
450.197388	1167.518677	16359.526367	2145.268311	6.435947
450.554230	1166.552734	16251.416992	2137.986572	6.439792
450.911041	1170.787964	16192.198242	2141.330322	6.461060
451.267822	1172.422607	16274.227539	2153.367188	6.495545
451.624573	1166.329834	16282.921875	2157.899658	6.559480
451.981262	1166.849976	16272.816406	2149.131836	6.502608
452.337921	1166.106812	16077.250977	2133.008057	6.484420
452.694580	1169.747681	15736.573242	2114.655273	6.486709
453.051147	1175.914795	15511.137695	2099.720459	6.444306
453.407715	1170.639282	15146.237305	2082.036621	6.521348
453.764221	1177.921021	15085.977539	2068.662109	6.404497
454.120728	1170.862183	14750.723633	2058.556885	6.536847
454.477142	1179.704224	14735.640625	2067.250244	6.547287
454.833557	1176.509277	14604.421875	2070.445313	6.657297
455.189911	1175.766235	14642.911133	2066.730225	6.615834
455.546265	1170.193481	14684.296875	2067.398682	6.639029
455.902557	1173.165649	14778.067383	2067.101807	6.570692
456.258820	1170.787964	14993.843750	2089.318115	6.644914
456.615051	1171.976807	15305.247070	2103.138428	6.588437
456.971252	1173.908813	15619.250000	2136.500488	6.663682
457.327393	1180.744507	16164.929688	2175.137939	6.636286
457.683502	1177.326660	16729.183594	2216.970459	6.685014
458.039612	1165.883911	17576.828125	2279.012939	6.782846
458.395630	1164.323608	18435.025391	2338.678223	6.799693
458.751648	1170.639404	19157.916016	2387.197754	6.763438
459.107605	1175.617554	19783.396484	2421.599854	6.696029
459.463562	1173.388550	19960.755859	2436.906494	6.725359
459.819458	1167.221313	19885.191406	2432.002441	6.757042
460.175323	1166.701294	19365.072266	2393.885010	6.743371
460.531158	1166.701294	18676.804688	2345.811279	6.733883
460.886932	1171.679565	17936.677734	2310.071777	6.790291
461.242676	1174.948853	17282.662109	2273.737549	6.821507
461.598419	1172.422729	16806.904297	2236.883301	6.808416
461.954102	1174.800415	16348.083008	2199.880615	6.755824
462.309723	1176.509399	15892.014648	2173.502930	6.775123
462.665344	1174.354492	15554.903320	2163.398193	6.877649
463.020905	1168.558960	15361.567383	2151.732666	6.927169
463.376373	1169.896362	15365.430664	2151.658203	6.915991
463.731873	1170.565186	15383.338867	2152.475342	6.908646
464.087341	1172.274048	15433.343750	2163.843750	6.952983
464.442749	1167.369995	15555.867188	2175.880615	7.009145
464.798126	1174.354370	15648.078125	2178.555664	6.938099
465.153503	1175.023193	15789.550781	2179.670166	6.874303
465.508820	1176.509277	15928.497070	2185.614258	6.840467
465.864105	1177.103638	16027.393555	2188.660889	6.811700
466.219330	1175.691895	16269.398438	2214.221191	6.880545
466.574524	1172.199707	16286.264648	2211.769287	6.878160
466.929657	1172.719727	16202.004883	2218.307861	6.957005
467.284790	1176.063354	16005.622070	2199.732178	6.902895
467.639893	1178.292603	15820.015625	2193.267822	6.932075
467.994934	1177.326660	15661.304688	2188.661133	6.982436
468.349945	1177.401001	15447.386719	2187.323486	7.077250
468.704926	1175.840576	15297.592773	2186.580322	7.157325
469.059875	1168.558960	15182.125000	2174.617676	7.179177
469.414764	1166.849976	15104.479492	2156.339111	7.099408
469.769653	1164.695190	15067.106445	2156.488037	7.133963
470.124451	1174.428833	15129.668945	2160.426025	7.065426
470.479248	1170.862183	15226.559570	2165.701416	7.077836
470.834015	1171.382324	15306.137695	2159.311279	6.989360
471.188721	1170.342163	15491.968750	2169.787842	6.978576
471.543365	1175.469116	15721.713867	2195.571045	7.012820
471.898010	1176.509399	15922.331055	2221.279541	7.085195
472.252625	1175.617798	16177.338867	2239.038330	7.088657
472.607178	1178.589844	16362.054688	2254.344727	7.085042
472.961700	1180.595825	16472.171875	2254.716064	7.024261
473.316193	1173.314331	16494.906250	2262.815186	7.110886
473.670654	1165.289551	16468.677734	2256.053467	7.127597
474.025055	1158.528076	16567.203125	2264.524170	7.177750
474.379456	1163.729370	16628.501953	2260.288574	7.090691
474.733795	1161.723145	16781.492188	2268.239014	7.084073
475.088104	1160.682739	17035.904297	2294.393555	7.141386
475.442383	1157.710571	17334.453125	2316.833252	7.165365
475.796570	1164.769409	17634.933594	2340.164063	7.136508
476.150787	1171.753906	17995.970703	2355.470459	7.035790
476.504944	1172.868530	18344.970703	2388.832520	7.081044
476.859070	1165.289673	18643.443359	2412.238037	7.134325
477.213135	1169.227539	18893.248047	2439.284180	7.165737
477.567200	1163.208984	19136.146484	2449.240479	7.155377
477.921173	1165.735352	19438.408203	2474.875000	7.164467
478.275146	1163.803467	19646.306641	2478.812988	7.114888
478.629089	1177.698120	19942.701172	2510.466064	7.102412
478.983002	1179.630005	20340.890625	2533.128174	7.063722
479.336823	1173.239990	20856.998047	2565.524414	7.073266
479.690643	1166.775757	21465.091797	2591.233154	7.017613
480.044403	1167.667358	22261.021484	2634.997314	6.956362
480.398163	1169.079102	23392.724609	2723.640381	6.995078
480.751862	1173.240112	24974.109375	2840.221436	7.003868
481.105499	1175.097534	27099.318359	2992.393311	7.010030
481.459137	1182.899292	30148.328125	3210.471924	6.999974
481.812744	1168.261719	34206.000000	3495.274414	7.043499
482.166290	1157.710815	39101.285156	3852.819092	7.102938
482.519806	1152.806763	44126.453125	4208.134766	7.109772
482.873291	1163.506470	48467.964844	4556.168457	7.171971
483.226715	1170.639526	51280.691406	4800.773438	7.244323
483.580139	1167.815796	52258.738281	4910.814941	7.326153
483.933502	1161.500122	51495.425781	4852.562012	7.333149
484.286804	1166.478394	49382.628906	4689.913574	7.307582
484.640106	1176.137817	46380.203125	4442.113770	7.224961
484.993347	1177.029419	43330.003906	4203.305176	7.179270
485.346558	1174.057251	41135.027344	4012.570068	7.103213
485.699738	1166.924194	40193.535156	3939.902100	7.105352
486.052887	1167.444336	40477.667969	3956.248291	7.094348
486.405975	1163.134644	41408.312500	4038.947266	7.145731
486.759064	1161.574341	42413.480469	4124.098145	7.181544
487.112061	1168.707397	42836.261719	4148.543945	7.151455
487.464996	1173.165649	42433.988281	4118.673828	7.138753
487.817963	1176.286499	41282.441406	4031.516846	7.119183
488.170868	1173.463013	39537.371094	3925.709961	7.174053
488.523743	1176.806519	37575.628906	3776.956055	7.143498
488.876587	1175.989258	35712.933594	3646.628906	7.153614
489.229401	1177.326538	34543.410156	3555.831055	7.128510
489.582153	1175.023315	34273.691406	3528.561768	7.110674
489.934845	1174.948853	34935.503906	3566.530518	7.083952
490.287537	1172.348267	36108.078125	3645.143311	7.078125
490.640198	1169.970703	37345.664063	3747.160400	7.124092
490.992798	1173.537231	38036.457031	3794.416992	7.109800
491.345337	1173.462891	37882.574219	3780.447998	7.101739
491.697876	1176.212158	36681.246094	3697.971924	7.102541
492.050354	1172.794189	34711.187500	3567.867920	7.141289
492.402832	1170.639282	32211.494141	3391.844971	7.155748
492.755219	1167.964478	29656.521484	3204.156250	7.147402
493.107605	1169.376221	27397.642578	3040.021484	7.132173
493.459930	1171.010864	25611.400391	2909.620117	7.113673
493.812225	1169.078979	24345.580078	2827.961670	7.157606
494.164490	1171.828247	23604.710938	2780.259033	7.169969
494.516724	1175.468994	23267.822266	2754.624756	7.147974
494.868896	1180.595825	23245.755859	2741.324463	7.073271
495.221039	1173.834351	23423.562500	2744.742432	7.060347
495.573120	1165.809692	23687.408203	2770.451172	7.124901
495.925201	1162.763184	23995.318359	2788.432617	7.119963
496.277222	1167.667236	24182.490234	2799.577881	7.090694
496.629211	1172.571167	24183.232422	2794.971436	7.050646
496.981140	1181.264648	24030.689453	2785.906250	7.022678
497.333069	1183.270874	23758.146484	2768.147705	7.020534
497.684967	1179.555664	23430.697266	2751.653076	7.065244
498.036804	1167.072876	22983.615234	2724.680908	7.139573
498.388580	1166.478394	22526.802734	2694.959717	7.155703
498.740326	1166.849976	22057.208984	2660.631836	7.150580
499.092072	1173.834351	21612.728516	2633.882813	7.143481
499.443756	1179.258423	21217.142578	2605.350586	7.116980
499.795410	1183.122192	20907.373047	2571.840088	7.040663
500.147003	1180.075806	20662.917969	2545.982666	7.010819
500.498566	1172.942749	20419.279297	2529.784668	7.049871
500.850098	1176.286377	20225.869141	2526.886963	7.089922
501.201599	1169.896362	20072.880859	2514.255371	7.111887
501.553009	1165.586792	19996.421875	2512.026367	7.150185
501.904449	1157.636475	19996.273438	2507.939697	7.167733
502.255859	1163.432007	20054.898438	2507.716553	7.115829
502.607178	1164.992310	20175.123047	2501.623779	7.031153
502.958405	1171.902466	20229.955078	2509.128418	7.016593
503.309692	1165.661011	20291.626953	2513.512451	7.047233
503.660919	1163.803467	20337.322266	2518.490967	7.065409
504.012115	1154.441284	20344.306641	2510.688965	7.067521
504.363251	1156.596191	20309.980469	2506.453857	7.047619
504.714294	1158.156494	20188.123047	2488.546875	6.991028
505.065369	1168.410278	20125.412109	2478.218750	6.909365
505.416443	1168.707520	20004.968750	2469.154053	6.903952
505.767395	1164.695190	19967.220703	2475.395264	6.970872
506.118317	1164.472168	19870.775391	2473.612061	6.998389
506.469238	1162.540405	19996.273438	2474.800781	6.967607
506.820160	1164.620972	20176.904297	2478.515869	6.910769
507.170929	1166.255493	20450.634766	2488.546631	6.856799
507.521729	1175.543213	20663.289063	2505.933838	6.826806
507.872498	1180.150024	20900.685547	2525.772705	6.823459
508.223236	1174.205811	21140.980469	2533.871582	6.809641
508.573883	1169.227539	21347.765625	2548.657959	6.836126
508.924500	1162.020386	21523.640625	2565.375732	6.892159
509.275116	1154.367065	21669.496094	2584.100098	6.969164
509.625702	1153.475464	21879.625000	2588.260986	6.922585
509.976196	1160.162720	22052.750000	2592.347412	6.854990
510.326660	1165.586792	22263.695313	2603.195557	6.813922
510.677124	1164.843750	22430.429688	2624.669189	6.864732
511.027557	1163.432007	22604.296875	2632.991211	6.854011
511.377869	1164.843750	22727.197266	2628.384521	6.787482
511.728180	1168.038696	22793.697266	2621.920166	6.722947
512.078430	1173.537231	22738.564453	2616.421875	6.690855
512.428650	1182.230591	22659.580078	2613.375244	6.663507
512.778931	1179.109985	22483.335938	2608.471436	6.709286
513.129028	1179.407104	22309.687500	2593.462158	6.692079
513.479126	1169.524780	22130.619141	2587.369385	6.764173
513.829285	1173.536987	21969.306641	2572.731689	6.728266
514.179382	1171.159302	21838.386719	2556.385254	6.702525
514.529297	1170.862183	21833.630859	2552.224365	6.685271
514.879272	1172.719849	22006.609375	2568.867920	6.701332
515.229187	1164.917969	22258.349609	2577.709961	6.697782
515.579163	1175.617554	22662.478516	2603.790283	6.646726
515.928955	1167.072754	23135.117188	2614.861572	6.590431
516.278748	1170.119263	23795.445313	2667.541992	6.618348
516.628540	1167.815918	24534.236328	2715.095703	6.621809
516.978333	1172.645508	25373.634766	2772.977539	6.612672
517.327942	1178.069702	26218.978516	2830.264893	6.597984
517.677612	1175.989136	26862.439453	2872.840576	6.606018
518.027222	1183.270874	27263.302734	2897.583252	6.573276
518.376831	1180.521606	27302.312500	2898.400635	6.576421
518.726379	1179.184204	27089.210938	2873.434814	6.538977
519.075867	1174.651733	26528.968750	2838.884033	6.563901
519.425293	1178.069580	25924.291016	2796.457031	6.539938
519.774658	1176.732178	25245.833984	2757.299805	6.566791
520.124084	1174.651611	24722.076172	2727.132813	6.592998
520.473389	1171.828125	24249.287109	2694.959717	6.600084
520.822693	1168.558716	23932.384766	2670.811523	6.599298
521.171997	1168.781860	23719.287109	2648.000488	6.559581
521.521240	1166.478394	23681.017578	2634.923096	6.522206
521.870361	1171.010864	23764.166016	2643.393799	6.516943
522.219482	1174.577393	24004.906250	2651.418457	6.468769
522.568604	1174.354614	24305.162109	2670.439941	6.467934
522.917664	1175.989136	24763.685547	2680.916504	6.380137
523.266724	1177.772339	25378.166016	2718.885010	6.368130
523.615662	1180.967407	26216.376953	2775.801025	6.370312
523.964600	1174.800293	27238.115234	2853.893311	6.442362
524.313538	1171.085083	28412.837891	2919.354248	6.417609
524.662354	1163.729126	29655.626953	2989.941406	6.409585
525.011169	1169.227539	30863.416016	3077.321533	6.425817
525.359985	1167.147095	32051.000000	3157.197021	6.443658
525.708740	1174.131592	33267.113281	3228.081787	6.399998
526.057434	1172.719849	34762.753906	3300.006592	6.333088
526.406067	1172.571167	36684.070313	3425.578125	6.344443
526.754700	1173.983032	39398.050781	3603.384766	6.355687
527.103333	1173.314331	42689.363281	3810.169189	6.351411
527.451782	1172.794312	46206.562500	4048.086670	6.384748
527.800293	1163.432129	48960.292969	4251.453125	6.460720
528.148743	1158.973999	50581.355469	4372.417480	6.502000
528.497131	1154.367065	50635.074219	4364.095215	6.486827
528.845642	1161.797363	49191.222656	4262.672363	6.456198
529.193909	1164.249268	46484.675781	4080.853516	6.435518
529.542175	1170.639282	42986.574219	3855.568359	6.420828
529.890503	1171.233765	39428.589844	3610.294922	6.375404
530.238770	1171.531128	36328.457031	3417.256104	6.387718
530.586914	1169.896362	34253.699219	3277.567139	6.370703
530.934998	1164.918091	33224.906250	3198.583252	6.343312
531.283142	1162.837646	33244.519531	3172.503174	6.264215
531.631226	1161.054321	33953.152344	3214.410156	6.261740
531.979248	1168.187378	35156.707031	3288.266846	6.237634
532.327148	1170.342163	36379.730469	3363.758545	6.229636
532.675110	1174.726074	37242.753906	3410.049072	6.197519
533.023071	1166.998535	37370.031250	3412.203857	6.201705
533.370850	1175.171753	36654.574219	3371.040039	6.189135
533.718689	1176.063477	35402.718750	3304.093018	6.217463
534.066467	1178.441162	33843.031250	3205.047852	6.204292
534.414246	1178.961304	32422.882813	3112.763672	6.189372
534.761963	1178.812622	31310.275391	3033.408447	6.155014
535.109619	1182.750610	30703.445313	2999.749756	6.155001
535.457153	1173.091309	30467.904297	2982.957031	6.178110
535.804749	1174.651733	30391.296875	2973.520752	6.157001
536.152344	1175.246094	30302.656250	2955.985352	6.113620
536.499817	1179.109863	29938.275391	2934.734375	6.104574
536.847229	1177.103638	29395.939453	2895.948486	6.091126
537.194641	1168.558960	28622.599609	2858.500000	6.155528
537.542114	1169.376343	27854.380859	2822.091553	6.193423
537.889404	1166.849976	27215.822266	2774.835205	6.172932
538.236694	1176.880859	26887.406250	2744.817139	6.098422
538.583984	1177.549561	27088.244141	2742.513428	6.039837
538.931213	1174.057251	27793.898438	2789.918213	6.070138
539.278381	1162.094604	29191.458984	2876.629639	6.116924
539.625488	1163.580566	30993.521484	2972.332031	6.063543
539.972595	1163.506226	33309.238281	3120.862549	6.089008
540.319641	1167.369995	35557.046875	3262.632568	6.092709
540.666687	1161.797241	37379.394531	3387.981201	6.146692
541.013611	1168.930298	38419.339844	3443.410889	6.105921
541.360596	1164.695190	38519.644531	3445.342773	6.105342
541.707458	1165.586792	37878.410156	3392.587891	6.066003
542.054260	1165.735352	36478.699219	3303.647705	6.054185
542.401062	1173.908691	34801.687500	3193.233643	6.004931
542.747864	1167.667358	32895.523438	3086.312256	6.047194
543.094666	1166.775635	31118.724609	2979.167236	6.050997
543.441284	1167.072876	29380.632813	2870.091064	6.036169
543.787903	1167.667358	28049.427734	2782.339844	6.006573
544.134460	1171.382446	26877.671875	2706.179443	5.970512
544.481079	1162.540405	26107.302734	2653.127441	5.975551
544.827637	1168.484741	25575.367188	2632.694092	5.999166
545.174072	1160.014160	25356.322266	2620.508301	6.036020
545.520508	1172.274170	25378.390625	2642.650391	6.074399
545.866943	1171.233887	25359.369141	2630.019043	6.030995
546.213318	1169.896484	25262.031250	2625.486572	6.041765
546.559631	1171.828247	24926.185547	2600.149414	6.012881
546.905823	1173.908691	24436.677734	2564.112549	5.976089
547.252136	1178.069702	23693.947266	2519.382568	5.957187
547.598389	1168.261597	22828.468750	2459.122803	5.959598
547.944458	1173.314331	21886.384766	2408.076904	5.961273
548.290588	1181.933350	21002.851563	2366.467285	5.976181
548.636658	1192.335815	20175.937500	2326.938232	5.976750
548.982727	1188.397705	19515.906250	2290.010010	6.010705
549.328735	1175.914795	19074.771484	2246.542969	5.981545
549.674622	1176.434937	18749.029297	2205.379150	5.855392
550.020569	1176.583618	18533.773438	2187.323486	5.823177
550.366455	1181.933472	18367.929688	2177.589844	5.793417
550.712280	1172.868530	18366.591797	2189.552490	5.913111
551.058044	1171.159546	18426.181641	2193.490479	5.924831
551.403748	1176.360718	18552.052734	2209.019775	5.943125
551.749512	1180.447388	18729.931641	2209.391357	5.863101
552.095154	1181.413330	18914.351563	2210.431396	5.802863
552.440735	1172.571167	19006.708984	2209.762695	5.815764
552.786316	1166.329834	18944.148438	2209.911377	5.870133
553.131897	1168.707520	18724.880859	2207.608154	5.917580
553.477417	1173.239868	18449.738281	2184.500000	5.853386
553.822815	1177.252319	18063.437500	2155.150391	5.791113
554.168213	1166.552612	17741.484375	2129.070068	5.807067
554.513672	1159.791138	17434.835938	2100.983643	5.783041
554.859009	1158.602295	17226.341797	2084.488525	5.762393
555.204285	1172.794067	17023.570313	2064.426758	5.625167
555.549500	1174.874512	16864.935547	2060.934570	5.647270
555.894714	1168.187378	16678.285156	2060.786133	5.754952
556.239990	1161.797363	16573.742188	2071.782959	5.904418
556.585022	1169.822021	16429.816406	2078.024170	5.951524
556.930115	1180.744507	16362.871094	2070.965576	5.863612
557.275146	1176.583618	16218.723633	2056.030518	5.846555
557.620178	1167.964478	16150.364258	2039.609741	5.817795
557.965149	1164.620728	16072.867188	2041.913086	5.884612
558.310059	1163.952148	16054.959961	2033.293945	5.838032
558.654968	1169.970703	15979.022461	2022.148560	5.754439
558.999756	1163.209106	15946.551758	2016.947388	5.775002
559.344604	1168.113037	15949.229492	2019.919556	5.762803
559.689331	1167.667358	16017.585938	2030.619141	5.811155
560.033997	1165.661133	16073.983398	2026.309570	5.772940
560.378723	1166.181274	16145.907227	2042.210327	5.848098
560.723389	1158.082153	16197.844727	2038.272339	5.852421
561.067932	1161.128662	16272.592773	2044.365112	5.844810
561.412476	1166.478394	16261.968750	2034.854370	5.752553
561.757019	1174.057251	16224.890625	2036.117554	5.727658
562.101501	1179.852905	16120.346680	2029.875977	5.689391
562.445862	1176.063477	16029.401367	2020.365234	5.684256
562.790222	1171.456665	15970.700195	2014.792603	5.698507
563.134644	1175.171753	15989.871094	2011.894653	5.647923
563.478943	1170.862305	16053.698242	2019.919312	5.704941
563.823181	1175.320435	16168.941406	2029.875977	5.699461
564.167358	1168.781738	16382.562500	2039.535522	5.723454
564.511536	1169.302002	16687.873047	2049.937744	5.674722
564.855774	1166.627075	17044.226563	2058.854248	5.619409
565.199768	1170.044800	17382.750000	2080.550537	5.616001
565.543823	1170.564941	17677.509766	2098.977539	5.624375
565.887817	1175.617676	17872.109375	2120.154053	5.657094
566.231812	1177.549683	17878.201172	2121.788330	5.653903
566.575745	1177.846802	17733.533203	2114.506836	5.657634
566.919617	1176.360718	17539.009766	2093.924805	5.607674
567.263428	1169.450562	17256.138672	2072.897217	5.616113
567.607239	1170.119263	17044.597656	2059.076904	5.599917
567.950989	1164.546509	16813.515625	2059.745605	5.720499
568.294678	1173.017090	16711.425781	2051.869629	5.656001
568.638367	1171.085205	16626.943359	2047.337280	5.669385
568.981995	1173.388550	16609.111328	2034.334351	5.577619
569.325623	1173.165649	16662.013672	2033.962769	5.557528
569.669128	1176.137817	16784.912109	2025.417969	5.441043
570.012573	1180.744507	16938.568359	2032.030884	5.402309
570.356140	1172.125366	17173.736328	2049.417725	5.482525
570.699524	1164.769409	17389.214844	2077.726807	5.627048
571.042908	1160.088379	17723.130859	2107.819580	5.721963
571.386230	1165.363892	17917.804688	2118.965088	5.692312
571.729492	1172.571289	18071.982422	2116.141602	5.583451
572.072815	1168.930542	18053.779297	2098.680420	5.506415
572.416016	1165.438110	17968.033203	2089.392822	5.498881
572.759094	1161.277222	17787.107422	2083.076904	5.544383
573.102234	1164.620850	17588.271484	2079.361816	5.569657
573.445374	1167.518677	17414.253906	2081.219482	5.623904
573.788391	1165.363770	17302.875000	2082.333740	5.682227
574.131409	1158.899536	17244.025391	2078.321533	5.715976
574.474365	1157.264771	17158.876953	2068.142090	5.692410
574.817261	1162.168823	17063.990234	2056.996582	5.627203
575.160156	1173.239990	16868.054688	2052.464111	5.602004
575.502930	1172.274048	16635.857422	2033.070923	5.566607
575.845703	1177.623901	16358.635742	2021.108276	5.556180
576.188477	1180.521606	16050.502930	2008.179688	5.565966
576.531250	1180.075806	15734.122070	1986.706177	5.542310
576.873901	1175.543457	15413.803711	1966.644531	5.556164
577.216431	1168.930420	15123.352539	1940.787109	5.531270
577.559082	1165.735474	14827.256836	1925.035034	5.557943
577.901611	1157.710815	14561.327148	1904.378784	5.570646
578.244080	1159.419678	14285.143555	1883.871216	5.519327
578.586487	1167.593018	14090.172852	1881.865112	5.527318
578.928955	1202.886719	13888.589844	1901.778198	5.509284
579.271301	1198.279907	13712.715820	1905.270508	5.649401
579.613647	1190.626831	13510.834961	1887.734985	5.658250
579.955872	1161.648804	13348.112305	1852.441284	5.668523
580.298157	1165.958252	13251.742188	1829.333008	5.488884
580.640320	1174.948853	13206.343750	1833.791138	5.476026
580.982483	1175.766357	13147.570313	1829.258789	5.458596
581.324524	1179.109985	13085.453125	1830.521851	5.471133
581.666626	1183.642456	13002.381836	1822.199829	5.402923
582.008728	1183.493774	12953.266602	1811.797485	5.338283
582.350647	1181.710449	12900.586914	1809.419922	5.356396
582.692566	1175.691895	12827.250000	1807.487915	5.422416
583.034424	1169.524780	12726.792969	1814.621094	5.581737
583.376343	1160.608521	12641.196289	1818.262085	5.728396
583.718201	1160.162720	12606.200195	1815.884277	5.728808
584.059937	1165.735474	12565.112305	1814.843872	5.694244
584.401611	1167.221558	12537.023438	1805.927612	5.617566
584.743347	1166.775635	12511.686523	1810.162964	5.671154
585.085022	1168.707520	12491.252930	1798.051636	5.558327
585.426514	1178.738281	12442.362305	1789.581055	5.423146
585.768127	1176.657837	12440.504883	1784.231079	5.394012
586.109619	1172.645508	12446.820313	1787.277710	5.451683
586.451172	1164.769409	12461.235352	1796.565430	5.592865
586.792542	1160.162598	12490.288086	1800.949341	5.655602
587.133850	1165.066528	12529.296875	1804.069946	5.622936
587.475220	1168.410278	12607.463867	1804.069946	5.556925
587.816589	1172.125366	12665.270508	1795.302246	5.422161
588.157776	1165.512329	12789.504883	1798.868774	5.448700
588.498962	1167.295776	12917.602539	1796.713989	5.356611
588.840210	1165.586914	13002.753906	1806.224976	5.412089
589.181335	1171.976929	13007.583008	1807.265137	5.367602
589.522400	1175.097534	13004.461914	1814.026733	5.401213
589.863403	1178.143921	12966.344727	1812.168945	5.378471
590.204407	1181.636230	12926.593750	1805.556030	5.312236
590.545410	1175.914917	12833.789063	1805.407593	5.399721
590.886353	1178.218262	12736.972656	1808.305298	5.451168
591.227112	1167.221436	12633.617188	1808.899780	5.596164
591.567932	1165.661011	12560.875000	1804.664551	5.607648
591.908752	1163.209106	12501.433594	1789.432495	5.523117
592.249512	1169.673340	12527.512695	1789.878296	5.460589
592.590149	1168.930298	12497.570313	1784.231079	5.431374
592.930786	1174.948853	12590.968750	1789.135254	5.380040
593.271423	1179.184204	12670.471680	1794.262207	5.352560
593.612000	1181.710449	12811.647461	1800.577759	5.321330
593.952576	1177.995239	12937.515625	1810.014282	5.374531
594.292969	1172.794067	13067.026367	1808.676758	5.346143
594.633484	1175.468872	13279.010742	1816.850098	5.299120
594.973877	1172.571289	13491.515625	1820.268066	5.257730
595.314209	1180.521606	13752.764648	1830.150391	5.167167
595.654480	1179.109863	14078.731445	1845.828247	5.168511
595.994812	1175.023193	14397.788086	1868.713501	5.246182
596.335022	1167.964478	14677.684570	1890.261230	5.346497
596.675171	1163.803467	14730.588867	1900.291992	5.428615
597.015320	1169.227539	14635.406250	1896.799805	5.402960
597.355408	1168.112915	14330.096680	1882.905273	5.430734
597.695496	1164.026367	13921.804688	1857.791016	5.437974
598.035461	1158.453613	13433.487305	1832.379272	5.490214
598.375366	1152.212158	12998.518555	1799.017456	5.459974
598.715271	1161.054321	12639.709961	1774.497437	5.344207
599.055176	1167.964478	12328.084961	1754.435913	5.255064
599.395081	1175.766235	12112.383789	1753.841309	5.285685
599.734802	1172.348267	11919.047852	1740.318359	5.285066
600.074524	1169.376343	11877.290039	1740.689819	5.335432
600.414246	1169.970581	11830.924805	1733.408203	5.285058
600.753906	1171.679565	11859.531250	1753.395508	5.442777
601.093506	1175.543335	11894.973633	1753.618530	5.392779
601.433044	1175.171753	12025.747070	1764.169434	5.428262
601.772583	1180.521606	12255.713867	1758.225220	5.216195
602.112122	1184.088135	12533.531250	1769.073608	5.154310
602.451538	1182.007690	12883.793945	1775.612183	5.072768
602.790894	1171.828369	13235.840820	1798.794556	5.196995
603.130310	1162.763428	13639.378906	1820.862305	5.274659
603.469604	1161.277344	14018.026367	1849.394653	5.352188
603.808838	1175.989136	14353.949219	1858.682617	5.180570
604.148010	1180.893066	14620.398438	1874.360352	5.159916
604.487305	1176.955078	14704.434570	1885.505859	5.237863
604.826416	1161.277222	14624.410156	1890.038208	5.413012
605.165527	1153.326782	14306.171875	1871.165405	5.457668
605.504456	1154.367065	13906.051758	1843.598999	5.405026
605.843445	1158.899536	13453.695313	1811.574585	5.308547
606.182434	1161.054321	13052.164063	1790.621094	5.294433
606.521423	1167.221313	12672.106445	1772.565552	5.261628
606.860229	1170.193481	12336.257813	1765.655396	5.332782
607.199036	1173.611450	12104.209961	1761.346069	5.376966
607.537903	1172.199829	12049.523438	1751.909546	5.329525
607.876648	1169.450562	12142.328125	1755.847656	5.344059
608.215271	1166.329712	12341.161133	1759.934204	5.311977
608.553955	1161.871704	12538.583008	1771.822632	5.361400
608.892578	1160.385620	12703.760742	1789.581055	5.450706
609.231140	1157.116333	12810.235352	1790.918457	5.438905
609.569641	1162.911987	12815.734375	1796.342651	5.435856
609.908081	1165.215210	12737.566406	1785.940063	5.363861
610.246521	1173.314209	12533.753906	1787.351929	5.405053
610.584961	1165.958130	12243.899414	1773.011353	5.479838
610.923340	1162.094360	11926.254883	1755.401733	5.511878
611.261597	1164.992310	11567.002930	1731.253418	5.443766
611.599854	1172.571167	11311.473633	1711.934692	5.319743
611.938110	1181.933472	11068.503906	1699.080444	5.230803
612.276245	1177.475220	10879.032227	1690.981445	5.293029
612.614319	1171.531128	10679.306641	1679.092896	5.338386
612.952393	1164.918091	10521.785156	1672.256958	5.422102
613.290466	1167.221558	10432.770508	1658.065308	5.297514
613.628479	1168.484741	10300.661133	1654.721680	5.324436
613.966370	1174.651733	10233.045898	1647.811523	5.223440
614.304260	1174.800415	10123.522461	1646.102539	5.266698
614.642151	1180.373169	10058.657227	1642.758911	5.208053
614.979980	1183.270874	9987.326172	1632.133423	5.098361
615.317749	1174.874634	9981.084961	1627.006714	5.134242
615.655396	1176.212036	9949.655273	1620.468140	5.063646
615.993164	1166.329956	9927.289063	1622.474243	5.206557
616.330811	1167.593018	9874.831055	1624.480469	5.247214
616.668396	1164.546509	9867.698242	1630.870483	5.358105
617.005859	1166.701294	9879.215820	1631.316406	5.332733
617.343445	1175.543335	9906.930664	1628.418579	5.186750
617.680908	1171.828125	9956.862305	1629.904419	5.214280
618.018311	1172.125488	9955.153320	1623.068726	5.134257
618.355652	1168.856079	9961.840820	1624.628906	5.183369
618.692993	1175.246094	9927.364258	1616.901489	5.046268
619.030273	1176.657837	9883.748047	1621.508301	5.109060
619.367554	1174.948975	9809.816406	1617.941772	5.130279
619.704712	1168.113159	9749.631836	1614.895142	5.206328
620.041870	1164.174927	9730.758789	1613.929321	5.250102
620.379028	1170.416504	9699.329102	1601.000610	5.048523
620.716064	1169.822144	9688.182617	1601.075073	5.062628
621.053040	1171.456665	9653.780273	1602.264038	5.078884
621.389954	1165.735352	9640.851563	1617.867554	5.334820
621.726929	1168.781738	9613.286133	1619.279297	5.334802
622.063843	1172.868408	9588.393555	1620.765259	5.322268
622.400635	1169.376221	9572.938477	1615.192505	5.305087
622.737427	1171.159546	9569.818359	1615.341187	5.288721
623.074219	1163.580688	9593.744141	1618.090332	5.391469
623.410889	1169.153320	9651.032227	1623.514526	5.356846
623.747559	1170.490845	9727.118164	1620.690918	5.261420
624.084167	1168.484619	9796.888672	1619.947876	5.232291
624.420715	1164.695190	9883.375977	1618.387573	5.203681
624.757324	1157.562134	9984.874023	1626.932495	5.317252
625.093750	1166.106934	10127.609375	1630.722046	5.184567
625.430176	1168.558960	10308.387695	1641.718750	5.176900
625.766602	1173.388672	10482.924805	1646.251099	5.079334
626.102905	1171.679688	10660.731445	1646.250977	5.001251
626.439209	1176.063599	10767.058594	1662.003296	5.066624
626.775452	1172.645508	10842.104492	1672.628540	5.170744
627.111694	1172.794067	10791.281250	1684.368286	5.318655
627.447876	1171.085083	10710.663086	1669.953613	5.229461
627.783997	1172.422729	10558.491211	1662.671875	5.223157
628.120056	1170.267944	10420.807617	1649.000366	5.175183
628.456055	1165.512573	10214.766602	1641.421387	5.259095
628.792053	1163.283569	10033.319336	1634.288452	5.310067
629.128052	1159.716919	9882.188477	1634.659790	5.445049
629.463928	1153.029663	9784.851563	1630.498901	5.531500
629.799744	1156.893433	9701.409180	1615.861328	5.371491
630.135559	1160.831421	9617.967773	1608.951172	5.298717
630.471375	1170.936646	9498.117188	1607.465210	5.242213
630.807068	1171.679565	9389.932617	1621.954102	5.478957
631.142700	1171.456665	9319.196289	1618.759155	5.489897
631.478333	1169.078979	9267.925781	1616.084351	5.519371
631.813965	1165.809692	9231.815430	1607.539429	5.476437
632.149475	1160.608521	9180.324219	1599.737671	5.475620
632.484924	1160.459839	9217.327148	1606.647827	5.537984
632.820435	1158.825073	9223.493164	1590.078247	5.347439
633.155884	1164.992310	9248.682617	1590.375366	5.262239
633.491150	1161.945923	9255.889648	1583.985352	5.214262
633.826477	1163.060425	9267.778320	1598.994629	5.378771
634.161804	1158.453735	9273.574219	1604.418579	5.495480
634.497009	1166.032593	9198.454102	1596.022461	5.353179
634.832153	1175.766235	9117.612305	1583.911133	5.139169
635.167297	1178.738281	9004.078125	1579.081421	5.115984
635.502380	1164.472168	8918.184570	1575.663574	5.303155
635.837463	1163.283325	8832.661133	1573.583008	5.349843
636.172424	1166.181274	8762.222656	1564.666626	5.245961
636.507324	1181.116089	8675.958008	1563.775024	5.105630
636.842224	1177.846802	8597.123047	1564.889648	5.216720
637.177124	1176.806519	8513.383789	1565.112427	5.292739
637.511963	1175.097534	8455.055664	1560.282715	5.291036
637.846741	1171.382446	8393.458008	1555.155884	5.313894
638.181396	1176.286499	8322.500000	1551.515137	5.250734
638.516113	1176.732300	8267.367188	1546.908325	5.220633
638.850769	1182.825073	8212.085938	1543.936157	5.137256
639.185303	1177.400879	8151.083496	1544.233398	5.260241
639.519836	1178.441162	8078.563965	1536.431641	5.188175
639.854370	1174.280151	8033.387207	1530.338867	5.191036
640.188843	1169.970703	7974.093750	1520.530884	5.152173
640.523254	1156.150269	7923.270020	1522.462891	5.413125
640.857605	1159.865356	7847.556152	1529.744507	5.530746
641.191895	1164.026489	7814.342285	1531.824829	5.530540
641.526184	1172.942749	7775.185547	1530.710449	5.418881
641.860413	1168.558960	7728.077637	1520.530884	5.365819
642.194580	1162.243164	7693.377441	1522.537109	5.516560
642.528748	1164.249390	7664.028809	1517.558716	5.435713
642.862793	1160.534180	7656.078125	1534.351196	5.754976
643.196838	1169.153442	7630.889160	1535.763062	5.673547
643.530823	1164.175171	7599.607910	1542.227173	5.874539
643.864746	1171.605225	7577.391113	1521.050903	5.455157
644.198669	1169.524780	7552.276855	1523.651733	5.548186
644.532532	1172.719849	7516.091309	1522.982910	5.521718
644.866333	1174.428833	7502.494141	1535.168579	5.700633
645.200073	1181.413208	7487.931152	1524.617554	5.442058
645.533813	1180.670166	7539.199707	1514.140991	5.244465
645.867554	1182.304810	7578.060059	1511.837402	5.152364
646.201172	1175.989136	7621.824707	1515.701172	5.270256
646.534729	1180.744629	7638.691406	1533.088013	5.455966
646.868225	1173.908691	7647.310059	1529.818726	5.498037
647.201782	1172.496948	7643.892578	1524.914673	5.445776
647.535217	1167.370117	7628.214844	1520.307983	5.462720
647.868591	1175.840454	7613.947754	1516.592896	5.292742
648.201965	1171.828125	7589.874512	1518.747559	5.405375
648.535278	1174.428711	7558.740723	1520.010742	5.412988
648.868591	1173.091309	7547.596191	1523.428711	5.495915
649.201782	1183.642334	7545.738281	1529.521484	5.436560
649.534912	1185.202759	7564.313965	1524.171753	5.313734
649.868103	1177.623901	7554.283203	1525.954956	5.462595
650.201172	1168.187378	7564.686035	1530.041626	5.657068
650.534180	1168.038696	7561.416504	1534.128296	5.726075
650.867188	1169.078979	7569.738281	1533.979858	5.700989
651.200134	1169.821899	7576.500000	1527.589722	5.584295
651.533020	1169.821899	7555.769531	1526.549438	5.586133
651.865845	1173.314209	7511.187500	1527.664063	5.590990
652.198608	1171.085205	7466.234375	1526.772461	5.650180
652.531433	1169.896362	7417.640625	1529.595825	5.757269
652.864136	1174.503052	7381.752441	1526.920898	5.677520
653.196777	1239.369507	7396.019043	1666.833008	6.943119
653.529358	1242.415894	7343.783691	1674.783325	7.086402
653.861938	1233.796753	7292.366699	1673.668945	7.260331
654.194519	1166.924316	7157.506348	1532.345093	6.099921
654.526978	1166.552856	7156.466797	1518.004517	5.867391
654.859375	1166.329834	7122.287109	1517.410156	5.894608
655.191833	1176.063477	7140.416504	1527.738281	5.896277
655.524170	1174.131592	7100.665527	1530.264648	6.009129
655.856445	1177.400879	7124.664551	1532.047852	5.963196
656.188660	1181.561890	7141.308594	1530.636108	5.857199
656.520874	1179.778564	7192.131348	1531.899048	5.856617
656.853088	1172.719849	7247.710449	1546.536743	6.153374
657.185181	1168.335938	7310.049316	1547.279907	6.170004
657.517212	1169.376099	7444.686035	1560.134277	6.226914
657.849243	1172.496826	7596.486816	1556.418945	5.976381
658.181274	1170.787964	7800.820313	1567.118652	5.977809
658.513123	1174.428711	7973.277344	1581.236206	5.983476
658.844971	1179.704346	8145.436035	1592.678833	5.928659
659.176819	1179.555664	8236.605469	1606.647827	6.051993
659.508667	1172.274048	8264.543945	1606.127563	6.117273
659.840393	1170.416382	8238.537109	1612.814819	6.259068
660.172058	1171.010864	8164.383301	1606.424927	6.226096
660.503662	1179.184204	8039.852051	1602.115234	6.164575
660.835266	1176.880737	7866.280762	1591.267090	6.194672
661.166931	1174.800293	7688.474121	1584.208496	6.285366
661.498413	1168.261719	7512.525391	1583.465454	6.544554
661.829773	1167.518677	7354.558105	1577.075195	6.619588
662.161194	1172.496948	7200.825684	1568.456177	6.568309
662.492615	1170.862305	7070.795410	1556.567749	6.537455
662.823975	1166.626953	6960.976563	1553.967163	6.684792
663.155212	1166.552612	6871.738281	1555.378906	6.815314
663.486450	1169.970581	6791.045410	1545.496582	6.680680
663.817627	1170.193481	6709.387207	1535.614258	6.597003
664.148743	1160.682739	6655.963379	1529.967285	6.720031
664.479858	1152.212280	6584.707031	1529.818726	6.950885
664.810913	1158.007935	6561.524902	1541.112793	7.089917
665.141907	1165.586792	6528.980469	1535.020020	6.888050
665.472778	1176.063477	6540.274902	1536.060181	6.711083
665.803711	1174.726074	6516.869141	1529.372925	6.638662
666.134583	1176.212036	6507.804199	1530.115845	6.637863
666.465454	1181.487671	6499.185059	1524.617554	6.452603
666.796143	1188.397705	6474.813965	1519.713501	6.267304
667.126831	1185.871460	6457.501465	1515.255371	6.248237
667.457458	1182.304810	6444.869629	1517.558716	6.370542
667.788147	1178.366821	6490.714355	1524.097290	6.508054
668.118774	1175.320435	6536.633301	1539.626587	6.795092
668.449219	1161.425781	6564.794434	1553.818481	7.262001
668.779663	1161.054199	6560.113281	1550.920776	7.221010
669.110107	1160.905640	6542.429688	1542.673218	7.094042
669.440552	1168.781738	6539.828613	1539.701050	6.905903
669.770874	1167.518677	6520.361328	1551.886719	7.180634
670.101135	1177.326538	6489.228027	1557.087769	7.149252
670.431396	1182.601929	6426.219238	1554.635742	7.094984
670.761597	1184.310913	6367.743652	1551.960938	7.092791
671.091797	1177.103638	6309.192871	1550.251953	7.270885
671.421875	1172.719849	6284.003906	1542.821777	7.240880
671.751892	1174.205933	6265.576660	1542.227173	7.228333
672.081909	1178.366821	6243.880371	1545.422241	7.246164
672.411865	1181.190430	6228.797363	1556.641968	7.438209
672.741821	1175.469116	6179.979980	1551.292358	7.509690
673.071716	1176.286499	6182.654785	1546.388306	7.392621
673.401550	1179.332886	6126.779785	1543.341797	7.357511
673.731262	1180.298828	6114.519531	1547.502808	7.441985
674.060974	1176.360718	6071.274902	1550.772095	7.648988
674.390625	1170.862305	6044.154785	1548.691772	7.753064
674.720276	1172.199707	6010.197754	1550.400513	7.817300
675.049927	1170.862305	5969.480469	1547.948608	7.858227
675.379395	1166.255493	5970.075684	1546.091187	7.906950
675.708923	1167.295776	5952.911621	1545.199341	7.896655
676.038330	1166.775513	5952.762207	1553.669922	8.083900
676.367737	1175.097534	5952.911621	1558.499512	8.024632
676.697083	1176.657959	5977.431152	1565.632690	8.102335
677.026428	1177.995361	5999.944824	1560.580078	7.934234
677.355652	1178.218262	6021.714844	1568.679077	8.061548
677.684875	1181.710571	6054.408203	1571.353882	7.996459
678.013977	1185.276978	6083.238281	1580.641724	8.072026
678.343079	1183.419434	6131.088379	1586.363281	8.144115
678.672180	1181.116089	6184.437988	1587.626343	8.124807
679.001221	1178.812622	6255.546387	1587.997925	8.060011
679.330139	1178.812622	6320.040527	1597.805664	8.149669
679.659058	1174.280151	6371.310059	1609.545532	8.375272
679.987976	1175.617676	6442.416504	1628.641235	8.601498
680.316772	1175.171753	6491.605469	1629.607300	8.547751
680.645630	1171.382446	6521.252441	1625.892090	8.495713
680.974304	1171.605347	6492.497559	1623.217163	8.487520
681.302979	1170.119141	6448.361816	1626.337891	8.643383
681.631653	1173.908691	6411.433594	1634.436890	8.792859
681.960266	1169.970703	6378.220215	1635.105591	8.930734
682.288757	1170.119263	6327.768066	1633.322388	8.980897
682.617249	1169.524902	6237.861816	1626.263672	9.011610
682.945679	1176.955078	6132.128906	1620.690918	8.955001
683.274109	1177.400879	6036.799316	1620.468140	9.117739
683.602478	1180.372925	5948.081543	1613.111938	9.076457
683.930725	1174.428833	5886.484375	1606.796265	9.175771
684.259033	1181.041748	5809.506348	1592.976074	8.900021
684.587280	1178.218262	5756.900391	1589.855103	8.990291
684.915344	1177.400879	5703.922363	1584.356812	8.990479
685.243469	1173.091309	5662.907715	1587.551880	9.231125
685.571533	1172.422729	5644.406250	1591.341431	9.367626
685.899536	1175.617676	5591.502441	1597.731445	9.558985
686.227539	1175.394775	5580.134277	1595.725220	9.542686
686.555420	1181.190308	5569.880859	1603.155640	9.614835
686.883301	1179.035522	5597.595703	1603.006836	9.595237
687.211121	1175.097534	5626.053223	1599.366089	9.532078
687.538940	1168.038818	5649.532715	1605.087402	9.752296
687.866638	1161.945923	5652.728027	1615.786987	10.106058
688.194336	1166.478516	5652.356934	1626.635132	10.257894
688.521973	1171.976807	5624.716309	1615.861328	9.968797
688.849609	1173.834351	5580.802734	1610.957397	9.918906
689.177063	1173.091187	5520.097656	1610.883179	10.071115
689.504578	1169.821899	5437.621582	1617.050171	10.479130
689.832031	1176.509155	5366.142578	1611.774536	10.389105
690.159485	1177.252197	5311.084473	1611.477417	10.504182
690.486816	1182.899292	5283.889648	1612.443359	10.474154
690.814087	1186.020020	5244.880371	1610.808594	10.465711
691.141296	1190.998291	5189.822266	1601.892212	10.275369
691.468506	1183.493774	5147.172363	1588.963501	10.229631
691.795715	1176.955200	5110.020996	1582.499390	10.311147
692.122803	1175.394775	5060.163574	1583.836914	10.513937
692.449829	1181.561890	5016.399902	1582.870972	10.464826
692.776855	1181.710449	5010.975586	1585.322876	10.540206
693.103821	1173.685791	4980.511230	1583.911133	10.776048
693.430664	1163.952026	4961.563965	1589.261108	11.199383
693.757568	1163.432007	4941.502441	1589.855469	11.286806
694.084351	1163.208984	4946.629395	1587.403320	11.211927
694.411133	1170.787964	4934.443848	1591.341309	11.174065
694.737854	1173.239868	4915.199219	1597.211304	11.330198
695.064575	1180.447266	4922.406738	1611.328735	11.514862
695.391174	1177.921021	4930.431152	1616.232788	11.680495
695.717773	1179.852905	4945.737793	1620.616577	11.704120
696.044250	1173.091309	4959.483887	1625.074829	11.937049
696.370789	1178.366821	5010.381348	1630.350464	11.794935
696.697205	1169.301880	5092.782715	1641.198608	12.027501
697.023621	1177.029297	5224.744629	1659.179810	11.911671
697.349915	1171.902466	5370.897949	1673.223145	11.939062
697.676208	1171.010864	5535.329590	1692.318970	11.944776
698.002380	1163.952148	5710.535156	1720.702515	12.245468
698.328674	1164.992310	5890.720215	1756.070435	12.507663
698.654724	1169.227539	6055.968750	1786.237427	12.626204
698.980896	1168.558716	6146.543457	1803.029907	12.745543
699.306946	1168.781738	6182.060547	1814.323853	12.876645
699.632935	1174.354492	6126.259277	1814.695313	12.931202
699.958862	1180.298706	6017.777344	1796.491211	12.737886
700.284729	1182.825073	5836.924316	1762.237671	12.449512
700.610596	1179.555664	5632.071777	1731.624878	12.399039
700.936340	1176.212036	5439.776367	1712.380493	12.575592
701.262146	1174.131592	5242.948730	1703.910034	13.020453
701.587830	1184.534058	5095.755371	1694.473511	13.037858
701.913513	1182.825073	4954.431641	1679.241577	13.161938
702.239075	1182.379272	4851.225098	1661.334595	13.054660
702.564697	1164.472290	4760.872559	1645.210938	13.367217
702.890137	1156.893433	4671.561035	1639.043823	13.718236
703.215698	1158.156616	4609.518066	1637.334839	13.883745
703.541016	1163.357788	4528.973633	1636.071655	14.045390
703.866455	1169.227661	4490.708008	1632.282227	13.941210
704.191711	1165.884155	4442.410645	1631.316040	14.205040
704.517029	1163.506470	4427.253418	1626.486450	14.185534
704.842163	1166.775757	4393.965820	1626.337891	14.240318
705.167419	1165.958374	4375.092773	1625.000488	14.304235
705.492493	1166.775757	4341.433594	1628.938477	14.557876
705.817566	1158.899536	4311.860840	1625.297729	14.792385
706.142578	1160.014160	4297.074707	1618.759155	14.623403
706.467590	1164.472168	4315.873535	1610.882813	14.165464
706.792480	1171.159546	4324.938965	1608.728149	13.874420
707.117371	1173.016968	4346.783691	1617.718750	14.011799
707.442200	1170.936523	4340.690918	1633.768188	14.601500
707.766907	1171.828247	4358.449219	1637.929199	14.626808
708.091675	1168.930420	4364.318848	1647.440063	14.975007
708.416321	1163.209106	4376.430176	1646.399780	15.037579
708.741028	1162.763184	4404.814453	1654.944458	15.181169
709.065552	1170.267822	4420.566406	1654.647339	14.902616
709.390137	1180.670288	4445.086426	1663.266479	14.783538
709.714600	1178.292358	4455.116699	1669.805176	14.999670
710.039063	1168.261597	4478.373535	1676.789551	15.362864
710.363403	1163.729248	4497.766113	1687.563477	15.711711
710.687744	1173.017090	4534.249512	1713.346558	16.075338
711.012085	1178.886841	4572.366699	1724.120483	16.067095
711.336304	1180.001465	4615.759277	1730.139038	16.012117
711.660461	1172.125366	4627.722168	1727.389648	16.068550
711.984619	1170.490845	4630.248535	1728.875610	16.139418
712.308716	1170.713745	4603.425293	1724.120239	16.121555
712.632751	1169.376343	4561.592773	1716.095703	16.116879
712.956726	1179.555786	4499.772949	1711.637573	16.025511
713.280701	1185.351440	4454.596680	1713.866577	16.166275
713.604553	1181.413452	4414.547852	1707.996582	16.287079
713.928467	1162.911987	4390.324707	1705.321777	16.806335
714.252258	1157.339233	4376.876465	1699.377563	16.835909
714.575989	1169.599121	4357.260254	1697.148438	16.549730
714.899719	1180.521606	4352.282227	1697.074219	16.285990
715.223267	1180.521606	4336.232910	1699.154663	16.434742
715.546936	1174.874634	4352.950684	1703.687134	16.639391
715.870422	1174.057251	4370.486328	1714.535156	16.908802
716.193970	1171.828247	4379.550781	1717.061523	16.997519
716.517395	1172.051147	4360.009277	1724.863159	17.340630
716.840820	1169.524780	4317.582520	1722.411255	17.562780
717.164124	1167.890137	4248.853027	1718.473267	17.870489
717.487488	1162.317505	4179.379395	1708.888306	18.115995
717.810730	1158.825195	4102.922363	1700.120605	18.385786
718.133972	1163.357788	4050.984375	1690.015259	18.238420
718.457092	1162.614746	4004.544922	1678.721313	18.160423
718.780212	1170.936646	3960.112061	1665.272583	17.723373
719.103210	1175.840698	3908.917236	1661.854858	17.782675
719.426208	1185.276978	3851.555908	1647.365723	17.330849
719.749207	1184.533936	3799.841064	1652.269653	17.884542
720.072083	1177.103638	3770.788818	1649.148926	18.199793
720.394958	1168.633179	3748.720947	1663.043457	19.162537
720.717773	1170.639404	3728.807861	1656.950562	19.010130
721.040527	1165.958374	3704.956299	1651.526489	19.124399
721.363281	1168.113159	3682.665283	1644.022095	18.926189
721.685913	1162.986206	3652.201172	1640.901367	19.199434
722.008545	1164.323608	3616.164795	1637.854858	19.313292
722.331055	1167.890259	3592.610596	1634.362671	19.238195
722.653503	1169.079102	3589.044189	1633.545410	19.193100
722.976013	1168.558960	3592.833740	1635.923218	19.278517
723.298401	1163.060547	3595.508789	1631.984985	19.277880
723.620789	1155.407227	3581.019531	1632.505005	19.669168
723.943115	1154.961548	3575.000977	1639.043823	20.003073
724.265381	1159.939819	3573.589111	1648.405884	20.237656
724.587585	1168.038818	3582.282471	1651.749512	20.035704
724.909790	1176.955200	3582.208252	1659.328491	20.054993
725.231873	1168.707520	3578.939209	1669.359375	20.771938
725.553894	1170.787964	3589.266846	1672.405640	20.741039
725.875916	1200.954956	3656.659912	1717.953125	21.052942
726.197937	1206.453247	3688.981445	1720.776733	20.717730
726.519775	1208.385132	3689.798828	1732.293579	21.113306
726.841675	1172.199585	3662.158447	1692.244507	20.885683
727.163513	1177.177856	3673.823486	1692.244507	20.630348
727.485291	1167.741577	3707.408447	1696.999878	20.839674
727.806946	1171.828125	3740.398682	1705.619019	20.781633
728.128662	1170.193604	3752.213135	1722.782837	21.401436
728.450256	1174.726074	3784.832031	1725.754883	21.111359
728.771790	1173.611450	3771.531982	1724.268921	21.196087
729.093323	1166.998535	3769.079834	1719.142090	21.219305
729.414795	1166.701294	3733.117188	1719.736450	21.548929
729.736145	1166.329712	3714.615967	1724.789063	21.915096
730.057495	1177.921021	3713.649658	1724.640259	21.560638
730.378845	1180.744385	3727.098389	1727.315430	21.464849
730.700134	1184.385254	3732.076904	1738.237793	21.739388
731.021301	1179.184082	3735.494873	1754.510132	22.506107
731.342468	1170.193604	3761.203857	1771.525391	23.208391
731.663574	1161.425781	3793.525635	1766.547241	22.990065
731.984680	1154.441406	3810.169189	1763.946655	22.950592
732.305664	1162.168823	3798.726807	1756.590454	22.545364
732.626648	1169.524780	3792.485352	1769.519165	22.874702
732.947571	1170.267822	3795.977539	1774.794800	23.023375
733.268433	1173.314331	3797.760498	1787.277710	23.394016
733.589233	1171.456665	3790.701904	1780.516235	23.253248
733.909973	1177.698120	3753.699219	1768.924927	22.951342
734.230713	1180.075806	3705.476807	1762.832031	23.075790
734.551331	1175.097534	3651.309814	1760.825806	23.654202
734.871948	1172.645508	3605.911133	1757.853882	24.050329
735.192505	1161.797241	3579.310547	1742.250122	24.010330
735.513062	1167.369995	3538.889893	1728.430054	23.658247
735.833435	1171.456787	3514.147217	1721.296875	23.470455
736.153931	1173.760132	3476.995850	1710.374390	23.298277
736.474304	1175.097534	3458.865967	1709.557007	23.402523
736.794617	1179.184204	3435.237549	1713.197876	23.670259
737.114807	1178.515503	3432.562500	1715.575562	23.826481
737.434998	1173.537109	3425.206787	1714.089478	24.006735
737.755188	1160.459961	3439.621826	1714.981079	24.330046
738.075256	1162.391724	3450.024170	1730.510376	24.834351
738.395325	1163.357788	3474.395264	1736.380249	24.795031
738.715271	1170.787964	3485.614990	1741.358521	24.648518
739.035278	1166.849976	3498.394775	1744.107788	24.758596
739.355164	1163.803467	3504.041748	1751.760864	25.123827
739.675049	1167.444336	3489.330078	1754.064331	25.264809
739.994873	1166.924194	3465.924805	1747.897095	25.270674
740.314636	1171.382446	3423.646484	1743.290405	25.392580
740.634277	1171.976929	3404.104736	1730.064575	25.002493
740.953979	1177.326660	3361.751953	1716.690063	24.691319
741.273499	1175.989136	3338.049561	1707.253540	24.572134
741.593140	1171.753906	3301.864258	1704.355835	25.003490
741.912598	1170.565063	3277.121338	1702.423828	25.247786
742.232117	1181.859009	3238.484131	1701.829468	25.282707
742.551453	1180.521606	3201.406982	1702.572388	25.832775
742.870850	1182.602173	3170.051025	1696.851074	25.874825
743.190063	1177.103638	3156.528076	1684.071167	25.611866
743.509338	1185.054077	3154.447510	1673.817383	24.817961
743.828552	1183.270874	3141.890625	1673.371704	25.022766
744.147705	1178.441040	3119.748291	1676.863770	25.674593
744.466797	1171.679688	3082.225586	1681.396362	26.679111
744.785828	1175.766357	3076.132813	1681.396118	26.606960
745.104858	1175.617676	3066.399170	1682.733765	26.820450
745.423706	1178.218262	3053.098877	1675.972168	26.548565
745.742615	1174.131714	3033.928711	1672.925781	26.819813
746.061401	1178.515503	3043.216553	1665.495483	26.115713
746.380249	1178.515503	3056.368164	1671.514038	26.253313
746.698975	1181.710571	3057.036865	1677.012329	26.411497
747.017639	1176.435059	3046.708984	1687.340454	27.317142
747.336304	1167.815796	3052.132813	1680.876099	27.227919
747.654907	1166.701294	3054.807861	1676.492188	27.000113
747.973389	1166.255493	3053.469971	1667.204468	26.544359
748.291931	1166.998535	3040.095703	1679.315796	27.351345
748.610352	1170.267944	3035.934814	1689.049438	27.806759
748.928711	1180.373047	3041.804688	1697.520020	27.782217
749.247070	1190.181030	3049.606445	1699.080444	27.368639
749.565308	1187.134521	3046.337158	1698.263062	27.491814
749.883545	1176.360718	3038.684326	1698.857422	28.056171
750.201782	1173.314331	3011.415039	1693.061890	28.276337
750.519836	1165.586792	3001.681641	1695.067993	28.837357
750.837952	1164.918091	2983.923096	1698.188599	29.316605
751.155884	1158.528076	2983.031250	1699.971802	29.676228
751.473877	1160.088501	2975.526611	1693.284668	29.370110
751.791809	1167.815918	2968.690674	1691.204102	29.062998
752.109619	1164.695190	2977.458740	1689.718262	28.962580
752.427490	1167.592896	2972.628906	1686.225952	28.732559
752.745300	1169.227661	2973.372070	1691.204224	28.932083
753.062988	1176.806519	2965.941650	1698.485840	29.158184
753.380615	1181.264648	2971.960205	1709.779907	29.514523
753.698303	1171.530884	2969.879639	1716.169922	30.285507
754.015808	1178.292603	2964.901367	1714.312500	30.002087
754.333374	1175.840576	2956.654053	1706.436157	29.795124
754.650757	1177.995483	2959.923096	1697.891235	29.176031
754.968262	1165.438232	2964.530029	1695.290649	29.451105
755.285583	1165.958252	2966.758789	1703.910034	29.872925
755.602905	1163.877808	2959.551514	1714.386719	30.657515
755.920105	1166.329712	2950.858154	1711.786133	30.565857
756.237305	1162.614624	2942.908203	1710.522949	30.776291
756.554443	1165.363892	2938.152588	1696.182617	29.942583
756.871582	1171.382324	2942.313232	1700.120605	29.856516
757.188599	1176.360596	2955.761963	1708.368164	29.898121
757.505615	1179.407104	2970.771484	1717.210327	30.021990
757.822510	1171.679565	2989.718750	1729.395874	30.676804
758.139465	1172.199707	3002.498779	1741.284180	31.092430
758.456238	1162.391724	3022.634766	1752.875488	31.742290
758.773010	1169.078979	3041.879150	1765.284058	31.834955
759.089783	1165.140991	3065.135742	1768.107544	31.735168
759.406433	1169.970581	3091.513428	1782.447876	31.874247
759.723145	1166.701294	3100.801514	1781.779297	31.801765
760.039673	1170.045044	3113.209717	1785.197144	31.657230
760.356201	1171.085327	3113.432861	1785.197266	31.616995
760.672668	1171.010986	3105.927979	1782.893921	31.623213
760.989136	1167.815918	3096.417236	1777.246704	31.599625
761.305481	1167.964478	3098.943604	1777.989868	31.591507
761.621826	1167.815918	3105.110596	1792.181641	32.228745
761.938049	1169.079102	3118.114014	1806.967896	32.728443
762.254333	1171.902466	3143.599609	1820.713867	32.906239
762.570496	1172.868530	3214.558594	1839.363892	32.644299
762.886597	1176.880737	3339.758545	1876.960938	32.367992
763.202637	1180.372925	3519.348389	1927.338257	31.935575
763.518677	1176.657837	3741.364990	2004.910156	32.294228
763.834656	1171.902466	3938.490234	2088.426514	33.128319
764.150574	1161.425903	4061.461670	2142.667725	33.835510
764.466370	1164.175049	4083.083252	2156.933838	34.011307
764.782288	1162.911987	4022.006592	2121.491455	33.527378
765.097961	1162.911865	3901.487305	2081.219238	33.532303
765.413696	1158.082153	3735.049072	2012.043335	33.138229
765.729309	1160.162720	3553.378906	1971.845703	33.915989
766.044861	1169.153320	3403.733398	1919.165039	33.563877
766.360474	1177.921021	3298.520752	1894.496460	33.791172
766.675903	1179.184204	3220.205811	1849.617676	32.847935
766.991394	1176.137817	3151.401367	1834.831421	33.347126
767.306763	1170.936523	3089.581299	1816.478638	33.645733
767.622131	1166.626953	3052.355469	1812.243286	34.236973
767.937378	1167.221558	3004.133057	1796.713989	34.269066
768.252625	1172.794067	2969.731201	1786.831665	34.171345
768.567810	1174.874634	2933.991211	1771.822632	33.934532
768.882996	1175.766235	2900.778076	1761.940430	33.980881
769.197998	1175.543457	2869.496826	1753.098511	34.095097
769.513062	1179.778687	2836.952148	1755.847656	34.762142
769.828064	1180.447388	2812.952393	1747.748657	34.750355
770.142944	1175.097534	2790.884766	1744.256348	35.224861
770.457825	1165.661011	2772.977783	1733.556763	35.331913
770.772705	1152.806763	2762.203857	1732.665039	36.029533
771.087402	1152.806763	2749.646484	1721.073853	35.586983
771.402100	1159.048218	2742.216064	1713.866577	35.044823
771.716736	1164.917969	2725.126709	1712.231934	35.079536
772.031372	1167.221436	2701.126709	1716.690063	35.821548
772.345947	1164.769409	2678.464600	1711.563110	36.123104
772.660461	1173.314209	2664.792725	1703.018433	35.515377
772.974854	1168.113037	2645.771240	1694.547852	35.626289
773.289246	1173.834351	2621.771729	1691.352905	35.741776
773.603638	1168.113159	2603.790283	1690.312622	36.373043
773.917908	1170.862183	2602.452881	1685.037109	35.916336
774.232178	1172.645508	2596.656982	1675.600586	35.319595
774.546265	1176.509155	2593.610596	1667.724609	34.663395
774.860474	1182.899170	2581.870850	1664.678223	34.438084
775.174561	1181.190308	2584.620117	1665.644165	34.519279
775.488586	1182.750610	2576.595459	1667.056030	34.746006
775.802551	1174.354492	2571.320068	1665.346802	35.147060
776.116516	1165.512451	2557.128174	1665.346802	35.917557
776.430359	1159.270996	2560.471436	1661.483032	35.841557
776.744202	1164.546509	2550.812256	1659.625610	35.713146
777.057922	1166.181152	2532.236572	1652.864136	35.626884
777.371704	1175.023315	2510.168945	1651.378052	35.678112
777.685303	1172.571289	2510.317383	1654.870117	36.053093
777.998962	1175.171875	2512.695068	1665.049683	36.625744
778.312500	1167.147095	2515.667236	1662.449097	36.729298
778.626038	1171.085205	2506.825195	1657.990845	36.452126
778.939453	1167.592896	2505.859375	1651.526733	36.161247
779.252869	1167.369995	2496.199951	1661.706055	37.200851
779.566223	1164.843750	2497.017334	1666.312866	37.642925
779.879578	1162.391724	2500.880859	1665.346802	37.576328
780.192749	1162.540405	2504.595947	1658.956909	36.989265
780.505920	1161.202881	2505.859131	1654.350098	36.674595
780.819031	1164.992310	2499.840576	1658.213867	36.949635
781.132141	1170.119141	2487.803711	1657.173462	36.962891
781.445190	1172.051147	2472.943115	1655.910522	37.194431
781.758118	1172.868408	2453.104248	1650.263306	37.289604
782.071045	1169.227539	2437.723389	1651.600952	38.027195
782.383911	1172.868408	2421.376709	1650.783569	38.278893
782.696838	1173.314331	2410.157227	1649.445923	38.495720
783.009583	1165.512451	2410.974365	1635.997192	37.775925
783.322266	1162.763184	2402.281250	1618.907593	36.800140
783.634888	1162.243164	2390.243896	1607.762329	36.280041
783.947510	1171.233765	2375.754883	1612.517700	36.635632
784.260132	1171.679565	2367.358643	1613.557983	36.956272
784.572571	1168.484497	2373.229004	1622.177124	37.658825
784.885010	1163.283325	2367.061768	1622.474243	38.145802
785.197449	1162.020142	2361.934814	1629.235840	38.937408
785.509766	1164.472168	2356.956543	1629.384399	38.986862
785.822083	1163.803589	2356.064941	1630.944702	39.181099
786.134277	1173.017090	2354.950439	1632.282227	38.857109
786.446533	1174.354492	2348.857666	1630.424438	38.830883
786.758606	1182.899292	2349.229248	1622.697266	37.707851
787.070740	1178.366821	2356.882324	1628.195679	38.169109
787.382690	1173.314331	2366.095947	1640.529663	39.170231
787.694641	1167.815918	2392.696289	1654.127319	39.702766
788.006653	1161.723022	2421.154053	1672.851440	40.584072
788.318481	1166.701294	2458.008545	1686.448853	40.249722
788.630310	1171.605347	2487.580811	1693.507813	39.658981
788.942017	1171.531006	2511.877930	1696.479858	39.165146
789.253784	1171.531128	2522.726074	1695.291016	38.762718
789.565430	1168.410278	2516.558838	1693.582031	38.955036
789.877014	1172.496948	2496.125732	1677.086792	38.121704
790.188538	1173.834351	2463.952393	1662.820679	37.902447
790.500061	1173.611450	2426.726807	1650.783569	38.078865
790.811462	1170.639282	2398.566162	1642.387329	38.418251
791.122925	1168.558960	2378.281494	1627.155273	37.909214
791.434204	1169.747803	2358.516846	1629.161499	38.646168
791.745483	1172.274048	2348.783203	1623.291504	38.335228
792.056702	1172.274048	2324.635010	1622.177124	39.041855
792.367920	1168.856079	2307.916748	1612.369141	38.936737
792.678955	1161.425781	2288.969482	1612.071777	39.967052
792.990112	1166.181152	2285.254639	1609.545532	39.618881
793.301086	1173.834351	2275.297852	1607.242188	39.348362
793.612122	1183.047852	2273.514893	1603.749878	38.579987
793.922974	1181.636230	2262.740967	1606.944946	39.340195
794.233826	1171.159546	2262.443604	1599.737671	39.272831
794.544556	1171.902466	2259.471436	1608.282349	40.124340
794.855286	1166.849854	2267.644775	1603.229614	39.642239
795.166016	1173.091187	2281.019287	1610.065552	39.440678
795.476624	1162.688965	2300.412109	1608.579590	39.191486
795.787292	1162.020386	2314.975586	1619.204712	39.653259
796.097778	1162.243164	2328.052734	1631.464844	40.248569
796.408264	1169.747681	2336.894775	1644.690552	40.692631
796.718689	1166.626953	2362.900879	1648.851563	40.310551
797.029053	1173.685669	2374.046143	1642.610229	39.065311
797.339355	1171.902466	2370.108154	1631.984985	38.397625
797.649658	1185.054199	2351.458252	1634.734253	38.552681
797.959839	1180.298706	2329.167236	1644.542114	40.408749
798.270020	1177.995239	2317.724854	1649.148926	41.339077
798.580078	1170.639282	2305.910400	1645.805298	41.854851
798.890137	1164.026367	2288.449463	1639.340820	42.271851
799.200195	1162.466064	2273.737305	1637.409180	42.738720
799.510071	1168.633179	2257.614014	1623.142944	41.737167
799.820007	1171.233765	2250.926514	1617.941772	41.373623
800.129883	1170.639526	2236.586182	1610.065552	41.224018
800.439575	1164.249390	2216.821533	1617.570313	43.067921
800.749329	1164.695190	2207.013672	1616.084106	43.306236
801.058960	1162.986206	2195.868164	1606.647827	42.953758
801.368591	1158.899536	2199.732178	1596.839844	42.075958
801.678162	1158.305176	2200.177734	1589.409546	41.377842
801.987671	1164.472290	2195.645508	1589.855347	41.252338
802.297119	1161.277222	2187.769287	1589.781128	41.744492
802.606506	1159.270996	2177.589844	1584.728394	41.780373
802.915894	1159.642578	2173.354492	1582.499390	41.713707
803.225159	1168.707520	2166.072998	1581.533325	41.391628
803.534424	1174.800415	2157.156738	1587.700562	42.031609
803.843628	1176.137817	2144.673828	1591.564087	42.892185
804.152771	1176.434937	2148.537598	1589.112305	42.452034
804.461792	1169.599121	2156.785400	1591.489868	42.736691
804.770874	1166.255493	2167.261963	1580.195923	41.352425
805.079773	1162.986206	2171.719971	1581.533569	41.492352
805.388733	1171.307983	2184.574219	1573.731567	39.715485
805.697571	1170.193481	2194.456299	1586.065796	40.602108
806.006470	1175.543335	2204.338867	1598.177124	41.080444
806.315125	1173.314331	2197.502930	1609.025391	42.542072
806.623901	1171.456665	2201.292480	1613.706421	42.943714
806.932495	1174.428833	2199.211914	1616.307129	43.119202
807.241150	1178.589722	2198.171631	1612.591797	42.566669
807.549622	1187.060303	2195.645508	1608.505249	41.785755
807.858154	1181.413330	2164.958496	1595.353638	42.086559
808.166565	1171.531006	2148.908936	1585.842773	42.390129
808.474915	1170.639282	2124.314697	1584.876953	43.435917
808.783264	1170.490845	2126.320557	1580.790405	42.926010
809.091492	1167.815918	2116.438477	1579.378540	43.385288
809.399719	1171.531128	2110.271484	1571.354004	42.591423
809.707825	1174.725952	2100.314941	1565.707031	42.241329
810.015930	1182.007690	2080.476074	1561.843140	42.275883
810.323975	1171.531006	2068.513428	1561.025879	43.422798
810.632080	1169.078979	2047.262817	1563.254883	44.885353
810.939880	1171.976807	2049.343506	1555.824707	43.749996
811.247864	1171.753784	2045.999878	1546.462524	42.860786
811.555664	1169.153198	2058.185547	1541.484253	41.880486
811.863464	1165.512451	2051.424072	1554.561523	43.915112
812.171143	1170.342163	2038.643921	1559.391235	44.805744
812.478882	1167.890259	2026.755371	1556.790649	45.280731
812.786438	1170.416504	2026.086548	1550.400513	44.407772
813.094055	1169.747681	2034.482788	1543.416138	43.211899
813.401489	1168.633301	2022.594360	1541.112671	43.617840
813.708984	1157.487793	2012.489258	1532.939453	43.912399
814.016357	1154.812866	2002.012329	1535.763062	44.965820
814.323730	1162.689087	2000.154907	1539.180786	44.956066
814.630981	1165.735474	1993.616211	1539.403809	45.135529
814.938232	1169.227661	1997.108398	1536.134399	44.318790
815.245361	1165.586792	1997.703003	1528.927124	43.664616
815.552490	1166.552856	2004.910156	1533.162476	43.729519
815.859619	1159.494019	1997.925781	1535.614380	44.859985
816.166565	1155.630249	2002.458374	1539.775269	45.362808
816.473572	1156.521851	2004.835938	1544.159180	45.695023
816.780457	1157.116333	2019.696655	1543.713379	44.818672
817.087341	1162.317505	2038.941040	1553.521362	44.626209
817.394043	1168.410278	2045.628296	1560.134277	44.655262
817.700806	1171.085327	2052.687012	1561.174438	44.247772
818.007507	1169.599121	2045.256714	1561.100220	44.709381
818.314209	1164.249390	2049.566406	1560.951538	44.809052
818.620667	1169.301880	2051.275146	1568.084595	45.214828
818.927246	1174.800293	2070.445068	1575.812012	44.773521
819.233704	1168.856079	2111.163086	1587.923462	44.472488
819.540161	1165.512573	2151.063721	1612.591919	45.363384
819.846497	1155.407227	2218.530518	1644.170532	45.974281
820.152832	1159.345337	2282.133789	1686.820313	46.979015
820.458984	1161.203003	2374.566406	1723.822876	46.368622
820.765259	1170.490723	2460.534912	1775.017578	46.860943
821.071350	1171.902466	2579.939209	1821.233887	46.116085
821.377502	1165.809692	2733.076904	1901.406616	46.935005
821.683472	1164.843750	3061.346436	2042.358887	46.270176
821.989441	1168.410278	3684.671875	2338.603760	46.505238
822.295349	1174.354492	4691.474121	2816.370361	46.686382
822.601196	1172.422607	5950.607910	3429.590576	47.239017
822.907043	1171.976685	7144.578125	3992.285400	47.220772
823.212769	1166.181274	7902.614746	4351.241699	47.281109
823.518494	1168.038818	7976.173828	4370.337891	47.036366
823.824097	1167.370117	7421.504395	4104.408203	46.961544
824.129700	1170.044922	6473.476074	3663.792725	47.021404
824.435242	1168.187500	5469.869141	3194.794189	47.111965
824.740723	1167.072876	4621.926270	2798.463623	47.220257
825.046082	1171.010986	4014.501709	2491.890625	46.452751
825.351501	1169.599121	3583.248779	2300.486572	46.853836
825.656799	1171.456665	3312.118164	2181.973877	47.205837
825.962036	1172.645508	3122.794922	2107.299561	47.927303
826.267212	1178.292480	3039.278564	2068.141846	47.816013
826.572449	1180.075806	3022.857666	2062.049072	47.860970
826.877502	1180.447266	3149.097656	2119.410889	47.695805
827.182495	1179.704224	3405.516357	2238.220947	47.556431
827.487488	1178.218262	3749.092529	2391.358643	47.187855
827.792419	1181.487549	4031.739990	2533.277100	47.427010
828.097290	1180.893188	4151.590332	2602.007080	47.837723
828.402100	1175.023315	4039.987305	2571.097412	48.729206
828.706848	1168.410278	3774.503906	2448.274658	49.110451
829.011597	1168.261719	3402.544678	2261.254639	48.919182
829.316223	1172.125488	3042.473633	2070.222168	48.017620
829.620789	1172.051147	2742.439209	1928.749878	48.185463
829.925354	1169.599121	2538.478271	1818.707642	47.418980
830.229797	1171.605347	2393.216553	1749.011719	47.265968
830.534302	1175.543335	2283.619873	1682.362305	45.738625
830.838562	1182.602051	2200.920898	1638.969360	44.815758
831.142944	1181.933228	2143.559326	1613.260742	44.853973
831.447144	1180.744507	2093.850830	1597.137085	45.601761
831.751404	1170.342163	2059.968506	1590.152710	47.189537
832.055542	1171.679565	2040.427124	1572.319824	46.116993
832.359619	1172.571289	2050.829346	1565.707031	44.763123
832.663635	1177.995239	2089.912842	1573.805786	43.404202
832.967651	1176.880737	2139.175537	1611.923218	45.208858
833.271545	1173.239868	2235.248779	1662.820435	46.099480
833.575439	1174.874634	2370.479736	1741.061157	47.355648
833.879211	1174.503052	2591.456055	1848.874512	47.593071
834.183044	1178.812744	2824.692383	1969.839355	48.061024
834.486694	1172.942749	3033.928711	2073.045898	48.367004
834.790344	1172.348267	3109.717529	2103.212891	48.047867
835.093933	1163.283325	3058.596924	2076.983643	48.208397
835.397522	1163.432007	2900.258057	1982.396484	47.152935
835.700928	1165.586792	2701.572754	1892.490234	47.324875
836.004395	1171.382324	2510.020264	1797.308472	46.758434
836.307739	1166.775757	2346.554443	1729.618652	47.707497
836.611023	1168.187378	2225.143555	1664.752319	46.980656
836.914307	1167.964478	2120.451172	1617.421509	47.187748
837.217529	1180.521606	2035.894653	1581.830688	46.916264
837.520691	1180.150024	1970.210938	1553.075562	47.202126
837.823730	1178.589722	1932.539551	1518.004761	45.018253
838.126831	1169.747803	1893.530640	1497.497070	45.282818
838.429749	1159.791138	1863.512329	1475.206177	44.821022
838.732727	1162.540405	1824.280396	1471.268188	46.653942
839.035522	1171.085083	1806.373413	1460.642944	45.578968
839.338379	1173.685669	1801.098022	1456.779175	45.120804
839.641113	1169.227661	1811.871948	1461.311646	45.450336
839.943848	1166.032715	1838.546509	1478.178345	46.414757
840.246460	1170.342163	1877.852539	1517.335938	49.044338
840.549072	1176.806519	1936.626099	1549.731934	49.080784
840.851563	1168.113159	1970.285156	1571.428223	50.277878
841.154053	1169.896362	1980.761841	1563.403687	48.529297
841.456482	1161.574463	1951.040894	1543.490601	48.376488
841.758850	1163.952148	1899.994995	1514.066528	47.567120
842.061157	1162.763184	1834.459961	1477.583984	46.869484
842.363403	1164.918091	1780.293335	1453.732788	46.933102
842.665588	1171.159546	1744.033569	1429.287109	45.058346
842.967712	1172.051147	1722.039917	1416.878540	44.514980
843.269775	1172.868530	1697.445679	1401.126343	43.512726
843.571777	1174.354492	1680.578735	1397.411255	44.062836
843.873840	1170.342163	1655.910278	1394.216187	46.105587
844.175659	1175.617676	1646.251099	1395.033569	46.621399
844.477600	1168.707397	1631.910767	1384.631226	46.615341
844.779297	1176.657837	1619.204956	1377.275269	45.332447
845.081116	1177.177979	1605.607422	1369.547852	44.901180
845.382751	1182.825073	1591.267090	1367.392944	45.188267
845.684387	1179.407104	1585.620117	1365.015259	45.692322
845.985962	1170.490845	1576.183594	1360.705688	46.886429
846.287537	1168.558960	1568.307495	1348.445801	45.000000
846.588989	1162.540405	1559.985474	1345.325073	45.989922
846.890381	1165.438110	1557.385132	1338.191895	44.075798
847.191711	1168.707520	1550.474976	1338.266235	44.414135
847.493042	1171.010864	1543.490356	1342.501587	46.040314
847.794250	1176.509277	1539.478027	1341.089844	45.342903
848.095459	1175.691895	1545.199341	1345.473755	45.948158
848.396606	1175.617554	1546.610962	1341.684326	44.762730
848.697693	1176.955200	1546.090942	1339.306641	43.981503
848.998657	1172.645630	1536.208618	1339.603638	45.922718
849.299622	1180.373169	1541.112793	1337.820435	43.645679
849.600464	1176.583618	1531.602051	1337.003174	45.186260
849.901367	1176.880737	1534.276978	1320.730835	40.249470
850.202087	1161.723022	1531.230469	1315.158203	41.524246
850.502808	1164.397949	1528.629761	1311.591675	40.412102
850.803467	1162.168823	1521.868164	1315.083984	42.511940
851.104065	1169.227661	1512.654663	1314.638062	42.340992
851.404663	1164.472290	1514.958130	1313.671997	42.569397
851.705139	1169.896362	1512.134644	1317.535767	43.139359
852.005615	1172.645508	1512.580444	1318.873291	43.016403
852.306030	1173.017090	1509.756836	1313.746460	41.791733
852.606384	1163.877930	1509.385376	1309.362671	42.107555
852.906616	1159.345337	1501.138062	1306.538940	43.065166
853.206909	1162.391724	1497.274048	1310.105469	44.109150
853.506958	1166.329834	1495.267944	1314.340698	44.996571
853.807129	1165.586792	1496.976929	1314.489380	44.932716
854.107178	1168.781738	1491.924316	1315.158081	45.297756
854.407166	1173.239990	1492.964478	1314.638062	44.224976
854.707092	1173.165649	1493.707642	1307.281982	41.840488
855.007019	1166.404175	1486.574585	1311.071411	45.184448
855.306763	1167.295776	1483.825317	1306.613281	44.014061
855.606567	1164.769409	1475.800781	1309.065308	46.392715
855.906250	1165.363892	1475.503418	1303.269653	44.465717
856.205933	1162.466064	1472.457031	1308.619507	47.147644
856.505493	1171.531006	1474.314453	1311.220093	46.134983
856.805054	1174.800415	1486.203125	1308.619507	42.973003
857.104492	1173.760132	1486.648926	1298.960083	40.014202
857.403931	1168.930542	1488.060669	1298.514404	40.605335
857.703308	1162.614624	1478.475586	1303.789917	44.695393
858.002563	1168.113037	1471.119629	1304.978638	45.169182
858.301819	1175.766235	1470.822388	1304.681519	43.691780
858.601013	1181.190430	1470.228027	1303.492676	42.313610
858.900208	1178.812622	1475.280640	1305.870239	42.857109
859.199219	1177.103760	1461.831665	1303.418335	44.363258
859.498291	1173.611450	1459.676880	1309.585449	47.532482
859.797302	1166.255493	1453.509766	1312.483276	50.905346
860.096191	1163.952148	1458.859497	1308.099487	48.878857
860.395020	1156.967651	1459.231079	1304.087036	48.672573
860.693787	1158.899536	1450.389160	1299.703247	48.304878
860.992554	1158.973999	1450.314819	1307.133423	50.854332
861.291260	1167.741577	1440.581177	1295.244995	46.732006
861.589844	1171.159546	1449.720337	1290.712524	42.918091
861.888428	1167.741577	1449.200195	1287.666138	42.608238
862.186890	1172.571289	1449.646118	1291.455444	42.906876
862.485413	1182.453613	1443.182007	1284.396729	39.099354
862.783813	1182.750854	1437.163452	1279.195557	37.908775
863.082153	1185.054077	1443.553345	1275.703369	35.067524
863.380371	1173.983032	1449.869019	1282.093384	39.186604
863.678589	1179.927124	1450.834961	1276.223633	35.545856
863.976746	1173.165649	1450.314941	1277.486694	37.640739
864.274902	1169.524780	1451.652222	1283.356567	40.347649
864.572937	1168.113037	1459.231079	1293.907593	43.210842
864.870911	1176.732178	1459.008179	1296.953979	42.590160
865.168884	1180.150024	1463.094849	1298.960083	41.990540
865.466736	1175.543335	1465.621094	1290.340942	39.574772
865.764587	1158.973877	1465.769897	1293.833252	43.957340
866.062317	1162.317505	1458.562500	1286.551636	41.936279
866.360107	1169.450562	1456.036133	1294.056152	43.479366
866.657715	1176.286377	1459.825562	1281.796265	37.211750
866.955322	1174.503052	1463.020508	1280.012939	36.569672
867.252808	1168.930420	1463.540649	1281.053101	38.057972
867.550293	1167.444458	1451.354980	1282.390747	40.486801
867.847717	1170.713623	1439.986694	1289.449585	44.095001
868.145081	1171.902466	1429.064331	1281.722046	42.704456
868.442383	1170.787964	1433.893921	1290.118164	45.354427
868.739624	1169.970581	1439.243652	1282.093506	41.639114
869.036804	1169.301880	1446.302368	1281.647705	40.557987
869.333984	1175.171875	1445.336548	1280.830322	39.108906
869.631042	1170.044922	1442.438843	1280.681641	40.616444
869.928101	1171.902466	1444.222046	1277.709595	38.854031
870.224976	1168.781738	1445.856567	1274.291626	38.079926
870.521851	1169.301880	1456.853516	1283.802368	39.819107
870.818726	1171.233765	1455.664551	1294.724854	43.416920
871.115479	1169.673462	1455.590210	1296.805298	44.464634
871.412231	1166.775635	1446.822632	1288.037598	43.300575
871.708862	1164.026367	1444.222046	1279.269897	41.129662
872.005493	1164.843750	1447.268188	1277.040894	39.726429
872.302063	1169.376221	1448.828735	1275.629272	38.021862
872.598572	1172.868530	1450.983521	1286.700195	40.929710
872.895020	1173.834351	1449.869019	1295.170776	43.956951
873.191406	1176.137817	1449.646118	1299.777466	45.205082
873.487671	1173.016968	1445.262329	1291.158325	43.395176
873.783997	1169.524780	1450.017578	1282.539307	40.291420
874.080200	1164.992310	1452.098022	1285.734375	42.054916
874.376343	1164.769409	1458.042358	1292.050049	43.400063
874.672424	1169.599121	1455.441772	1292.495972	42.994579
874.968445	1176.137817	1455.070313	1292.347290	41.662220
875.264465	1171.679688	1451.429321	1285.734253	40.770229
875.560364	1167.072876	1445.484985	1291.455688	44.675793
875.856201	1161.351440	1433.968140	1288.186279	46.524971
876.152039	1162.614624	1433.670898	1290.043823	47.012081
876.447754	1165.066650	1434.488281	1288.632080	45.863216
876.743469	1166.404175	1442.513062	1288.854858	44.348694
877.039063	1172.199707	1435.900024	1286.180054	43.223438
877.334595	1171.605225	1436.940430	1280.458740	41.024906
877.630127	1175.692017	1443.553345	1284.619751	40.665718
877.925537	1174.280151	1452.246704	1286.625854	40.416985
878.221008	1171.902588	1461.757446	1287.814819	39.989750
878.516296	1164.472290	1460.865845	1291.083984	42.717426
878.811646	1161.128662	1472.754272	1297.251099	43.681404
879.106812	1165.958374	1481.447632	1309.213867	45.407406
879.401978	1174.280151	1499.057251	1321.771118	45.412983
879.697083	1176.880737	1513.620728	1330.167358	45.520767
879.992126	1177.252319	1542.078735	1349.114502	47.107933
880.287109	1170.416504	1587.700562	1360.780029	45.619648
880.582031	1167.592896	1664.009399	1396.371094	46.085938
880.876892	1165.586792	1779.475952	1459.825562	47.930275
881.171753	1165.140991	2011.077515	1574.400391	48.379444
881.466492	1164.546509	2380.361816	1777.543945	50.418633
881.761230	1162.540405	2903.601563	2040.872925	50.448112
882.055786	1167.518677	3421.491455	2307.173828	50.562065
882.350403	1165.512451	3785.946289	2486.763428	50.421078
882.644958	1168.261597	3862.329834	2522.354492	50.262009
882.939453	1165.363770	3661.935547	2440.101563	51.059528
883.233826	1167.518677	3318.434326	2261.477783	50.860161
883.528137	1163.580688	2942.536377	2067.027588	50.785240
883.822449	1165.066772	2623.331787	1884.763062	49.352913
884.116577	1163.877808	2350.343506	1743.141968	48.822662
884.410828	1167.072876	2137.466553	1640.604126	48.797852
884.704956	1160.385620	1971.622681	1566.449829	50.054939
884.999023	1156.447632	1850.880737	1505.670288	50.288883
885.292969	1159.048218	1764.986816	1455.738892	48.963818
885.586914	1167.147095	1708.739624	1425.200562	47.647160
885.880798	1181.190308	1666.387085	1415.912598	48.376720
886.174622	1182.230591	1633.693848	1403.578491	49.028996
886.468384	1183.345093	1612.071777	1387.528931	47.625641
886.762085	1175.171875	1606.350586	1371.776855	45.597099
887.055664	1177.252319	1583.316528	1366.352539	46.569042
887.349304	1173.239868	1561.248657	1360.259888	48.199944
887.642822	1176.063477	1525.434937	1350.897705	50.042503
887.936340	1171.605347	1507.825073	1330.241577	47.182308
888.229736	1170.490845	1489.323853	1321.919800	47.494755
888.523071	1174.205933	1479.441528	1315.455322	46.275532
888.816284	1175.914917	1463.392090	1313.300415	47.790054
889.109619	1181.264648	1452.023804	1301.040649	44.237103
889.402710	1176.583618	1437.237427	1290.043823	43.529079
889.695862	1174.874634	1428.767090	1277.115112	40.269207
889.988892	1173.908691	1407.665039	1276.000610	43.674500
890.281921	1177.846680	1386.934570	1281.944824	49.786789
>>>>>End Processed Spectral Data<<<<<
