Jaz Data File
++++++++++++++++++++++++++++++++++++
Date: Fri Jun 04 13:25:39 2021
User: jaz
Dark Spectrum Present: Yes
Reference Spectrum Present: Yes
Processed Spectrum Present: Yes
Spectrometers: JAZA3586
Integration Time (usec): 30000 (JAZA3586)
Spectra Averaged: 10 (JAZA3586)
Boxcar Smoothing: 1 (JAZA3586)
Correct for Electrical Dark: No (JAZA3586)
Strobe/Lamp Enabled: Yes (JAZA3586)
Correct for Detector Non-linearity: No (JAZA3586)
Correct for Stray Light: No (JAZA3586)
Number of Pixels in Processed Spectrum: 2048
>>>>>Begin Processed Spectral Data<<<<<
W	D	R	S	P
191.335022	0.000000	0.000000	0.000000	0.000000
191.713211	311.477020	312.814453	314.151886	200.000000
192.091385	633.207764	632.910583	639.003418	-1950.215698
192.469528	961.923035	960.808533	960.882813	93.335159
192.847641	980.052917	975.892029	975.297546	114.287392
193.225739	992.610046	980.275879	979.755676	104.217575
193.603790	996.250793	976.857910	990.975403	27.202715
193.981842	998.479980	981.761902	984.882629	81.333214
194.359863	1002.269348	993.427429	985.179871	193.277924
194.737854	1008.362244	1007.024719	978.195374	2255.425781
195.115829	1014.380798	1011.705872	986.814453	1030.545776
195.493774	1009.105286	1009.996887	984.213806	-2791.771729
195.871704	1005.092957	1001.600769	987.334534	508.518585
196.249603	1006.578918	1002.789551	986.963074	517.654846
196.627457	1010.442688	1001.675049	992.387207	205.933212
197.005310	1014.232178	1007.322021	993.204407	304.302399
197.383133	1008.956726	999.074402	989.860840	193.232742
197.760910	1008.808105	996.473816	984.585388	196.385178
198.138687	999.743164	995.730774	980.424500	481.475220
198.516449	996.473816	993.798889	991.867004	172.221970
198.894180	987.260254	990.975403	993.501648	167.998489
199.271866	985.328369	985.774170	992.684387	1650.068481
199.649536	986.740173	987.557434	981.390381	-654.600464
200.027191	995.879395	990.380920	980.647278	277.024445
200.404816	1000.931885	998.331360	988.969238	460.008911
200.782410	1001.526367	1013.191895	998.702881	-24.203674
201.159988	993.650208	1033.104980	1003.160950	24.105429
201.537537	989.043457	1034.442505	1005.241516	35.679291
201.915070	987.483154	1032.733521	998.182678	23.645164
202.292557	986.071350	1022.628357	996.845276	29.471575
202.670029	990.752441	1031.767578	993.278809	6.159597
203.047485	987.037292	1032.659180	989.563721	5.537755
203.424911	993.501709	1033.030762	985.328430	-20.676638
203.802292	994.393311	1027.532349	983.693665	-32.287136
204.179688	989.415039	1024.857544	986.219971	-9.014792
204.557037	989.935242	1026.046387	987.111633	-7.819216
204.934357	985.105469	1025.080444	988.300476	7.992518
205.311661	991.124023	1022.851379	986.071350	-15.925290
205.688934	988.449036	1025.749146	981.761902	-17.927919
206.066177	986.442871	1022.702637	976.486328	-27.458927
206.443390	980.498718	1022.925598	978.046692	-5.779417
206.820587	974.777405	1023.148438	980.052917	10.906347
207.197769	975.594727	1024.040039	978.864014	6.748407
207.574921	976.560730	1026.937866	980.350098	7.521999
207.952042	980.944580	1025.972046	977.155029	-8.416087
208.329147	978.492676	1032.807861	980.944519	4.514103
208.706223	988.597717	1036.448730	989.192139	1.242234
209.083267	985.254089	1043.804565	992.684387	12.690414
209.460297	984.139465	1034.962646	986.145691	3.947462
209.837280	970.170593	1031.098999	973.365662	5.243972
210.214264	975.817566	1026.120605	970.393494	-10.782792
210.591217	979.161194	1026.937988	971.507996	-16.018652
210.968124	984.585388	1026.640747	966.009583	-44.169891
211.345016	982.727783	1025.823364	972.399719	-23.965483
211.721893	983.470886	1028.572632	966.381165	-37.891487
212.098724	985.774231	1025.526123	968.090149	-44.486137
212.475555	982.579285	1022.702637	965.563904	-42.407677
212.852356	983.768066	1024.411621	980.795898	-7.312766
213.229126	973.960144	1024.040039	985.848450	23.738680
213.605865	967.867249	1021.365051	982.653503	27.638994
213.982590	961.254333	1026.714966	973.662842	18.955681
214.359283	966.975647	1027.458008	968.164490	1.965603
214.735931	972.696960	1023.297058	968.833252	-7.635773
215.112579	980.870300	1020.101990	968.907532	-30.492617
215.489197	983.322205	1018.170105	974.628845	-24.946581
215.865799	985.402649	1020.919373	974.480164	-30.753077
216.242355	981.241699	1023.594238	972.325378	-21.052624
216.618896	989.712341	1033.402222	966.306824	-53.571941
216.995407	986.963074	1032.213379	967.570007	-42.857315
217.371902	984.065247	1022.182617	971.731018	-32.358551
217.748367	973.811523	1014.009216	976.263489	6.099766
218.124802	970.096375	1014.380676	974.554504	10.067066
218.501236	968.461670	1019.656250	974.331543	11.465810
218.877609	970.616455	1020.027832	972.696960	4.210579
219.253983	970.616455	1025.080444	966.901306	-6.821294
219.630295	977.303711	1029.390015	968.313049	-17.261086
220.006592	975.148926	1033.030762	965.192322	-17.201603
220.382889	981.464661	1030.132935	972.771179	-17.862728
220.759140	980.052917	1032.659180	976.412109	-6.920865
221.135391	981.464600	1044.770630	981.613281	0.234862
221.511581	978.269531	1045.067749	975.074524	-4.783072
221.887772	975.446106	1039.049316	971.656738	-5.957825
222.263931	975.297424	1031.470337	969.278992	-10.714119
222.640060	974.182922	1034.219604	980.498718	10.519895
223.016159	972.696960	1033.179321	980.350098	12.653502
223.392212	977.452332	1025.749023	984.139465	13.845945
223.768265	981.539001	1031.693359	981.538879	-0.000243
224.144302	989.489258	1034.888306	977.526550	-26.350128
224.520294	982.727722	1045.067749	965.117981	-28.247889
224.896286	981.687500	1049.674561	965.489563	-23.825029
225.272217	967.718567	1049.377319	966.901306	-1.000824
225.648148	967.049866	1046.702271	977.749512	13.432922
226.024048	962.740295	1049.600220	972.102478	10.778483
226.399902	971.210876	1062.603149	966.158203	-5.528556
226.775772	978.715515	1067.432861	962.368835	-18.425573
227.151581	985.031189	1067.804443	960.882813	-29.174129
227.527374	986.963074	1075.383301	964.003479	-25.966452
227.903137	980.870300	1083.482300	964.597900	-15.858184
228.278870	976.263428	1092.993042	964.746521	-9.866311
228.654572	967.495789	1100.646118	965.638184	-1.395119
229.030273	966.455505	1118.850464	968.684570	1.462689
229.405930	962.814697	1131.407471	975.817688	7.712662
229.781555	968.387390	1125.983521	982.950684	9.240895
230.157181	976.189148	1126.280640	984.362488	5.445572
230.532761	983.470886	1120.039185	985.031067	1.142418
230.908325	981.390320	1126.429321	983.024963	1.127037
231.283859	975.074646	1116.546997	980.350098	3.728963
231.659332	970.839355	1116.992798	981.687500	7.422435
232.034821	967.495667	1112.906128	978.269714	7.409403
232.410263	968.238770	1119.816284	981.836243	8.970640
232.785690	966.604065	1116.621338	980.573059	9.311590
233.161087	967.718689	1106.590454	978.195313	7.544099
233.536469	973.439941	1103.915649	970.839355	-1.993157
233.911804	971.953918	1105.698853	963.186218	-6.555538
234.287140	975.520508	1118.850342	969.056152	-4.510126
234.662430	964.969421	1115.581055	975.446106	6.956092
235.037704	974.108704	1126.949341	976.560730	1.604303
235.412933	977.749512	1133.710938	977.080811	-0.428761
235.788162	982.579285	1146.639648	978.715515	-2.355090
236.163345	979.830078	1142.552856	989.415039	5.890362
236.538513	978.715393	1139.209351	983.693665	3.101844
236.913635	976.040527	1136.757324	981.464661	3.374964
237.288742	974.182922	1135.494019	976.857910	1.658279
237.663834	973.291321	1140.843872	984.882568	6.917977
238.038879	970.690735	1144.336060	987.557434	9.713305
238.413910	974.183044	1151.915039	984.436768	5.769205
238.788910	972.473938	1156.224609	977.675110	2.830559
239.163879	979.607117	1156.670532	977.600891	-1.133055
239.538834	975.594727	1161.945923	978.492493	1.555003
239.913757	976.634949	1177.995483	985.105469	4.206644
240.288651	977.526611	1202.143677	985.922852	3.738024
240.663528	981.910461	1231.418945	989.266418	2.948179
241.038361	982.504883	1261.140015	987.631653	1.839958
241.413177	973.662781	1291.529907	989.266418	4.908855
241.787979	970.319275	1328.755615	989.415039	5.327519
242.162735	968.907532	1368.581909	990.901123	5.502878
242.537476	972.325439	1401.869507	986.071472	3.200145
242.912170	973.885742	1423.194214	985.699890	2.629407
243.286865	971.879639	1427.800903	990.306641	4.041707
243.661514	971.953918	1417.918823	994.096191	4.965026
244.036148	967.644348	1389.460938	992.833008	5.971472
244.410751	977.675110	1368.433105	990.752441	3.346658
244.785339	986.145691	1359.665527	995.284973	2.446800
245.159882	993.724548	1374.005859	994.096130	0.097712
245.534378	985.476990	1403.949829	989.935120	1.065333
245.908890	980.721619	1468.964722	987.631836	1.415323
246.283356	972.919861	1549.954712	998.405762	4.416700
246.657791	972.102539	1637.111816	1006.579041	5.184364
247.032196	970.393555	1702.275391	1012.003113	5.685284
247.406586	970.913574	1749.011719	1011.557312	5.223472
247.780960	971.507996	1759.785645	1012.002991	5.137149
248.155289	974.703125	1744.479370	1009.625427	4.536682
248.529602	971.582336	1691.873047	1006.727539	4.879308
248.903870	975.371826	1628.195435	1003.012390	4.234002
249.278122	971.359436	1558.722534	1000.931946	5.034792
249.652344	966.232605	1513.769409	1007.099060	7.463691
250.026550	965.043762	1483.899780	1006.504639	7.990825
250.400711	967.272766	1475.651978	1007.099060	7.833974
250.774857	981.687500	1483.825317	1002.343750	4.113661
251.148987	989.117859	1504.481445	1000.560486	2.220302
251.523071	988.449036	1533.162476	993.724609	0.968504
251.897125	988.077576	1547.948608	998.034119	1.778364
252.271164	980.795959	1562.660522	1003.904053	3.971387
252.645187	985.105469	1557.310669	1002.863831	3.103495
253.019165	978.121094	1539.701172	998.851501	3.691443
253.393112	981.018799	1521.273926	1001.377747	3.768395
253.767044	980.350098	1500.023438	1006.281738	4.989989
254.140930	986.814453	1492.964478	997.216858	2.055202
254.514801	988.820740	1475.800659	992.684509	0.793415
254.888657	984.882629	1478.029663	988.300598	0.693093
255.262466	981.761902	1480.258789	994.244812	2.504110
255.636276	985.625671	1499.726074	1000.931946	2.977293
256.010010	990.306641	1524.840454	1008.362244	3.377822
256.383759	994.616211	1549.286133	1007.173340	2.263892
256.757446	987.111633	1576.035156	996.845276	1.652786
257.131134	983.247864	1614.375122	991.644104	1.330356
257.504791	974.554504	1676.120728	992.312805	2.531237
257.878418	977.006409	1749.011719	1004.647156	3.580383
258.252014	980.647278	1824.280396	1016.535461	4.254004
258.625580	985.179871	1940.044067	1025.749023	4.248683
258.999115	982.356384	2078.841553	1026.120605	3.991319
259.372650	984.511169	2245.354004	1029.612793	3.577101
259.746124	984.956970	2378.281494	1033.105103	3.455630
260.119598	984.213928	2463.803955	1038.974976	3.701096
260.493042	979.161316	2470.714111	1040.461060	4.109794
260.866425	973.514343	2407.705322	1039.272095	4.585007
261.239838	974.851746	2301.749756	1026.492065	3.891808
261.613159	969.947754	2179.818848	1013.934998	3.635697
261.986511	973.217041	2069.776367	1009.773926	3.333781
262.359802	972.845520	1987.671875	1018.095886	4.458927
262.733063	979.384094	1954.087280	1020.622131	4.230830
263.106293	977.898132	1944.353638	1026.417847	5.020378
263.479523	983.470764	1934.694336	1015.866882	3.405731
263.852692	981.316101	1917.233276	1020.027832	4.136235
264.225861	974.777344	1897.617188	1018.616028	4.750411
264.598969	968.461609	1901.183594	1022.331116	5.775516
264.972076	971.730957	1923.623169	1015.420898	4.589799
265.345154	979.978577	1972.217163	1012.894592	3.317349
265.718201	979.012634	2028.315796	1017.650085	3.682201
266.091217	972.473938	2087.237549	1028.944092	5.065661
266.464203	980.052917	2144.302002	1033.105103	4.556773
266.837158	981.613281	2194.679443	1033.848022	4.306009
267.210114	984.436768	2234.059814	1033.104980	3.894632
267.583038	979.532715	2244.759521	1034.739746	4.363410
267.955902	974.034363	2246.096924	1033.402222	4.667055
268.328766	978.046692	2255.384766	1034.442505	4.415104
268.701569	977.452332	2269.948242	1031.321777	4.167862
269.074371	976.412109	2285.031494	1039.049316	4.786511
269.447144	973.588562	2310.443115	1041.426880	5.074473
269.819885	973.365662	2391.507080	1042.170044	4.851729
270.192596	975.891907	2503.258545	1048.782837	4.772327
270.565277	975.000244	2650.526611	1051.309204	4.554327
270.937927	971.508118	2775.503906	1058.962402	4.847810
271.310577	973.885803	2887.404053	1057.996460	4.395602
271.683136	973.365723	2952.567383	1065.352417	4.647666
272.055725	968.535950	2978.127686	1057.625000	4.433191
272.428284	965.935364	2954.721924	1051.606445	4.307706
272.800812	968.090149	2906.573975	1049.897461	4.220170
273.173279	971.433777	2817.039063	1053.092407	4.424490
273.545776	970.244934	2764.878662	1058.070679	4.893797
273.918152	972.994141	2715.021484	1050.863403	4.470037
274.290558	975.148926	2716.507568	1052.126465	4.420545
274.662964	984.733887	2715.021729	1048.782837	3.701636
275.035278	980.052917	2730.922607	1051.829468	4.099480
275.407593	978.789734	2767.627686	1055.990356	4.315686
275.779907	973.291321	2817.113281	1055.618774	4.465044
276.152161	974.925964	2869.645264	1058.665161	4.419610
276.524384	980.572998	2921.136963	1055.395874	3.855728
276.896606	983.768066	2960.294922	1055.172974	3.612645
277.268799	974.480164	2977.904541	1051.532104	3.846012
277.640930	967.198486	2981.025391	1055.247192	4.372208
278.013031	957.539124	2983.328369	1056.881836	4.903902
278.385162	963.929199	2989.198486	1066.244019	5.051912
278.757233	966.009583	2986.821045	1065.872559	4.941726
279.129272	969.056091	3013.867188	1070.330688	4.952761
279.501282	968.684570	3054.733398	1063.346191	4.537843
279.873230	974.182922	3131.413818	1068.398804	4.367445
280.245178	977.377991	3228.750244	1070.776489	4.148514
280.617126	977.452332	3361.603516	1076.572144	4.157447
280.988983	973.960022	3487.175049	1080.584595	4.242557
281.360870	975.074524	3596.474609	1085.265625	4.203521
281.732697	977.452332	3668.622314	1090.615356	4.204975
282.104492	972.102539	3716.176514	1093.735962	4.432585
282.476288	966.678467	3728.436279	1094.330444	4.622128
282.848053	966.604187	3722.343506	1092.918701	4.583689
283.219757	976.114807	3725.612549	1090.764038	4.169825
283.591461	981.018799	3703.024414	1083.853882	3.777916
283.963135	977.898132	3719.965820	1085.117065	3.910149
284.334747	969.724792	3770.863037	1081.327515	3.984192
284.706360	972.473938	3865.301758	1090.392456	4.076237
285.077942	975.371765	3956.099609	1097.154053	4.085656
285.449524	980.572998	4051.653076	1108.596680	4.168686
285.821014	978.195251	4086.278076	1100.869141	3.946931
286.192535	979.978516	4123.354980	1102.578125	3.900252
286.563995	983.693665	4116.593262	1100.200439	3.718816
286.935425	981.687500	4096.902832	1109.413940	4.100084
287.306824	982.950684	4027.132813	1106.367554	4.054188
287.678223	970.319275	3951.121826	1103.989868	4.484383
288.049561	970.467834	3905.128174	1105.773071	4.610593
288.420898	959.248230	3879.494141	1102.652344	4.910686
288.792145	966.678467	3912.632813	1106.070190	4.731632
289.163452	963.260559	4010.340820	1098.937134	4.452675
289.534668	970.690735	4155.379395	1104.138428	4.190290
289.905914	970.839355	4269.434082	1104.361328	4.047844
290.277039	976.857910	4380.517090	1116.769897	4.110634
290.648193	977.749512	4434.832031	1122.268188	4.180365
291.019318	972.622559	4435.872559	1123.828613	4.366016
291.390381	971.508057	4373.086426	1123.977295	4.482308
291.761475	973.142761	4291.354004	1117.438599	4.348603
292.132507	974.480164	4249.447266	1111.791504	4.192755
292.503510	977.006531	4236.146484	1103.172485	3.871143
292.874481	972.771240	4280.579590	1104.064087	3.969179
293.245422	985.254089	4358.374512	1108.076538	3.641212
293.616364	985.328430	4495.017090	1107.779175	3.488935
293.987213	984.808289	4636.563965	1114.689331	3.556674
294.358093	977.303711	4781.529297	1125.834839	3.904372
294.728943	971.433777	4901.824707	1140.621094	4.304593
295.099731	973.811523	5032.672363	1144.261841	4.199462
295.470490	983.842346	5141.971191	1143.890381	3.849040
295.841248	992.312805	5262.193359	1147.159668	3.626492
296.211975	992.015625	5379.962891	1157.041870	3.760899
296.582642	980.647278	5501.968262	1171.753906	4.226788
296.953308	974.405945	5553.014160	1175.023193	4.381620
297.323883	969.724792	5538.302246	1166.775513	4.313174
297.694519	975.223145	5427.739746	1153.178223	3.996730
298.065063	974.703125	5306.774902	1143.073120	3.886593
298.435608	983.322266	5130.156738	1135.345581	3.666009
298.806122	977.898132	4940.016113	1128.658325	3.805041
299.176575	978.715393	4739.770996	1127.097900	3.945235
299.547028	970.839355	4614.124512	1125.760376	4.252234
299.917450	969.650574	4554.459473	1119.667725	4.184802
300.287872	976.189148	4560.106934	1122.714233	4.088406
300.658234	977.006409	4548.589844	1117.438599	3.931931
301.028564	981.464661	4541.605469	1125.463379	4.044748
301.398865	977.006531	4489.296387	1116.695679	3.977153
301.769135	978.343994	4446.274902	1119.742065	4.077303
302.139374	972.251160	4400.281250	1113.129028	4.109587
302.509583	971.136658	4376.132813	1115.506714	4.239948
302.879791	975.074646	4318.919922	1117.141479	4.248607
303.249939	973.365662	4257.396973	1115.878296	4.339564
303.620087	971.507996	4186.363770	1109.636841	4.296580
303.990173	973.662842	4170.908691	1097.154053	3.862425
304.360260	981.316101	4175.887207	1092.101440	3.467925
304.730286	977.675232	4167.937012	1099.383057	3.814979
305.100281	972.176819	4154.265137	1099.234375	3.992898
305.470276	972.251038	4153.521973	1108.150757	4.271869
305.840179	972.548340	4181.979980	1105.624512	4.146410
306.210144	974.108704	4228.122559	1106.144531	4.057630
306.579987	970.765076	4262.004395	1110.900024	4.257817
306.949890	980.647278	4321.223145	1108.224976	3.819033
307.319702	980.127136	4391.662598	1117.735840	4.033629
307.689484	984.288086	4503.785645	1115.060913	3.715667
308.059265	977.600830	4619.623047	1118.330200	3.864045
308.429016	975.669006	4733.603027	1116.918457	3.758699
308.798737	974.405823	4803.150879	1115.803833	3.693064
309.168396	978.269592	4843.868652	1117.810181	3.609805
309.538055	982.207703	4866.456543	1124.645996	3.667074
309.907684	982.430603	4867.719727	1127.469482	3.733027
310.277313	979.532776	4884.140625	1128.435425	3.813511
310.646851	977.823914	4860.363770	1129.327026	3.902165
311.016388	977.675293	4862.593262	1127.172363	3.848140
311.385895	981.687561	4804.117188	1126.577881	3.790529
311.755371	977.898132	4762.729980	1120.336548	3.763402
312.124817	976.560730	4695.708984	1120.930786	3.881804
312.494232	976.114929	4626.236328	1111.717285	3.715009
312.863617	979.235657	4609.146484	1111.420044	3.641533
313.232971	977.303711	4625.047363	1109.785400	3.631881
313.602295	978.195313	4715.622070	1126.206421	3.960241
313.971619	985.476990	4784.277832	1125.537720	3.686972
314.340820	985.922852	4829.603027	1125.686279	3.636188
314.710083	980.275818	4819.869141	1122.268433	3.698116
315.079285	973.960022	4747.126465	1129.029907	4.109807
315.448486	976.634949	4665.021973	1121.673950	3.932315
315.817596	984.362366	4544.279785	1106.144531	3.420927
316.186707	988.671936	4444.565918	1099.011597	3.192796
316.555786	988.226135	4334.746094	1100.423340	3.352653
316.924866	983.545105	4269.657715	1105.178711	3.701444
317.293884	972.845520	4267.056641	1106.144653	4.046466
317.662872	974.628845	4275.081543	1118.181641	4.349488
318.031830	971.136536	4332.442871	1120.559204	4.445375
318.400757	978.343933	4352.059082	1121.079468	4.230812
318.769684	968.015930	4399.761719	1113.723511	4.245873
319.138550	968.090149	4392.405273	1114.689453	4.281127
319.507416	968.907471	4370.188477	1108.968140	4.117880
319.876190	972.028137	4303.241699	1101.909424	3.898918
320.244995	973.885742	4228.939453	1102.652466	3.955902
320.613770	980.572998	4190.970215	1104.064087	3.846598
320.982483	980.275696	4206.425293	1101.091919	3.744905
321.351166	984.362488	4251.081543	1093.661743	3.345842
321.719818	970.839355	4306.288574	1096.559570	3.769214
322.088440	969.353333	4420.640625	1101.760742	3.836464
322.457062	968.238770	4586.707031	1106.739014	3.827593
322.825623	970.913635	4768.525879	1115.060913	3.795734
323.194183	966.678406	4897.367188	1117.810181	3.844918
323.562653	963.854980	4969.737793	1128.361206	4.106616
323.931183	964.746582	4990.616699	1131.184570	4.134212
324.299591	970.467773	4958.592285	1140.918335	4.273953
324.668060	970.244934	4902.345215	1136.608765	4.230915
325.036407	970.616455	4827.001953	1126.280640	4.036530
325.404755	980.275818	4755.151367	1123.382813	3.791039
325.773102	977.452332	4688.056152	1120.708008	3.860711
326.141388	972.919861	4599.338379	1118.107300	4.003604
326.509674	967.867249	4493.753906	1107.110474	3.949169
326.877899	979.978577	4401.841309	1106.887695	3.708773
327.246124	983.693787	4342.102051	1105.550171	3.628397
327.614288	987.483154	4305.173828	1110.231323	3.699807
327.982422	975.891907	4306.362793	1103.172485	3.821699
328.350525	976.412109	4326.275879	1109.785278	3.981451
328.718628	971.062256	4389.358887	1103.692505	3.880010
329.086700	977.452332	4430.819824	1112.163086	3.900852
329.454712	977.006409	4476.293457	1102.652344	3.590615
329.822693	975.668945	4505.494141	1104.212769	3.641649
330.190674	971.656677	4544.800293	1100.051758	3.593337
330.558563	981.316101	4600.229980	1101.389160	3.317931
330.926483	979.607117	4677.059082	1109.265259	3.506689
331.294312	985.625549	4768.748535	1119.296143	3.533340
331.662231	983.545105	4882.580078	1133.265137	3.839925
332.029999	988.597656	4976.424805	1135.494263	3.683625
332.397766	981.018799	5057.414551	1135.717163	3.794979
332.765503	980.721619	5101.773438	1134.156860	3.723206
333.133240	982.430603	5137.290527	1135.122681	3.675024
333.500916	984.213867	5136.175293	1136.088623	3.657904
333.868561	982.727844	5124.212891	1140.621094	3.812479
334.236176	978.938293	5090.107910	1135.642700	3.811675
334.603790	981.836182	5076.956543	1133.042114	3.692344
334.971344	978.046692	5031.780273	1127.915283	3.697051
335.338867	980.498718	4993.588867	1127.469604	3.662287
335.706360	978.789734	4964.982422	1127.023682	3.718685
336.073853	979.681335	4981.477539	1126.206299	3.661480
336.441284	985.031250	5023.532715	1130.441528	3.600600
336.808655	984.734070	5055.705566	1131.778931	3.612034
337.176086	986.665833	5119.383301	1130.292969	3.475368
337.543396	979.235535	5135.357910	1129.178467	3.607760
337.910706	976.932129	5169.537598	1126.726563	3.572824
338.277954	975.223206	5147.543457	1128.063843	3.663205
338.645264	977.452332	5124.361328	1129.772827	3.673109
339.012421	982.207703	5049.835938	1127.246582	3.565687
339.379669	983.396484	4949.750488	1118.107300	3.396339
339.746796	983.842285	4851.150879	1117.810059	3.464109
340.113953	979.235535	4796.018066	1115.060913	3.558635
340.481018	978.715515	4781.826172	1118.998901	3.688649
340.848114	974.925964	4805.008301	1117.735840	3.728637
341.215118	975.223206	4854.939941	1123.085571	3.811164
341.582153	972.399719	4973.749512	1131.927612	3.986852
341.949066	972.325378	5146.132324	1135.717163	3.914694
342.316010	971.879639	5388.210449	1143.444458	3.884782
342.682922	975.966248	5639.725098	1144.410522	3.611771
343.049835	972.622620	5949.790527	1158.082153	3.726206
343.416656	975.446106	6243.954590	1169.301880	3.679519
343.783478	973.439941	6487.072754	1177.029297	3.692472
344.150269	974.925964	6637.982422	1177.772461	3.581926
344.516998	974.703125	6655.740723	1175.543335	3.535273
344.883728	977.972412	6579.505859	1181.338989	3.630552
345.250427	980.795898	6442.268066	1174.428833	3.545435
345.617065	977.898132	6287.718750	1174.577515	3.704068
345.983704	972.994141	6135.770996	1172.571411	3.865696
346.350281	976.932190	6004.403809	1173.537231	3.910614
346.716827	979.161316	5861.667969	1160.905762	3.722359
347.083405	977.229492	5765.074219	1154.144165	3.695080
347.449860	979.309875	5685.941406	1152.137939	3.672012
347.816376	981.687561	5673.830078	1156.447510	3.724523
348.182770	990.678162	5679.923340	1154.292847	3.489148
348.549194	983.842285	5718.040527	1153.846924	3.590991
348.915558	979.978577	5791.525391	1154.738647	3.632097
349.281921	975.000305	5888.490723	1159.196655	3.748788
349.648193	971.582336	5948.527344	1165.215210	3.890597
350.014526	975.223145	5981.369141	1174.948853	3.989610
350.380737	977.155090	5997.195313	1179.407104	4.028893
350.746948	984.585266	6033.455078	1183.642456	3.942609
351.113159	982.281921	6082.197754	1179.927124	3.875460
351.479309	979.384094	6148.476074	1187.357422	4.023402
351.845428	973.960022	6269.736816	1187.803345	4.037997
352.211517	975.446106	6397.092285	1184.385376	3.853798
352.577576	973.588562	6552.757324	1175.543335	3.619800
352.943604	978.938293	6690.588379	1172.868408	3.395343
353.309601	979.607117	6859.998535	1183.865234	3.473546
353.675537	982.727844	7004.145996	1202.143677	3.643923
354.041473	978.641113	7154.906250	1210.168457	3.748663
354.407379	980.127258	7248.007324	1210.837036	3.680826
354.773254	975.074707	7394.012207	1219.679199	3.810669
355.139038	979.532776	7526.716797	1223.245728	3.722409
355.504913	975.594727	7806.095215	1234.688354	3.793187
355.870636	981.761780	8082.798340	1226.292114	3.443586
356.236389	978.938293	8417.161133	1238.626343	3.491265
356.602081	975.743347	8690.149414	1252.892456	3.592618
356.967804	975.891907	8881.702148	1261.363037	3.610903
357.333405	975.891907	8974.431641	1266.564209	3.634067
357.699036	978.938293	8982.009766	1259.728394	3.508529
358.064606	973.514221	8928.511719	1256.830444	3.561487
358.430176	975.520447	8851.534180	1260.842896	3.622676
358.795654	972.176758	8866.098633	1271.616821	3.793299
359.161163	974.108643	9046.059570	1289.746704	3.910307
359.526581	977.972412	9417.052734	1299.108765	3.805348
359.892029	977.675232	9960.354492	1315.827026	3.764487
360.257416	979.458496	10560.051758	1334.922729	3.710253
360.622772	968.090149	11085.223633	1356.842041	3.842510
360.988098	968.833191	11373.741211	1359.070923	3.750516
361.353394	969.130371	11472.266602	1361.448853	3.735251
361.718658	977.229492	11304.788086	1356.619141	3.673566
362.083893	983.916687	10906.375977	1349.337402	3.682764
362.449097	980.944519	10282.456055	1328.606934	3.737698
362.814209	977.898132	9626.734375	1297.548340	3.695875
363.179382	983.024963	9000.065430	1272.582764	3.611779
363.544434	984.362366	8559.599609	1244.050537	3.428119
363.909546	986.145691	8249.385742	1241.078369	3.509903
364.274536	978.343933	8095.207031	1233.945313	3.591489
364.639587	969.501892	7952.025879	1238.106201	3.846808
365.004517	964.077820	7853.500488	1232.682129	3.898793
365.369507	963.632019	7777.711426	1233.648071	3.962620
365.734344	976.932190	7762.777344	1237.288940	3.836762
366.099274	988.820618	7762.702637	1236.322876	3.653773
366.464081	992.238525	7738.703125	1235.431396	3.604745
366.828918	987.631775	7698.281250	1224.286011	3.526547
367.193665	979.086914	7606.518066	1220.719482	3.645946
367.558411	971.582336	7531.546875	1219.010376	3.771789
367.923126	970.764954	7431.312500	1217.301392	3.816030
368.287781	970.913635	7399.436035	1211.580078	3.743729
368.652435	972.251160	7346.755859	1213.214844	3.780116
369.017059	966.678406	7360.427246	1223.840210	4.022082
369.381653	965.563782	7389.256348	1226.515015	4.062325
369.746185	971.062256	7480.946777	1224.286011	3.889835
370.110687	975.000305	7574.048340	1220.422241	3.719051
370.475220	974.331543	7666.852051	1221.313843	3.690423
370.839661	965.712463	7717.898438	1226.515015	3.862491
371.204041	972.474060	7763.222656	1232.459106	3.828518
371.568451	974.554443	7759.655762	1236.100098	3.854705
371.932770	976.857849	7723.544922	1228.000977	3.722466
372.297150	972.548279	7677.849121	1222.725586	3.731038
372.661377	973.365540	7689.886719	1221.908325	3.700469
373.025696	982.281982	7743.458496	1225.177612	3.592505
373.389862	992.535828	7805.649902	1227.035156	3.441882
373.754059	996.028015	7909.450684	1232.013550	3.413440
374.118225	991.718323	8017.486816	1240.409546	3.539701
374.482361	980.795898	8179.169434	1242.415771	3.634430
374.846436	976.263367	8382.536133	1243.827515	3.612669
375.210510	978.046692	8691.634766	1253.115356	3.566027
375.574524	980.350098	9024.584961	1273.251343	3.641132
375.938538	978.046692	9329.078125	1287.517456	3.705779
376.302460	977.898132	9582.375977	1292.198608	3.652755
376.666412	968.313049	9752.158203	1291.827148	3.683058
377.030304	972.028137	9788.121094	1285.734253	3.558335
377.394196	966.529724	9666.709961	1278.452515	3.585245
377.757996	977.749451	9417.052734	1271.245239	3.477725
378.121796	978.046692	9087.296875	1269.016235	3.588119
378.485565	981.167419	8788.154297	1269.313477	3.690874
378.849304	975.520325	8563.090820	1262.626099	3.783896
379.212982	975.743347	8443.983398	1250.440430	3.678204
379.576630	977.600891	8360.170898	1242.935913	3.594074
379.940277	974.703125	8352.740234	1246.353882	3.681884
380.303864	970.765137	8349.694336	1248.359985	3.761994
380.667450	972.176941	8379.637695	1254.601440	3.812703
381.030945	976.783508	8383.501953	1247.096802	3.649569
381.394501	974.034363	8430.683594	1257.647827	3.803497
381.757935	970.319153	8492.875977	1261.734375	3.873885
382.121399	971.136536	8555.883789	1272.879883	3.978292
382.484741	977.972412	8687.473633	1275.629150	3.860908
382.848145	977.303650	8843.286133	1265.821167	3.667915
383.211487	978.641113	8978.072266	1269.610718	3.637379
383.574768	978.566895	9039.074219	1273.474487	3.658673
383.938019	975.594727	9064.560547	1276.966675	3.725717
384.301270	977.600891	9113.600586	1270.650879	3.601893
384.664459	976.040527	9149.265625	1270.427856	3.601850
385.027649	980.795898	9172.374023	1283.282349	3.692652
385.390778	977.377930	9284.868164	1287.666138	3.735042
385.753876	979.012634	9384.359375	1288.334839	3.680065
386.116943	982.059082	9489.274414	1287.220337	3.587088
386.479980	981.687561	9507.107422	1291.529785	3.634334
386.842987	976.040527	9558.301758	1293.758911	3.702036
387.205994	975.074646	9572.196289	1292.495728	3.692178
387.568909	976.709290	9542.030273	1290.340942	3.661645
387.931793	979.532715	9457.622070	1284.025269	3.591523
388.294678	974.405823	9414.749023	1274.663208	3.557407
388.657471	973.365662	9425.522461	1271.691040	3.529577
389.020294	976.412109	9490.909180	1279.344238	3.557839
389.383057	982.059082	9659.056641	1288.706421	3.534026
389.745819	979.755676	9849.197266	1300.446289	3.615680
390.108521	980.127197	10086.297852	1306.390503	3.582881
390.471191	970.690735	10379.125000	1327.343750	3.790780
390.833801	967.124207	10607.307617	1335.814331	3.824513
391.196442	962.963196	10790.985352	1340.123901	3.837605
391.558960	965.415222	10802.426758	1330.761719	3.713999
391.921509	968.907471	10796.408203	1323.182861	3.604939
392.284027	970.765076	10725.077148	1321.919678	3.599993
392.646484	974.108643	10678.639648	1324.148804	3.606977
393.008911	976.560547	10644.905273	1333.213745	3.688875
393.371307	976.412048	10679.901367	1339.157837	3.738302
393.733673	977.898132	10644.607422	1341.386963	3.760213
394.096008	977.452332	10574.094727	1332.173340	3.696303
394.458344	970.021973	10423.706055	1328.829834	3.795429
394.820587	964.895203	10214.246094	1319.170532	3.830272
395.182831	960.288391	9992.750977	1310.848511	3.881113
395.545013	968.758972	9766.276367	1295.765137	3.717028
395.907196	971.359558	9579.254883	1285.957153	3.654756
396.269287	982.579285	9469.213867	1291.009644	3.634307
396.631409	985.179871	9401.747070	1301.486450	3.758142
396.993469	992.238525	9388.967773	1308.173706	3.762598
397.355530	987.557434	9381.387695	1301.783691	3.743538
397.717499	985.848450	9416.532227	1285.511353	3.554432
398.079468	981.241699	9450.414063	1282.984985	3.562843
398.441376	975.891907	9448.928711	1291.901367	3.729589
398.803284	973.439941	9396.842773	1291.158325	3.771853
399.165131	980.275696	9384.062500	1282.019165	3.590565
399.526978	986.442871	9357.461914	1271.616699	3.406680
399.888763	982.727722	9371.132813	1284.916992	3.602464
400.250519	974.182922	9363.553711	1295.542236	3.830553
400.612244	974.554443	9404.569336	1297.771240	3.834119
400.973938	980.498718	9483.479492	1293.090210	3.676258
401.335602	976.857849	9557.484375	1296.508179	3.725256
401.697205	975.446106	9709.731445	1314.415161	3.880902
402.058807	977.526611	9878.546875	1320.507935	3.853281
402.420349	981.538879	10142.692383	1337.003052	3.880125
402.781860	983.396545	10380.759766	1334.476929	3.735946
403.143341	980.052917	10591.630859	1343.318848	3.779462
403.504822	980.201599	10793.139648	1348.965942	3.757940
403.866241	973.737122	10947.019531	1365.163940	3.924754
404.227631	967.124207	11054.758789	1376.903809	4.062197
404.588959	968.907532	11063.824219	1378.018188	4.052640
404.950287	969.576172	10999.551758	1381.733398	4.109254
405.311554	974.926025	10885.348633	1371.256714	3.999130
405.672821	979.012695	10765.275391	1367.170044	3.966349
406.034027	976.337708	10638.959961	1360.928589	3.980192
406.395203	982.950684	10463.160156	1377.200806	4.158665
406.756348	976.857849	10344.276367	1378.315430	4.285680
407.117493	979.681396	10298.208008	1381.510376	4.312151
407.478516	980.424377	10352.821289	1373.040039	4.189064
407.839600	980.350098	10421.327148	1385.894409	4.295576
408.200592	982.653503	10513.759766	1398.154297	4.359418
408.561554	981.687561	10631.901367	1419.924927	4.541219
408.922485	977.972473	10762.004883	1428.989868	4.609729
409.283417	983.025085	10885.273438	1436.123047	4.575708
409.644257	978.938293	10995.315430	1442.067261	4.623717
410.005096	986.294373	11089.531250	1456.556274	4.654567
410.365906	980.870300	11080.616211	1468.370239	4.826853
410.726715	977.155090	11064.418945	1477.212402	4.957314
411.087433	971.879639	10975.848633	1474.166016	5.020871
411.448120	966.455505	10932.901367	1474.314575	5.095689
411.808807	969.947754	10869.447266	1480.110229	5.153417
412.169434	975.520447	10817.583984	1480.258789	5.128379
412.530029	982.430603	10874.425781	1487.837524	5.109251
412.890564	985.848450	10955.713867	1499.503052	5.152071
413.251099	979.012634	11119.996094	1526.846558	5.402177
413.611572	975.891846	11251.809570	1541.112793	5.500443
413.972076	973.439941	11429.765625	1550.326538	5.517106
414.332489	971.433838	11564.625000	1558.499634	5.541916
414.692871	966.901367	11779.359375	1571.651367	5.593085
415.053223	966.901306	11950.627930	1585.620117	5.633050
415.413574	968.907410	12231.416992	1601.075195	5.613028
415.773834	980.572937	12469.557617	1616.529907	5.535363
416.134094	981.538879	12760.526367	1632.802246	5.529027
416.494263	983.990906	13024.598633	1648.777344	5.521204
416.854462	980.275818	13390.687500	1682.065063	5.654842
417.214630	981.167480	13831.972656	1714.535278	5.706785
417.574738	975.297546	14253.120117	1755.104492	5.873003
417.934784	978.343933	14713.871094	1784.305542	5.867715
418.294861	980.424316	15248.627930	1822.794312	5.903827
418.654846	989.712219	15893.426758	1850.806519	5.777716
419.014832	993.501648	16530.498047	1886.768921	5.749292
419.374756	992.089905	17191.792969	1917.604614	5.713159
419.734680	994.616211	17896.033203	1956.687866	5.692254
420.094543	983.916687	18465.712891	1993.096313	5.772746
420.454376	982.653503	18820.507813	2026.978394	5.854544
420.814148	984.585388	18992.146484	2045.182495	5.889733
421.173920	987.408875	19128.271484	2051.200928	5.864065
421.533691	986.517273	19234.820313	2056.402100	5.862927
421.893341	977.006531	19256.812500	2059.002686	5.919078
422.253021	972.325439	19206.583984	2058.259521	5.955461
422.612640	979.978577	19145.134766	2062.643555	5.960120
422.972260	982.802063	19169.283203	2062.494873	5.936789
423.331757	991.346863	19271.302734	2073.566162	5.920251
423.691315	988.746277	19450.966797	2070.965576	5.861804
424.050781	986.591553	19451.708984	2073.714600	5.887442
424.410248	978.938293	19260.677734	2059.077148	5.908294
424.769653	968.164368	18940.951172	2049.566162	6.016885
425.128998	974.034363	18567.953125	2036.563110	6.039183
425.488373	978.566833	18093.455078	2021.034058	6.090997
425.847656	981.613281	17627.503906	1989.752563	6.056386
426.206940	976.634949	17193.798828	1960.254395	6.065299
426.566193	978.715393	16855.201172	1929.641602	5.989526
426.925385	975.520325	16460.726563	1908.985352	6.028109
427.284576	974.108704	16033.932617	1880.750488	6.020268
427.643677	975.223206	15664.424805	1863.809570	6.049249
428.002777	982.133301	15407.559570	1845.679688	5.986280
428.361847	981.836121	15180.492188	1838.546509	6.033743
428.720856	977.155090	14966.127930	1830.596313	6.100814
429.079865	974.182922	14835.726563	1829.704590	6.171907
429.438812	980.498718	14812.989258	1827.847046	6.125783
429.797760	979.607117	14804.742188	1823.908813	6.107005
430.156616	979.755676	14651.828125	1819.153687	6.139508
430.515503	977.303711	14540.374023	1813.952515	6.168580
430.874268	974.703125	14554.120117	1809.196899	6.145284
431.233093	980.572998	14684.817383	1815.661255	6.093647
431.591827	981.241699	14869.163086	1827.401001	6.092771
431.950562	984.288147	15008.109375	1838.620728	6.092010
432.309204	973.662903	15150.770508	1854.075806	6.210103
432.667877	972.622742	15312.527344	1859.500000	6.184680
433.026459	974.034363	15384.229492	1863.066406	6.169466
433.385010	978.269714	15449.764648	1858.013794	6.079151
433.743561	973.365540	15462.694336	1863.140747	6.140900
434.102051	970.839355	15497.838867	1873.023071	6.210392
434.460510	973.439880	15514.928711	1872.651367	6.183765
434.818939	978.195313	15485.355469	1874.063110	6.175349
435.177338	980.795898	15462.768555	1873.765991	6.166080
435.535675	974.480164	15440.031250	1880.378906	6.262456
435.894012	975.371826	15445.901367	1882.162109	6.266462
436.252289	976.263428	15622.147461	1889.889648	6.238109
436.610535	975.000305	15716.957031	1887.512085	6.189896
436.968719	971.582336	16034.601563	1899.697632	6.161549
437.326935	966.529785	16287.973633	1913.072144	6.177893
437.685028	970.987976	16621.148438	1921.839844	6.075669
438.043152	969.947754	16856.615234	1940.935547	6.111966
438.401215	971.136536	17150.257813	1957.133789	6.094257
438.759277	965.043701	17529.201172	1991.164185	6.194824
439.117249	970.616455	18002.804688	2009.814087	6.101375
439.475250	967.867188	18413.550781	2032.922363	6.104978
439.833130	974.331604	18821.994141	2054.916016	6.054488
440.191071	970.987976	19013.546875	2072.451416	6.104807
440.548889	980.573059	19125.373047	2079.881592	6.058532
440.906708	980.795898	19066.302734	2071.708496	6.031971
441.264496	979.830017	18880.693359	2050.309326	5.980042
441.622223	969.650452	18652.062500	2040.129883	6.053922
441.979950	972.622559	18343.855469	2028.910034	6.080671
442.337616	971.953796	18092.935547	2025.194824	6.151755
442.695251	973.216980	17802.560547	2004.687378	6.129000
443.052887	972.399658	17703.218750	1997.108398	6.124678
443.410461	968.758789	17794.685547	1993.690430	6.091383
443.768005	973.068359	18012.912109	2001.938110	6.038023
444.125458	966.604065	18250.308594	2021.034058	6.100717
444.482941	970.616455	18595.964844	2044.810913	6.094600
444.840393	971.508118	19134.734375	2077.504150	6.089205
445.197754	979.086914	19659.906250	2100.760742	6.004414
445.555084	981.761902	20065.080078	2127.732666	6.005091
445.912415	981.093079	20300.767578	2144.004883	6.019314
446.269714	982.727783	20446.101563	2143.187744	5.962276
446.626953	984.436768	20473.816406	2137.837891	5.918101
446.984161	983.916687	20321.720703	2128.104248	5.916843
447.341309	978.120911	20065.748047	2128.475830	6.026705
447.698456	976.783508	19736.511719	2111.831787	6.050452
448.055542	977.080811	19497.554688	2101.132324	6.069237
448.412598	978.492493	19171.142578	2079.733154	6.053217
448.769653	977.155090	18820.138672	2063.683838	6.089389
449.126617	979.978516	18346.158203	2035.300171	6.076879
449.483582	980.424316	18040.550781	2026.160767	6.129711
449.840515	975.743347	17708.937500	2004.613159	6.148676
450.197388	966.901367	17516.419922	1993.839233	6.205243
450.554230	964.895203	17346.712891	1981.356445	6.204813
450.911041	964.003601	17357.859375	1982.173828	6.210682
451.267822	974.331604	17439.220703	1983.511108	6.129282
451.624573	978.121094	17498.960938	1976.080688	6.040610
451.981262	985.328430	17432.681641	1973.851563	6.010226
452.337921	976.709290	17238.826172	1968.204712	6.096964
452.694580	972.102539	16942.208984	1955.573242	6.158197
453.051147	972.176758	16747.238281	1941.901733	6.147202
453.407715	979.309875	16399.054688	1920.428101	6.103332
453.764221	984.065247	16229.496094	1903.932983	6.033728
454.120728	981.018799	15866.082031	1878.595703	6.030051
454.477142	970.616394	15809.835938	1873.617310	6.085232
454.833557	969.204651	15708.932617	1876.143555	6.153024
455.189911	969.799133	15721.786133	1888.477905	6.227491
455.546265	973.885742	15778.108398	1890.112671	6.188957
455.902557	970.987976	15819.569336	1890.707031	6.193986
456.258820	969.724792	16054.215820	1902.149780	6.181349
456.615051	970.839355	16323.637695	1918.942017	6.175438
456.971252	972.325378	16655.994141	1937.889282	6.156493
457.327393	971.508057	17207.025391	1961.220337	6.095970
457.683502	966.752625	17880.800781	2004.984741	6.138283
458.039612	963.780579	18830.166016	2053.207275	6.097634
458.395630	965.935364	19746.244141	2111.534668	6.100003
458.751648	975.966309	20564.912109	2156.041992	6.024192
459.107605	978.418274	21294.492188	2203.521240	6.030215
459.463562	977.675293	21558.562500	2212.363281	5.999197
459.819458	973.885742	21501.794922	2199.434570	5.970159
460.175323	969.947754	20947.421875	2174.394775	6.029026
460.531158	975.000305	20226.984375	2134.939941	6.025040
460.886932	978.046692	19414.039063	2084.191406	5.999920
461.242676	979.681396	18668.187500	2030.247437	5.939258
461.598419	970.542175	18128.304688	2003.275513	6.019045
461.954102	972.919739	17609.671875	1979.870239	6.052567
462.309723	973.662903	17175.150391	1960.402954	6.090429
462.665344	980.572998	16822.285156	1937.294922	6.039258
463.020905	976.709229	16612.304688	1925.109253	6.065647
463.376373	982.579102	16548.478516	1927.709839	6.071803
463.731873	980.647278	16519.871094	1937.592163	6.158254
464.087341	979.978577	16567.425781	1943.982056	6.184486
464.442749	978.566833	16722.792969	1942.941772	6.125261
464.798126	977.749451	16864.861328	1936.328735	6.033691
465.153503	974.182922	17049.726563	1937.071899	5.989775
465.508820	971.582336	17180.869141	1945.616699	6.009113
465.864105	977.675110	17298.789063	1961.963257	6.030766
466.219330	978.418152	17523.406250	1986.780396	6.094669
466.574524	972.771179	17600.830078	1996.365601	6.155827
466.929657	971.433655	17503.193359	1980.910522	6.106288
467.284790	968.833191	17295.443359	1968.130371	6.120666
467.639893	974.331543	17064.212891	1948.514526	6.054631
467.994934	966.158203	16892.947266	1946.508423	6.155354
468.349945	971.656677	16652.947266	1921.542603	6.057447
468.704926	973.142761	16501.667969	1911.883423	6.045266
469.059875	979.978577	16367.254883	1897.765747	5.964585
469.414764	972.622620	16322.153320	1901.480957	6.051380
469.769653	971.508057	16274.749023	1901.852417	6.079394
470.124451	958.876648	16323.565430	1900.589233	6.129070
470.479248	970.170654	16376.989258	1898.583008	6.025984
470.834015	966.232666	16460.876953	1903.561523	6.049373
471.188721	980.870300	16687.427734	1915.375610	5.949778
471.543365	981.836121	16922.818359	1933.505371	5.969954
471.898010	986.220032	17147.880859	1943.313477	5.921999
472.252625	982.950684	17409.052734	1963.523804	5.969604
472.607178	977.823914	17646.968750	1982.842407	6.029214
472.961700	978.418274	17752.033203	1987.597778	6.016470
473.316193	979.532776	17782.498047	1984.254272	5.979430
473.670654	978.864014	17727.142578	1979.053101	5.971891
474.025055	977.823914	17837.408203	1981.653687	5.954060
474.379456	980.127258	17887.787109	1995.325195	6.004367
474.733795	973.588562	18051.845703	2014.495239	6.094923
475.088104	978.566895	18321.712891	2035.225708	6.092659
475.442383	972.473938	18659.568359	2042.358887	6.048959
475.796570	981.910461	18954.921875	2048.377441	5.933713
476.150787	977.898132	19326.955078	2079.435791	6.003238
476.504944	980.350098	19681.156250	2114.283936	6.063556
476.859070	980.870300	20070.056641	2134.865967	6.045285
477.213135	984.734070	20326.103516	2142.890381	5.987975
477.567200	987.111633	20610.980469	2150.692139	5.929415
477.921173	984.288269	20878.767578	2176.772461	5.994046
478.275146	976.040527	21112.968750	2190.444092	6.030729
478.629089	971.136536	21393.908203	2218.159180	6.106040
478.983002	970.690674	21856.218750	2226.480957	6.012730
479.336823	972.919739	22411.632813	2253.527100	5.973341
479.690643	973.960144	23107.107422	2292.239014	5.956129
480.044403	975.446106	23984.771484	2353.389893	5.988632
480.398163	971.805359	25203.630859	2427.247070	6.006322
480.751862	973.885742	26841.783203	2508.757080	5.933498
481.105499	974.108704	29027.398438	2632.470947	5.911472
481.459137	979.755676	32213.203125	2811.317627	5.864105
481.812744	977.972473	36461.609375	3059.191650	5.865293
482.166290	976.560608	41570.738281	3351.870117	5.851356
482.519806	971.582336	46727.792969	3687.346924	5.935292
482.873291	971.953918	51007.031250	3980.099609	6.012074
483.226715	975.446106	53771.917969	4207.837402	6.122362
483.580139	980.647278	54832.656250	4301.755859	6.167103
483.933502	975.223145	54350.656250	4275.229980	6.182632
484.286804	967.718567	52581.953125	4133.312012	6.133179
484.640106	969.056091	49880.750000	3912.112549	6.017081
484.993347	975.297546	46993.644531	3693.513916	5.906810
485.346558	980.498718	44678.222656	3548.995361	5.877873
485.699738	981.910461	43480.390625	3482.642822	5.884287
486.052887	988.300476	43494.433594	3495.051514	5.897387
486.405975	987.706055	44343.050781	3540.227295	5.887443
486.759064	995.953674	45378.457031	3607.842773	5.884952
487.112061	989.786621	45910.542969	3640.164307	5.900118
487.464996	985.477051	45674.550781	3629.093018	5.915576
487.817963	980.795898	44599.316406	3562.963867	5.919889
488.170868	981.539001	42848.894531	3459.682861	5.919036
488.523743	986.591553	40788.402344	3313.827148	5.847059
488.876587	982.207703	38793.675781	3191.227295	5.842195
489.229401	985.476990	37481.636719	3114.992920	5.834904
489.582153	992.758606	37083.074219	3114.398438	5.878696
489.934845	988.523438	37642.648438	3149.840820	5.896519
490.287537	979.904297	38869.832031	3232.391357	5.944817
490.640198	963.334778	40178.378906	3309.814697	5.983622
490.992798	965.043762	40943.101563	3354.693359	5.977403
491.345337	972.994141	40825.406250	3334.854736	5.926518
491.697876	983.322266	39632.328125	3262.483643	5.897076
492.050354	981.836182	37733.968750	3148.577881	5.895554
492.402832	977.898193	35161.906250	2995.291260	5.901570
492.755219	971.731018	32407.650391	2830.785156	5.913790
493.107605	973.811523	29855.500000	2679.058838	5.904251
493.459930	962.740295	27825.031250	2563.741211	5.960032
493.812225	964.226379	26456.375000	2492.781982	5.996182
494.164490	960.957092	25644.544922	2451.989990	6.040585
494.516724	971.879578	25301.861328	2425.017822	5.972623
494.868896	973.811462	25239.744141	2410.305908	5.919798
495.221039	973.216980	25402.763672	2428.732910	5.958014
495.573120	973.960022	25609.250000	2448.423096	5.985167
495.925201	972.994141	25860.392578	2473.092041	6.027540
496.277222	978.046692	26030.470703	2471.605957	5.961736
496.629211	975.817627	26042.955078	2460.757568	5.923851
496.981140	982.430603	25913.443359	2446.640137	5.873044
497.333069	979.235535	25686.150391	2433.117188	5.884513
497.684967	983.470764	25408.185547	2421.822998	5.888922
498.036804	978.492493	24992.908203	2392.919189	5.889907
498.388580	982.059082	24496.492188	2363.123779	5.873264
498.740326	979.532776	24000.521484	2339.643799	5.908135
499.092072	984.585449	23520.156250	2303.384521	5.852077
499.443756	978.418274	23088.607422	2276.338135	5.870234
499.795410	983.322266	22694.501953	2262.740723	5.892901
500.147003	973.514221	22418.837891	2259.619873	5.997138
500.498566	979.681396	22144.884766	2243.644775	5.971893
500.850098	971.359436	21985.060547	2221.576904	5.949535
501.201599	967.198486	21835.935547	2205.453369	5.933540
501.553009	963.557617	21757.769531	2202.927002	5.960166
501.904449	967.421387	21705.164063	2203.595947	5.960989
502.255859	974.034363	21716.679688	2208.945557	5.953489
502.607178	983.470764	21765.794922	2214.220947	5.922101
502.958405	984.585266	21846.634766	2216.004395	5.902676
503.309692	985.551270	21887.576172	2221.280029	5.912005
503.660919	979.086914	21958.087891	2216.821533	5.899874
504.012115	982.579163	21952.740234	2216.524658	5.884293
504.363251	987.631775	21948.654297	2213.998047	5.850698
504.714294	990.158020	21866.029297	2214.220947	5.863530
505.065369	985.476990	21775.156250	2215.781250	5.917861
505.416443	982.282043	21642.970703	2212.437744	5.954089
505.767395	977.155090	21624.468750	2215.409912	5.997171
506.118317	976.783508	21606.414063	2209.539795	5.975659
506.469238	972.696960	21768.318359	2220.536865	6.000493
506.820160	973.662842	21919.970703	2228.561523	5.991025
507.170929	969.799072	22189.318359	2247.880127	6.023139
507.521729	972.102356	22431.470703	2242.084717	5.918079
507.872498	980.127136	22663.296875	2258.802734	5.897088
508.223236	980.424316	22927.664063	2275.000732	5.898584
508.573883	988.746277	23165.953125	2308.214111	5.949657
508.924500	979.755676	23426.978516	2316.387451	5.954553
509.275116	988.672058	23531.968750	2333.774170	5.966750
509.625702	983.173645	23656.873047	2335.111572	5.962583
509.976196	982.504883	23781.849609	2335.334717	5.933635
510.326660	980.052917	24067.244141	2331.396729	5.853219
510.677124	971.656677	24280.568359	2334.071289	5.845037
511.027557	969.724792	24511.947266	2347.148682	5.850866
511.377869	966.455505	24600.740234	2350.789307	5.857312
511.728180	969.947754	24648.218750	2362.009521	5.879068
512.078430	976.486389	24609.583984	2360.968994	5.858236
512.428650	974.851746	24518.708984	2363.569336	5.898428
512.778931	976.560730	24390.240234	2355.916260	5.891237
513.129028	976.263489	24218.078125	2347.891602	5.901554
513.479126	968.535950	24056.546875	2334.368408	5.915765
513.829285	966.306885	23923.396484	2325.972412	5.922639
514.179382	961.700195	23815.062500	2319.433838	5.941067
514.529297	967.495789	23794.703125	2331.322266	5.974566
514.879272	970.765076	23930.007813	2330.281982	5.921436
515.229187	977.377930	24056.099609	2342.467529	5.914927
515.579163	980.721680	24470.412109	2363.941162	5.888623
515.928955	975.891907	24961.478516	2394.850830	5.915882
516.278748	973.217041	25655.462891	2433.488525	5.916283
516.628540	966.901184	26429.031250	2482.899658	5.953934
516.978333	968.684570	27288.490234	2546.205566	5.993665
517.327942	969.353333	28228.791016	2593.833740	5.959332
517.677612	972.919922	28994.037109	2623.554688	5.890681
518.027222	970.616455	29512.076172	2644.136719	5.863472
518.376831	971.656677	29670.710938	2658.551514	5.877876
518.726379	978.046692	29450.703125	2640.495850	5.838757
519.075867	985.551270	28925.529297	2607.059570	5.803542
519.425293	989.117859	28226.787109	2566.564697	5.791416
519.774658	985.477051	27467.859375	2525.177979	5.814057
520.124084	985.179749	26806.568359	2497.686035	5.857572
520.473389	981.687561	26294.025391	2466.776123	5.867054
520.822693	983.099304	25991.015625	2450.652344	5.868354
521.171997	983.173584	25816.626953	2427.693115	5.816829
521.521240	976.263428	25763.208984	2436.237549	5.890093
521.870361	974.703125	25821.015625	2440.175781	5.898149
522.219482	974.777344	26026.757813	2458.974365	5.924470
522.568604	981.093079	26327.087891	2462.466553	5.844606
522.917664	982.356201	26757.078125	2489.141113	5.845979
523.266724	978.195313	27387.609375	2521.314209	5.843064
523.615662	980.275818	28270.103516	2589.226807	5.895790
523.964600	972.399719	29366.515625	2648.000244	5.901225
524.313538	975.594727	30598.677734	2722.005859	5.895441
524.662354	965.935364	31942.812500	2789.472900	5.886770
525.011169	976.857849	33223.199219	2859.614502	5.838667
525.359985	977.303711	34507.222656	2932.728516	5.831881
525.708740	980.498718	35805.218750	3002.944580	5.807501
526.057434	972.696838	37473.242188	3105.407959	5.842957
526.406067	972.325378	39643.402344	3235.734619	5.852977
526.754700	972.622620	42583.042969	3418.073486	5.877016
527.103333	971.953796	45819.667969	3618.170654	5.900450
527.451782	966.381104	49156.597656	3848.360596	5.980425
527.800293	972.102539	51705.328125	4024.235596	6.016044
528.148743	979.830017	53254.613281	4153.597168	6.071315
528.497131	976.263489	53293.031250	4158.203125	6.082065
528.845642	971.210938	52092.300781	4074.835693	6.071124
529.193909	968.610291	49708.667969	3893.685547	6.001378
529.542175	984.585266	46472.261719	3669.216797	5.901888
529.890503	984.139465	42943.035156	3449.206787	5.874958
530.238770	982.802063	39747.718750	3255.573486	5.862959
530.586914	974.851746	37495.378906	3121.457275	5.877805
530.934998	978.715515	36191.074219	3049.012451	5.879461
531.283142	982.281982	36082.738281	3045.891357	5.879152
531.631226	978.715515	36732.070313	3075.984131	5.865935
531.979248	981.761902	37994.695313	3137.135010	5.823297
532.327148	981.390381	39188.667969	3221.542969	5.863157
532.675110	985.328430	40003.765625	3283.511719	5.889993
533.023071	983.916687	40092.562500	3297.406250	5.915545
533.370850	977.675293	39425.250000	3242.125000	5.889708
533.718689	980.350098	38225.261719	3165.295898	5.866428
534.066467	975.891907	36689.941406	3064.615967	5.848466
534.414246	976.783508	35145.781250	2972.257568	5.840014
534.761963	972.251160	33922.535156	2903.453125	5.860957
535.109619	975.223145	33250.839844	2860.877930	5.842351
535.457153	979.161194	32995.386719	2841.856201	5.817972
535.804749	984.733948	32971.015625	2839.552734	5.798795
536.152344	990.306641	32837.566406	2830.413818	5.777914
536.499817	992.832947	32482.177734	2817.782227	5.795450
536.847229	986.740051	31869.255859	2769.485352	5.772669
537.194641	974.925964	31033.718750	2727.653076	5.830996
537.542114	973.588562	30277.095703	2669.548096	5.787565
537.889404	979.607117	29571.890625	2635.888916	5.792758
538.236694	985.551270	29171.771484	2617.387451	5.789482
538.583984	979.978516	29251.273438	2631.950928	5.843285
538.931213	975.891907	29953.060547	2682.402588	5.889156
539.278381	980.350098	31446.990234	2762.054932	5.848052
539.625488	984.808105	33352.187500	2885.100342	5.871011
539.972595	988.820496	35880.933594	3017.062256	5.812894
540.319641	982.802063	38193.011719	3163.215576	5.859718
540.666687	982.207703	40177.636719	3276.601563	5.853728
541.013611	974.926025	41277.093750	3356.476807	5.909237
541.360596	971.656677	41560.261719	3367.696533	5.903233
541.707458	964.300598	40866.871094	3331.808594	5.933222
542.054260	965.935364	39411.058594	3251.338623	5.944585
542.401062	967.867249	37708.113281	3154.224854	5.950852
542.747864	975.297607	35858.195313	3029.544922	5.888981
543.094666	974.257324	33997.210938	2911.031982	5.864935
543.441284	973.885803	32137.265625	2799.875000	5.859407
543.787903	974.554504	30622.453125	2722.674561	5.896270
544.134460	977.823792	29352.546875	2642.799072	5.867812
544.481079	979.384094	28484.765625	2594.873779	5.873359
544.827637	978.343933	27901.568359	2557.053711	5.863747
545.174072	980.944519	27609.257813	2547.171631	5.881811
545.520508	986.665833	27510.880859	2544.645264	5.873801
545.866943	980.127197	27357.593750	2537.140625	5.902816
546.213318	976.114807	27233.656250	2529.115967	5.914496
546.559631	965.786804	26797.724609	2505.116211	5.959016
546.905823	973.439941	26301.304688	2482.305420	5.957334
547.252136	978.120911	25579.009766	2449.612305	5.981456
547.598389	985.774170	24798.236328	2396.708740	5.925194
547.944458	980.870178	23913.291016	2331.396484	5.889158
548.290588	976.560730	22939.630859	2266.678711	5.874032
548.636658	972.622620	22020.132813	2225.663818	5.953394
548.982727	979.681396	21220.560547	2179.298828	5.926706
549.328735	982.281982	20708.169922	2152.401123	5.931896
549.674622	990.158020	20311.318359	2121.937256	5.857719
550.020569	989.340759	20080.978516	2117.330322	5.908291
550.366455	984.808289	19911.941406	2102.246826	5.903897
550.712280	980.350098	19907.333984	2102.544189	5.929070
551.058044	978.938416	19972.498047	2102.395508	5.914937
551.403748	985.031250	20062.330078	2111.609131	5.905332
551.749512	986.294373	20202.759766	2115.027100	5.873779
552.095154	981.241699	20357.755859	2126.692383	5.911541
552.440735	979.161316	20462.373047	2129.961670	5.906625
552.786316	977.898132	20401.000000	2126.321045	5.912664
553.131897	980.498718	20204.619141	2117.256104	5.913182
553.477417	975.817688	19907.927734	2105.441895	5.966711
553.822815	976.412109	19587.535156	2087.683594	5.971007
554.168213	976.040527	19247.822266	2053.949951	5.899312
554.513672	981.984680	18917.695313	2033.442749	5.862371
554.859009	976.932129	18615.804688	2013.083618	5.874250
555.204285	977.972473	18362.876953	2004.910522	5.907067
555.549500	974.926086	18168.279297	1986.780396	5.885148
555.894714	978.566895	18039.289063	1980.687500	5.873846
556.239990	976.114807	17933.927734	1972.960083	5.878384
556.585022	977.006531	17858.658203	1967.313110	5.866171
556.930115	974.183044	17734.572266	1956.613647	5.861622
557.275146	975.594727	17576.755859	1952.824219	5.886513
557.620178	972.994141	17434.167969	1952.601196	5.951016
557.965149	972.919739	17319.666016	1951.412476	5.985857
558.310059	973.142761	17254.503906	1944.353516	5.965169
558.654968	976.486389	17206.951172	1940.118286	5.937180
558.999756	977.972412	17218.095703	1937.220581	5.906656
559.344604	973.588562	17278.207031	1945.096680	5.958484
559.689331	970.096375	17329.548828	1943.684937	5.951230
560.033997	967.867249	17347.976563	1938.409302	5.925126
560.378723	967.644348	17389.660156	1936.105957	5.897337
560.723389	961.848694	17451.927734	1944.948242	5.961764
561.067932	960.139832	17546.587891	1960.997437	6.034189
561.412476	964.300781	17541.833984	1948.811890	5.938828
561.757019	972.028259	17514.564453	1945.393921	5.884017
562.101501	977.749512	17423.320313	1938.186523	5.840096
562.445862	979.309875	17331.333984	1950.520874	5.939393
562.790222	978.121033	17236.003906	1952.972656	5.996178
563.134644	979.755676	17227.533203	1950.669434	5.975671
563.478943	982.950745	17311.568359	1956.093384	5.959737
563.823181	989.860840	17475.630859	1952.898438	5.841630
564.167358	984.956848	17699.429688	1972.217163	5.906620
564.511536	979.458496	17997.531250	1977.269653	5.863245
564.855774	971.582336	18327.955078	1998.668945	5.917634
565.199768	969.724792	18673.017578	2018.730469	5.925483
565.543823	971.359436	18941.546875	2039.906860	5.946223
565.887817	977.006531	19197.966797	2043.919312	5.855415
566.231812	981.687561	19217.804688	2036.934937	5.786579
566.575745	981.390381	19116.603516	2027.721191	5.769608
566.919617	984.808289	18833.882813	2020.216797	5.800909
567.263428	979.978516	18567.060547	2003.498657	5.819727
567.607239	975.223206	18358.865234	1994.656372	5.864324
567.950989	968.758850	18179.498047	1996.291138	5.970297
568.294678	974.034363	18069.603516	1996.959839	5.983571
568.638367	977.452332	17975.984375	1991.907227	5.967897
568.981995	976.337830	17936.751953	1980.167603	5.918663
569.325623	968.535950	17998.943359	1980.539063	5.942330
569.669128	970.839355	18080.750000	1985.368774	5.929484
570.012573	972.771240	18240.945313	1989.009644	5.885037
570.356140	970.913757	18425.291016	1997.851563	5.883554
570.699524	969.055969	18705.710938	2017.987671	5.913920
571.042908	970.690735	19045.869141	2039.312500	5.912096
571.386230	974.331543	19290.250000	2051.720947	5.882257
571.729492	982.059082	19410.544922	2056.179199	5.828586
572.072815	980.573059	19395.091797	2055.733154	5.838655
572.416016	984.065247	19299.759766	2057.739502	5.862045
572.759094	980.647278	19174.263672	2055.064453	5.905462
573.102234	977.675110	19002.474609	2045.702515	5.925322
573.445374	973.439941	18839.529297	2031.733765	5.923478
573.788391	974.183044	18686.986328	2018.805054	5.897554
574.131409	978.046692	18587.865234	2016.575806	5.897443
574.474365	985.476990	18509.921875	2012.860840	5.862575
574.817261	981.018738	18416.152344	2013.603882	5.922440
575.160156	980.127136	18216.052734	2008.848267	5.968471
575.502930	974.480164	17985.937500	1985.665894	5.944145
575.845703	973.737122	17702.027344	1967.238770	5.939051
576.188477	976.709167	17400.582031	1949.257446	5.921553
576.531250	974.925964	17062.728516	1937.294800	5.981978
576.873901	984.288086	16710.830078	1910.322876	5.888356
577.216431	977.377991	16376.617188	1878.372681	5.850904
577.559082	982.504883	16021.820313	1868.119019	5.888660
577.901611	972.102478	15707.965820	1844.936523	5.923196
578.244080	977.823792	15421.976563	1826.286621	5.874092
578.586487	971.508118	15197.135742	1804.144165	5.853071
578.928955	981.093201	14992.653320	1805.333130	5.882571
579.271301	982.950684	14800.730469	1803.995728	5.941947
579.613647	985.551270	14611.926758	1792.553101	5.922351
579.955872	978.121094	14470.901367	1781.036133	5.950701
580.298157	973.068420	14365.836914	1781.481934	6.036194
580.640320	981.167480	14314.122070	1778.509766	5.980237
580.982483	977.749512	14262.778320	1769.742188	5.961543
581.324524	980.127197	14233.578125	1760.454224	5.887727
581.666626	970.690735	14156.004883	1756.442017	5.959291
582.008728	972.473938	14062.682617	1758.151001	6.002021
582.350647	971.285156	13954.645508	1740.466797	5.924365
582.692566	973.960022	13850.769531	1734.745605	5.908184
583.034424	978.789734	13794.448242	1722.559937	5.803605
583.376343	977.006531	13686.709961	1722.337036	5.864264
583.718201	976.263428	13648.073242	1727.166626	5.925777
584.059937	976.337708	13498.054688	1726.200684	5.988500
584.401611	982.579102	13443.739258	1727.538208	5.978249
584.743347	988.969177	13418.179688	1732.219238	5.979865
585.085022	992.684326	13427.467773	1736.528809	5.981966
585.426514	988.077454	13429.101563	1736.900391	6.018981
585.768127	988.449036	13433.411133	1724.343262	5.913190
586.109619	980.275818	13484.012695	1718.399048	5.903221
586.451172	984.065247	13523.764648	1720.182251	5.870292
586.792542	984.065247	13524.209961	1718.176147	5.854086
587.133850	991.569824	13569.979492	1718.324707	5.777796
587.475220	986.071472	13617.756836	1716.392944	5.781663
587.816589	981.910461	13671.032227	1725.457886	5.859723
588.157776	973.217041	13714.796875	1738.832397	6.008794
588.498962	969.056152	13780.406250	1753.692871	6.124544
588.840210	966.975586	13872.838867	1753.098267	6.091206
589.181335	967.867249	13930.348633	1747.822754	6.017023
589.522400	972.919861	13977.976563	1748.491577	5.963616
589.863403	970.765076	13957.838867	1751.983887	6.015357
590.204407	977.006531	13884.354492	1749.457520	5.984583
590.545410	975.371765	13773.643555	1738.460815	5.962439
590.886353	973.068420	13626.003906	1728.578491	5.971026
591.227112	964.895081	13543.528320	1724.491821	6.038786
591.567932	962.220215	13456.817383	1716.392944	6.035991
591.908752	958.802307	13473.164063	1710.002930	6.002708
592.249512	962.294495	13503.479492	1708.070923	5.946619
592.590149	966.604065	13503.331055	1711.191772	5.939251
592.930786	971.507996	13514.104492	1716.912964	5.942987
593.271423	973.291321	13575.479492	1731.179077	6.013937
593.612000	980.572998	13720.815430	1742.398804	5.979681
593.952576	982.727783	13892.528320	1761.791992	6.034673
594.292969	976.857849	14013.938477	1769.816528	6.082333
594.633484	968.164490	14205.268555	1777.989746	6.117843
594.973877	968.684570	14440.289063	1777.766724	6.005834
595.314209	980.052917	14731.480469	1796.119507	5.934413
595.654480	984.213867	15067.700195	1810.311523	5.865718
595.994812	987.631775	15410.831055	1844.936523	5.943929
596.335022	981.761902	15701.280273	1844.044922	5.858093
596.675171	978.566895	15807.754883	1856.825073	5.922497
597.015320	976.709290	15730.851563	1836.614868	5.828231
597.355408	979.235596	15457.046875	1828.069946	5.863002
597.695496	981.984680	15078.250977	1799.760742	5.801366
598.035461	979.458496	14543.643555	1771.748413	5.841043
598.375366	981.390320	14027.684570	1749.977905	5.891233
598.715271	974.108643	13583.206055	1726.126587	5.964090
599.055176	979.606934	13225.140625	1706.882202	5.939106
599.395081	972.028137	13000.004883	1696.999878	6.027379
599.734802	980.424316	12767.065430	1678.498535	5.922588
600.074524	983.396484	12677.381836	1660.814453	5.792875
600.414246	991.346863	12633.394531	1647.811523	5.638739
600.753906	991.569824	12666.756836	1660.888672	5.732831
601.093506	987.260254	12749.157227	1668.616211	5.792909
601.433044	977.823914	12896.127930	1661.928833	5.739952
601.772583	977.972412	13103.209961	1669.062012	5.699596
602.112122	976.040527	13389.721680	1700.194824	5.833518
602.451538	973.737122	13710.411133	1737.123413	5.993608
602.790894	969.130371	14127.028320	1765.135376	6.049636
603.130310	967.124207	14535.247070	1790.026733	6.064970
603.469604	968.461731	14905.573242	1820.639526	6.114450
603.808838	962.740295	15247.067383	1841.964355	6.155166
604.148010	966.009705	15509.726563	1844.416382	6.039767
604.487305	973.216980	15617.167969	1837.208984	5.899992
604.826416	986.219971	15545.764648	1829.630249	5.792834
605.165527	981.761780	15254.348633	1814.918335	5.837460
605.504456	975.223206	14921.770508	1790.769897	5.847661
605.843445	967.792969	14455.817383	1761.643188	5.885593
606.182434	972.622742	13994.620117	1740.541138	5.897086
606.521423	977.155090	13543.007813	1722.708618	5.933171
606.860229	971.359436	13218.083008	1699.228882	5.943381
607.199036	977.526550	13006.542969	1685.111328	5.882316
607.537903	975.074524	12954.828125	1686.151733	5.935658
607.876648	981.390320	12988.859375	1694.473511	5.938664
608.215271	977.526611	13153.512695	1712.974976	6.040154
608.553955	981.761902	13335.257813	1727.835449	6.039371
608.892578	986.145752	13532.976563	1740.318359	6.010861
609.231140	985.179871	13629.718750	1748.045898	6.033166
609.569641	985.699890	13653.346680	1732.590942	5.896052
609.908081	983.396484	13549.770508	1729.321655	5.935882
610.246521	982.876282	13351.827148	1722.634399	5.980767
610.584961	980.498718	13041.242188	1718.993530	6.123128
610.923340	981.093079	12699.597656	1708.888306	6.210649
611.261597	979.904297	12347.625000	1687.117676	6.221241
611.599854	977.972412	12070.476563	1669.359253	6.232920
611.938110	980.201477	11796.225586	1644.245117	6.139443
612.276245	981.538879	11594.046875	1623.217285	6.046435
612.614319	979.309875	11403.089844	1611.477539	6.064668
612.952393	977.229309	11224.614258	1605.681763	6.132808
613.290466	976.560730	11081.136719	1606.276001	6.231981
613.628479	985.997131	10899.763672	1599.143066	6.184793
613.966370	988.672058	10824.123047	1588.666382	6.100323
614.304260	983.842346	10722.774414	1574.177368	6.061599
614.642151	974.405945	10666.452148	1567.638794	6.120821
614.979980	964.375000	10605.821289	1564.741089	6.226930
615.317749	968.833191	10596.385742	1560.580078	6.146389
615.655396	971.805237	10583.753906	1551.737915	6.033456
615.993164	981.093079	10597.127930	1546.462524	5.879445
616.330811	979.755798	10575.506836	1546.091187	5.901939
616.668396	978.195313	10570.007813	1552.629517	5.988797
617.005859	977.080750	10561.983398	1558.648071	6.067535
617.343445	970.467834	10580.856445	1559.168335	6.125668
617.680908	969.501892	10603.816406	1548.988770	6.014822
618.018311	971.433777	10588.434570	1546.313965	5.977749
618.355652	972.771179	10587.915039	1544.307739	5.944129
618.692993	980.127136	10559.903320	1546.685547	5.914109
619.030273	982.504883	10528.472656	1543.490601	5.876677
619.367554	985.476990	10440.794922	1541.930054	5.885080
619.704712	979.235535	10392.275391	1544.827759	6.008603
620.041870	959.471008	10363.520508	1541.558594	6.189754
620.379028	962.368835	10346.133789	1538.363403	6.138204
620.716064	967.124207	10324.585938	1532.196289	6.038733
621.053040	975.446106	10285.502930	1533.682495	5.996058
621.389954	972.474060	10259.050781	1534.648438	6.053623
621.726929	965.935364	10238.098633	1529.150024	6.074253
622.063843	967.124268	10231.039063	1520.085083	5.968976
622.400635	970.319275	10249.020508	1521.645508	5.941847
622.737427	979.904297	10263.956055	1529.224243	5.916812
623.074219	981.464600	10264.475586	1539.106567	6.007124
623.410889	975.891907	10284.537109	1529.967407	5.952268
623.747559	964.746521	10359.954102	1539.106445	6.113328
624.084167	973.514221	10431.655273	1538.066406	5.968956
624.420715	976.857849	10521.116211	1547.428345	5.978154
624.757324	983.990906	10573.351563	1544.753540	5.847758
625.093750	981.687500	10729.609375	1552.778198	5.858589
625.430176	982.950684	10909.793945	1563.626465	5.849551
625.766602	981.910461	11087.229492	1579.452759	5.913146
626.102905	974.777405	11282.051758	1588.889282	5.958044
626.439209	975.966248	11399.078125	1602.486694	6.010877
626.775452	976.337708	11497.456055	1608.208008	6.005733
627.111694	983.247864	11462.531250	1617.718750	6.054526
627.447876	980.350098	11412.674805	1609.693970	6.032633
627.783997	977.377991	11298.545898	1599.366089	6.026334
628.120056	975.669128	11187.239258	1586.511597	5.981866
628.456055	976.412109	11000.590820	1581.904907	6.040323
628.792053	975.223206	10821.670898	1568.456055	6.024842
629.128052	974.182922	10633.983398	1559.762695	6.062027
629.463928	973.291321	10506.256836	1555.007324	6.102151
629.799744	969.873352	10402.530273	1554.858765	6.201703
630.135559	964.077820	10292.264648	1555.230347	6.337272
630.471375	965.192322	10178.061523	1540.964233	6.249648
630.807068	973.439941	10075.299805	1531.899048	6.135660
631.142700	986.591492	9988.217773	1526.326538	5.995973
631.478333	986.442871	9902.249023	1520.530884	5.990350
631.813965	984.511047	9866.956055	1517.261597	5.997791
632.149475	976.189148	9833.593750	1502.995483	5.947638
632.484924	982.281982	9845.483398	1500.617798	5.848178
632.820435	985.105469	9815.686523	1500.469238	5.836125
633.155884	989.192078	9844.515625	1509.756836	5.878552
633.491150	988.672058	9885.901367	1515.106812	5.916839
633.826477	988.523438	9901.133789	1521.199585	5.976657
634.161804	978.641113	9861.829102	1515.181152	6.039949
634.497009	974.777344	9760.925781	1512.654785	6.121880
634.832153	971.953857	9667.824219	1502.401001	6.099989
635.167297	968.610291	9548.716797	1495.565063	6.141588
635.502380	964.969421	9444.098633	1486.054565	6.145503
635.837463	960.957031	9327.889648	1472.382813	6.112464
636.172424	970.616394	9256.261719	1464.803833	5.964381
636.507324	970.319153	9194.887695	1464.729492	6.011384
636.842224	972.325439	9150.083008	1465.175415	6.026713
637.177124	972.548340	9071.842773	1459.231079	6.008952
637.511963	979.607117	9001.180664	1448.160156	5.841161
637.846741	988.597656	8883.484375	1439.689453	5.713721
638.181396	983.396484	8786.221680	1442.810181	5.887786
638.516113	979.829895	8699.881836	1448.605835	6.072186
638.850769	976.783508	8659.387695	1446.673950	6.116292
639.185303	975.520447	8615.401367	1432.184937	5.977377
639.519836	978.566895	8572.156250	1418.141602	5.788761
639.854370	971.953918	8500.379883	1415.689819	5.894139
640.188843	977.155090	8430.461914	1414.575317	5.868808
640.523254	968.833191	8354.895508	1411.751831	5.996682
640.857605	971.730957	8328.889648	1407.962280	5.929345
641.191895	971.953857	8284.381836	1407.813599	5.960534
641.526184	983.545105	8258.672852	1407.665039	5.829725
641.860413	978.715515	8204.432617	1410.117065	5.970363
642.194580	969.056152	8188.605469	1407.962280	6.079412
642.528748	957.316223	8149.373535	1403.578247	6.204929
642.862793	965.861084	8109.324707	1398.600098	6.057832
643.196838	975.743347	8058.575684	1398.079956	5.962821
643.530823	976.189209	8006.118652	1406.030273	6.114443
643.864746	976.263489	7996.458984	1398.897461	6.020259
644.198669	980.795898	7983.902344	1395.182251	5.917179
644.532532	979.086975	7965.995605	1378.984253	5.723522
644.866333	973.885803	7969.412598	1387.231812	5.908719
645.200073	968.535950	7982.489746	1390.352539	6.013963
645.533813	976.412109	8016.297363	1391.764282	5.899985
645.867554	978.195313	7993.263672	1386.786011	5.824472
646.201172	978.121033	8013.400391	1386.191406	5.800344
646.534729	977.377930	8029.672363	1396.445313	5.942284
646.868225	977.452332	8067.937988	1406.550415	6.051744
647.201782	973.365662	8068.532715	1403.950073	6.068700
647.535217	974.628723	8066.229004	1396.371094	5.947069
647.868591	984.362488	8046.019043	1396.891113	5.841811
648.201965	988.300476	8012.062500	1398.674438	5.842652
648.535278	988.672058	7981.895996	1405.064453	5.954226
648.868591	986.814453	7980.187012	1388.420532	5.742667
649.201782	982.802063	7965.846191	1387.008789	5.788403
649.534912	984.808289	7960.645020	1385.448608	5.743258
649.868103	978.418213	7943.555176	1390.872681	5.921700
650.201172	981.316101	7972.607422	1391.095337	5.861281
650.534180	973.811462	7978.031250	1392.878784	5.983069
650.867188	970.244934	7975.728516	1402.686646	6.172903
651.200134	972.919861	7964.657715	1408.779663	6.233927
651.533020	970.467834	7969.189453	1405.138672	6.210718
651.865845	974.034363	7926.837402	1400.234741	6.129907
652.198608	969.576172	7884.558594	1393.696167	6.133349
652.531433	980.127136	7829.425781	1394.216187	6.045714
652.864136	985.922668	7796.510254	1393.175903	5.979708
653.196777	1119.370483	7878.243652	1507.973633	5.749526
653.529358	1124.051636	7847.704590	1516.444214	5.836003
653.861938	1105.550171	7826.974121	1506.190430	5.960646
654.194519	969.056091	7638.245605	1377.201050	6.119859
654.526978	958.282227	7578.431641	1360.334229	6.073156
654.859375	969.056152	7515.200684	1367.913086	6.093005
655.191833	973.811462	7520.773438	1369.993530	6.051388
655.524170	977.155090	7540.166504	1372.742798	6.027534
655.856445	977.080811	7563.868652	1367.021484	5.920043
656.188660	979.607117	7581.775879	1377.721069	6.030048
656.520874	978.641113	7599.236816	1387.008789	6.168141
656.853088	972.102539	7677.849121	1391.987305	6.261566
657.185181	971.062256	7721.538574	1387.008911	6.161737
657.517212	965.861084	7817.314941	1381.436157	6.065502
657.849243	973.960022	7942.663574	1383.665405	5.879220
658.181274	977.377930	8158.513184	1401.646484	5.908099
658.513123	983.396484	8347.539063	1422.154175	5.958028
658.844971	984.659668	8537.084961	1430.996094	5.909842
659.176819	985.922852	8664.811523	1445.262207	5.981847
659.508667	979.384094	8738.296875	1448.457153	6.045603
659.840393	983.470764	8711.918945	1454.550171	6.095395
660.172058	984.808289	8605.370117	1442.141479	6.001305
660.503662	995.953613	8446.436523	1428.023926	5.799226
660.835266	988.597656	8276.431641	1418.735962	5.902142
661.166931	983.693665	8090.006348	1399.714722	5.854247
661.498413	971.062195	7933.896484	1390.946899	6.030370
661.829773	972.251160	7746.950684	1377.943848	5.988349
662.161194	968.833191	7585.937012	1375.863403	6.151184
662.492615	977.377930	7422.099121	1368.210327	6.064380
662.823975	972.176758	7309.753418	1364.346558	6.188009
663.155212	968.164368	7221.556152	1356.173218	6.204774
663.486450	964.375000	7147.252441	1356.470459	6.341634
663.817627	973.960022	7067.749512	1349.188843	6.157561
664.148743	986.888733	6987.650879	1347.256958	6.005374
664.479858	979.235535	6925.683105	1338.043335	6.033986
664.810913	980.647278	6882.958496	1333.733765	5.982173
665.141907	975.371765	6871.292480	1326.600708	5.957151
665.472778	982.653503	6846.400879	1321.622437	5.780756
665.803711	977.006409	6817.794434	1322.885620	5.921790
666.134583	974.331543	6779.974609	1322.959961	6.004992
666.465454	974.257263	6769.646484	1327.715332	6.098953
666.796143	968.833191	6774.550781	1328.978516	6.203287
667.126831	970.467773	6793.274902	1334.922729	6.259094
667.457458	974.331543	6792.234375	1330.538940	6.122608
667.788147	975.371826	6806.352051	1333.065186	6.134360
668.118774	976.932129	6822.698730	1336.557251	6.151890
668.449219	977.526611	6839.862793	1332.916504	6.062257
668.779663	981.761902	6849.744629	1337.597534	6.064020
669.110107	980.647278	6833.546875	1333.065063	6.021251
669.440552	977.898010	6811.033691	1335.962891	6.138463
669.770874	974.108582	6764.371094	1325.709106	6.072272
670.101135	971.507996	6702.700684	1327.566650	6.212645
670.431396	965.712402	6673.647949	1320.805176	6.221037
670.761597	961.774414	6632.187012	1306.984863	6.087924
671.091797	964.969421	6616.806152	1300.000488	5.927826
671.421875	974.480164	6564.050781	1300.074707	5.825037
671.751892	986.888733	6540.496582	1309.956909	5.817266
672.081909	983.693665	6508.695313	1304.087036	5.798974
672.411865	987.408875	6479.346191	1309.882568	5.871766
672.741821	977.823914	6428.150879	1307.207642	6.043375
673.071716	979.012695	6423.173340	1310.699829	6.092530
673.401550	968.164490	6403.557129	1306.836304	6.230862
673.731262	970.839417	6388.919434	1303.566895	6.141059
674.060974	969.130432	6348.869629	1292.867310	6.017706
674.390625	972.251160	6319.148438	1286.997437	5.886522
674.720276	976.932190	6294.480469	1281.350464	5.724786
675.049927	977.229309	6264.313965	1289.820923	5.912363
675.379395	972.028137	6260.970215	1297.622681	6.156137
675.708923	968.090088	6236.078613	1297.919922	6.261021
676.038330	966.604004	6226.642578	1295.170776	6.246471
676.367737	973.439880	6203.088379	1290.935425	6.071069
676.697083	971.730896	6203.831543	1293.833130	6.156270
677.026428	975.669006	6196.475098	1289.300781	6.007344
677.355652	973.365662	6227.088379	1287.071655	5.971118
677.684875	972.622620	6262.457031	1289.003540	5.980923
678.013977	971.805359	6286.456543	1298.068481	6.138937
678.343079	968.610352	6325.835938	1304.087036	6.262135
678.672180	973.439941	6374.207031	1315.529663	6.334095
679.001221	971.359558	6455.048828	1320.210815	6.361616
679.330139	977.006531	6541.240234	1312.780396	6.034503
679.659058	979.607117	6645.264160	1309.362671	5.820252
679.987976	985.477051	6755.752441	1313.151978	5.678670
680.316772	981.390381	6776.631348	1329.498657	6.006795
680.645630	976.635010	6780.494629	1337.003052	6.209111
680.974304	972.102539	6740.891113	1333.659546	6.267468
681.302979	968.164551	6726.625000	1324.445923	6.187094
681.631653	965.935364	6690.662598	1317.758789	6.145680
681.960266	969.650574	6646.750000	1309.585449	5.987826
682.288757	980.498718	6601.202637	1312.409058	5.905138
682.617249	986.888733	6514.342285	1313.300659	5.905286
682.945679	986.665833	6415.965332	1320.285034	6.144793
683.274109	979.309875	6309.638184	1308.842407	6.182219
683.602478	977.080811	6207.472656	1297.994263	6.135553
683.930725	972.548340	6131.609375	1284.842651	6.053317
684.259033	978.492493	6049.728027	1282.910767	6.002842
684.587280	975.074524	5996.080566	1273.251343	5.938587
684.915344	979.458496	5919.028809	1273.325684	5.949246
685.243469	982.504883	5867.537109	1267.232788	5.828578
685.571533	986.591492	5808.169434	1278.229614	6.048603
685.899536	982.207703	5783.798340	1275.777710	6.114016
686.227539	976.040527	5768.566406	1279.641479	6.334884
686.555420	980.498718	5795.835449	1272.954224	6.073417
686.883301	986.071289	5829.717285	1273.697266	5.938212
687.211121	989.117737	5850.225098	1275.629028	5.893951
687.538940	978.789734	5865.011230	1277.338013	6.110003
687.866638	971.433777	5874.373535	1275.183228	6.195251
688.194336	969.130371	5871.697754	1270.799438	6.153287
688.521973	970.021973	5847.104004	1269.759155	6.145830
688.849609	969.204590	5793.754395	1276.223511	6.363680
689.177063	967.867188	5736.689941	1279.418579	6.533088
689.504578	977.972473	5654.288574	1274.960449	6.350896
689.832031	981.687561	5592.021973	1263.072021	6.103342
690.159485	982.802063	5536.890137	1252.521118	5.922570
690.486816	981.836121	5498.252441	1239.369507	5.702162
690.814087	991.049622	5439.107910	1237.586060	5.542563
691.141296	991.718445	5379.294434	1240.484009	5.669772
691.468506	983.247864	5325.870605	1243.679077	5.997095
691.795715	970.319275	5275.567383	1243.010376	6.333923
692.122803	968.981750	5220.657715	1234.391113	6.242465
692.449829	973.811462	5179.122559	1234.019653	6.187609
692.776855	983.024963	5131.345703	1229.561401	5.943042
693.103821	981.613281	5101.550293	1230.750366	6.047109
693.430664	978.343933	5063.804688	1231.864868	6.205443
693.757568	974.183044	5056.671387	1229.412964	6.251822
694.084351	975.000305	5032.895020	1229.635742	6.275063
694.411133	973.885742	5030.739746	1224.063110	6.166783
694.737854	970.987976	5013.649902	1224.880371	6.280327
695.064575	978.566895	5030.294434	1217.078613	5.886667
695.391174	985.105469	5037.427246	1225.771973	5.938978
695.717773	983.322266	5072.275391	1225.400513	5.920299
696.044250	976.040527	5114.776855	1233.499512	6.220715
696.370789	968.684570	5181.648926	1231.939087	6.248677
696.697205	975.297546	5246.663574	1239.072144	6.175415
697.023621	970.839355	5358.043457	1248.434204	6.327375
697.349915	968.387390	5500.110840	1253.486816	6.291192
697.676208	963.706299	5692.033691	1264.260864	6.356467
698.002380	969.056091	5878.459473	1278.006836	6.293041
698.328674	972.994141	6063.622559	1295.988159	6.344875
698.654724	975.297546	6213.119141	1309.436768	6.379354
698.980896	978.641174	6327.248047	1311.665894	6.226382
699.306946	988.003357	6340.770996	1307.059082	5.960575
699.632935	992.164246	6281.403809	1292.495728	5.678160
699.958862	991.272644	6152.636719	1283.653809	5.664804
700.284729	983.545105	5994.223145	1268.570313	5.688356
700.610596	983.619385	5815.525391	1260.099731	5.721972
700.936340	979.235596	5616.914063	1243.901855	5.706869
701.262146	982.281982	5428.036621	1239.889526	5.794461
701.587830	978.418213	5257.437500	1236.917480	6.041086
701.913513	979.681335	5101.179199	1229.189941	6.053833
702.239075	977.080750	4981.923340	1221.759644	6.109576
702.564697	971.805237	4876.339355	1211.654541	6.142840
702.890137	971.433777	4785.689941	1211.877441	6.303815
703.215698	976.486328	4723.498535	1198.577271	5.927147
703.541016	979.532776	4653.133301	1192.187134	5.788717
703.866455	979.384216	4606.322754	1189.512085	5.793533
704.191711	972.251160	4546.360840	1197.165405	6.292875
704.517029	970.839355	4505.048340	1197.685547	6.418584
704.842163	966.529785	4467.673828	1193.598999	6.485572
705.167419	965.266663	4449.098145	1186.763062	6.357839
705.492493	968.684570	4427.625000	1193.450317	6.498110
705.817566	975.594727	4410.832520	1191.815552	6.294202
706.142578	979.607117	4389.358887	1194.267700	6.295490
706.467590	982.504883	4407.488770	1185.499878	5.926889
706.792480	975.520447	4403.327637	1190.181030	6.262330
707.117371	973.811523	4415.067871	1190.552612	6.298313
707.442200	966.975586	4392.925781	1196.719604	6.705994
707.766907	968.535950	4397.160645	1194.267700	6.583740
708.091675	961.774414	4400.355957	1197.982788	6.869355
708.416321	964.672180	4433.643066	1193.598999	6.599272
708.741028	968.981750	4486.026855	1197.314087	6.492164
709.065552	975.223206	4508.614746	1197.536987	6.291796
709.390137	975.743347	4517.902832	1199.171753	6.307689
709.714600	979.161316	4505.271484	1195.084961	6.123565
710.039063	985.179749	4536.924316	1192.781616	5.845068
710.363403	985.031250	4589.530762	1194.787720	5.819295
710.687744	983.247864	4658.334961	1200.286255	5.905666
711.012085	982.059082	4718.594727	1205.710327	5.985524
711.336304	987.334473	4741.256836	1204.075562	5.773723
711.660461	983.619385	4742.371582	1199.766113	5.750492
711.984619	981.836121	4721.120605	1199.394531	5.818183
712.308716	983.470764	4698.606934	1197.165405	5.752000
712.632751	982.802063	4660.043457	1196.422363	5.809254
712.956726	989.043640	4611.227051	1189.066406	5.522160
713.280701	987.854736	4557.877441	1192.484375	5.731886
713.604553	995.433594	4505.122559	1191.369751	5.582721
713.928467	985.328369	4453.259277	1192.261475	5.967048
714.252258	979.829895	4430.076660	1188.992310	6.062245
714.575989	973.885742	4421.531738	1190.106812	6.271556
714.899719	972.845520	4420.194824	1184.905640	6.151396
715.223267	972.994141	4417.074219	1180.967407	6.038572
715.546936	975.074646	4428.591309	1176.509277	5.832740
715.870422	977.377991	4434.386230	1173.165649	5.663500
716.193970	975.966248	4407.711426	1176.286377	5.837267
716.517395	977.155090	4365.062012	1176.137695	5.873320
716.840820	979.235596	4316.170410	1178.366821	5.967489
717.164124	975.743347	4279.687988	1174.577393	6.018081
717.487488	968.907471	4234.958008	1173.165649	6.253981
717.810730	964.820801	4178.859375	1172.719849	6.468468
718.133972	966.975586	4112.581543	1165.512573	6.311566
718.457092	965.712463	4046.823486	1157.413452	6.221814
718.780212	964.300781	4000.161377	1154.812866	6.275390
719.103210	970.170654	3940.421875	1151.320679	6.098812
719.426208	979.458496	3896.360352	1151.246216	5.889390
719.749207	983.099304	3826.292969	1154.144165	6.015942
720.072083	981.241699	3796.051514	1150.131836	6.000055
720.394958	970.913635	3760.683350	1153.698242	6.551960
720.717773	977.526672	3740.175781	1152.806641	6.344634
721.040527	973.811462	3705.179443	1151.320435	6.498904
721.363281	980.572998	3673.377930	1143.815918	6.062189
721.685913	981.241699	3661.043701	1133.116333	5.667383
722.008545	987.854675	3653.539063	1129.178467	5.301595
722.331055	985.551331	3643.210938	1124.274414	5.219746
722.653503	977.080750	3627.012939	1123.977173	5.543403
722.976013	975.000244	3616.164795	1135.345581	6.071009
723.298401	978.864075	3601.972900	1139.135010	6.109961
723.620789	984.733948	3600.709961	1138.020508	5.859632
723.943115	980.127197	3592.833984	1131.853394	5.807241
724.265381	975.817627	3593.131104	1133.636719	6.029812
724.587585	977.749512	3582.580078	1137.277466	6.124312
724.909790	972.919739	3586.740967	1135.048340	6.202743
725.231873	978.418213	3590.827393	1130.218628	5.810744
725.553894	969.724792	3604.424805	1132.670654	6.184608
725.875916	1018.095886	3652.201904	1177.178101	6.039325
726.197937	1016.015442	3677.613281	1184.311035	6.323103
726.519775	1021.513855	3687.124023	1174.726074	5.747736
726.841675	983.619446	3669.811523	1139.357910	5.797741
727.163513	979.309875	3681.848389	1138.466309	5.889146
727.485291	981.316101	3710.975342	1140.323853	5.825187
727.806946	976.560730	3738.615479	1137.128906	5.813360
728.128662	986.591553	3749.166748	1138.837769	5.511025
728.450256	980.647278	3772.720703	1149.908936	6.062221
728.771790	976.189148	3761.798096	1148.422852	6.182982
729.093323	963.706299	3763.061279	1148.942871	6.617116
729.414795	956.498962	3739.135986	1146.862427	6.841117
729.736145	960.511230	3740.101563	1143.890503	6.597349
730.057495	962.666077	3736.089111	1153.103882	6.866526
730.378845	975.223206	3751.990234	1156.670410	6.534477
730.700134	984.436707	3758.380127	1158.379395	6.270593
731.021301	990.083740	3798.429443	1153.326782	5.812783
731.342468	986.963074	3822.726563	1149.314453	5.725138
731.663574	985.328430	3848.212158	1155.109985	5.930438
731.984680	985.179871	3845.165771	1156.670410	5.996202
732.305664	986.963074	3834.168945	1154.367065	5.879589
732.626648	984.659607	3837.661377	1153.326782	5.911920
732.947571	988.151855	3830.156494	1151.915161	5.762246
733.268433	988.151855	3814.701904	1153.698364	5.856840
733.589233	989.117859	3790.776123	1153.252563	5.858484
733.909973	981.538879	3747.606445	1145.227905	5.917752
734.230713	973.811462	3727.544678	1142.775757	6.135827
734.551331	966.083984	3667.805420	1134.973999	6.251200
734.871948	967.124207	3628.350586	1130.069946	6.122957
735.192505	969.353333	3556.796875	1125.314575	6.027619
735.513062	970.022034	3516.524658	1129.104126	6.247081
735.833435	971.359558	3467.261963	1129.401367	6.332051
736.153931	964.449402	3435.534912	1134.379761	6.876750
736.474304	970.170715	3405.145264	1127.395142	6.456923
736.794617	973.737244	3379.138916	1127.840942	6.406569
737.114807	980.795898	3373.938232	1121.079468	5.861898
737.434998	978.046692	3382.259766	1121.079468	5.949255
737.755188	975.743347	3412.872314	1118.404419	5.853653
738.075256	980.498779	3421.045898	1121.450928	5.775433
738.395325	977.600891	3437.541016	1123.531372	5.932278
738.715271	978.789734	3463.696045	1125.834839	5.917531
739.035278	975.223206	3493.565186	1128.286743	6.077949
739.355164	972.176819	3512.661133	1124.497437	5.995731
739.675049	973.068542	3503.076172	1127.098022	6.088103
739.994873	973.365723	3498.915283	1125.389038	6.019415
740.314636	982.504883	3453.144775	1127.543823	5.870501
740.634277	981.761902	3420.749023	1121.525269	5.730386
740.953979	986.220032	3367.176758	1114.986694	5.408190
741.273499	990.603821	3344.440186	1114.540771	5.265317
741.593140	991.123962	3301.715820	1112.534668	5.254529
741.912598	986.071350	3265.678711	1110.974243	5.479140
742.232117	979.830017	3220.725586	1114.243530	5.998205
742.551453	970.987976	3190.187500	1114.094971	6.448586
742.870850	975.891907	3160.094727	1111.122803	6.191316
743.190063	971.210938	3143.673828	1100.348999	5.944316
743.509338	971.805359	3120.788818	1097.376831	5.843297
743.828552	963.557678	3097.828857	1093.215942	6.075060
744.147705	964.820801	3072.120117	1099.160156	6.374954
744.466797	967.867249	3062.163330	1093.958984	6.020721
744.785828	972.474060	3057.631104	1094.479126	5.851121
745.104858	975.817688	3037.495361	1086.380127	5.362741
745.423706	974.628845	3023.451904	1089.575073	5.610354
745.742615	969.947754	2999.452393	1098.119873	6.315439
746.061401	964.077820	3005.024658	1106.144531	6.960824
746.380249	966.009705	3002.126953	1110.379883	7.090465
746.698975	973.217041	3000.417969	1106.961914	6.597515
747.017639	969.576172	2984.071533	1106.887695	6.816175
747.336304	970.616394	2969.433838	1114.094849	7.178167
747.654907	959.842529	2964.083984	1113.500488	7.666639
747.973389	971.433777	2971.440186	1113.203247	7.088451
748.291931	968.313049	2968.096436	1106.664673	6.918330
748.610352	976.560730	2978.350342	1106.516113	6.491961
748.928711	973.811523	2986.375000	1107.853638	6.660268
749.247070	980.795959	2986.597900	1106.516113	6.267825
749.565308	975.594727	2983.774414	1102.503784	6.319607
749.883545	972.771240	2975.303955	1098.119873	6.259505
750.201782	966.975586	2971.588867	1099.903198	6.631085
750.519836	974.405945	2960.294922	1102.949585	6.472851
750.837952	978.418274	2959.106201	1105.252930	6.403566
751.155884	980.647400	2953.458984	1096.485107	5.871707
751.473877	991.792786	2956.282471	1101.909302	5.605350
751.791809	991.049744	2931.093750	1101.760742	5.706623
752.109619	991.272644	2927.230225	1108.225098	6.041065
752.427490	980.052917	2913.707031	1100.943481	6.251923
752.745300	978.343933	2931.762451	1096.039429	6.025104
753.062988	978.789734	2933.917236	1097.228394	6.057848
753.380615	978.343933	2918.090576	1097.153931	6.125027
753.698303	982.802063	2895.874268	1094.924805	5.860873
754.015808	984.808289	2894.239502	1090.764038	5.549074
754.333374	983.396545	2906.871094	1088.088989	5.442882
754.650757	986.665833	2906.127930	1094.479126	5.616849
754.968262	979.607117	2902.264404	1100.051880	6.264495
755.285583	977.229309	2890.524170	1102.280884	6.535928
755.602905	967.049988	2898.251953	1102.949585	7.037047
755.920105	969.576172	2893.496338	1093.735962	6.453479
756.237305	964.969482	2903.675781	1091.952759	6.549898
756.554443	970.393555	2894.239502	1079.915771	5.692879
756.871582	977.600891	2887.923828	1081.253174	5.425903
757.188599	982.356262	2898.772217	1083.779419	5.292335
757.505615	984.213806	2929.310547	1095.890747	5.741460
757.822510	977.080811	2961.037842	1100.274658	6.209502
758.139465	979.384094	2982.510986	1097.451172	5.894138
758.456238	972.251160	2997.000244	1092.250122	5.926609
758.773010	968.015869	3022.708984	1093.364624	6.100607
759.089783	964.672180	3046.337158	1094.479126	6.235727
759.406433	965.118103	3055.402344	1095.742188	6.249106
759.723145	971.656677	3041.433594	1090.763916	5.754593
760.039673	980.721619	3031.253906	1093.810425	5.515095
760.356201	985.254089	3030.362061	1093.735962	5.304457
760.672668	986.294250	3049.235107	1090.764038	5.064119
760.989136	981.836121	3042.399170	1093.141724	5.401708
761.305481	981.613220	3048.640625	1100.571899	5.755061
761.621826	983.099304	3054.436279	1110.454102	6.148435
761.938049	986.814453	3078.956299	1112.386108	6.002062
762.254333	989.786621	3109.865967	1112.609009	5.793292
762.570496	989.638000	3184.540283	1116.324097	5.771833
762.886597	986.591553	3322.000244	1122.565552	5.822278
763.202637	987.408936	3517.416260	1122.862793	5.353892
763.518677	988.226257	3732.671631	1136.682983	5.409353
763.834656	988.746277	3938.861328	1155.853027	5.664415
764.150574	984.436768	4074.315186	1168.038696	5.942044
764.466370	980.573059	4121.869141	1166.032593	5.903917
764.782288	980.498779	4053.659424	1151.840820	5.575434
765.097961	977.972412	3932.546143	1142.924438	5.582938
765.413696	980.721680	3742.553955	1127.543823	5.316113
765.729309	977.080872	3578.642334	1123.754272	5.637898
766.044861	978.715515	3409.231689	1116.398315	5.664756
766.360474	973.291321	3273.629150	1111.345825	6.001488
766.675903	970.765076	3169.085205	1099.308716	5.847358
766.991394	970.690735	3088.838135	1101.760620	6.187949
767.306763	972.548340	3039.204346	1112.088745	6.751990
767.622131	981.538879	2978.647705	1108.670898	6.365803
767.937378	982.950684	2933.397217	1100.646240	6.034288
768.252625	984.585388	2897.063232	1092.027100	5.617932
768.567810	972.399719	2866.747803	1083.110840	5.844286
768.882996	966.083984	2823.280518	1084.745483	6.389281
769.197998	959.693909	2784.568604	1081.996216	6.701956
769.513062	965.117981	2741.399170	1091.506958	7.115370
769.828064	968.015808	2724.829346	1084.002441	6.602103
770.142944	973.588562	2695.851318	1081.847534	6.285857
770.457825	975.891907	2675.046631	1082.590698	6.279521
770.772705	977.377930	2655.727783	1089.426514	6.676116
771.087402	976.486328	2656.470947	1090.392456	6.780189
771.402100	970.096375	2651.418213	1088.386353	7.035535
771.716736	974.034424	2644.359375	1085.859985	6.694839
772.031372	973.662842	2614.787354	1077.686646	6.338569
772.345947	976.337708	2593.685303	1073.822876	6.027472
772.660461	976.783508	2572.286133	1066.318359	5.611701
772.974854	978.566833	2569.982666	1070.330688	5.766177
773.289246	980.647278	2567.530518	1070.999390	5.693684
773.603638	976.783508	2551.258057	1075.829224	6.290715
773.917908	974.480164	2538.775391	1078.801270	6.668889
774.232178	974.777344	2523.171631	1076.720703	6.583811
774.546265	971.210876	2506.750732	1077.463867	6.919586
774.860474	974.628845	2480.447754	1076.126343	6.740353
775.174561	978.269592	2465.364258	1075.754761	6.555411
775.488586	978.864014	2448.497559	1073.525757	6.441180
775.802551	980.870178	2442.850586	1073.897095	6.363075
776.116516	979.607117	2425.760742	1071.965332	6.386474
776.430359	983.247864	2427.692871	1070.033447	6.008230
776.744202	981.984802	2413.352295	1065.798096	5.855470
777.057922	972.994141	2412.312256	1069.884766	6.731703
777.371704	973.291321	2395.593994	1073.228516	7.026436
777.685303	970.393555	2395.668457	1078.504028	7.585237
777.998962	973.960144	2399.680664	1068.547363	6.634346
778.312500	969.130371	2417.661865	1063.643433	6.524750
778.626038	966.752747	2421.005615	1053.241089	5.947269
778.939453	965.861023	2413.649414	1059.185303	6.445989
779.252869	973.588562	2402.727051	1060.597046	6.088178
779.566223	975.223206	2391.507324	1067.730103	6.531662
779.879578	986.294373	2382.145264	1070.627808	6.041723
780.192749	990.752502	2384.151367	1067.432861	5.503116
780.505920	994.170410	2400.646729	1059.482544	4.643671
780.819031	987.483093	2412.386475	1063.643433	5.344948
781.132141	980.127136	2398.789063	1065.649536	6.028385
781.445190	974.851746	2375.160889	1076.646484	7.269448
781.758118	976.486389	2365.798584	1070.776489	6.786819
782.071045	974.480286	2353.092773	1071.073608	7.006560
782.383911	980.498779	2340.758545	1059.854004	5.833829
782.696838	982.579163	2311.854736	1061.339966	5.925092
783.009583	983.619385	2294.393555	1056.361816	5.549578
783.322266	979.384094	2281.836670	1059.631226	6.161232
783.634888	974.182922	2268.759277	1049.823242	5.842863
783.947510	979.012695	2258.579834	1052.572266	5.748785
784.260132	982.207703	2253.378662	1054.727051	5.704925
784.572571	979.830017	2253.972900	1052.349365	5.691618
784.885010	972.548340	2252.115479	1048.782837	5.957835
785.197449	972.176758	2246.171143	1038.752075	5.225715
785.509766	979.829895	2233.465332	1046.182251	5.292795
785.822083	985.254089	2230.864990	1049.897461	5.189692
786.134277	981.984680	2222.320068	1053.241089	5.744930
786.446533	979.309814	2229.156006	1056.436035	6.170857
786.758606	978.641113	2234.728760	1052.052246	5.844428
787.070740	983.990967	2227.818604	1051.086304	5.394263
787.382690	978.938293	2224.103271	1043.656006	5.197521
787.694641	974.257324	2238.295166	1049.971802	5.989890
788.006653	967.718567	2289.341064	1053.092407	6.459775
788.318481	974.405945	2347.743164	1057.996460	6.086671
788.630310	968.238770	2387.718018	1057.179199	6.265708
788.942017	969.947754	2404.213135	1059.110962	6.216647
789.253784	969.724792	2399.977783	1062.826050	6.509426
789.565430	977.526611	2388.014893	1063.346313	6.084397
789.877014	970.319275	2372.634277	1066.392700	6.851059
790.188538	967.049988	2338.157959	1065.798218	7.202076
790.500061	966.604065	2298.257324	1067.061401	7.543806
790.811462	981.836182	2252.338135	1061.042847	6.234281
791.122925	980.275818	2222.988525	1053.835449	5.919279
791.434204	976.634949	2201.143555	1043.210205	5.436896
791.745483	968.833191	2188.958008	1034.368164	5.371170
792.056702	975.446106	2175.732178	1032.659302	4.766630
792.367920	978.195313	2159.831299	1033.550903	4.684657
792.678955	973.885742	2142.593018	1047.594116	6.306829
792.990112	971.359436	2134.717041	1046.182251	6.431626
793.301086	972.399658	2133.751221	1048.188477	6.525915
793.612122	975.891907	2129.739014	1044.770508	5.969473
793.922974	971.730957	2125.057861	1048.931519	6.693727
794.233826	973.588623	2128.698486	1053.909790	6.953552
794.544556	977.675110	2141.552979	1053.984009	6.556435
794.855286	980.275696	2143.707764	1053.538330	6.297113
795.166016	981.018799	2146.531250	1051.086304	6.011734
795.476624	976.634949	2151.063721	1044.993530	5.820581
795.787292	973.885742	2165.255615	1047.594116	6.186859
796.097778	969.501953	2176.178223	1055.024292	7.087430
796.408264	967.124207	2214.221191	1056.659058	7.179462
796.718689	972.102539	2236.809082	1059.259644	6.891489
797.029053	984.139465	2257.019287	1050.566284	5.218624
797.339355	986.517273	2251.595459	1056.584717	5.538586
797.649658	984.362488	2238.740967	1053.463989	5.508824
797.959839	975.074646	2216.970459	1061.785767	6.982158
798.270020	981.018799	2192.376221	1055.470215	6.146115
798.580078	978.195374	2183.088135	1053.612671	6.259254
798.890137	974.331604	2175.880859	1041.575562	5.596437
799.200195	968.981750	2156.116211	1035.185547	5.576773
799.510071	969.130371	2132.785400	1034.665405	5.631827
799.820007	967.198486	2118.296143	1037.117432	6.074111
800.129883	967.941589	2100.389160	1040.758179	6.430019
800.439575	970.319153	2086.345947	1039.494995	6.198403
800.749329	977.675232	2071.039795	1039.420776	5.647297
801.058960	975.223206	2067.919189	1040.535278	5.977149
801.368591	977.006409	2059.448486	1036.374390	5.484633
801.678162	975.743347	2054.469971	1031.916138	5.207325
801.987671	980.498718	2039.981079	1026.269165	4.320076
802.297119	975.594727	2043.101929	1034.368286	5.505683
802.606506	978.418152	2030.916382	1039.643677	5.817162
802.915894	975.668945	2029.950317	1049.303101	6.984298
803.225159	976.263428	2020.291016	1044.101929	6.497769
803.534424	968.164490	2013.232300	1039.197876	6.797012
803.843628	967.644348	2015.461304	1032.064819	6.148066
804.152771	970.690735	2008.253906	1034.145264	6.115726
804.461792	975.594666	2014.718262	1037.711792	5.977839
804.770874	980.647278	2014.346680	1037.191772	5.470110
805.079773	985.179688	2022.743164	1036.448730	4.941292
805.388733	989.637939	2021.776978	1036.151489	4.506520
805.697571	986.220032	2022.000000	1040.015137	5.193680
806.006470	978.195313	2033.591187	1032.510620	5.146439
806.315125	974.851746	2043.622070	1024.411621	4.637094
806.623901	979.235535	2061.380615	1028.795410	4.579782
806.932495	987.111633	2056.104980	1039.569336	4.907206
807.241150	986.517273	2050.755127	1046.628052	5.648247
807.549622	979.235535	2028.167114	1048.262817	6.580723
807.858154	971.805359	2015.461304	1037.340332	6.279366
808.166565	966.678406	2005.207520	1042.095703	7.261934
808.474915	971.879578	1993.987793	1037.637573	6.433565
808.783264	974.331543	1984.254272	1042.838745	6.783410
809.091492	977.898132	1972.663086	1030.578735	5.295784
809.399719	974.554443	1973.851929	1032.287720	5.777386
809.707825	977.526611	1959.808594	1038.380493	6.195154
810.015930	977.898132	1943.536255	1049.005737	7.363794
810.323975	981.167419	1927.189453	1046.702515	6.927439
810.632080	978.269531	1923.846069	1044.473267	7.001415
810.939880	983.247864	1925.703613	1034.962769	5.487250
811.247864	982.207703	1919.462280	1026.937988	4.772480
811.555664	979.012695	1919.313599	1016.609863	3.998419
811.863464	972.919861	1912.031860	1027.606567	5.823236
812.171143	976.114807	1908.093872	1030.652954	5.851864
812.478882	978.492493	1901.703735	1038.231934	6.470831
812.786438	976.783630	1901.778320	1032.436401	6.016551
813.094055	973.960144	1880.899048	1034.739746	6.701620
813.401489	975.743347	1867.524536	1025.823364	5.615729
813.708984	981.538879	1856.602051	1020.473572	4.449358
814.016357	989.489258	1873.691772	1028.349609	4.394960
814.323730	986.517273	1880.453247	1034.516724	5.369451
814.630981	990.678162	1875.326538	1040.386597	5.619005
814.938232	981.836182	1865.964233	1033.179321	5.807206
815.245361	981.316101	1862.174805	1034.888306	6.081816
815.552490	978.938416	1858.905396	1034.962524	6.366615
815.859619	977.675293	1865.964355	1036.002808	6.566277
816.166565	980.721619	1870.719727	1027.903931	5.301394
816.473572	975.520325	1881.716431	1024.040161	5.354231
816.780457	975.371765	1877.927124	1021.142273	5.071213
817.087341	976.932129	1881.270630	1028.572632	5.710307
817.394043	974.628723	1888.403687	1030.950317	6.163618
817.700806	976.337708	1899.994995	1026.863647	5.470204
818.007507	972.251160	1904.750366	1031.098877	6.310752
818.314209	975.966248	1904.081543	1035.928589	6.460657
818.620667	971.062256	1916.415894	1042.541626	7.561125
818.927246	974.331604	1936.477539	1035.854370	6.394328
819.233704	976.114929	1976.229492	1035.928589	5.980681
819.540161	970.319275	2020.365234	1042.244263	6.849699
819.846497	974.628845	2074.011719	1047.445435	6.623406
820.152832	973.960022	2150.320801	1049.377319	6.411068
820.458984	983.024902	2238.964111	1046.405151	5.046443
820.765259	976.114746	2352.869873	1053.686890	5.634418
821.071350	977.377930	2453.995850	1068.324463	6.159111
821.377502	985.848450	2632.768311	1084.225220	5.973379
821.683472	987.557434	2994.102539	1107.556274	5.980371
821.989441	987.111633	3688.089844	1134.899780	5.471653
822.295349	985.922852	4808.203613	1197.239624	5.528552
822.601196	991.272644	6238.531250	1273.920044	5.386572
822.907043	986.442932	7583.929688	1359.442505	5.653662
823.212769	977.898132	8389.594727	1398.748657	5.678194
823.518494	976.486328	8365.371094	1400.160522	5.733940
823.824097	976.040527	7673.093262	1355.430176	5.665024
824.129700	975.743347	6619.927246	1301.635132	5.773940
824.435242	975.743347	5585.187500	1240.558228	5.745050
824.740723	981.167480	4721.640625	1190.329712	5.591866
825.046082	983.099304	4073.275391	1154.664307	5.551949
825.351501	978.641113	3601.453125	1129.772949	5.762206
825.656799	971.508118	3291.461914	1115.283813	6.197351
825.962036	972.399719	3101.544189	1106.218872	6.285114
826.267212	975.891907	3004.876221	1097.599731	5.998460
826.572449	975.743347	3017.730713	1097.376831	5.956623
826.877502	969.353271	3157.122803	1102.949585	6.106508
827.182495	962.814636	3440.216064	1116.992798	6.223382
827.487488	965.638184	3799.989990	1130.887451	5.830231
827.792419	974.480164	4104.407715	1150.280396	5.616751
828.097290	977.823730	4204.791016	1163.357788	5.749487
828.402100	977.006409	4059.974854	1164.843872	6.092747
828.706848	976.114929	3729.253662	1149.314453	6.290984
829.011597	977.749512	3335.077881	1124.423096	6.222026
829.316223	979.904297	2958.808594	1095.445068	5.838624
829.620789	982.207703	2657.733887	1068.027344	5.121952
829.925354	979.755676	2429.253174	1056.510376	5.295262
830.229797	986.071350	2268.536377	1050.640503	5.034769
830.534302	982.504883	2141.255615	1045.662231	5.450469
830.838562	988.151855	2055.658936	1032.807739	4.183193
831.142944	985.105469	1997.851563	1025.377563	3.976524
831.447144	988.374756	1958.322632	1021.365234	3.401263
831.751404	981.464600	1934.545532	1028.052368	4.888123
832.055542	981.613220	1916.118530	1031.098877	5.295385
832.359619	983.842285	1922.285645	1045.587891	6.579577
832.663635	981.315979	1950.372192	1044.696289	6.540416
832.967651	984.659668	1998.743164	1045.439331	5.993556
833.271545	982.653503	2096.674316	1042.838745	5.402524
833.575439	989.192078	2255.310547	1049.748901	4.782872
833.879211	983.099304	2501.252441	1066.689941	5.506074
834.183044	981.538879	2754.921875	1084.002441	5.777858
834.486694	980.647278	2947.663086	1097.302612	5.930574
834.790344	985.254089	3001.681396	1107.184814	6.046870
835.093933	980.795898	2927.898682	1098.788574	6.059910
835.397522	982.059082	2755.887939	1090.317993	6.103120
835.700928	976.411926	2560.694580	1070.776489	5.956295
836.004395	979.755676	2366.393311	1063.643433	6.049724
836.307739	973.811462	2211.546143	1049.005859	6.075163
836.611023	969.427673	2083.374023	1044.250488	6.716914
836.914307	963.260437	1981.876465	1028.052490	6.360793
837.217529	966.306824	1899.548950	1028.944092	6.711792
837.520691	964.226379	1824.131836	1024.411621	6.999053
837.823730	959.916809	1776.652344	1018.244446	7.141557
838.126831	960.065430	1728.281250	1014.603699	7.099342
838.429749	966.604065	1692.170288	1010.665710	6.072726
838.732727	978.715393	1652.343872	1015.049500	5.393790
839.035522	984.065247	1626.189453	1013.786316	4.628554
839.338379	982.207581	1626.932251	1012.300293	4.667529
839.641113	977.229309	1637.111816	1010.368408	5.021970
839.943848	972.473938	1682.213501	1011.928711	5.559050
840.246460	979.161194	1730.733276	1012.597473	4.448845
840.549072	983.693787	1796.565430	1015.569641	3.921388
840.851563	982.207703	1827.104004	1016.684265	4.080567
841.154053	980.201599	1841.815918	1021.365234	4.777501
841.456482	983.693787	1816.107056	1018.393066	4.168516
841.758850	978.789795	1768.924805	1013.489075	4.391563
842.061157	978.492493	1700.120605	1008.808105	4.201002
842.363403	969.130371	1645.136719	1012.671875	6.440990
842.665588	975.297546	1598.103027	1017.724426	6.812220
842.967712	971.210938	1553.818481	1019.061829	8.213229
843.269775	968.238770	1522.611328	1023.297180	9.931663
843.571777	965.861084	1508.493774	1022.405518	10.420388
843.873840	972.325378	1497.720093	1014.752258	8.075239
844.175659	977.898132	1482.339233	1001.674988	4.713505
844.477600	976.040527	1468.741821	996.399475	4.132108
844.779297	971.582458	1465.621094	996.622375	5.068413
845.081116	975.817688	1457.596558	1010.442688	7.186907
845.382751	981.316101	1449.200195	1008.808105	5.875815
845.684387	985.254089	1439.763794	1008.882324	5.198620
845.985962	981.761902	1424.011719	1001.451965	4.452249
846.287537	975.371887	1413.683594	998.851501	5.356830
846.588989	970.170654	1400.234741	991.941345	5.062197
846.890381	964.077820	1397.857056	993.873230	6.868796
847.191711	972.399658	1387.231812	997.068298	5.946656
847.493042	969.724792	1379.875977	1008.882385	9.547112
847.794250	975.594788	1369.696289	1003.829773	7.164394
848.095459	978.046692	1368.879028	1004.647034	6.806075
848.396606	980.870300	1365.461060	996.770996	4.134446
848.697693	986.294373	1362.711914	993.798889	1.993668
848.998657	979.458496	1357.807983	995.062073	4.124117
849.299622	988.969238	1356.544800	998.925781	2.708706
849.600464	987.483154	1353.201172	999.594543	3.311674
849.901367	995.804993	1345.845093	995.953674	0.042476
850.202087	989.340637	1343.170288	986.665833	-0.755958
850.502808	979.978516	1349.857544	987.706055	2.089207
850.803467	973.216980	1344.136230	983.024963	2.644237
851.104065	977.600891	1338.637817	991.569824	3.869115
851.404663	986.294250	1332.990723	983.842285	-0.707237
851.705139	981.018738	1339.157837	992.833008	3.298794
852.005615	975.223145	1336.037231	991.718445	4.571690
852.306030	970.542175	1329.349976	987.928955	4.845708
852.606384	972.251038	1328.161133	979.458496	2.025078
852.906616	973.365662	1327.120972	976.709167	0.945147
853.206909	974.257324	1326.749390	987.408875	3.731020
853.506958	972.696960	1320.953735	985.922791	3.797724
853.807129	972.176758	1316.272705	983.693665	3.347004
854.107178	972.102539	1310.551392	989.860840	5.246967
854.407166	978.715515	1306.316040	990.901062	3.719636
854.707092	973.217102	1304.829956	998.702820	7.685383
855.007019	971.582336	1311.368652	989.712219	5.335672
855.306763	972.399719	1313.969238	996.919617	7.178596
855.606567	971.730957	1307.579224	990.306702	5.530993
855.906250	974.480164	1299.851685	991.495544	5.229524
856.205933	968.090149	1288.632202	987.854675	6.165970
856.505493	973.514221	1294.576294	993.353027	6.179119
856.805054	975.000305	1289.152344	993.427307	5.865632
857.104492	978.418213	1293.313110	990.603821	3.869738
857.403931	984.585266	1290.043823	988.151855	1.167618
857.703308	978.121033	1300.297729	987.111572	2.790562
858.002563	983.916565	1298.514404	992.907227	2.857827
858.301819	978.492615	1301.114868	985.551270	2.187901
858.601013	984.585388	1298.439941	985.699890	0.355101
858.900208	981.910461	1307.430664	982.727783	0.251082
859.199219	987.483215	1312.706177	989.786560	0.708236
859.498291	986.294373	1308.470825	995.953674	2.998140
859.797302	990.901062	1303.938354	996.993958	1.946380
860.096191	989.117737	1293.461792	1001.080566	3.930693
860.395020	990.901062	1285.659912	1002.120789	3.806409
860.693787	989.043518	1275.703369	1004.572815	5.417325
860.992554	983.396484	1276.743652	1000.709045	5.901731
861.291260	983.470886	1292.272827	993.873291	3.368633
861.589844	986.665833	1297.102539	990.678223	1.292499
861.888428	990.306641	1291.827148	996.325195	1.996068
862.186890	990.083740	1286.328613	993.799011	1.254122
862.485413	982.504883	1284.396851	998.702942	5.365515
862.783813	984.213867	1287.220337	994.839111	3.506606
863.082153	981.093079	1285.882935	994.170410	4.290606
863.380371	984.139465	1293.164551	984.436768	0.096207
863.678589	984.659668	1293.164551	986.963074	0.746635
863.976746	984.436768	1283.430908	993.947510	3.180912
864.274902	978.195313	1280.458862	998.851379	6.833794
864.572937	970.096375	1281.944946	1001.600647	10.102427
864.870911	973.737122	1279.641479	994.467590	6.776781
865.168884	976.040527	1280.904663	988.151855	3.972697
865.466736	978.864075	1274.960449	978.789734	-0.025107
865.764587	976.263428	1279.567261	988.597656	4.066625
866.062317	979.978699	1266.489868	996.176575	5.653489
866.360107	982.653503	1270.873779	1003.755432	7.321459
866.657715	981.167419	1267.158569	1004.498535	8.157986
866.955322	973.662842	1267.530151	999.891785	8.925437
867.252808	967.272766	1261.883179	992.387207	8.524628
867.550293	968.535950	1259.356812	987.186035	6.412912
867.847717	972.028259	1254.229980	990.752441	6.635035
868.145081	977.972412	1255.047241	985.774170	2.815758
868.442383	979.161316	1253.932739	985.848450	2.433708
868.739624	978.195313	1260.471313	983.099304	1.737304
869.036804	975.371826	1256.607544	998.702942	8.295929
869.333984	964.672180	1253.784058	995.433594	10.639969
869.631042	969.427551	1253.115356	1003.161072	11.891071
869.928101	970.467957	1256.013184	990.009460	6.843576
870.224976	982.504883	1265.598267	995.359192	4.540660
870.521851	984.288147	1271.171021	991.124023	2.382811
870.818726	985.625549	1275.554810	993.278809	2.639699
871.115479	973.514221	1274.366089	994.021790	6.816500
871.412231	965.341003	1275.629150	991.346863	8.381197
871.708862	956.796143	1275.777710	990.603821	10.598631
872.005493	962.145813	1282.836426	985.625549	7.321616
872.302063	959.693848	1287.740601	987.483154	8.471142
872.598572	967.495667	1291.827148	986.962952	6.002280
872.895020	969.873474	1281.573364	987.928955	5.792585
873.191406	978.269592	1277.858276	982.356262	1.364094
873.487671	980.870300	1271.765259	992.610046	4.035734
873.783997	980.573059	1282.539185	994.987610	4.773565
874.080200	971.953918	1280.012939	1007.099060	11.408574
874.376343	967.570068	1282.242065	998.851501	9.940965
874.672424	976.114807	1272.211304	1000.634766	8.281070
874.968445	977.972412	1273.474243	985.031189	2.388742
875.264465	973.662903	1280.161499	982.430603	2.860600
875.560364	964.003601	1293.090210	972.473938	2.573893
875.856201	967.867249	1288.929199	984.659668	5.230274
876.152039	976.783630	1274.663208	986.888672	3.392324
876.447754	982.653503	1268.718994	989.415039	2.363632
876.743469	983.768066	1274.365967	994.913391	3.835308
877.039063	982.430664	1280.235840	993.278809	3.642699
877.334595	978.343933	1274.291626	995.062012	5.648998
877.630127	976.783630	1270.947876	984.511047	2.626906
877.925537	982.802063	1271.691040	989.415039	2.289106
878.221008	992.015625	1273.771484	996.845398	1.714170
878.516296	993.130127	1281.796265	991.421204	-0.592007
878.811646	979.532715	1296.582520	990.901123	3.585685
879.106812	974.628723	1323.628662	983.024902	2.405782
879.401978	976.932129	1337.523315	989.266357	3.420557
879.697083	988.746277	1362.860474	989.414978	0.178743
879.992126	993.575989	1391.392944	1003.458191	2.484108
880.287109	992.461426	1446.228149	1007.693542	3.356817
880.582031	987.334656	1512.283325	1015.643860	5.392756
880.876892	981.316101	1652.492676	1014.677979	4.970656
881.171753	977.675232	1897.765991	1032.287720	5.935555
881.466492	972.251160	2307.991211	1053.018188	6.046613
881.761230	973.885742	2846.016846	1083.705200	5.866013
882.055786	970.170654	3407.894531	1111.345825	5.791270
882.350403	970.467834	3792.856445	1132.967773	5.757532
882.644958	963.037598	3884.100342	1133.116577	5.822504
882.939453	969.799072	3682.814209	1125.537598	5.740422
883.233826	977.006409	3317.022217	1109.859741	5.677454
883.528137	982.504883	2918.982422	1085.488403	5.318085
883.822449	981.241699	2568.273682	1060.002563	4.962778
884.116577	977.229309	2282.505371	1042.095581	4.969544
884.410828	980.127197	2054.024414	1038.826294	5.465988
884.704956	979.607117	1866.484375	1040.089478	6.819699
884.999023	976.263489	1737.123413	1032.510620	7.392574
885.292969	971.879578	1623.514526	1026.269165	8.346635
885.586914	973.142761	1562.660522	1009.402405	6.150730
885.880798	974.480286	1510.648560	1001.303528	5.002766
886.174622	975.669128	1486.203125	997.959900	4.366168
886.468384	980.424500	1457.373657	997.959900	3.676576
886.762085	989.043640	1431.665039	1000.040344	2.484449
887.055664	990.678223	1412.123413	998.331360	1.815927
887.349304	983.099365	1394.736328	1000.783386	4.296023
887.642822	976.635010	1370.513672	992.832947	4.112418
887.936340	976.114807	1342.575928	992.758606	4.541764
888.229736	979.384094	1308.396606	984.882568	1.671205
888.523071	981.687500	1287.220337	990.158142	2.772416
888.816284	980.647278	1280.087280	991.272644	3.548412
889.109619	978.938293	1275.554810	994.021790	5.085184
889.402710	975.223206	1257.350708	990.975342	5.583340
889.695862	975.446106	1239.815308	991.569824	6.098940
889.988892	977.080811	1222.948364	990.603821	5.500120
890.281921	982.133423	1221.982422	984.362427	0.929336
>>>>>End Processed Spectral Data<<<<<
