Jaz Data File
++++++++++++++++++++++++++++++++++++
Date: Fri Jun 04 11:55:29 2021
User: jaz
Dark Spectrum Present: Yes
Reference Spectrum Present: Yes
Processed Spectrum Present: Yes
Spectrometers: JAZA3586
Integration Time (usec): 42900 (JAZA3586)
Spectra Averaged: 10 (JAZA3586)
Boxcar Smoothing: 1 (JAZA3586)
Correct for Electrical Dark: No (JAZA3586)
Strobe/Lamp Enabled: Yes (JAZA3586)
Correct for Detector Non-linearity: No (JAZA3586)
Correct for Stray Light: No (JAZA3586)
Number of Pixels in Processed Spectrum: 2048
>>>>>Begin Processed Spectral Data<<<<<
W	D	R	S	P
191.335022	0.000000	0.000000	0.000000	0.000000
191.713211	360.442474	361.334106	352.492096	-891.665833
192.091385	714.197754	726.977783	710.631165	-27.907520
192.469528	1081.921997	1092.918579	1073.154175	-79.732246
192.847641	1091.952759	1100.646118	1079.692871	-141.025894
193.225739	1110.305542	1108.596558	1089.054932	1243.464233
193.603790	1118.701782	1119.147583	1095.519165	-5200.219238
193.981842	1115.506714	1127.320801	1103.915405	-98.114296
194.359863	1115.804077	1126.875000	1113.649170	-19.464567
194.737854	1119.593384	1125.166138	1114.243652	-95.997986
195.115829	1133.785278	1121.005127	1117.735962	125.580017
195.493774	1138.540649	1127.692505	1108.745239	274.659058
195.871704	1140.323853	1134.899780	1105.921631	634.250793
196.249603	1145.747925	1143.444702	1106.887573	1687.216431
196.627457	1149.388794	1143.296021	1110.156982	643.907288
197.005310	1146.193848	1148.571411	1110.231323	-1512.578979
197.383133	1142.924438	1143.816284	1109.339722	-3765.754150
197.760910	1142.998779	1144.261963	1109.414063	-2658.736084
198.138687	1142.404297	1133.042114	1113.797852	305.553162
198.516449	1139.803833	1141.438354	1114.986694	-1518.312134
198.894180	1139.283691	1137.128784	1110.677124	1327.508057
199.271866	1138.020508	1131.258911	1110.528687	406.587708
199.649536	1134.825439	1116.844238	1106.441895	157.851212
200.027191	1128.955688	1112.757690	1111.197266	109.633446
200.404816	1123.828735	1123.011353	1114.094971	1190.845337
200.782410	1121.153809	1134.528320	1123.754395	19.444344
201.159988	1123.457031	1153.921265	1119.816284	-11.950891
201.537537	1128.955444	1161.723022	1117.587280	-34.693329
201.915070	1127.618042	1173.165527	1115.358154	-26.916718
202.292557	1127.989624	1170.342163	1120.262207	-18.245462
202.670029	1120.782104	1167.890259	1115.804077	-10.567231
203.047485	1118.776001	1163.506348	1105.104370	-30.564554
203.424911	1106.515991	1160.459961	1098.640137	-14.600064
203.802292	1108.299316	1159.048218	1094.330566	-27.525227
204.179688	1106.962036	1156.670532	1098.937256	-16.143679
204.557037	1111.345825	1160.979980	1103.766846	-15.269686
204.934357	1116.101196	1157.562012	1108.968140	-17.204332
205.311661	1122.491211	1157.859253	1107.630737	-42.016670
205.688934	1127.692383	1154.144165	1102.726685	-94.381912
206.066177	1123.680054	1158.305054	1095.593628	-81.116028
206.443390	1112.460327	1163.877808	1088.014771	-47.543282
206.820587	1104.212769	1165.066772	1085.265503	-31.135611
207.197769	1103.172485	1161.946045	1083.259399	-33.881027
207.574921	1109.488159	1155.333008	1086.157227	-50.891068
207.952042	1108.373535	1157.413452	1088.906372	-39.696568
208.329147	1114.689453	1162.763306	1099.605957	-31.375675
208.706223	1130.515869	1172.645508	1119.073364	-27.160225
209.083267	1138.391968	1171.010864	1118.255981	-61.731049
209.460297	1132.521973	1170.342163	1114.094849	-48.722980
209.837280	1115.952515	1160.311279	1096.856689	-43.048595
210.214264	1114.838013	1154.515747	1092.546997	-56.180164
210.591217	1114.020630	1157.562134	1087.568848	-60.750732
210.968124	1114.466431	1160.088257	1093.067261	-46.905552
211.345016	1114.392212	1166.032471	1093.958984	-39.568405
211.721893	1111.271484	1165.438110	1096.559570	-27.160477
212.098724	1105.773071	1164.472290	1093.215942	-21.392326
212.475555	1107.184814	1166.255493	1100.274658	-11.698115
212.852356	1109.488281	1163.283325	1096.411011	-24.309433
213.229126	1113.203247	1164.249390	1099.680298	-26.491619
213.605865	1109.116699	1154.664307	1103.766968	-11.745362
213.982590	1107.779175	1155.333008	1110.900024	6.562772
214.359283	1109.636841	1147.902832	1102.057983	-19.805727
214.735931	1106.441772	1159.494019	1086.231567	-38.094910
215.112579	1101.686401	1162.540405	1080.361694	-35.042404
215.489197	1098.119995	1172.274048	1082.590698	-20.941940
215.865799	1099.903198	1174.577271	1090.689575	-12.338450
216.242355	1104.435669	1174.354370	1092.844360	-16.578266
216.618896	1103.989868	1167.890137	1093.141602	-16.976871
216.995407	1103.766968	1161.351440	1094.256226	-16.516157
217.371902	1104.807251	1153.103882	1095.890991	-18.461452
217.748367	1106.218872	1151.023438	1093.141724	-29.187090
218.124802	1106.293335	1149.240112	1097.599854	-20.242453
218.501236	1103.692749	1151.543579	1095.296387	-17.546953
218.877609	1107.853638	1160.014038	1090.689575	-32.906307
219.253983	1116.844116	1161.945923	1078.949829	-84.019447
219.630295	1121.971069	1161.797363	1079.321411	-107.089195
220.006592	1122.268188	1161.945923	1094.553345	-69.849861
220.382889	1114.095093	1164.620728	1091.506958	-44.706287
220.759140	1112.237427	1173.314209	1093.958862	-29.927189
221.135391	1103.841187	1168.112915	1082.144653	-33.757507
221.511581	1104.138306	1168.558960	1087.048828	-26.527948
221.887772	1106.367554	1161.054321	1089.575073	-30.706661
222.263931	1111.345825	1162.986328	1092.547241	-36.402790
222.640060	1113.574951	1156.596069	1089.129272	-56.822510
223.016159	1110.528442	1159.716797	1083.110718	-55.740276
223.392212	1107.705078	1162.317383	1087.123169	-37.687309
223.768265	1111.940308	1170.416504	1089.946655	-37.611290
224.144302	1111.717285	1172.942749	1094.033203	-28.883541
224.520294	1115.506714	1176.955078	1084.299683	-50.785782
224.896286	1112.237427	1189.586548	1086.157227	-33.717514
225.272217	1107.779175	1195.084961	1082.590698	-28.850868
225.648148	1107.407715	1197.685669	1087.123169	-22.468992
226.024048	1102.726685	1187.803345	1091.729858	-12.925785
226.399902	1109.859741	1185.276978	1095.965210	-18.423548
226.775772	1105.104370	1188.174805	1094.107544	-13.237954
227.151581	1105.624512	1192.855957	1090.986816	-16.780296
227.527374	1096.856812	1209.871216	1085.339844	-10.190708
227.903137	1099.011597	1216.409790	1083.556519	-13.164664
228.278870	1102.875366	1222.131226	1080.584595	-18.691553
228.654572	1107.482056	1221.165405	1086.008667	-18.888771
229.030273	1102.132324	1232.384888	1085.934204	-12.435932
229.405930	1093.290405	1247.914185	1088.014648	-3.411996
229.781555	1097.005371	1260.471313	1088.757690	-5.045504
230.157181	1105.624512	1257.202026	1101.760742	-2.549039
230.532761	1111.717285	1247.542603	1109.265259	-1.805279
230.908325	1118.033081	1235.877197	1108.522339	-8.070613
231.283859	1115.209595	1233.945313	1107.184937	-6.758420
231.659332	1119.816284	1238.403442	1107.333374	-10.526360
232.034821	1119.519043	1239.443726	1104.509888	-12.515485
232.410263	1120.113525	1239.072144	1100.646118	-16.364857
232.785690	1116.918579	1238.403442	1090.095215	-22.079594
233.161087	1109.636719	1238.329224	1094.033325	-12.124555
233.536469	1110.602661	1235.579956	1088.534790	-17.657505
233.911804	1111.940186	1236.323120	1091.952759	-16.069267
234.287140	1106.738892	1245.908081	1094.627563	-8.702593
234.662430	1104.955688	1250.514771	1093.661743	-7.759011
235.037704	1101.612183	1245.907959	1092.250000	-6.488189
235.412933	1103.766968	1240.409546	1088.832153	-10.929839
235.788162	1105.995972	1242.861450	1087.568970	-13.463587
236.163345	1103.543945	1249.846069	1092.027100	-7.871961
236.538513	1103.543945	1255.567261	1092.547241	-7.233564
236.913635	1102.949585	1255.567261	1100.720581	-1.460515
237.288742	1106.070190	1266.266968	1099.160156	-4.313467
237.663834	1111.568726	1276.669434	1102.206665	-5.670515
238.038879	1112.386108	1285.214233	1100.497559	-6.878828
238.413910	1114.689331	1283.802368	1097.005493	-10.456816
238.788910	1112.980469	1279.492798	1095.445068	-10.530993
239.163879	1112.683228	1291.604126	1097.451172	-8.513290
239.538834	1108.002075	1296.359497	1104.510010	-1.853957
239.913757	1109.636841	1313.300537	1105.847412	-1.860630
240.288651	1107.556396	1331.430420	1104.732788	-1.261249
240.663528	1107.184814	1356.693359	1105.847412	-0.536015
241.038361	1105.104370	1377.572388	1104.064087	-0.381800
241.413177	1111.494507	1403.355469	1104.435669	-2.418562
241.787979	1111.197144	1430.921753	1103.989746	-2.254252
242.162735	1113.797729	1460.791504	1113.574829	-0.064238
242.537476	1107.184937	1471.342407	1116.621216	2.591263
242.912170	1116.695557	1494.302124	1116.101196	-0.157402
243.286865	1118.850342	1493.781738	1113.872192	-1.327749
243.661514	1118.478882	1496.902710	1110.528442	-2.100935
244.036148	1111.345825	1478.698608	1115.803955	1.213583
244.410751	1104.361328	1468.890503	1111.494385	1.956786
244.785339	1105.847534	1464.432251	1114.912231	2.527910
245.159882	1101.463623	1474.611816	1110.602661	2.449171
245.534378	1103.172485	1510.574219	1104.881348	0.419454
245.908890	1098.788574	1556.047485	1107.110474	1.819953
246.283356	1105.921753	1629.012695	1108.893921	0.568193
246.657791	1102.355103	1690.758423	1116.026978	2.323555
247.032196	1110.082642	1751.463745	1120.484985	1.621866
247.406586	1105.624512	1785.865845	1121.451050	2.326606
247.780960	1109.711060	1799.314819	1127.766724	2.618267
248.155289	1102.503784	1786.088867	1127.766724	3.695654
248.529602	1106.144531	1741.209961	1127.915283	3.428112
248.903870	1101.686401	1687.117676	1124.943237	3.972599
249.278122	1106.367554	1636.220337	1123.977173	3.323493
249.652344	1105.030151	1594.239258	1122.119751	3.493312
250.026550	1109.636841	1579.750122	1119.519165	2.102116
250.400711	1107.036255	1574.400391	1110.825684	0.810809
250.774857	1109.042480	1572.839966	1111.420044	0.512630
251.148987	1108.299438	1574.251587	1109.562500	0.271071
251.523071	1112.683228	1590.226685	1115.135254	0.513467
251.897125	1113.352051	1609.916992	1118.998901	1.137183
252.271164	1107.704956	1622.251343	1112.534668	0.938635
252.645187	1100.051880	1616.529907	1115.432495	2.977981
253.019165	1096.336548	1616.009766	1107.110474	2.073212
253.393112	1098.268433	1602.783813	1118.776001	4.064806
253.767044	1102.206543	1587.700562	1118.107422	3.275196
254.140930	1108.224976	1563.180664	1121.153687	2.841752
254.514801	1119.444702	1552.035278	1114.094971	-1.236673
254.888657	1124.125854	1553.892944	1115.209473	-2.074701
255.262466	1119.890625	1555.304688	1116.621216	-0.750874
255.636276	1109.636841	1569.793579	1120.187866	2.292920
256.010010	1104.435669	1580.121704	1113.649292	1.936913
256.383759	1108.745239	1615.341187	1120.484985	2.317379
256.757446	1112.311768	1640.827026	1123.680054	2.150985
257.131134	1122.714111	1685.185669	1124.348755	0.290618
257.504791	1117.141479	1731.625000	1116.844238	-0.048373
257.878418	1118.776001	1797.680054	1117.512939	-0.186044
258.252014	1110.305664	1869.382202	1130.590332	2.672282
258.625580	1109.339722	1957.728149	1147.531372	4.501670
258.999115	1105.104370	2081.813721	1157.413574	5.355657
259.372650	1113.426392	2216.747314	1165.438110	4.714106
259.746124	1115.209595	2346.182617	1164.546631	4.007970
260.119598	1121.005249	2425.612305	1163.134766	3.229288
260.493042	1120.187866	2442.181885	1164.323608	3.338573
260.866425	1113.426270	2395.593994	1168.633179	4.305748
261.239838	1109.116699	2300.932373	1169.673462	5.081051
261.613159	1099.234375	2192.004639	1155.333130	5.133627
261.986511	1109.636841	2099.274902	1147.754150	3.851641
262.359802	1110.974243	2028.464233	1134.231079	2.534833
262.733063	1112.088867	1997.331421	1124.274536	1.376534
263.106293	1111.197144	1976.526733	1115.506714	0.498026
263.479523	1110.008423	1965.975586	1117.735840	0.902770
263.852692	1109.934204	1951.858032	1132.224731	2.647571
264.225861	1101.017700	1943.016113	1134.082397	3.926931
264.598969	1098.119873	1947.548706	1138.912109	4.802314
264.972076	1097.228271	1977.046875	1135.196899	4.315506
265.345154	1103.172485	2020.885376	1143.890503	4.436902
265.718201	1110.156982	2057.590820	1149.611694	4.164376
266.091217	1118.404541	2107.299561	1160.236938	4.230216
266.464203	1124.645996	2145.119385	1152.806763	2.759579
266.837158	1118.850464	2207.459717	1154.887207	3.310347
267.210114	1115.358276	2235.248779	1147.754150	2.892771
267.583038	1116.398438	2268.610596	1154.664307	3.321078
267.955902	1116.249878	2272.325684	1157.487793	3.567060
268.328766	1113.426270	2278.641602	1158.825317	3.896194
268.701569	1107.630737	2293.873779	1157.933716	4.240529
269.074371	1107.259155	2310.517578	1152.286621	3.742128
269.447144	1110.156860	2340.387207	1154.961548	3.641975
269.819885	1114.317749	2396.411377	1153.549683	3.059990
270.192596	1114.912231	2495.531250	1152.732422	2.739365
270.565277	1113.128906	2626.898193	1154.664307	2.743840
270.937927	1110.974243	2741.398682	1162.911865	3.185528
271.310577	1114.912231	2828.110107	1171.753784	3.317863
271.683136	1108.002197	2883.837158	1177.549438	3.916312
272.055725	1107.259155	2902.932861	1177.698120	3.922704
272.428284	1111.271484	2873.657959	1171.976807	3.444495
272.800812	1120.410645	2827.664307	1162.540405	2.467692
273.173279	1124.125854	2756.110596	1169.599121	2.786378
273.545776	1121.376587	2720.222656	1175.989136	3.415748
273.918152	1117.512939	2673.188721	1182.676392	4.188756
274.290558	1116.101196	2667.764893	1175.691895	3.840439
274.662964	1109.933960	2669.399658	1175.766235	4.221464
275.035278	1111.197144	2683.294189	1177.475220	4.215902
275.407593	1105.178711	2709.523193	1182.082031	4.793442
275.779907	1109.562500	2759.900391	1181.859131	4.380717
276.152161	1112.311646	2811.912354	1187.060425	4.398020
276.524384	1116.324097	2867.862061	1197.536987	4.636662
276.896606	1104.510010	2885.546143	1201.029175	5.419271
277.268799	1094.479004	2899.217773	1195.902222	5.619828
277.640930	1086.900269	2897.880127	1182.676392	5.288635
278.013031	1091.135498	2910.288818	1186.763062	5.256707
278.385162	1096.336548	2910.437500	1190.626831	5.197631
278.757233	1108.002075	2921.211670	1189.214966	4.478958
279.129272	1113.351929	2946.994873	1184.831177	3.898210
279.501282	1115.655396	2986.672119	1186.317261	3.776656
279.873230	1108.596558	3032.665283	1198.800171	4.688170
280.245178	1108.596680	3120.119873	1193.970581	4.244241
280.617126	1111.865845	3230.608154	1193.896118	3.871650
280.988983	1114.243530	3346.594482	1195.010742	3.618034
281.360870	1113.574829	3436.798096	1204.521484	3.914676
281.732697	1106.590454	3496.463623	1214.180786	4.501927
282.104492	1104.064087	3543.794189	1210.094116	4.345974
282.476288	1101.315063	3554.716553	1217.152832	4.721517
282.848053	1099.011597	3574.481201	1221.090820	4.931558
283.219757	1092.472900	3582.505859	1221.016602	5.162329
283.591461	1100.943359	3563.186768	1218.416016	4.770960
283.963135	1108.076538	3568.611084	1206.156128	3.986109
284.334747	1114.689453	3606.654297	1211.134277	3.870232
284.706360	1113.426392	3692.548096	1219.604736	4.116841
285.077942	1115.506714	3798.578125	1235.654175	4.477983
285.449524	1116.472778	3889.004639	1241.746948	4.518404
285.821014	1116.324097	3932.397217	1233.127930	4.147756
286.192535	1107.407837	3962.266846	1226.589233	4.174686
286.563995	1106.664673	3960.855225	1227.035156	4.217325
286.935425	1103.469727	3949.263916	1237.734741	4.718016
287.306824	1113.277588	3868.645264	1232.607788	4.330827
287.678223	1114.169312	3787.581055	1228.595581	4.280159
288.049561	1116.546997	3745.451416	1221.833984	4.004976
288.420898	1112.163086	3725.686768	1227.332275	4.406663
288.792145	1114.466553	3761.129639	1226.960815	4.250419
289.163452	1116.026978	3838.404297	1226.366333	4.053051
289.534668	1116.844238	3973.783936	1230.750122	3.986989
289.905914	1110.008301	4086.872803	1241.226929	4.407948
290.277039	1102.132202	4184.134766	1241.524292	4.522777
290.648193	1103.098267	4225.149902	1247.319946	4.619452
291.019318	1108.745239	4232.134277	1239.889526	4.198781
291.390381	1116.992798	4173.063965	1239.666626	4.014102
291.761475	1116.101196	4104.333984	1227.406616	3.724791
292.132507	1118.255981	4051.058594	1232.979370	3.911732
292.503510	1117.141479	4032.111328	1238.255005	4.154881
292.874481	1116.844238	4083.454346	1251.257935	4.530885
293.245422	1111.197266	4176.109863	1249.326050	4.506777
293.616364	1111.494385	4322.708984	1258.613892	4.581429
293.987213	1116.769897	4460.837402	1268.644653	4.541618
294.358093	1118.330200	4566.719238	1276.669312	4.591683
294.728943	1118.627441	4650.384277	1277.040894	4.485401
295.099731	1114.763672	4741.256836	1272.508423	4.349788
295.470490	1118.478882	4856.425781	1284.025269	4.428805
295.841248	1116.992798	4963.273438	1286.923096	4.418042
296.211975	1115.432495	5069.005859	1289.523804	4.403391
296.582642	1117.364380	5179.494141	1293.090332	4.325956
296.953308	1117.735840	5239.604980	1298.885864	4.394851
297.323883	1119.741943	5238.638672	1298.960083	4.351120
297.694519	1117.661499	5139.593262	1289.672363	4.276822
298.065063	1107.927856	5030.442871	1283.430786	4.474245
298.435608	1106.144653	4872.549316	1276.223511	4.515682
298.806122	1105.030151	4692.662598	1268.941895	4.568800
299.176575	1111.568726	4514.039063	1264.855225	4.505153
299.547028	1112.237427	4410.758301	1260.397095	4.491700
299.917450	1112.237427	4375.612793	1256.161743	4.410290
300.287872	1108.596558	4370.931641	1247.988403	4.272763
300.658234	1107.110596	4365.656250	1254.452759	4.521716
301.028564	1102.726807	4335.415527	1260.025513	4.865879
301.398865	1114.243652	4290.759277	1261.065796	4.622113
301.769135	1110.454224	4239.639160	1254.006958	4.587544
302.139374	1111.048584	4202.562012	1243.307495	4.278128
302.509583	1103.618286	4177.596191	1241.152710	4.474151
302.879791	1106.961914	4115.925293	1239.369507	4.400439
303.249939	1110.528442	4068.965820	1237.660522	4.297271
303.620087	1107.259155	4028.024658	1233.945313	4.337430
303.990173	1106.887695	4026.539063	1229.041382	4.183845
304.360260	1101.909302	4023.641357	1230.898926	4.414834
304.730286	1109.636841	4011.232422	1242.044312	4.563264
305.100281	1113.574829	4002.985107	1240.855347	4.405069
305.470276	1117.512817	4014.576172	1248.805786	4.531933
305.840179	1111.122925	4040.284912	1238.997925	4.365583
306.210144	1107.927856	4087.838623	1240.929688	4.463283
306.579987	1115.655396	4113.992676	1235.505615	3.997223
306.949890	1122.193970	4165.930176	1238.254761	3.813103
307.319702	1118.330200	4226.338379	1242.490112	3.994838
307.689484	1115.358032	4320.479980	1245.685181	4.066215
308.059265	1109.042358	4423.240723	1255.493164	4.418891
308.429016	1114.094971	4499.846680	1266.415649	4.498873
308.798737	1109.116699	4570.954590	1269.239136	4.625359
309.168396	1112.237427	4627.796387	1267.604370	4.419409
309.538055	1107.407837	4655.808105	1264.483643	4.426665
309.907684	1103.469727	4662.718262	1267.381470	4.605235
310.277313	1100.126099	4670.742676	1260.397095	4.488608
310.646851	1103.989868	4669.182617	1258.985352	4.347464
311.016388	1108.596680	4649.566895	1251.332153	4.030971
311.385895	1109.265381	4590.421875	1254.006958	4.157859
311.755371	1110.231323	4547.921387	1248.137085	4.011582
312.124817	1108.076538	4504.676758	1252.743896	4.259181
312.494232	1112.980469	4463.958496	1258.316528	4.337123
312.863617	1112.237427	4430.522949	1262.774780	4.536600
313.232971	1119.444824	4451.921875	1262.328857	4.287622
313.602295	1116.026978	4522.286621	1258.242188	4.175114
313.971619	1122.045532	4622.595703	1255.716064	3.818558
314.340820	1118.553223	4648.973145	1253.709839	3.828344
314.710083	1124.497437	4637.604492	1258.242310	3.807025
315.079285	1125.834839	4557.208984	1256.979126	3.821918
315.448486	1122.193970	4499.252441	1259.059692	4.052809
315.817596	1121.005249	4389.507324	1250.589233	3.964629
316.186707	1115.135254	4293.062500	1240.112427	3.932663
316.555786	1115.060913	4189.558594	1230.230103	3.745952
316.924866	1107.482056	4130.859863	1220.125000	3.725732
317.293884	1110.008301	4103.738770	1226.663696	3.896657
317.662872	1112.385986	4106.562500	1222.874146	3.690102
318.031830	1112.385986	4142.451172	1229.635742	3.869546
318.400757	1107.259155	4185.918457	1233.202271	4.090843
318.769684	1107.110474	4233.917480	1243.233276	4.353412
319.138550	1108.224976	4242.611328	1244.199097	4.338142
319.507416	1110.379761	4217.348145	1247.245483	4.405121
319.876190	1120.187744	4162.587402	1246.725464	4.159142
320.244995	1124.051636	4113.844727	1235.654175	3.732785
320.613770	1124.869019	4068.965576	1227.258179	3.477778
320.982483	1113.277710	4071.566406	1221.982666	3.674589
321.351166	1110.900024	4090.513428	1231.864868	4.059750
321.719818	1110.082642	4161.175293	1240.409668	4.271487
322.088440	1110.751343	4256.060059	1252.075195	4.493163
322.457062	1105.921753	4415.811035	1259.876953	4.651370
322.825623	1104.510010	4571.549316	1263.517822	4.586271
323.194183	1102.280884	4709.231934	1253.561279	4.194135
323.562653	1103.618286	4774.172852	1253.561157	4.085020
323.931183	1110.231201	4803.596680	1247.691406	3.721814
324.299591	1112.088867	4776.996582	1260.991577	4.062932
324.668060	1108.893799	4721.641113	1271.245239	4.493850
325.036407	1102.057983	4652.836426	1271.765259	4.779439
325.404755	1101.686401	4571.400879	1264.186523	4.683386
325.773102	1101.389282	4512.181152	1255.418701	4.515943
326.141388	1100.349121	4436.021484	1254.601440	4.624325
326.509674	1099.308838	4356.145020	1254.006958	4.749951
326.877899	1110.528442	4283.105957	1252.297974	4.468591
327.246124	1112.534668	4235.923828	1248.954468	4.367685
327.614288	1111.048584	4190.896484	1244.050415	4.318455
327.982422	1107.853516	4174.847168	1244.050415	4.440730
328.350525	1113.054810	4181.831543	1251.777954	4.520470
328.718628	1115.729614	4248.332520	1262.106079	4.672678
329.086700	1108.670898	4279.985840	1266.935791	4.990513
329.454712	1106.590454	4323.675293	1271.171021	5.115829
329.822693	1102.057983	4349.607422	1266.712769	5.070124
330.190674	1112.014526	4404.739746	1269.090454	4.770393
330.558563	1107.333496	4445.903320	1272.359741	4.943022
330.926483	1109.339722	4519.760254	1281.053223	5.034966
331.294312	1106.441772	4617.319336	1283.356689	5.039052
331.662231	1104.435669	4735.237793	1284.471191	4.958560
332.029999	1101.389160	4818.085449	1286.031372	4.967912
332.397766	1098.491333	4859.843750	1285.808594	4.980051
332.765503	1102.280884	4890.976563	1287.963379	4.900961
333.133240	1112.831787	4919.211426	1293.684692	4.751310
333.500916	1114.317871	4931.025879	1299.183105	4.843578
333.868561	1119.370483	4917.279785	1290.935425	4.517353
334.236176	1112.237427	4881.465332	1291.752808	4.762656
334.603790	1111.791626	4862.815918	1291.604126	4.793691
334.971344	1100.051758	4838.890137	1311.294556	5.649958
335.338867	1102.875366	4840.153320	1308.322388	5.497237
335.706360	1104.881470	4816.450684	1311.145874	5.557337
336.073853	1109.413940	4826.035645	1310.774292	5.417833
336.441284	1106.293213	4846.543457	1316.792725	5.627953
336.808655	1102.280884	4901.304688	1321.102417	5.759941
337.176086	1104.584351	4945.217285	1330.836060	5.891001
337.543396	1106.218872	4960.747070	1335.517090	5.948801
337.910706	1107.704956	4959.409668	1332.545044	5.837418
338.277954	1109.562500	4950.047363	1331.207520	5.771277
338.645264	1113.500610	4931.546387	1342.501465	5.997855
339.012421	1119.667725	4891.868652	1341.386963	5.877716
339.379669	1120.559448	4819.571777	1332.396362	5.726851
339.746796	1120.782227	4721.120605	1318.576050	5.493756
340.113953	1119.221802	4652.984863	1321.994019	5.738138
340.481018	1114.243530	4614.347656	1317.684448	5.812425
340.848114	1111.642944	4628.984863	1320.285034	5.931812
341.215118	1106.516113	4675.870605	1327.640991	6.195094
341.582153	1106.813232	4791.856934	1342.650269	6.399844
341.949066	1108.373657	4976.350586	1360.185547	6.510170
342.316010	1109.636841	5210.775391	1380.990234	6.616538
342.682922	1110.305542	5462.958984	1395.182129	6.544895
343.049835	1110.974243	5756.231934	1418.513184	6.620492
343.416656	1110.825806	6041.108887	1438.797852	6.652195
343.783478	1106.739136	6264.388184	1454.029907	6.733510
344.150269	1107.927856	6371.755859	1456.704956	6.625921
344.516998	1107.704956	6364.325684	1462.277710	6.745261
344.883728	1119.444702	6296.709473	1469.782104	6.766844
345.250427	1113.351929	6186.443848	1464.506470	6.921904
345.617065	1113.872070	6066.966309	1444.816406	6.681568
345.983704	1104.435547	5916.800293	1437.237671	6.915563
346.350281	1101.166260	5812.256348	1428.469727	6.947511
346.716827	1104.732788	5666.771484	1424.829102	7.016519
347.083405	1107.779297	5568.765625	1413.906616	6.862324
347.449860	1112.460449	5464.816406	1417.993164	7.019938
347.816376	1107.482056	5462.662109	1419.479126	7.163815
348.182770	1102.726685	5498.104004	1416.061157	7.128727
348.549194	1101.537842	5558.512207	1416.358521	7.063551
348.915558	1104.435669	5639.130859	1423.342896	7.032605
349.281921	1106.887695	5697.532715	1433.893921	7.123318
349.648193	1108.225098	5753.556641	1439.912476	7.140231
350.014526	1109.711182	5779.265625	1445.113647	7.182751
350.380737	1109.116821	5817.828613	1450.091919	7.241367
350.746948	1116.398315	5849.705078	1455.590210	7.166066
351.113159	1111.865845	5902.757324	1460.642944	7.280004
351.479309	1113.277588	5986.050293	1472.828491	7.378775
351.845428	1111.197144	6097.652832	1483.973999	7.475788
352.211517	1111.940308	6219.212402	1490.438110	7.410958
352.577576	1110.305542	6324.722168	1497.199707	7.419702
352.943604	1105.475952	6455.123535	1504.184204	7.452982
353.309601	1103.098267	6579.357910	1525.732056	7.717563
353.675537	1105.104370	6740.966309	1545.496460	7.814104
354.041473	1112.311768	6893.063965	1557.384888	7.699225
354.407379	1112.906128	7024.133301	1560.877075	7.578307
354.773254	1116.695557	7154.312012	1569.793579	7.504585
355.139038	1111.865845	7316.217285	1587.403198	7.664578
355.504913	1118.478882	7556.066406	1609.991333	7.635041
355.870636	1111.568726	7815.754395	1624.926147	7.657268
356.236389	1110.974243	8076.110840	1645.062134	7.668017
356.602081	1112.311646	8345.012695	1664.306641	7.631934
356.967804	1116.472656	8520.441406	1680.281860	7.614959
357.333405	1110.751343	8624.316406	1683.476929	7.622555
357.699036	1105.030151	8614.062500	1683.105347	7.698398
358.064606	1105.401489	8592.588867	1688.455078	7.787351
358.430176	1117.587280	8506.844727	1697.445679	7.847316
358.795654	1119.890625	8530.770508	1703.166992	7.870542
359.161163	1120.707886	8699.510742	1713.494995	7.821646
359.526581	1116.695557	9094.653320	1732.739624	7.721827
359.892029	1118.181641	9613.657227	1768.850586	7.659006
360.257416	1110.305542	10176.128906	1815.735718	7.781204
360.622772	1111.420044	10652.410156	1849.840454	7.739452
360.988098	1106.070313	10944.418945	1875.995117	7.825752
361.353394	1111.271484	11044.504883	1883.276978	7.771945
361.718658	1109.339600	10895.899414	1874.806274	7.821611
362.083893	1114.615112	10490.057617	1841.815918	7.756443
362.449097	1117.587280	9885.531250	1797.085571	7.749802
362.814209	1110.528442	9226.762695	1748.491699	7.860335
363.179382	1107.184814	8642.817383	1700.492188	7.873358
363.544434	1109.265259	8218.028320	1661.929077	7.774402
363.909546	1111.494507	7943.332031	1647.514160	7.845908
364.274536	1117.141479	7805.946777	1638.449219	7.793735
364.639587	1116.621216	7679.187012	1628.864258	7.805530
365.004517	1117.141357	7609.713379	1615.564087	7.676815
365.369507	1107.184937	7533.255859	1610.660156	7.834885
365.734344	1103.469727	7519.509766	1607.687988	7.858715
366.099274	1103.246704	7510.147949	1600.703491	7.764390
366.464081	1111.568726	7492.018066	1600.183472	7.657999
366.828918	1110.751343	7431.685059	1594.239258	7.648995
367.193665	1119.296265	7347.425293	1589.186523	7.544646
367.558411	1118.181763	7271.562012	1582.499390	7.545732
367.923126	1116.472656	7186.187500	1573.211548	7.524882
368.287781	1114.243530	7139.822754	1571.056641	7.581232
368.652435	1113.277710	7115.971191	1562.289063	7.480165
369.017059	1116.695679	7147.029785	1567.638794	7.477913
369.381653	1113.649292	7187.004395	1566.449829	7.455525
369.746185	1112.237427	7248.898926	1576.035034	7.557816
370.110687	1117.290039	7330.780762	1584.431274	7.518177
370.475220	1114.615112	7420.092285	1599.514771	7.690135
370.839661	1121.896729	7479.906250	1613.557983	7.732943
371.204041	1121.971069	7526.642578	1609.545532	7.612794
371.568451	1120.484985	7509.998535	1609.842773	7.658764
371.932770	1114.094971	7481.541504	1597.582886	7.593121
372.297150	1108.968140	7429.083496	1603.675659	7.827508
372.661377	1105.401733	7463.040527	1601.372192	7.801174
373.025696	1098.194214	7495.436035	1601.000610	7.859737
373.389862	1101.834961	7573.378906	1602.858276	7.741944
373.754059	1108.745117	7623.756348	1604.121460	7.603614
374.118225	1114.689453	7757.353027	1615.415405	7.538030
374.482361	1106.218872	7915.691406	1630.053101	7.692728
374.846436	1109.339600	8135.553223	1650.040527	7.695481
375.210510	1113.946411	8433.135742	1667.947388	7.569158
375.574524	1121.599487	8761.627930	1684.962891	7.373839
375.938538	1118.850342	9076.449219	1697.817017	7.275646
376.302460	1115.358154	9330.489258	1723.674683	7.404830
376.666412	1117.810181	9472.928711	1734.448364	7.380364
377.030304	1117.884399	9493.733398	1738.683716	7.411778
377.394196	1119.964844	9337.771484	1727.612671	7.394282
377.757996	1115.878296	9103.124023	1712.380493	7.468184
378.121796	1112.609009	8806.804688	1686.523071	7.459052
378.485565	1109.413940	8553.952148	1660.963013	7.408775
378.849304	1113.277710	8345.309570	1648.182983	7.396335
379.212982	1114.094849	8199.826172	1643.799194	7.475648
379.576630	1119.964966	8109.845215	1640.381226	7.445282
379.940277	1121.376587	8082.427246	1631.316284	7.325614
380.303864	1123.828613	8073.732910	1626.263672	7.229381
380.667450	1116.918457	8090.822754	1625.817749	7.297194
381.030945	1109.488159	8109.845215	1623.291626	7.339675
381.394501	1109.562378	8173.373535	1638.820801	7.492534
381.757935	1103.915527	8251.020508	1649.371948	7.631851
382.121399	1109.042480	8325.174805	1660.591431	7.643277
382.484741	1100.051758	8465.011719	1668.690430	7.720866
382.848145	1109.191040	8598.087891	1674.932007	7.554397
383.211487	1099.457397	8742.754883	1685.557251	7.668155
383.574768	1101.537842	8827.981445	1702.721191	7.780855
383.938019	1100.646240	8851.905273	1717.284546	7.955331
384.301270	1109.934082	8854.803711	1740.021118	8.135541
384.664459	1118.181519	8852.278320	1745.296509	8.108445
385.027649	1120.930786	8885.863281	1750.795044	8.111651
385.390778	1114.020630	9004.449219	1764.764038	8.247251
385.753876	1114.615112	9123.333008	1786.534668	8.389852
386.116943	1110.305542	9237.684570	1823.686035	8.777497
386.479980	1121.079468	9260.497070	1846.868530	8.916965
386.842987	1115.432495	9269.338867	1868.490601	9.235550
387.205994	1113.351929	9257.821289	1880.601929	9.420504
387.568909	1105.401611	9254.998047	1895.685425	9.697214
387.931793	1108.076538	9194.738281	1906.830688	9.877428
388.294678	1107.482056	9188.645508	1935.065796	10.240898
388.657471	1108.819458	9168.063477	1954.384644	10.491867
389.020294	1111.345825	9246.006836	2005.356079	10.990135
389.383057	1113.351929	9397.510742	2038.792358	11.171206
389.745819	1109.488159	9587.131836	2086.866211	11.528889
390.108521	1107.704956	9828.913086	2122.457275	11.635456
390.471191	1111.642944	10082.954102	2171.719971	11.816299
390.833801	1110.974243	10345.762695	2230.716064	12.125257
391.196442	1114.540894	10512.793945	2276.486572	12.363422
391.558960	1111.420044	10546.602539	2312.152100	12.726113
391.921509	1114.912354	10491.098633	2323.371826	12.888603
392.284027	1107.036255	10424.078125	2332.213867	13.149856
392.646484	1108.002075	10350.220703	2353.464600	13.475796
393.008911	1106.739014	10342.418945	2387.495117	13.867481
393.371307	1109.562500	10373.477539	2418.479248	14.129196
393.733673	1112.534668	10388.634766	2441.067139	14.322103
394.096008	1114.020630	10320.053711	2446.937256	14.478729
394.458344	1120.113525	10188.092773	2455.556396	14.727016
394.820587	1112.831909	9955.748047	2436.757568	14.971596
395.182831	1109.116821	9726.524414	2422.343018	15.239226
395.545013	1104.584351	9475.157227	2390.541504	15.362833
395.907196	1109.711304	9312.805664	2379.544678	15.479931
396.269287	1111.048584	9211.308594	2376.275391	15.619583
396.631409	1112.831909	9157.290039	2385.117432	15.815678
396.993469	1118.478882	9134.924805	2394.479492	15.917286
397.355530	1124.869019	9144.065430	2399.235107	15.891444
397.717499	1122.416870	9164.051758	2413.055420	16.049456
398.079468	1114.615112	9206.999023	2413.575439	16.051640
398.441376	1113.797729	9212.572266	2414.763916	16.063742
398.803284	1113.723511	9200.683594	2421.971436	16.177252
399.165131	1110.231323	9198.083008	2423.531982	16.237942
399.526978	1104.212769	9175.420898	2413.798096	16.225395
399.888763	1096.485229	9175.196289	2403.098633	16.173538
400.250519	1095.593628	9148.299805	2402.207031	16.225767
400.612244	1094.107544	9167.543945	2411.123291	16.312950
400.973938	1106.070313	9259.679688	2410.008789	15.992163
401.335602	1115.506714	9368.904297	2409.265869	15.675474
401.697205	1125.983398	9546.116211	2423.086182	15.404778
402.058807	1116.101196	9697.620117	2432.596924	15.341058
402.420349	1108.968140	9951.585938	2465.735596	15.343504
402.781860	1101.314941	10157.553711	2482.825195	15.254791
403.143341	1108.819458	10382.616211	2503.630127	15.040341
403.504822	1107.184937	10546.008789	2524.583740	15.016688
403.866241	1105.773071	10695.282227	2527.184326	14.822566
404.227631	1103.172485	10778.500977	2541.450439	14.865417
404.588959	1105.327271	10790.018555	2536.471924	14.777390
404.950287	1110.231323	10742.686523	2526.515381	14.703251
405.311554	1106.961914	10647.801758	2492.707764	14.524359
405.672821	1105.698730	10549.797852	2451.766846	14.253006
406.034027	1105.773071	10426.827148	2424.794922	14.150995
406.395203	1101.835083	10252.289063	2388.981201	14.066473
406.756348	1104.509888	10090.680664	2357.551025	13.944105
407.117493	1100.497681	10025.219727	2327.161377	13.744559
407.478516	1101.463501	10068.613281	2316.090088	13.545292
407.839600	1104.138428	10185.565430	2305.761963	13.231660
408.200592	1104.881470	10310.468750	2310.071533	13.091942
408.561554	1110.677002	10459.520508	2309.997314	12.828542
408.922485	1106.441772	10593.413086	2321.662842	12.809367
409.283417	1110.156982	10687.034180	2316.684814	12.598343
409.644257	1107.407837	10766.315430	2314.083984	12.492885
410.005096	1115.803955	10829.696289	2302.938721	12.221000
410.365906	1110.156982	10825.683594	2284.660156	12.088930
410.726715	1113.352051	10797.671875	2268.982178	11.933002
411.087433	1099.680298	10711.182617	2242.084717	11.885805
411.448120	1104.287109	10661.399414	2234.654541	11.827499
411.808807	1106.739014	10613.624023	2213.701172	11.643795
412.169434	1109.562500	10593.562500	2198.543213	11.482293
412.530029	1108.373657	10652.631836	2181.453857	11.243202
412.890564	1106.590332	10733.622070	2185.465820	11.206731
413.251099	1115.358032	10883.713867	2188.735352	10.988312
413.611572	1111.717285	11021.174805	2195.199463	10.933820
413.972076	1117.141479	11207.226563	2190.741455	10.640148
414.332489	1112.014526	11313.778320	2192.524658	10.591405
414.692871	1115.655273	11542.629883	2206.642334	10.463121
415.053223	1112.311646	11704.907227	2211.695068	10.378792
415.413574	1110.231323	11986.291992	2227.818604	10.275662
415.773834	1109.265381	12204.816406	2222.097412	10.029534
416.134094	1108.745239	12513.469727	2236.065918	9.884682
416.494263	1114.466431	12821.602539	2254.270264	9.735975
416.854462	1119.519165	13180.335938	2281.762451	9.636522
417.214630	1119.519043	13579.936523	2312.969482	9.577932
417.574738	1118.181641	13998.038086	2333.402588	9.435050
417.934784	1111.717285	14443.631836	2359.928711	9.362582
418.294861	1112.831909	15007.664063	2392.696289	9.211082
418.654846	1107.333374	15613.752930	2432.373779	9.134166
419.014832	1113.797729	16243.168945	2478.144531	9.017869
419.374756	1108.968140	16908.328125	2526.664063	8.973123
419.734680	1115.506836	17585.226563	2581.425049	8.900687
420.094543	1112.906128	18141.751953	2625.858154	8.884643
420.454376	1111.494385	18454.568359	2652.235596	8.883899
420.814148	1102.726685	18632.968750	2656.990967	8.866188
421.173920	1102.726685	18790.416016	2664.495361	8.829693
421.533691	1106.367554	18903.578125	2657.139893	8.713570
421.893341	1114.540771	18897.632813	2638.861328	8.571741
422.253021	1105.847290	18844.804688	2620.062744	8.536102
422.612640	1112.014526	18774.812500	2600.595459	8.427775
422.972260	1111.865967	18818.056641	2603.047119	8.421806
423.331757	1119.519043	18943.255859	2601.189697	8.312907
423.691315	1113.054810	19093.125000	2614.564209	8.350965
424.050781	1108.893921	19120.169922	2606.093750	8.312570
424.410248	1107.630737	18921.039063	2569.685303	8.207607
424.769653	1113.351929	18602.650391	2525.995361	8.077188
425.128998	1117.067139	18184.625000	2480.001953	7.985529
425.488373	1120.856567	17719.414063	2452.361328	8.021811
425.847656	1117.884399	17287.939453	2414.541260	8.018877
426.206940	1114.243652	16867.087891	2380.138916	8.035979
426.566193	1108.150757	16468.158203	2340.312744	8.021884
426.925385	1106.590454	16010.155273	2303.904541	8.033743
427.284576	1109.116821	15612.859375	2274.703369	8.036454
427.643677	1113.574951	15324.788086	2244.536377	7.958233
428.002777	1114.986694	15154.411133	2214.964111	7.834918
428.361847	1119.147583	14963.973633	2187.397705	7.715879
428.720856	1114.838013	14753.250977	2167.558838	7.718792
429.079865	1107.704956	14608.956055	2175.509521	7.908931
429.438812	1103.841309	14585.551758	2180.116211	7.983222
429.797760	1102.057983	14546.913086	2175.435059	7.983552
430.156616	1106.070313	14397.340820	2159.162842	7.923189
430.515503	1100.571899	14254.382813	2138.060791	7.887364
430.874268	1107.036255	14269.094727	2141.924561	7.862663
431.233093	1112.088867	14393.776367	2144.599365	7.773941
431.591827	1123.085571	14618.838867	2161.912109	7.697433
431.950562	1119.296265	14776.135742	2171.422852	7.704027
432.309204	1120.410645	14938.338867	2180.116211	7.669063
432.667877	1113.872070	15081.000000	2191.484619	7.715348
433.026459	1114.763672	15164.219727	2198.989014	7.717205
433.385010	1111.345703	15242.609375	2200.995361	7.710915
433.743561	1115.432495	15255.315430	2193.862305	7.626865
434.102051	1111.420044	15293.506836	2189.032471	7.598405
434.460510	1112.757568	15335.339844	2194.159424	7.603415
434.818939	1110.082642	15286.000977	2198.171631	7.675616
435.177338	1116.918579	15247.363281	2198.989014	7.657724
435.535675	1114.540894	15176.627930	2191.410156	7.657962
435.894012	1115.878296	15212.292969	2187.620850	7.602944
436.252289	1111.717285	15397.753906	2204.859131	7.651820
436.610535	1112.906128	15533.801758	2217.787598	7.661670
436.968719	1112.014526	15810.877930	2250.778076	7.747290
437.326935	1112.088745	16075.468750	2275.223633	7.773210
437.685028	1111.122925	16414.365234	2296.177002	7.743811
438.043152	1115.729614	16638.906250	2312.375000	7.708766
438.401215	1121.748169	16917.318359	2320.771240	7.590882
438.759277	1118.478882	17225.302734	2362.380859	7.722826
439.117249	1109.339722	17768.380859	2399.309326	7.743361
439.475250	1107.704956	18147.623047	2447.308838	7.861563
439.833130	1109.859741	18628.658203	2471.977295	7.775177
440.191071	1109.191040	18713.583984	2488.918213	7.837403
440.548889	1108.596558	18807.578125	2486.912354	7.787543
440.906708	1108.225098	18668.705078	2489.438232	7.865463
441.264496	1109.265381	18511.853516	2459.197021	7.757074
441.622223	1103.172485	18216.500000	2445.079346	7.841297
441.979950	1100.200562	17898.929688	2416.250244	7.834222
442.337616	1106.516235	17668.666016	2416.027100	7.906648
442.695251	1107.110474	17475.628906	2397.080078	7.880796
443.052887	1109.785522	17373.240234	2388.386475	7.861804
443.410461	1109.042480	17468.197266	2400.275146	7.893028
443.768005	1108.447998	17727.738281	2419.148193	7.886619
444.125458	1114.392212	18025.544922	2439.952881	7.838382
444.482941	1113.351929	18365.996094	2458.974365	7.799514
444.840393	1117.661499	18865.533203	2500.063721	7.789116
445.197754	1109.116699	19356.228516	2540.261475	7.843131
445.555084	1109.413940	19765.416016	2572.657471	7.843286
445.912415	1114.540894	20011.804688	2600.149170	7.861499
446.269714	1114.392212	20160.185547	2612.780762	7.867294
446.626953	1112.014526	20180.619141	2626.229736	7.940881
446.984161	1108.745239	20014.626953	2605.647705	7.917655
447.341309	1113.054810	19778.865234	2593.387939	7.930720
447.698456	1116.249878	19455.349609	2561.214844	7.879149
448.055542	1119.444824	19198.931641	2549.326416	7.908862
448.412598	1113.129028	18846.365234	2523.171631	7.951412
448.769653	1105.847412	18490.009766	2503.035889	8.037134
449.126617	1096.411011	18045.232422	2467.147705	8.087504
449.483582	1102.652466	17707.898438	2453.030273	8.132236
449.840515	1104.584229	17419.232422	2429.178955	8.119052
450.197388	1110.751343	17216.611328	2410.974609	8.072983
450.554230	1104.509888	17128.041016	2391.284424	8.030530
450.911041	1105.104370	17056.412109	2389.203857	8.050120
451.267822	1106.441895	17112.064453	2405.030273	8.113326
451.624573	1114.466553	17135.171875	2413.723877	8.109863
451.981262	1123.159790	17145.798828	2414.764404	8.061123
452.337921	1119.741943	17003.287109	2394.628174	8.026459
452.694580	1114.838013	16697.085938	2365.352783	8.025252
453.051147	1104.584351	16427.365234	2345.588135	8.099076
453.407715	1102.206665	16049.460938	2328.647217	8.205123
453.764221	1112.088867	15933.698242	2328.572998	8.207503
454.120728	1116.695679	15620.512695	2306.876709	8.205985
454.477142	1115.060913	15568.648438	2305.539063	8.236558
454.833557	1112.980469	15416.700195	2292.387451	8.245457
455.189911	1111.345825	15465.963867	2298.108643	8.267464
455.546265	1114.689453	15540.117188	2298.034424	8.203188
455.902557	1115.804077	15626.085938	2309.997314	8.229980
456.258820	1118.181641	15859.692383	2328.647217	8.211272
456.615051	1114.169312	16122.575195	2352.498535	8.250904
456.971252	1113.723389	16467.564453	2371.891602	8.194486
457.327393	1112.311768	17019.185547	2421.525635	8.230492
457.683502	1118.999023	17661.236328	2472.497314	8.182075
458.039612	1110.008423	18607.259766	2560.917480	8.292211
458.395630	1114.317871	19487.970703	2626.526611	8.230311
458.751648	1114.838013	20327.515625	2691.170166	8.204646
459.107605	1120.187866	21040.375000	2741.176025	8.137414
459.463562	1111.420044	21307.345703	2763.838623	8.181940
459.819458	1107.779297	21238.765625	2764.804443	8.231216
460.175323	1103.395386	20594.263672	2722.005859	8.304455
460.531158	1101.537842	19862.007813	2657.734131	8.295081
460.886932	1102.875244	19057.162109	2590.489990	8.285568
461.242676	1100.720581	18359.830078	2527.778564	8.268434
461.598419	1105.252930	17834.289063	2494.862549	8.306574
461.954102	1109.859741	17292.695313	2459.048584	8.337159
462.309723	1110.231323	16865.380859	2428.435791	8.366817
462.665344	1113.574829	16470.609375	2400.795166	8.381959
463.020905	1111.122803	16286.859375	2384.968750	8.393965
463.376373	1120.484985	16259.367188	2385.042969	8.353047
463.731873	1122.862671	16318.437500	2384.077148	8.299880
464.087341	1127.395142	16378.252930	2384.671631	8.243973
464.442749	1125.017456	16504.267578	2388.015137	8.212349
464.798126	1123.011353	16567.500000	2394.033691	8.229618
465.153503	1119.667847	16720.935547	2407.705322	8.255980
465.508820	1114.466431	16853.490234	2420.039551	8.295135
465.864105	1114.095093	17002.990234	2428.212891	8.270668
466.219330	1107.704956	17237.337891	2444.485107	8.287728
466.574524	1108.893921	17284.224609	2451.246826	8.298766
466.929657	1110.454224	17178.490234	2449.760498	8.335220
467.284790	1116.175415	16964.798828	2433.116943	8.309502
467.639893	1113.797852	16725.171875	2412.386475	8.318221
467.994934	1114.986694	16546.472656	2392.696533	8.279888
468.349945	1113.203491	16329.210938	2384.300049	8.353680
468.704926	1111.271484	16192.940430	2378.281494	8.400993
469.059875	1111.865967	16034.006836	2377.909912	8.484332
469.414764	1106.590454	15951.531250	2366.170166	8.484909
469.769653	1113.797852	15939.346680	2362.380615	8.421832
470.124451	1109.413940	16067.295898	2363.940918	8.387063
470.479248	1109.711060	16129.485352	2365.724365	8.362398
470.834015	1103.692627	16196.878906	2369.142334	8.384245
471.188721	1100.126099	16415.923828	2383.705322	8.380754
471.543365	1099.308716	16708.529297	2413.129150	8.416951
471.898010	1105.475952	16947.039063	2433.116943	8.380745
472.252625	1107.259155	17155.458984	2445.154053	8.336729
472.607178	1110.379883	17368.111328	2456.893799	8.282299
472.961700	1103.841187	17490.785156	2476.361084	8.375692
473.316193	1107.556274	17537.298828	2489.958252	8.414021
473.670654	1112.534668	17469.683594	2488.323486	8.410933
474.025055	1113.872070	17531.205078	2488.621094	8.373766
474.379456	1113.574951	17565.312500	2486.317627	8.344059
474.733795	1106.367676	17707.898438	2497.091553	8.377082
475.088104	1112.088745	18027.845703	2516.781738	8.304050
475.442383	1111.048462	18387.695313	2547.468506	8.314230
475.796570	1114.243530	18730.677734	2578.304443	8.310768
476.150787	1105.327271	19097.212891	2610.328857	8.364891
476.504944	1110.305542	19453.345703	2648.669189	8.386634
476.859070	1113.129028	19829.314453	2670.959961	8.323442
477.213135	1115.952515	20075.849609	2704.396240	8.377913
477.567200	1106.293213	20362.882813	2721.560303	8.388126
477.921173	1105.698853	20619.822266	2752.172852	8.437346
478.275146	1110.082642	20880.996094	2752.693115	8.308217
478.629089	1119.519043	21129.242188	2773.348877	8.265131
478.983002	1114.466553	21544.667969	2802.550049	8.262687
479.336823	1108.150757	22075.708984	2849.063477	8.302887
479.690643	1104.361450	22824.830078	2897.063232	8.253513
480.044403	1112.163086	23714.013672	2955.464844	8.155535
480.398163	1114.615112	24920.314453	3053.544678	8.144813
480.751862	1109.488159	26579.718750	3185.357666	8.150180
481.105499	1106.590454	28820.835938	3376.166992	8.189206
481.459137	1113.574951	32078.937500	3623.520752	8.105656
481.812744	1111.197144	36345.546875	3973.041016	8.122312
482.166290	1111.568726	41541.613281	4399.464355	8.132308
482.519806	1108.893677	46650.968750	4856.871582	8.229704
482.873291	1110.082642	50895.437500	5264.347656	8.344352
483.226715	1106.516113	53589.500000	5560.667480	8.486849
483.580139	1107.482056	54581.593750	5684.381348	8.559093
483.933502	1109.934082	53962.875000	5624.790527	8.542299
484.286804	1113.797729	51925.343750	5413.919434	8.462883
484.640106	1111.420166	48970.769531	5103.779785	8.341860
484.993347	1112.609009	45898.203125	4815.262207	8.267509
485.346558	1113.500610	43628.625000	4595.697754	8.190491
485.699738	1115.283813	42637.578125	4520.577637	8.201122
486.052887	1121.376709	42916.062500	4528.304688	8.151582
486.405975	1120.559326	43947.238281	4621.480957	8.174627
486.759064	1117.735840	45126.863281	4703.213379	8.147122
487.112061	1110.900024	45689.636719	4749.132813	8.161364
487.464996	1098.194214	45361.074219	4694.148926	8.124086
487.817963	1098.937134	44095.250000	4595.251953	8.131662
488.170868	1102.949585	42202.386719	4440.479492	8.120622
488.523743	1111.717285	39992.027344	4289.941895	8.174381
488.876587	1113.129028	37977.160156	4132.494629	8.190547
489.229401	1113.872192	36683.253906	4016.507813	8.160489
489.582153	1118.701782	36427.875000	3981.065674	8.106573
489.934845	1118.776001	37084.414063	4016.879639	8.057980
490.287537	1114.540771	38298.000000	4122.463379	8.089410
490.640198	1113.649170	39623.855469	4220.023438	8.066366
490.992798	1113.129028	40382.191406	4293.285645	8.098377
491.345337	1114.243652	40265.757813	4286.970215	8.103713
491.697876	1108.448120	38992.359375	4196.171875	8.150488
492.050354	1111.271484	37005.207031	4034.192139	8.143215
492.402832	1110.082642	34388.859375	3820.720459	8.145245
492.755219	1116.918457	31646.419922	3574.704102	8.050527
493.107605	1108.447876	29166.865234	3361.455078	8.029702
493.459930	1111.122803	27289.828125	3205.493408	8.000283
493.812225	1111.791504	26000.900391	3120.565430	8.070895
494.164490	1120.039185	25193.154297	3059.414795	8.056189
494.516724	1121.896851	24773.046875	3022.857422	8.037498
494.868896	1118.330322	24760.119141	3006.288330	7.985682
495.221039	1113.426270	25015.052734	3013.718506	7.950472
495.573120	1113.872070	25310.775391	3033.557373	7.933599
495.925201	1113.129028	25598.251953	3053.173096	7.923358
496.277222	1117.215698	25759.193359	3061.718018	7.891016
496.629211	1112.088867	25796.937500	3058.374023	7.884534
496.981140	1111.568726	25618.984375	3042.622070	7.879465
497.333069	1110.008423	25333.068359	3029.842041	7.925644
497.684967	1111.197144	25007.173828	2999.600830	7.902601
498.036804	1111.345825	24573.916016	2970.177002	7.922539
498.388580	1107.407715	24063.382813	2922.102783	7.905110
498.740326	1107.036255	23541.406250	2889.409912	7.944835
499.092072	1109.042358	23062.078125	2852.778564	7.943030
499.443756	1120.782104	22628.892578	2831.082275	7.951884
499.795410	1121.079468	22252.476563	2809.014404	7.987806
500.147003	1114.838013	21959.054688	2791.850586	8.045457
500.498566	1113.351929	21684.580078	2756.779541	7.988962
500.850098	1111.940308	21497.189453	2727.429932	7.924797
501.201599	1111.791626	21342.861328	2698.451904	7.842691
501.553009	1113.426270	21270.267578	2692.656494	7.834711
501.904449	1121.673828	21222.640625	2690.947510	7.806956
502.255859	1126.280640	21301.251953	2711.900879	7.859344
502.607178	1119.593384	21418.947266	2726.464111	7.915872
502.958405	1111.568726	21502.613281	2733.448486	7.953883
503.309692	1112.609009	21548.382813	2718.141846	7.856482
503.660919	1110.454224	21672.988281	2713.758057	7.797210
504.012115	1113.872070	21697.136719	2705.138916	7.730876
504.363251	1115.878296	21660.060547	2705.436523	7.737267
504.714294	1113.426270	21450.005859	2707.739990	7.839635
505.065369	1104.881470	21388.927734	2700.680908	7.867264
505.416443	1101.834961	21281.560547	2684.631592	7.843499
505.767395	1102.503784	21257.117188	2673.931885	7.796865
506.118317	1112.014526	21186.900391	2684.037109	7.830792
506.469238	1116.101196	21319.828125	2704.173096	7.860292
506.820160	1117.067017	21515.392578	2722.674561	7.871271
507.170929	1118.107300	21769.060547	2724.160645	7.777139
507.521729	1117.661499	22008.242188	2742.662109	7.778628
507.872498	1115.952515	22247.720703	2738.946533	7.680351
508.223236	1114.466431	22556.523438	2762.872314	7.687723
508.573883	1109.116699	22782.775391	2759.156982	7.613114
508.924500	1105.995972	23027.751953	2783.528564	7.652364
509.275116	1099.234375	23195.154297	2798.686279	7.691247
509.625702	1099.605957	23396.736328	2823.949219	7.733476
509.976196	1102.503784	23539.919922	2837.323975	7.731818
510.326660	1109.265259	23713.564453	2852.630127	7.712537
510.677124	1114.169312	23895.382813	2861.398193	7.669604
511.027557	1120.707886	24082.701172	2868.456299	7.611484
511.377869	1120.707886	24213.474609	2865.410156	7.555189
511.728180	1118.701660	24254.265625	2876.110107	7.596134
512.078430	1116.992798	24232.349609	2880.270752	7.628167
512.428650	1113.574829	24148.384766	2870.611084	7.627743
512.778931	1119.221924	23992.869141	2858.945557	7.605799
513.129028	1121.525269	23826.132813	2842.896484	7.581594
513.479126	1129.401367	23648.179688	2844.679688	7.617102
513.829285	1122.193848	23502.099609	2820.605469	7.589003
514.179382	1114.838013	23409.220703	2802.475586	7.569788
514.529297	1108.447998	23375.931641	2783.379639	7.521872
514.879272	1103.395386	23536.501953	2789.472656	7.516022
515.229187	1104.138550	23713.937500	2803.367188	7.515452
515.579163	1100.571899	24135.677734	2836.729492	7.537007
515.928955	1107.110596	24617.679688	2873.360596	7.512579
516.278748	1106.144531	25318.726563	2921.137451	7.496073
516.628540	1114.986572	26133.380859	2979.464844	7.452430
516.978333	1118.998901	27101.322266	3048.789307	7.427320
517.327942	1128.361084	28044.298828	3112.094971	7.370109
517.677612	1122.862793	28733.826172	3156.602539	7.365696
518.027222	1118.999023	29128.076172	3194.274170	7.409295
518.376831	1116.844238	29193.537109	3207.648438	7.446761
518.726379	1109.116821	28948.265625	3187.809570	7.466798
519.075867	1109.191040	28358.078125	3138.695557	7.448027
519.425293	1105.624634	27623.744141	3083.711670	7.459379
519.774658	1106.367554	26909.250000	3038.832764	7.489338
520.124084	1110.156982	26342.095703	2992.764893	7.461210
520.473389	1105.847412	25882.462891	2954.796631	7.462477
520.822693	1117.958740	25530.265625	2922.623291	7.392437
521.171997	1114.912354	25316.646484	2894.982422	7.355134
521.521240	1124.794556	25293.240234	2893.793701	7.319458
521.870361	1119.519165	25390.796875	2898.846436	7.331000
522.219482	1118.330200	25607.541016	2918.313477	7.350107
522.568604	1112.757568	25869.755859	2930.945313	7.344137
522.917664	1114.095093	26331.474609	2961.632080	7.326443
523.266724	1111.643066	27024.494141	2992.764893	7.259417
523.615662	1114.615234	27977.796875	3057.185547	7.231349
523.964600	1124.348755	29165.750000	3139.661377	7.186919
524.313538	1124.423096	30438.927734	3240.193115	7.217485
524.662354	1119.370483	31767.537109	3319.102783	7.177371
525.011169	1117.587280	33032.316406	3399.647217	7.150492
525.359985	1120.484985	34276.363281	3491.707764	7.151741
525.708740	1117.958740	35612.550781	3592.313477	7.173167
526.057434	1106.664673	37151.878906	3703.767578	7.205126
526.406067	1102.503784	39175.660156	3849.401123	7.214788
526.754700	1102.578003	41933.628906	4056.111328	7.233547
527.103333	1105.030151	45325.625000	4309.483398	7.246518
527.451782	1105.401489	48860.355469	4588.490234	7.293670
527.800293	1110.231201	51578.496094	4813.479004	7.337775
528.148743	1109.116699	53126.375000	4942.394043	7.369242
528.497131	1108.076538	53096.203125	4946.852051	7.383946
528.845642	1100.646362	51695.593750	4838.890137	7.388571
529.193909	1104.732788	49078.207031	4622.893066	7.333553
529.542175	1104.658447	45578.550781	4342.994141	7.281431
529.890503	1113.649048	41972.199219	4049.944580	7.186490
530.238770	1104.212769	38739.730469	3807.717529	7.183387
530.586914	1105.178711	36616.824219	3640.981689	7.140765
530.934998	1105.921753	35436.082031	3562.221436	7.154932
531.283142	1117.512939	35485.492188	3548.400635	7.073118
531.631226	1119.741943	36241.152344	3600.041016	7.062071
531.979248	1117.067017	37605.867188	3679.842041	7.023456
532.327148	1109.562378	38895.910156	3775.766846	7.056000
532.675110	1108.373657	39848.699219	3828.744873	7.022066
533.023071	1109.859741	39978.355469	3852.224609	7.055495
533.370850	1107.407837	39264.234375	3806.900146	7.074729
533.718689	1112.386108	37933.917969	3728.807861	7.105685
534.066467	1114.243652	36233.945313	3603.384766	7.087592
534.414246	1116.026978	34590.738281	3494.902588	7.106485
534.761963	1112.980469	33293.488281	3392.513672	7.083584
535.109619	1113.500610	32712.812500	3338.644287	7.041747
535.457153	1118.924683	32500.900391	3309.666016	6.980890
535.804749	1122.862671	32465.906250	3300.749756	6.948551
536.152344	1117.810059	32330.822266	3287.078125	6.949884
536.499817	1113.946411	32004.560547	3260.477783	6.948814
536.847229	1109.636841	31483.697266	3221.023438	6.951283
537.194641	1110.528442	30640.289063	3165.890625	6.960308
537.542114	1111.197388	29815.750000	3121.234375	7.002502
537.889404	1111.123047	29068.193359	3068.702148	7.002090
538.236694	1112.014526	28735.462891	3030.436523	6.944904
538.583984	1112.088867	28947.078125	3022.337158	6.862760
538.931213	1107.184937	29784.544922	3068.999268	6.840987
539.278381	1108.448120	31307.671875	3173.766357	6.838978
539.625488	1099.680298	33244.300781	3308.476807	6.871434
539.972595	1108.893677	35698.964844	3466.444580	6.815687
540.319641	1103.989746	38086.683594	3624.932617	6.816547
540.666687	1113.129028	39970.332031	3763.581299	6.821006
541.013611	1112.683228	41074.324219	3843.531250	6.833674
541.360596	1119.073242	41202.046875	3855.122314	6.825963
541.707458	1122.937012	40510.511719	3785.798096	6.760663
542.054260	1121.971069	38959.812500	3672.708984	6.741235
542.401062	1113.871948	37099.496094	3545.354492	6.756816
542.747864	1110.379761	35073.929688	3413.244141	6.780399
543.094666	1106.218750	33215.546875	3289.009766	6.797997
543.441284	1110.231323	31440.380859	3178.893311	6.820481
543.787903	1100.794800	30023.796875	3087.946533	6.870489
544.134460	1101.612183	28761.541016	3003.984375	6.877719
544.481079	1101.909302	27913.599609	2917.867920	6.773011
544.827637	1112.311890	27327.500000	2873.137451	6.716815
545.174072	1109.934204	27098.648438	2858.722656	6.729030
545.520508	1117.215820	27043.812500	2867.267578	6.750025
545.866943	1111.791626	27053.990234	2857.757080	6.730214
546.213318	1113.351929	26965.349609	2851.886963	6.724954
546.559631	1111.122925	26652.091797	2826.401123	6.715791
546.905823	1120.559326	26108.564453	2789.546875	6.679154
547.252136	1124.125854	25309.958984	2735.900391	6.664126
547.598389	1119.370483	24368.914063	2681.807861	6.720293
547.944458	1116.472778	23418.656250	2623.554932	6.757554
548.290588	1105.475952	22494.181641	2554.824951	6.776236
548.636658	1097.599731	21692.603516	2489.438477	6.758138
548.982727	1097.302612	20954.705078	2440.844482	6.765950
549.328735	1101.314941	20459.552734	2410.157471	6.761166
549.674622	1112.163208	20044.572266	2389.203857	6.745263
550.020569	1115.358154	19861.638672	2378.132813	6.736134
550.366455	1117.215698	19651.359375	2360.077393	6.705795
550.712280	1104.881470	19636.203125	2353.984375	6.740495
551.058044	1097.748413	19697.205078	2353.315674	6.750559
551.403748	1094.850586	19898.789063	2369.216553	6.777123
551.749512	1099.383057	20095.244141	2379.618896	6.739552
552.095154	1100.720581	20223.566406	2389.352539	6.738704
552.440735	1103.395386	20254.921875	2387.197998	6.703395
552.786316	1107.184937	20137.003906	2381.253418	6.695117
553.131897	1110.305542	19903.171875	2367.507568	6.689783
553.477417	1110.156860	19573.267578	2360.968994	6.774655
553.822815	1103.543945	19187.193359	2338.975342	6.831759
554.168213	1099.977417	18847.554688	2296.994141	6.744677
554.513672	1103.618286	18525.304688	2267.495850	6.680625
554.859009	1117.735840	18299.349609	2247.285889	6.574179
555.204285	1115.581177	18047.314453	2241.490234	6.649698
555.549500	1116.472656	17855.611328	2221.948486	6.604138
555.894714	1115.283936	17702.103516	2202.481201	6.554585
556.239990	1113.872192	17588.494141	2197.354248	6.576674
556.585022	1119.073242	17482.017578	2189.775635	6.543458
556.930115	1117.215698	17362.687500	2182.865479	6.559673
557.275146	1118.776001	17241.873047	2166.964600	6.501162
557.620178	1110.379761	17156.423828	2155.893311	6.515709
557.965149	1109.934082	17134.802734	2153.515869	6.512264
558.310059	1114.169312	17130.865234	2140.735596	6.409351
558.654968	1112.608887	17117.638672	2149.726318	6.479947
558.999756	1108.373657	17067.037109	2151.732422	6.537883
559.344604	1105.773071	17073.205078	2161.986328	6.614798
559.689331	1109.785400	17088.138672	2157.453857	6.556798
560.033997	1108.299316	17127.148438	2152.401123	6.517958
560.378723	1104.955811	17214.751953	2164.735352	6.578479
560.723389	1107.184814	17292.916016	2172.388672	6.581129
561.067932	1115.135254	17378.068359	2185.391602	6.580955
561.412476	1120.559448	17338.687500	2177.292725	6.515754
561.757019	1120.039185	17301.611328	2173.874756	6.512566
562.101501	1118.553101	17179.904297	2169.416504	6.542808
562.445862	1115.358032	17092.896484	2159.831543	6.537137
562.790222	1110.677002	17037.169922	2150.989502	6.531962
563.134644	1107.482056	17053.068359	2152.698486	6.554895
563.478943	1108.893799	17166.826172	2166.072998	6.583532
563.823181	1112.237427	17279.765625	2171.719971	6.553151
564.167358	1112.534546	17504.904297	2175.137939	6.482305
564.511536	1107.630615	17813.037109	2187.100586	6.461800
564.855774	1102.429443	18222.146484	2210.134521	6.470347
565.199768	1102.652344	18631.037109	2230.419189	6.433946
565.543823	1111.494507	18900.234375	2246.171387	6.378624
565.887817	1116.398438	19144.392578	2261.180420	6.350024
566.231812	1112.906250	19144.837891	2261.923584	6.372126
566.575745	1109.785400	19010.126953	2256.201904	6.404439
566.919617	1107.036255	18731.343750	2238.666748	6.420851
567.263428	1112.980469	18432.126953	2229.378906	6.446036
567.607239	1111.197266	18187.150391	2212.066162	6.446896
567.950989	1115.878296	17929.470703	2196.982666	6.429943
568.294678	1112.609009	17792.529297	2186.134766	6.436037
568.638367	1117.438599	17704.035156	2191.112793	6.473144
568.981995	1112.683228	17700.765625	2193.936523	6.518254
569.325623	1120.633667	17788.070313	2196.091064	6.452446
569.669128	1116.769897	17914.013672	2196.091309	6.425586
570.012573	1112.831787	18106.162109	2199.657959	6.395605
570.356140	1102.429443	18356.337891	2220.313965	6.479022
570.699524	1102.875366	18629.031250	2230.864990	6.436036
571.042908	1116.844238	19021.943359	2257.242432	6.369125
571.386230	1118.850464	19257.853516	2263.706787	6.311572
571.729492	1121.079468	19448.664063	2279.161865	6.318795
572.072815	1107.927979	19366.261719	2277.006836	6.402987
572.416016	1108.150879	19222.708984	2268.907959	6.407868
572.759094	1110.008301	18964.134766	2257.242432	6.425596
573.102234	1108.819458	18742.564453	2243.347900	6.433849
573.445374	1106.962036	18579.544922	2238.146484	6.474054
573.788391	1107.705078	18526.490234	2228.264404	6.433051
574.131409	1113.203491	18469.353516	2219.571045	6.374498
574.474365	1118.850464	18409.763672	2209.168457	6.305728
574.817261	1124.051636	18299.201172	2197.354248	6.249160
575.160156	1127.395264	18106.384766	2187.026367	6.240837
575.502930	1122.045410	17813.259766	2166.072998	6.254952
575.845703	1110.008423	17476.669922	2147.571289	6.339490
576.188477	1107.259155	17144.089844	2121.045166	6.321610
576.531250	1114.986694	16826.667969	2106.184814	6.308670
576.873901	1109.934082	16473.208984	2091.621582	6.389832
577.216431	1108.670898	16132.680664	2077.058350	6.445599
577.559082	1102.280884	15783.383789	2046.148438	6.429132
577.901611	1109.191040	15505.789063	2021.702759	6.338385
578.244080	1103.692627	15211.698242	2001.492310	6.363760
578.586487	1105.550171	14993.472656	1986.260254	6.341554
578.928955	1146.565308	14795.379883	2006.321899	6.299130
579.271301	1160.088501	14656.956055	1987.300415	6.128918
579.613647	1160.088379	14466.367188	1973.182983	6.110608
579.955872	1125.017456	14295.843750	1929.493042	6.108012
580.298157	1120.410767	14171.164063	1919.313477	6.121507
580.640320	1114.838013	14083.933594	1920.873901	6.215051
580.982483	1103.023926	14016.911133	1915.375488	6.290527
581.324524	1096.485229	13941.866211	1924.291992	6.444393
581.666626	1100.126099	13889.258789	1911.660278	6.345498
582.008728	1104.584351	13842.374023	1900.960938	6.252078
582.350647	1106.367554	13779.885742	1880.230469	6.106141
582.692566	1105.104370	13717.916992	1880.899048	6.150846
583.034424	1108.002075	13632.838867	1873.245972	6.109811
583.376343	1112.831909	13543.601563	1880.155884	6.172780
583.718201	1112.831909	13504.074219	1886.471680	6.243440
584.059937	1114.020752	13442.253906	1888.775024	6.284390
584.401611	1110.974243	13434.526367	1884.985718	6.280750
584.743347	1112.163086	13405.696289	1880.007446	6.245921
585.085022	1108.745239	13377.536133	1870.645386	6.210067
585.426514	1105.921753	13344.026367	1871.685547	6.257209
585.768127	1107.110596	13326.936523	1870.199585	6.244679
586.109619	1106.887695	13322.700195	1881.122070	6.337969
586.451172	1107.036255	13341.945313	1876.663696	6.290422
586.792542	1100.348999	13355.171875	1874.509155	6.317187
587.133850	1100.869141	13395.293945	1875.103516	6.297443
587.475220	1107.482056	13439.058594	1882.756714	6.286906
587.816589	1115.729614	13511.504883	1890.484009	6.250149
588.157776	1116.472656	13640.791992	1891.227173	6.186001
588.498962	1108.745239	13775.204102	1889.666626	6.165270
588.840210	1106.293213	13902.335938	1892.787476	6.146387
589.181335	1105.996094	13941.567383	1896.131226	6.155824
589.522400	1110.900024	13937.184570	1891.078613	6.082655
589.863403	1109.785400	13883.834961	1881.196289	6.038890
590.204407	1114.540894	13835.090820	1879.933228	6.016975
590.545410	1117.810059	13751.651367	1883.722656	6.062389
590.886353	1125.314819	13621.471680	1877.332642	6.017992
591.227112	1129.252808	13479.106445	1867.004517	5.973769
591.567932	1121.599609	13386.526367	1856.527710	5.992112
591.908752	1114.615112	13340.086914	1863.289429	6.123889
592.249512	1106.887573	13365.721680	1868.936401	6.216324
592.590149	1112.980469	13346.105469	1874.434937	6.224529
592.930786	1116.770020	13421.597656	1870.793945	6.127871
593.271423	1113.872070	13499.393555	1870.719604	6.110744
593.612000	1114.838013	13659.737305	1877.852539	6.082269
593.952576	1111.791626	13792.368164	1895.610840	6.181259
594.292969	1115.878296	13953.679688	1911.660156	6.198739
594.633484	1118.330200	14152.215820	1915.895508	6.119167
594.973877	1113.351929	14406.108398	1914.781128	6.029067
595.314209	1116.324097	14702.799805	1919.685059	5.912946
595.654480	1107.036255	15044.739258	1947.845825	6.032627
595.994812	1107.184937	15366.249023	1969.839478	6.049868
596.335022	1101.983521	15617.614258	1996.216797	6.160485
596.675171	1105.921753	15682.332031	1993.096191	6.086371
597.015320	1115.060913	15572.215820	1983.436890	6.006548
597.355408	1118.330322	15243.796875	1963.969604	5.986629
597.695496	1118.776123	14846.723633	1942.496094	6.000314
598.035461	1115.283813	14355.954102	1915.747070	6.045489
598.375366	1117.884399	13904.120117	1884.317017	5.994201
598.715271	1113.574829	13482.749023	1856.379028	6.005285
599.055176	1114.689453	13132.709961	1834.534180	5.989711
599.395081	1112.014526	12895.385742	1816.924438	5.982243
599.734802	1112.980469	12710.668945	1808.528320	5.997297
600.074524	1107.779297	12632.800781	1808.825562	6.082819
600.414246	1105.475952	12603.895508	1804.144531	6.076214
600.753906	1104.510010	12652.266602	1802.063965	6.040601
601.093506	1103.321167	12727.981445	1798.051636	5.976351
601.433044	1103.023926	12892.414063	1799.983398	5.911751
601.772583	1103.766968	13073.414063	1822.720093	6.006469
602.112122	1114.540894	13358.291992	1841.072754	5.933899
602.451538	1117.141479	13697.707031	1865.815430	5.951036
602.790894	1120.708008	14102.433594	1870.793945	5.778014
603.130310	1115.581177	14525.737305	1898.062866	5.834993
603.469604	1108.076538	14895.762695	1924.960571	5.924736
603.808838	1114.317993	15243.426758	1957.356445	5.966678
604.148010	1110.231323	15498.209961	1971.325562	5.984818
604.487305	1113.500610	15587.596680	1973.628906	5.942536
604.826416	1103.692749	15464.105469	1962.780640	5.982334
605.165527	1104.658569	15133.606445	1953.715820	6.052180
605.504456	1105.252930	14678.725586	1935.065796	6.113490
605.843445	1106.664673	14215.374023	1917.232910	6.183433
606.182434	1099.977417	13754.250977	1878.446899	6.151831
606.521423	1096.336548	13394.774414	1862.843384	6.232554
606.860229	1107.407715	13065.835938	1843.153320	6.152528
607.199036	1123.680054	12866.928711	1833.716797	6.046340
607.537903	1126.577759	12794.483398	1827.549805	6.007694
607.876648	1120.336426	12872.129883	1826.360840	6.007802
608.215271	1110.677124	13094.516602	1833.048218	6.027877
608.553955	1109.265259	13364.458008	1840.181274	5.964133
608.892578	1108.968140	13603.043945	1851.698242	5.944658
609.231140	1111.494507	13722.747070	1861.134644	5.944216
609.569641	1114.615234	13717.174805	1849.246094	5.829219
609.908081	1114.763794	13568.495117	1840.329712	5.826093
610.246521	1114.986572	13317.872070	1830.298950	5.861830
610.584961	1116.918457	13002.530273	1810.682983	5.837012
610.923340	1109.859741	12655.313477	1783.859741	5.837796
611.261597	1107.927856	12276.444336	1765.432617	5.887127
611.599854	1105.996094	11919.940430	1757.853882	6.027937
611.938110	1110.825684	11657.206055	1747.600098	6.037848
612.276245	1110.751343	11458.668945	1725.160645	5.937516
612.614319	1109.934082	11307.165039	1708.070923	5.865679
612.952393	1115.506714	11156.702148	1707.179321	5.892452
613.290466	1117.810181	11046.882813	1698.040039	5.843747
613.628479	1114.169312	10883.194336	1698.114258	5.977515
613.966370	1114.912231	10767.430664	1683.848267	5.894172
614.304260	1107.779297	10670.243164	1679.835938	5.982314
614.642151	1114.912354	10630.713867	1667.798828	5.810193
614.979980	1100.051880	10570.156250	1662.820679	5.942583
615.317749	1106.961914	10542.665039	1659.179688	5.852428
615.655396	1110.008423	10521.860352	1660.220093	5.845945
615.993164	1121.079468	10512.944336	1658.659546	5.723890
616.330811	1115.432373	10502.913086	1669.136353	5.898324
616.668396	1118.478760	10491.543945	1673.371460	5.920077
617.005859	1110.602661	10507.890625	1675.229126	6.008398
617.343445	1119.370483	10499.717773	1664.975220	5.816466
617.680908	1111.048706	10499.123047	1659.328491	5.840173
618.018311	1118.627563	10476.312500	1657.173462	5.755119
618.355652	1109.265259	10454.913086	1657.322266	5.864302
618.692993	1106.144531	10403.049805	1654.201538	5.895048
619.030273	1096.039429	10386.925781	1653.086914	5.995633
619.367554	1103.989868	10329.118164	1658.882446	6.015012
619.704712	1105.921753	10329.266602	1666.684448	6.079819
620.041870	1113.649292	10309.131836	1674.411743	6.098238
620.379028	1109.711060	10314.629883	1670.027954	6.087146
620.716064	1111.791504	10310.915039	1660.665894	5.966595
621.053040	1116.101074	10276.586914	1654.127075	5.873334
621.389954	1116.101196	10255.410156	1654.572876	5.891821
621.726929	1119.073120	10216.178711	1650.783569	5.844831
622.063843	1115.729614	10217.961914	1651.377930	5.884801
622.400635	1115.060913	10208.079102	1642.684570	5.802514
622.737427	1111.048462	10210.381836	1648.108765	5.902194
623.074219	1111.791626	10217.664063	1649.371948	5.903666
623.410889	1108.819458	10257.194336	1654.647339	5.966392
623.747559	1108.522339	10308.090820	1652.343872	5.911381
624.084167	1113.129028	10370.356445	1655.390259	5.857707
624.420715	1122.713989	10483.593750	1663.489258	5.776970
624.757324	1121.376587	10603.592773	1669.582153	5.781408
625.093750	1108.522217	10763.342773	1672.479980	5.841204
625.430176	1097.822632	10899.243164	1678.349976	5.922890
625.766602	1098.119873	11066.721680	1694.845093	5.986047
626.102905	1106.070313	11232.492188	1703.835571	5.903026
626.439209	1113.649048	11386.297852	1712.083374	5.825511
626.775452	1111.865845	11487.645508	1719.959351	5.860702
627.111694	1106.590454	11475.164063	1718.696289	5.903472
627.447876	1107.407837	11398.706055	1712.751953	5.882097
627.783997	1104.212769	11244.082031	1700.640625	5.882008
628.120056	1110.008423	11108.109375	1695.885376	5.859882
628.456055	1107.407715	10904.741211	1694.250610	5.989822
628.792053	1119.444824	10722.550781	1686.002930	5.899738
629.128052	1114.689453	10539.023438	1674.708984	5.942272
629.463928	1117.661499	10439.977539	1667.575806	5.898902
629.799744	1113.054810	10363.000977	1659.476929	5.907300
630.135559	1111.271484	10262.691406	1659.774048	5.993633
630.471375	1111.643066	10128.352539	1653.384155	6.008191
630.807068	1111.568726	10030.273438	1642.758911	5.955912
631.142700	1111.717285	9979.969727	1628.864258	5.831442
631.478333	1110.156860	9939.771484	1623.886108	5.818253
631.813965	1107.259155	9870.000977	1632.802368	5.997474
632.149475	1112.311646	9812.045898	1634.065430	5.997353
632.484924	1108.596558	9792.207031	1629.830078	6.002498
632.820435	1107.259277	9799.118164	1623.365845	5.937816
633.155884	1104.807129	9825.569336	1620.616699	5.914731
633.491150	1111.791626	9876.913086	1622.919922	5.831389
633.826477	1116.175415	9914.137695	1625.372070	5.787666
634.161804	1116.918579	9889.990234	1632.282227	5.874381
634.497009	1114.020630	9808.924805	1625.520508	5.882754
634.832153	1109.859741	9703.563477	1620.988159	5.947708
635.167297	1105.921753	9622.945313	1613.929321	5.964614
635.502380	1103.098145	9530.809570	1626.486694	6.210329
635.837463	1104.509888	9425.745117	1618.833374	6.180855
636.172424	1105.550171	9322.539063	1621.285278	6.276449
636.507324	1110.379883	9240.657227	1611.031616	6.157868
636.842224	1111.494507	9156.175781	1616.232788	6.274186
637.177124	1117.884399	9054.603516	1609.842773	6.198511
637.511963	1117.512817	8950.059570	1601.372437	6.177552
637.846741	1118.776123	8876.796875	1590.524048	6.080777
638.181396	1116.769897	8800.117188	1579.750000	6.025761
638.516113	1111.865845	8745.132813	1575.440552	6.073084
638.850769	1108.076538	8691.412109	1569.793579	6.088575
639.185303	1107.036377	8640.886719	1580.121704	6.279462
639.519836	1110.602905	8576.689453	1569.570679	6.147367
639.854370	1118.701782	8530.770508	1562.957642	5.993682
640.188843	1116.101196	8493.915039	1544.381958	5.804982
640.523254	1113.872070	8437.222656	1550.400513	5.960775
640.857605	1114.540894	8360.541992	1548.542969	5.989539
641.191895	1120.930786	8286.239258	1555.081665	6.059067
641.526184	1123.234253	8252.208984	1546.536743	5.937775
641.860413	1118.553223	8220.035156	1544.530640	5.998430
642.194580	1114.020630	8203.836914	1538.437866	5.986294
642.528748	1107.630737	8175.082031	1538.586426	6.097753
642.862793	1118.255859	8150.414063	1545.050781	6.069188
643.196838	1119.593384	8118.389160	1544.456421	6.070516
643.530823	1122.416870	8070.018066	1543.713379	6.063913
643.864746	1115.135254	8020.235840	1547.279907	6.258340
644.198669	1113.797852	7988.062500	1543.118774	6.245336
644.532532	1121.228027	7959.679688	1535.911499	6.063996
644.866333	1115.581055	7988.359863	1536.283081	6.121280
645.200073	1114.094971	7988.880371	1544.530640	6.261078
645.533813	1106.664673	8030.712402	1555.155884	6.477298
645.867554	1104.435547	8036.062012	1551.960938	6.456283
646.201172	1107.482056	8046.613281	1550.920532	6.390403
646.534729	1110.677124	8050.328125	1553.744141	6.384572
646.868225	1110.082642	8054.340332	1550.103394	6.336469
647.201782	1112.609009	8056.495605	1545.570923	6.235152
647.535217	1101.835083	8061.176270	1547.279907	6.400675
647.868591	1114.615112	8050.848145	1554.784546	6.345943
648.201965	1113.054810	8062.290527	1559.911499	6.430300
648.535278	1118.701782	8060.804688	1556.196167	6.302044
648.868591	1108.819458	8047.058594	1548.097290	6.331258
649.201782	1109.116699	8021.424316	1553.149780	6.423804
649.534912	1114.317871	7988.880371	1568.530396	6.607148
649.868103	1113.500610	7975.431152	1581.756348	6.823965
650.201172	1108.373657	7985.685059	1582.573608	6.895135
650.534180	1100.794800	8003.071777	1572.914429	6.840056
650.867188	1103.618286	8001.808594	1579.304321	6.895809
651.200134	1101.240601	7998.242188	1589.929565	7.085528
651.533020	1103.543945	7992.743652	1592.381470	7.095708
651.865845	1100.348999	7996.384766	1588.146362	7.073591
652.198608	1107.184937	7976.025879	1581.682007	6.907964
652.531433	1107.407715	7954.775391	1586.437500	6.995824
652.864136	1113.723511	7931.666504	1584.802734	6.909404
653.196777	1186.020020	7984.793457	1747.005493	8.251275
653.529358	1190.032349	7928.100098	1751.389526	8.331130
653.861938	1185.797119	7852.535156	1740.838501	8.325531
654.194519	1115.432495	7696.350098	1566.450073	6.853415
654.526978	1111.791626	7642.852051	1549.954712	6.708912
654.859375	1116.769897	7598.195801	1557.013550	6.792389
655.191833	1118.107300	7589.726074	1570.239258	6.986382
655.524170	1122.639771	7583.559082	1575.068970	7.002552
655.856445	1113.946411	7581.255859	1568.233276	7.024356
656.188660	1115.283813	7592.623535	1559.688477	6.860913
656.520874	1110.156860	7633.118652	1567.713013	7.014546
656.853088	1114.094971	7714.257324	1578.486938	7.036069
657.185181	1106.664673	7804.237793	1590.672485	7.226614
657.517212	1112.163086	7901.871094	1603.750000	7.240178
657.849243	1112.014526	8080.568848	1620.691040	7.299599
658.181274	1113.203247	8252.727539	1638.375000	7.355837
658.513123	1113.946411	8473.852539	1656.579102	7.372821
658.844971	1114.020752	8633.083008	1673.966187	7.447011
659.176819	1115.878296	8801.676758	1683.922485	7.390829
659.508667	1116.472656	8868.920898	1685.037109	7.333999
659.840393	1120.113647	8839.422852	1683.328125	7.296177
660.172058	1118.850464	8712.663086	1678.869995	7.374682
660.503662	1114.020752	8542.583008	1668.690430	7.466716
660.835266	1117.141479	8373.172852	1661.929077	7.508066
661.166931	1112.609009	8186.599121	1646.473999	7.546872
661.498413	1114.466553	8004.186035	1632.579468	7.520087
661.829773	1107.259155	7788.782715	1617.421753	7.635423
662.161194	1115.432495	7616.400391	1612.517578	7.646324
662.492615	1114.169312	7467.869141	1592.827271	7.533531
662.823975	1119.147583	7368.675293	1586.660278	7.480768
663.155212	1117.958618	7252.614746	1584.505493	7.605102
663.486450	1116.918579	7167.834473	1602.561157	8.025935
663.817627	1113.129028	7083.056152	1595.725220	8.083787
664.148743	1109.116699	7038.103027	1590.598267	8.120808
664.479858	1110.528442	6991.589355	1575.663452	7.909032
664.810913	1104.212769	6976.951660	1577.521118	8.059414
665.141907	1110.602783	6954.363281	1571.948364	7.894669
665.472778	1110.379883	6930.809082	1577.223999	8.020785
665.803711	1114.317871	6930.066406	1585.025513	8.093673
666.134583	1111.345825	6897.149902	1593.124634	8.326912
666.465454	1111.642944	6868.691895	1595.948120	8.412386
666.796143	1112.088745	6832.804199	1604.492798	8.607386
667.126831	1109.116699	6831.466797	1604.195679	8.651672
667.457458	1106.515991	6852.122559	1614.003784	8.832623
667.788147	1109.265259	6873.447266	1601.000854	8.530882
668.118774	1108.745239	6903.911621	1613.334961	8.707079
668.449219	1108.299438	6917.806152	1609.545532	8.628032
668.779663	1100.348999	6935.787598	1614.820923	8.816337
669.110107	1097.748413	6923.824707	1614.003540	8.861112
669.440552	1091.878540	6919.440918	1614.375000	8.965952
669.770874	1105.550171	6856.208984	1617.272949	8.898507
670.101135	1109.934082	6809.324219	1614.672363	8.856005
670.431396	1116.992798	6749.807129	1611.254517	8.774685
670.761597	1113.649170	6720.384277	1609.396973	8.842005
671.091797	1119.964966	6684.941406	1611.105957	8.825572
671.421875	1117.067017	6627.579590	1618.536133	9.100226
671.751892	1115.655273	6580.322754	1620.690918	9.241837
672.081909	1112.757446	6544.509766	1613.409180	9.217131
672.411865	1114.763672	6560.484375	1613.855103	9.164837
672.741821	1111.420044	6536.781738	1606.944946	9.133491
673.071716	1100.869019	6536.707520	1605.458862	9.282650
673.401550	1106.218872	6483.952637	1594.759277	9.084503
673.731262	1109.191040	6468.572266	1606.201782	9.273659
674.060974	1116.992798	6425.550781	1612.071899	9.326056
674.390625	1114.392212	6388.176270	1611.774536	9.431223
674.720276	1115.506714	6365.811035	1603.601440	9.296504
675.049927	1110.305542	6325.464844	1601.446655	9.417567
675.379395	1111.271484	6312.164551	1608.505249	9.560546
675.708923	1109.116699	6285.416016	1614.895386	9.771048
676.038330	1116.992798	6299.161621	1619.279175	9.692590
676.367737	1105.624512	6295.744141	1622.028320	9.949748
676.697083	1104.955811	6297.378906	1615.712524	9.836577
677.026428	1104.509888	6300.871094	1611.254517	9.751913
677.355652	1112.460327	6335.272949	1613.483521	9.592977
677.684875	1107.630737	6390.851563	1620.022339	9.698470
678.013977	1097.673950	6431.271973	1635.180054	10.077739
678.343079	1105.252930	6474.516113	1646.696899	10.084139
678.672180	1109.116699	6533.140625	1666.164063	10.270002
679.001221	1113.649170	6618.068848	1679.315796	10.276589
679.330139	1114.615112	6711.839355	1695.662476	10.380992
679.659058	1117.438599	6789.114746	1697.445679	10.226378
679.987976	1120.336426	6867.131348	1712.231812	10.299574
680.316772	1114.689453	6912.084473	1713.569336	10.330154
680.645630	1109.934082	6936.456543	1731.179077	10.662363
680.974304	1110.528442	6898.636719	1725.012085	10.616312
681.302979	1106.739014	6835.701660	1727.761108	10.840044
681.631653	1111.865845	6745.275879	1722.634277	10.841895
681.960266	1111.048462	6677.660156	1716.467163	10.875893
682.288757	1117.661499	6606.255371	1711.934692	10.827422
682.617249	1118.999023	6543.320801	1701.383789	10.736546
682.945679	1118.181763	6445.611816	1702.275391	10.963891
683.274109	1118.553223	6369.006348	1702.944214	11.130297
683.602478	1110.008423	6271.075684	1700.789429	11.446877
683.930725	1115.655396	6193.205566	1688.157837	11.275170
684.259033	1107.110474	6093.714844	1673.668823	11.361606
684.587280	1105.773071	6030.260254	1668.764771	11.432493
684.915344	1098.491333	5980.774902	1667.798828	11.660681
685.243469	1100.571777	5950.087402	1663.860840	11.615368
685.571533	1106.070313	5911.003906	1663.340454	11.597874
685.899536	1106.516113	5868.131348	1671.662476	11.868795
686.227539	1107.259155	5854.608887	1674.708984	11.952982
686.555420	1109.859863	5855.797363	1679.092773	11.994109
686.883301	1105.921753	5884.552734	1680.578735	12.025558
687.211121	1103.023926	5892.578125	1697.594238	12.413897
687.538940	1103.395386	5894.063965	1701.606567	12.487009
687.866638	1110.454224	5890.571777	1702.646851	12.388662
688.194336	1117.512939	5884.032715	1701.160767	12.244738
688.521973	1111.494385	5867.536621	1700.640625	12.387322
688.849609	1115.060913	5817.828125	1686.894531	12.159513
689.177063	1112.237427	5771.761230	1664.975220	11.862538
689.504578	1115.803955	5712.169922	1661.037476	11.862273
689.832031	1105.773071	5655.700684	1669.210571	12.383438
690.159485	1103.321167	5586.970215	1670.994019	12.660956
690.486816	1105.921753	5530.945801	1671.068237	12.771603
690.814087	1108.893677	5494.091309	1674.560547	12.899461
691.141296	1110.156860	5445.125977	1677.829590	13.095197
691.468506	1104.138306	5405.002441	1665.495483	13.052195
691.795715	1109.859741	5347.046875	1651.229126	12.776623
692.122803	1112.311768	5296.817871	1653.235352	12.926821
692.449829	1112.311768	5269.994629	1655.687500	13.069197
692.776855	1107.704956	5246.366699	1648.331665	13.062840
693.103821	1103.469727	5228.682129	1644.319336	13.110830
693.430664	1105.773071	5180.979980	1642.164551	13.162313
693.757568	1105.995972	5141.600098	1649.966187	13.479277
694.084351	1109.488159	5122.801270	1651.303711	13.500456
694.411133	1111.568726	5104.373535	1654.795776	13.605149
694.737854	1105.327271	5098.430176	1657.099243	13.818125
695.064575	1101.537842	5102.739258	1652.789673	13.777158
695.391174	1097.376953	5118.269043	1655.687500	13.885241
695.717773	1107.184814	5150.961426	1663.266235	13.751536
696.044250	1102.578125	5191.085449	1675.154907	14.004543
696.370789	1109.711060	5262.416016	1686.448853	13.888244
696.697205	1105.921753	5349.796387	1698.857422	13.971564
697.023621	1116.175415	5465.857422	1721.445313	13.915267
697.349915	1111.866089	5625.682129	1752.355347	14.189529
697.676208	1112.906128	5840.342285	1788.317993	14.287066
698.002380	1109.191040	6055.448730	1819.302124	14.356532
698.328674	1113.946411	6250.047363	1857.270874	14.472544
698.654724	1114.020630	6399.990723	1884.985718	14.585120
698.980896	1113.649292	6520.063965	1910.694702	14.742588
699.306946	1102.057983	6534.255371	1908.688477	14.849065
699.632935	1101.240723	6467.234375	1901.035156	14.904871
699.958862	1102.949707	6306.517578	1886.620483	15.060259
700.284729	1113.426270	6142.605957	1865.221191	14.948659
700.610596	1112.163208	5944.366699	1840.329712	15.069036
700.936340	1110.082642	5732.677734	1810.757324	15.157604
701.262146	1104.658569	5507.392090	1784.156860	15.433556
701.587830	1096.708252	5323.418457	1762.460571	15.751077
701.913513	1101.612183	5184.992676	1737.717773	15.577917
702.239075	1108.968140	5081.042969	1719.810913	15.378431
702.564697	1120.930908	4982.294434	1701.978149	15.047722
702.890137	1119.370483	4906.208496	1696.033813	15.228097
703.215698	1119.593384	4831.608887	1691.055664	15.394932
703.541016	1123.754395	4744.600586	1683.625366	15.462435
703.866455	1123.902954	4691.697266	1678.424194	15.542410
704.191711	1114.838013	4654.916992	1674.040405	15.796325
704.517029	1113.129028	4640.873535	1667.873169	15.725179
704.842163	1114.986694	4585.741211	1665.792847	15.869925
705.167419	1118.255981	4553.493652	1662.374878	15.839337
705.492493	1115.581055	4533.505859	1659.997070	15.928262
705.817566	1112.980469	4523.549316	1651.154907	15.779610
706.142578	1112.163086	4518.422363	1644.170532	15.618525
706.467590	1108.002319	4499.698242	1658.511108	16.231077
706.792480	1109.934082	4506.683105	1669.507813	16.473803
707.117371	1106.962036	4508.614746	1671.365356	16.592031
707.442200	1103.024048	4533.506348	1667.724609	16.461258
707.766907	1104.064087	4541.977051	1667.353027	16.384619
708.091675	1107.779297	4542.645020	1677.978394	16.600332
708.416321	1115.060913	4552.750488	1686.374390	16.619112
708.741028	1108.968140	4577.195801	1696.033813	16.926966
709.065552	1111.345703	4607.660645	1708.739624	17.086388
709.390137	1115.283813	4600.898926	1718.622070	17.309376
709.714600	1118.181641	4619.400391	1721.445435	17.230108
710.039063	1110.231201	4629.133789	1725.383423	17.481365
710.363403	1106.441772	4689.467773	1732.368042	17.469210
710.687744	1102.057983	4732.042969	1748.863281	17.818401
711.012085	1105.401611	4805.157227	1763.872437	17.797684
711.336304	1103.172485	4839.559570	1777.915527	18.058702
711.660461	1108.150879	4865.044922	1768.999146	17.590282
711.984619	1107.407837	4838.296387	1768.182007	17.710905
712.308716	1101.983765	4813.255859	1753.692871	17.560263
712.632751	1098.863037	4764.662109	1761.197388	18.067940
712.956726	1098.491577	4718.594238	1747.674316	17.932716
713.280701	1102.206665	4679.213867	1748.343140	18.063604
713.604553	1107.779297	4630.694336	1742.101563	18.005608
713.928467	1109.711060	4595.771973	1746.931274	18.279089
714.252258	1113.574829	4556.391113	1740.466919	18.208700
714.575989	1109.265259	4536.032715	1743.884888	18.519484
714.899719	1104.732788	4542.719727	1742.770386	18.558466
715.223267	1103.172485	4552.898926	1744.182007	18.581459
715.546936	1104.807129	4570.731934	1744.850586	18.466743
715.870422	1109.042358	4581.208496	1742.027344	18.230263
716.193970	1116.249878	4569.914551	1746.782593	18.256918
716.517395	1117.810181	4534.026855	1736.380249	18.106874
716.840820	1122.788452	4485.061035	1742.473022	18.430529
717.164124	1118.255981	4432.157715	1729.321411	18.439455
717.487488	1118.255981	4392.331543	1714.981079	18.225758
717.810730	1116.992920	4330.064941	1692.318726	17.905787
718.133972	1111.643188	4257.769043	1687.711914	18.310415
718.457092	1113.203491	4174.475098	1686.374512	18.723299
718.780212	1114.838013	4094.971436	1678.126953	18.901468
719.103210	1118.255859	4039.021484	1667.353149	18.799772
719.426208	1113.426147	3980.174072	1655.613281	18.912968
719.749207	1110.825562	3951.567627	1652.344116	19.062572
720.072083	1107.704956	3921.177734	1650.486328	19.292221
720.394958	1104.138550	3915.902344	1656.579102	19.647474
720.717773	1103.395386	3866.713623	1650.560669	19.801022
721.040527	1109.116699	3837.661133	1639.415161	19.435215
721.363281	1114.912476	3799.543945	1637.260620	19.456978
721.685913	1118.776001	3787.581299	1641.347168	19.580717
722.008545	1113.500610	3759.272217	1647.142944	20.169630
722.331055	1114.392212	3735.569092	1636.145996	19.905327
722.653503	1109.711060	3731.705322	1631.910767	19.916128
722.976013	1119.221924	3743.668213	1631.687866	19.526630
723.298401	1114.243530	3740.324219	1639.118042	19.986992
723.620789	1113.872070	3727.321533	1647.959961	20.436129
723.943115	1113.872070	3710.083252	1647.142700	20.540340
724.265381	1123.308472	3719.966064	1648.034302	20.207739
724.587585	1120.262085	3725.612549	1637.037598	19.835161
724.909790	1115.803955	3741.290283	1638.449341	19.906612
725.231873	1109.859863	3737.723877	1642.536011	20.270309
725.553894	1112.831909	3742.033447	1653.309937	20.556736
725.875916	1152.880981	3809.054688	1714.535278	21.145239
726.197937	1161.945923	3825.326904	1719.290649	20.926212
726.519775	1159.047974	3839.741943	1719.290649	20.899166
726.841675	1119.667603	3804.671143	1666.907227	20.381338
727.163513	1108.819458	3834.986328	1663.860718	20.359768
727.485291	1114.689453	3868.274170	1672.182617	20.246088
727.806946	1109.116821	3885.140625	1683.848267	20.703403
728.128662	1105.252930	3905.425537	1703.538574	21.366028
728.450256	1105.550171	3913.673096	1714.312378	21.678616
728.771790	1104.732910	3894.577148	1717.953125	21.980446
729.093323	1110.454102	3867.976563	1716.392944	21.974031
729.414795	1109.562500	3848.435303	1714.163696	22.074818
729.736145	1110.974243	3853.636475	1710.300171	21.851978
730.057495	1112.386108	3860.249268	1708.442505	21.691631
730.378845	1110.602783	3872.286377	1707.179321	21.601915
730.700134	1106.516113	3876.150146	1708.442505	21.733067
731.021301	1104.212769	3887.592773	1716.021484	21.980783
731.342468	1106.367554	3903.196533	1723.971680	22.082298
731.663574	1110.602783	3935.815430	1727.389648	21.831520
731.984680	1111.865845	3953.721924	1734.077026	21.894537
732.305664	1108.670898	3960.632080	1738.980957	22.100933
732.626648	1112.683350	3965.684814	1744.850952	22.157984
732.947571	1108.150757	3960.929443	1737.717773	22.068554
733.268433	1113.649292	3950.229736	1734.448364	21.885473
733.589233	1109.488159	3929.425049	1731.327637	22.051538
733.909973	1116.918457	3889.004639	1725.086304	21.938995
734.230713	1114.986694	3832.534424	1708.813965	21.851585
734.551331	1115.729614	3769.376953	1701.160767	22.061377
734.871948	1109.191040	3714.169922	1695.290894	22.499216
735.192505	1111.642944	3668.176514	1691.873047	22.695969
735.513062	1104.286987	3614.306885	1678.647095	22.882690
735.833435	1103.841309	3595.360107	1671.142578	22.769295
736.153931	1097.153931	3565.416016	1660.220093	22.812250
736.474304	1106.813354	3530.567627	1656.356323	22.673212
736.794617	1111.643066	3504.561768	1656.653442	22.775967
737.114807	1108.745239	3515.335938	1660.517212	22.927536
737.434998	1101.389282	3531.831299	1655.762085	22.809547
737.755188	1101.314819	3539.930420	1654.275879	22.675203
738.075256	1104.955688	3549.960938	1661.037476	22.743582
738.395325	1106.144653	3578.864990	1672.702759	22.912342
738.715271	1106.441772	3611.260986	1671.811157	22.571264
739.035278	1107.630737	3620.994873	1671.588257	22.438353
739.355164	1107.333496	3635.334961	1675.749390	22.484793
739.675049	1105.327271	3630.728271	1683.328247	22.887493
739.994873	1100.051758	3618.988281	1684.294067	23.194006
740.314636	1108.745117	3586.666748	1681.544922	23.116138
740.634277	1111.643066	3532.722656	1672.554321	23.167816
740.953979	1117.215698	3491.261719	1676.715210	23.567343
741.273499	1113.351929	3434.940674	1668.913452	23.930229
741.593140	1114.838013	3397.120361	1654.647339	23.652172
741.912598	1114.243774	3355.139404	1628.864258	22.964949
742.232117	1110.380005	3333.368896	1624.108887	23.109829
742.551453	1097.005493	3324.972656	1628.269897	23.845251
742.870850	1096.336670	3310.409180	1632.579468	24.219749
743.190063	1100.646240	3285.443359	1622.028320	23.864096
743.509338	1110.305542	3256.985596	1610.214233	23.287525
743.828552	1105.995972	3227.932861	1604.046997	23.471527
744.147705	1103.469727	3214.038330	1607.910767	23.900717
744.466797	1099.977417	3201.704102	1605.904663	24.071981
744.785828	1108.596558	3192.639404	1604.195801	23.780663
745.104858	1110.082642	3179.635986	1596.096802	23.484015
745.423706	1110.974243	3149.915039	1593.496216	23.665325
745.742615	1107.184937	3137.283447	1592.530273	23.907476
746.061401	1103.692505	3129.407471	1592.901733	24.149954
746.380249	1108.002075	3139.141357	1589.780884	23.719635
746.698975	1111.865845	3129.705078	1585.619995	23.478291
747.017639	1109.711060	3109.420166	1588.220703	23.928963
747.336304	1114.317871	3090.621826	1594.610718	24.302580
747.654907	1118.924683	3089.655518	1593.496094	24.080986
747.973389	1124.794678	3105.556641	1597.285645	23.854000
748.291931	1121.896851	3131.339600	1598.400024	23.713200
748.610352	1112.014526	3148.503662	1604.641602	24.190018
748.928711	1112.460327	3158.237305	1604.047241	24.029350
749.247070	1100.423340	3138.398438	1613.483521	25.174997
749.565308	1110.900024	3119.228271	1610.808594	24.891775
749.883545	1111.642944	3106.448242	1607.613770	24.863119
750.201782	1121.822388	3111.798096	1605.904663	24.326040
750.519836	1115.135254	3108.231445	1607.910767	24.724121
750.837952	1113.426270	3105.482178	1610.957397	24.975761
751.155884	1107.927856	3100.281006	1604.047241	24.901176
751.473877	1106.293091	3098.125977	1606.870605	25.131502
751.791809	1102.800903	3091.438721	1609.025391	25.455841
752.109619	1104.361328	3074.794922	1602.784058	25.295078
752.427490	1109.265381	3058.671631	1595.056519	24.919954
752.745300	1119.370483	3050.646729	1594.462280	24.599888
753.062988	1122.416870	3057.185547	1603.675659	24.874229
753.380615	1108.745239	3063.575439	1607.465210	25.512188
753.698303	1103.469727	3058.894531	1605.235962	25.660217
754.015808	1103.989868	3048.417725	1604.864624	25.759493
754.333374	1114.615112	3044.405518	1603.452759	25.331127
754.650757	1118.553223	3043.513672	1602.784180	25.155373
754.968262	1119.964966	3032.516846	1604.047241	25.310804
755.285583	1124.274414	3028.801514	1604.344360	25.206779
755.602905	1121.525391	3018.696533	1597.805664	25.104761
755.920105	1116.844238	3031.996826	1586.065918	24.500484
756.237305	1104.361328	3040.021484	1589.112305	25.043186
756.554443	1101.909302	3046.486084	1592.158691	25.211109
756.871582	1107.184814	3049.086670	1598.845825	25.318531
757.188599	1120.039185	3046.634521	1604.492798	25.145582
757.505615	1119.370483	3065.507080	1609.025391	25.160357
757.822510	1117.364380	3078.213135	1617.421509	25.502075
758.139465	1109.562500	3106.745361	1625.446289	25.830574
758.456238	1111.048584	3132.751221	1628.344116	25.587122
758.773010	1104.584229	3155.116455	1635.700073	25.901365
759.089783	1106.887573	3168.713867	1642.833130	25.993731
759.406433	1102.726685	3175.921143	1649.594727	26.378040
759.723145	1102.429443	3188.552734	1652.641113	26.374840
760.039673	1101.983643	3196.874268	1651.972290	26.253813
760.356201	1106.367554	3198.063477	1659.179688	26.428898
760.672668	1112.534546	3189.444092	1663.935181	26.549091
760.989136	1112.831787	3191.227295	1659.328491	26.294163
761.305481	1108.076538	3189.295654	1659.179688	26.479822
761.621826	1109.042480	3191.598877	1657.767944	26.348648
761.938049	1111.494385	3199.326416	1664.529419	26.488483
762.254333	1120.856567	3225.258057	1678.944214	26.520020
762.570496	1118.701660	3288.043945	1702.126587	26.894093
762.886597	1117.735840	3402.469971	1734.374146	26.989500
763.202637	1110.602783	3607.025391	1785.717163	27.043272
763.518677	1110.157104	3856.385498	1860.911621	27.337656
763.834656	1112.831909	4096.234863	1921.245483	27.097031
764.150574	1114.912476	4231.763184	1960.477173	27.128817
764.466370	1117.364258	4276.195801	1960.923218	26.704779
764.782288	1110.602783	4205.162598	1948.217285	27.067324
765.097961	1113.054810	4060.569580	1912.477539	27.121925
765.413696	1104.955688	3863.964111	1862.694824	27.464184
765.729309	1108.076294	3678.430420	1808.825317	27.262743
766.044861	1105.030151	3532.500000	1767.958984	27.309458
766.360474	1113.426392	3422.977783	1733.482544	26.847473
766.675903	1109.488159	3334.631592	1714.906860	27.208075
766.991394	1109.413940	3279.424805	1691.204102	26.810474
767.306763	1100.571899	3213.072266	1672.256958	27.062008
767.622131	1109.413940	3165.295898	1657.693726	26.668837
767.937378	1109.636841	3110.088867	1634.734253	26.248938
768.252625	1117.661621	3073.011963	1628.269897	26.113390
768.567810	1109.636841	3021.371826	1622.028442	26.802439
768.882996	1115.283813	2963.118164	1619.576538	27.291014
769.197998	1114.243530	2937.929688	1610.808594	27.228647
769.513062	1114.392212	2921.285889	1608.579712	27.350115
769.828064	1109.711182	2910.660156	1599.811890	27.213470
770.142944	1109.042358	2879.973389	1595.353882	27.460783
770.457825	1113.500610	2858.202881	1569.942261	26.161579
770.772705	1105.104370	2826.698242	1560.580078	26.456629
771.087402	1105.178711	2802.401123	1548.022949	26.092293
771.402100	1098.491455	2766.884766	1547.428589	26.908352
771.716736	1101.760742	2756.036377	1555.081665	27.402987
772.031372	1101.612183	2737.683594	1556.121704	27.780542
772.345947	1103.989868	2733.002686	1565.781250	28.347929
772.660461	1101.835083	2704.173096	1555.378906	28.305128
772.974854	1095.890747	2687.752197	1553.818359	28.766800
773.289246	1091.135498	2683.739746	1549.508911	28.781376
773.603638	1100.348999	2695.108154	1546.462524	27.973724
773.917908	1111.865845	2687.232178	1530.784790	26.591843
774.232178	1118.330322	2672.966064	1517.558716	25.679867
774.546265	1114.540771	2647.406006	1518.896118	26.379053
774.860474	1105.327271	2630.464844	1515.701172	26.907337
775.174561	1109.785400	2610.477539	1512.952026	26.865379
775.488586	1110.008301	2606.762207	1509.311035	26.677916
775.802551	1116.769897	2607.282471	1522.834351	27.243277
776.116516	1110.528442	2606.019287	1525.434937	27.743834
776.430359	1108.299438	2606.242432	1520.976929	27.549612
776.744202	1109.711182	2601.115479	1520.010742	27.510954
777.057922	1111.420044	2590.489990	1521.273926	27.710243
777.371704	1117.290039	2574.663330	1524.171753	27.918840
777.685303	1113.426270	2575.109375	1511.391602	27.226513
777.998962	1112.311646	2571.096924	1509.236938	27.209303
778.312500	1110.156982	2553.858887	1505.150269	27.359755
778.626038	1114.466675	2536.991943	1508.568237	27.704363
778.939453	1117.587280	2528.744385	1496.308228	26.837618
779.252869	1118.776001	2534.614502	1499.949097	26.922075
779.566223	1112.534546	2533.128418	1499.280273	27.224230
779.879578	1109.191040	2545.314209	1512.432007	28.078440
780.192749	1104.435669	2552.967529	1511.391724	28.094381
780.505920	1111.048584	2547.543213	1515.924194	28.184973
780.819031	1114.317993	2537.289307	1498.760132	27.016857
781.132141	1120.633667	2529.413086	1504.258423	27.231003
781.445190	1118.255981	2525.549561	1488.134766	26.282988
781.758118	1115.209473	2515.815918	1488.952271	26.684355
782.071045	1112.980469	2504.893311	1475.429077	26.039606
782.383911	1111.642944	2493.673584	1485.682983	27.064526
782.696838	1111.271484	2474.726318	1498.017212	28.365129
783.009583	1110.008423	2464.249756	1498.537231	28.689775
783.322266	1111.197266	2452.287109	1491.478516	28.356134
783.634888	1109.711182	2443.519287	1470.525024	27.051405
783.947510	1111.122925	2423.829102	1467.998657	27.186262
784.260132	1116.918579	2413.129639	1460.419922	26.500418
784.572571	1114.392212	2410.380127	1469.336304	27.387917
784.885010	1112.906128	2403.024414	1468.147461	27.535563
785.197449	1101.389160	2400.943604	1465.324097	28.004593
785.509766	1108.893677	2391.135742	1457.522095	27.188971
785.822083	1108.596680	2390.912842	1448.234375	26.486267
786.134277	1116.769897	2390.764404	1455.887573	26.618456
786.446533	1111.494385	2385.860352	1456.927734	27.106291
786.758606	1117.810059	2383.036865	1470.450806	27.871742
787.070740	1112.906128	2380.733643	1465.992676	27.849731
787.382690	1117.810059	2391.804443	1470.673828	27.697435
787.694641	1113.203369	2423.680420	1469.039063	27.153141
788.006653	1114.392212	2476.509521	1486.945923	27.351074
788.318481	1106.962036	2521.462646	1496.828491	27.562126
788.630310	1100.794922	2546.800049	1510.945801	28.364414
788.942017	1101.983521	2557.797119	1515.775513	28.423418
789.253784	1106.218872	2574.738037	1525.732056	28.567089
789.565430	1116.769897	2567.307617	1517.261719	27.609886
789.877014	1115.432495	2535.728760	1512.580566	27.962339
790.188538	1124.051636	2490.998779	1497.794312	27.341413
790.500061	1115.358154	2465.141357	1487.912109	27.601021
790.811462	1116.101196	2428.658936	1474.686157	27.319557
791.122925	1105.995972	2396.337158	1471.416626	28.319693
791.434204	1111.420044	2365.575928	1471.045288	28.674685
791.745483	1108.076538	2349.006104	1471.119629	29.255737
792.056702	1112.460327	2334.442627	1464.506470	28.809431
792.367920	1106.664673	2318.393555	1461.014282	29.243307
792.678955	1108.968140	2301.155273	1456.556152	29.155491
792.990112	1111.494507	2302.715576	1455.515991	28.879734
793.301086	1117.215698	2297.588623	1449.125977	28.119102
793.612122	1108.447876	2302.790039	1443.256226	28.032867
793.922974	1099.160156	2290.084229	1445.262207	29.061638
794.233826	1094.850586	2292.164795	1449.497559	29.620209
794.544556	1106.218872	2296.325684	1456.184692	29.406254
794.855286	1113.203369	2301.749756	1450.166382	28.350851
795.166016	1118.478882	2310.517578	1459.082520	28.573204
795.476624	1117.512817	2324.709229	1454.847168	27.943617
795.787292	1116.992798	2345.885498	1462.203247	28.091179
796.097778	1112.385986	2369.068115	1460.494263	27.700583
796.408264	1107.036255	2388.683838	1472.457031	28.511799
796.718689	1102.206665	2408.374023	1480.927368	28.994806
797.029053	1106.293335	2412.460693	1482.265015	28.784342
797.339355	1112.683228	2402.132813	1472.754272	27.924398
797.649658	1116.621216	2381.550781	1470.005005	27.937033
797.959839	1114.689453	2360.968994	1459.677124	27.681404
798.270020	1109.488159	2337.637695	1463.094849	28.791826
798.580078	1106.218872	2313.043701	1457.373657	29.097412
798.890137	1107.333496	2293.353516	1456.184692	29.413601
799.200195	1115.358032	2277.229736	1447.045532	28.547688
799.510071	1121.005127	2276.041016	1435.602905	27.237057
799.820007	1120.930786	2267.347412	1430.698853	27.020550
800.129883	1127.172241	2275.966797	1433.522461	26.667103
800.439575	1127.023682	2268.982178	1440.804077	27.477390
800.749329	1127.023682	2263.781006	1437.757690	27.335123
801.058960	1112.608887	2253.007080	1428.618164	27.710432
801.368591	1108.745239	2243.124756	1417.918579	27.254841
801.678162	1108.002197	2234.951416	1409.299683	26.735676
801.987671	1106.664673	2226.332520	1403.058228	26.471561
802.297119	1110.305664	2214.964111	1406.030396	26.770695
802.606506	1113.277710	2210.134521	1415.541138	27.557238
802.915894	1119.816284	2195.868408	1418.290405	27.737886
803.225159	1117.290039	2189.032471	1410.934448	27.398785
803.534424	1108.373779	2177.218506	1401.721069	27.445267
803.843628	1103.246826	2172.091553	1407.293579	28.446299
804.152771	1106.961914	2164.586914	1414.575195	29.085289
804.461792	1106.813354	2163.769531	1417.695923	29.413004
804.770874	1115.878418	2163.992432	1414.723755	28.512674
805.079773	1104.435669	2170.010986	1413.237793	28.979849
805.388733	1107.556396	2181.156250	1421.931274	29.282314
805.697571	1101.835083	2194.307861	1423.491577	29.442976
806.006470	1109.562500	2211.100342	1422.302734	28.391239
806.315125	1116.769897	2218.382080	1417.844604	27.330372
806.623901	1119.667603	2223.285889	1416.730103	26.917141
806.932495	1122.565552	2218.010498	1413.683594	26.575323
807.241150	1124.645996	2206.493652	1411.231445	26.490370
807.549622	1120.782349	2189.106689	1406.550415	26.749186
807.858154	1114.243652	2167.856201	1401.423706	27.256704
808.166565	1104.138550	2152.252686	1404.470093	28.654469
808.474915	1105.624390	2153.367188	1402.835327	28.366785
808.783264	1111.865967	2148.686279	1401.646484	27.948963
809.091492	1114.838013	2141.478760	1396.371094	27.422745
809.399719	1110.157104	2119.856445	1394.067749	28.118336
809.707825	1098.491455	2108.265381	1396.371094	29.499636
810.015930	1101.983765	2093.405029	1389.683716	29.018942
810.323975	1102.206543	2087.163574	1389.832397	29.201868
810.632080	1107.333496	2076.389404	1383.888062	28.538557
810.939880	1103.618408	2080.401855	1385.819946	28.890902
811.247864	1109.934082	2076.538086	1383.888062	28.341904
811.555664	1113.129028	2083.671143	1386.562988	28.173323
811.863464	1104.287109	2066.061523	1383.739380	29.055906
812.171143	1098.565796	2061.677490	1383.739624	29.609632
812.478882	1096.187988	2052.538330	1384.854126	30.184141
812.786438	1104.807129	2057.739502	1377.498047	28.615978
813.094055	1106.441772	2045.033813	1375.046265	28.617811
813.401489	1107.556396	2039.535522	1367.393066	27.880095
813.708984	1111.568726	2032.030884	1363.306274	27.349039
814.016357	1112.683228	2045.702515	1353.275391	25.786407
814.323730	1118.850464	2041.318726	1356.916382	25.807491
814.630981	1118.330322	2028.910156	1361.300171	26.682981
814.938232	1122.416992	2023.634644	1360.036987	26.366549
815.245361	1119.964966	2018.582031	1352.829712	25.913679
815.552490	1119.742065	2033.591187	1359.888550	26.278570
815.859619	1113.872192	2026.160767	1363.306396	27.341591
816.166565	1116.472778	2034.334351	1367.095703	27.305090
816.473572	1110.751343	2041.095703	1360.259888	26.818945
816.780457	1113.649170	2055.213135	1368.656128	27.083338
817.087341	1104.212769	2056.402100	1373.634399	28.294964
817.394043	1112.683228	2056.104736	1381.881958	28.534300
817.700806	1110.528442	2050.532227	1386.488892	29.357376
818.007507	1112.014526	2060.191650	1380.395996	28.304993
818.314209	1108.225098	2064.129639	1382.327759	28.674690
818.620667	1104.435669	2079.287354	1380.470337	28.315556
818.927246	1106.813354	2104.104492	1398.748657	29.272827
819.233704	1109.265259	2141.776123	1402.389648	28.389473
819.540161	1108.893921	2190.667236	1416.135376	28.401649
819.846497	1105.253052	2248.400391	1428.544067	28.280783
820.152832	1094.999146	2329.539063	1451.280640	28.859455
820.458984	1101.686646	2425.240967	1480.556030	28.625149
820.765259	1103.841309	2527.035889	1511.317383	28.631086
821.071350	1109.413940	2641.164551	1550.474976	28.794573
821.377502	1103.841187	2823.428955	1602.709839	29.010944
821.683472	1105.995972	3179.636719	1703.984375	28.837610
821.989441	1107.482056	3874.069580	1911.957642	29.078264
822.295349	1110.156982	4971.149414	2234.059814	29.109169
822.601196	1116.398315	6361.873047	2663.306641	29.490341
822.907043	1116.101196	7683.496094	3053.619141	29.502077
823.212769	1111.420044	8510.485352	3320.811523	29.860415
823.518494	1108.670898	8570.819336	3334.706055	29.831022
823.824097	1109.339600	7931.740723	3150.583984	29.919735
824.129700	1108.670898	6878.425781	2836.283447	29.942564
824.435242	1105.178711	5802.968750	2517.301758	30.059305
824.740723	1106.813354	4876.265137	2250.703857	30.346336
825.046082	1112.683228	4206.574707	2039.163940	29.945480
825.351501	1116.546997	3724.498291	1886.843262	29.536453
825.656799	1117.958618	3398.383545	1784.974243	29.249622
825.962036	1118.701660	3206.459717	1730.881836	29.322372
826.267212	1115.209473	3109.791748	1698.708862	29.254215
826.572449	1116.249756	3135.872070	1696.776978	28.744347
826.877502	1122.045410	3264.415771	1732.516602	28.495129
827.182495	1119.073242	3536.140869	1818.782104	28.948668
827.487488	1111.642944	3874.589844	1925.852173	29.468872
827.792419	1101.314941	4165.930176	2009.665649	29.639959
828.097290	1106.218872	4270.548828	2047.783203	29.755566
828.402100	1108.671021	4140.741699	2025.937988	30.252161
828.706848	1112.906250	3851.629883	1943.313477	30.320957
829.011597	1112.163086	3479.893555	1829.630249	30.301893
829.316223	1114.540894	3127.104248	1709.557007	29.565088
829.620789	1113.574829	2817.930908	1619.725098	29.697449
829.925354	1115.803955	2581.870850	1543.416138	29.167303
830.229797	1109.636841	2407.705322	1500.023438	30.074423
830.534302	1112.311646	2283.694092	1465.769897	30.174454
830.838562	1108.819458	2209.391602	1449.125977	30.920874
831.142944	1112.163208	2152.550049	1413.980835	29.010136
831.447144	1113.500610	2096.971436	1396.891235	28.815357
831.751404	1109.636841	2064.500977	1382.328003	28.558111
832.055542	1106.367554	2050.309326	1390.055298	30.053522
832.359619	1104.286987	2062.123291	1393.175903	30.160572
832.663635	1108.819458	2073.863281	1405.956055	30.789959
832.967651	1110.156860	2129.516113	1416.878540	30.089655
833.271545	1101.166382	2233.688232	1442.290161	30.120724
833.575439	1104.509888	2397.377197	1490.586914	29.862076
833.879211	1109.785400	2634.328369	1561.471680	29.627651
834.183044	1120.410645	2873.509033	1646.473999	30.007635
834.486694	1116.323975	3080.962158	1711.786133	30.308998
834.790344	1112.980347	3151.252686	1739.426758	30.734186
835.093933	1111.271484	3095.451416	1720.405273	30.699524
835.397522	1106.813477	2945.434326	1664.901001	30.353596
835.700928	1110.900024	2742.141846	1604.121460	30.235949
836.004395	1113.649048	2547.766113	1532.047852	29.174662
836.307739	1117.735840	2369.216553	1482.041992	29.110010
836.611023	1108.076416	2232.350830	1439.912476	29.515575
836.914307	1106.962036	2139.175293	1415.764038	29.916492
837.217529	1110.082642	2058.779785	1391.541382	29.667923
837.520691	1116.101196	1995.250977	1358.996704	27.628456
837.823730	1112.683228	1940.638306	1330.390137	26.294531
838.126831	1115.581055	1883.499634	1312.037476	25.582975
838.429749	1120.782227	1850.657837	1306.687622	25.470833
838.732727	1124.868896	1816.850098	1307.430786	26.382492
839.035522	1114.540894	1812.912109	1302.972534	26.981588
839.338379	1111.420044	1804.069946	1293.981812	26.357004
839.641113	1109.562500	1809.271118	1297.176880	26.813215
839.943848	1120.113525	1834.756958	1306.390503	26.065723
840.246460	1124.200195	1881.567749	1328.235352	26.940044
840.549072	1121.079468	1937.814819	1341.758545	27.019655
840.851563	1119.147583	1976.675293	1353.572632	27.337315
841.154053	1110.974243	1993.987793	1352.086548	27.305618
841.456482	1111.865845	1964.563965	1346.662354	27.535713
841.758850	1100.497559	1917.753296	1334.922607	28.684418
842.061157	1099.903198	1843.673462	1323.777222	30.099890
842.363403	1103.469727	1795.450806	1303.938477	28.970264
842.665588	1106.070313	1740.541382	1282.687744	27.836956
842.967712	1112.831909	1716.095703	1265.449585	25.298664
843.269775	1109.711304	1693.359009	1261.511475	26.008869
843.571777	1111.865845	1675.972168	1256.830444	25.698099
843.873840	1110.379883	1645.879517	1244.644897	25.072849
844.175659	1110.825684	1618.313354	1241.524170	25.754023
844.477600	1119.519165	1613.632202	1241.301270	24.646608
844.779297	1115.655273	1619.056274	1244.942139	25.682680
845.081116	1118.404663	1606.127563	1239.517944	24.832396
845.382751	1111.717285	1592.753052	1237.437622	26.135342
845.684387	1109.191040	1568.679077	1234.168335	27.199249
845.985962	1110.008423	1566.004272	1224.954712	25.207748
846.287537	1117.067261	1548.394531	1220.050659	23.875931
846.588989	1121.079468	1541.187134	1217.747437	23.010284
846.890381	1123.011353	1529.595825	1221.685303	24.268991
847.191711	1126.280640	1520.456665	1212.546143	21.885019
847.493042	1134.082397	1514.215210	1217.821655	22.028948
847.794250	1128.063843	1502.252441	1216.484253	23.629906
848.095459	1115.729614	1509.236816	1226.737915	28.209980
848.396606	1109.116699	1500.097656	1219.753418	28.297215
848.697693	1110.156982	1508.196655	1220.050659	27.608725
848.998657	1108.968140	1502.995483	1206.453247	24.740696
849.299622	1104.435669	1514.809570	1208.905273	25.457176
849.600464	1102.578125	1507.527832	1201.029175	24.311920
849.901367	1112.237427	1498.091431	1202.886719	23.493158
850.202087	1120.187866	1491.329956	1195.976563	20.420399
850.502808	1123.680054	1484.717163	1196.793945	20.251074
850.803467	1113.649170	1489.175171	1202.366577	23.624838
851.104065	1110.677124	1483.825562	1207.567749	25.965706
851.404663	1108.076538	1487.243286	1207.939331	26.337435
851.705139	1110.677124	1484.494019	1202.961060	24.686935
852.005615	1108.299316	1478.104004	1193.301636	22.985733
852.306030	1105.996094	1472.085449	1192.261353	23.563990
852.606384	1105.401611	1464.506470	1191.964233	24.105110
852.906616	1105.847412	1471.119629	1202.217896	26.383196
853.206909	1105.030151	1475.057617	1203.183960	26.526087
853.506958	1111.345825	1476.395020	1204.447144	25.503773
853.807129	1113.797729	1469.782227	1192.855835	22.208300
854.107178	1114.986694	1463.020508	1189.883789	21.520063
854.407166	1111.791626	1455.887573	1184.236694	21.053741
854.707092	1106.070190	1458.190918	1186.985962	22.979553
855.007019	1107.333374	1460.419922	1193.078735	24.284517
855.306763	1107.110474	1462.277710	1196.348145	25.125536
855.606567	1104.584229	1456.333374	1193.153076	25.179548
855.906250	1110.156860	1456.630493	1191.666992	23.525639
856.205933	1107.259155	1457.447876	1190.478149	23.764042
856.505493	1110.008301	1456.036133	1188.992065	22.825842
856.805054	1111.122925	1444.370605	1180.224487	20.735798
857.104492	1112.683228	1443.404663	1179.704346	20.265127
857.403931	1116.324097	1449.200317	1188.992065	21.830328
857.703308	1104.212769	1456.184692	1185.499878	23.094770
858.002563	1106.144653	1456.481812	1180.224365	21.145262
858.301819	1107.630737	1443.999023	1175.394775	20.145786
858.601013	1109.116577	1435.751465	1179.630005	21.587843
858.900208	1109.265259	1437.163208	1191.592773	25.107664
859.199219	1103.841187	1435.677124	1191.146851	26.309889
859.498291	1109.636841	1436.717407	1194.193359	25.851892
859.797302	1107.482056	1424.829102	1187.654785	25.263424
860.096191	1112.237427	1425.200562	1189.512207	24.691336
860.395020	1112.311768	1419.776367	1192.781616	26.172070
860.693787	1113.500610	1421.782593	1194.639160	26.319590
860.992554	1113.872070	1413.163452	1196.273804	27.532278
861.291260	1112.609009	1412.940552	1186.837280	24.715443
861.589844	1107.482056	1417.175781	1179.481445	23.248579
861.888428	1100.200317	1427.652466	1169.822021	21.261642
862.186890	1101.983643	1434.339844	1178.515503	23.027060
862.485413	1100.646118	1426.240723	1186.465942	26.357876
862.783813	1106.070313	1426.240601	1188.472046	25.736845
863.082153	1103.246704	1416.804199	1183.865234	25.710924
863.380371	1112.237305	1421.485352	1186.911621	24.147062
863.678589	1109.191040	1421.113892	1195.233521	27.584539
863.976746	1111.494385	1424.606079	1196.348022	27.100119
864.274902	1112.460327	1418.661987	1188.397583	24.799753
864.572937	1111.568726	1410.859985	1183.196411	23.932434
864.870911	1110.231323	1413.832153	1181.710449	23.543785
865.168884	1103.766968	1412.494751	1188.694946	27.509018
865.466736	1108.745239	1411.900269	1191.518433	27.303915
865.764587	1106.442017	1405.807495	1194.267578	29.337238
866.062317	1108.448120	1401.126465	1193.301636	28.992071
866.360107	1112.683350	1405.510376	1188.992065	26.059315
866.657715	1115.506836	1406.922241	1190.775391	25.828611
866.955322	1116.324097	1416.061157	1181.859253	21.864216
867.252808	1115.952637	1409.597046	1171.753906	19.003008
867.550293	1118.627563	1402.538086	1163.580566	15.833510
867.847717	1116.101196	1396.965454	1156.744751	14.470889
868.145081	1110.825684	1393.175903	1169.376221	20.736849
868.442383	1109.562622	1390.798218	1168.930298	21.109589
868.739624	1113.203369	1391.467163	1168.261597	19.786343
869.036804	1111.791626	1404.767212	1163.729126	17.727587
869.333984	1106.961914	1406.179077	1172.274048	21.827669
869.631042	1110.379883	1403.281250	1169.673462	20.243530
869.928101	1110.751343	1402.538208	1168.707520	19.862503
870.224976	1110.825684	1406.550659	1167.592896	19.195948
870.521851	1108.819580	1419.627808	1177.549438	22.113268
870.818726	1109.711060	1411.826050	1178.886841	22.897169
871.115479	1121.748169	1411.900269	1169.004761	16.286835
871.412231	1119.593262	1404.098511	1174.280151	19.221750
871.708862	1119.444702	1404.172852	1172.719849	18.710882
872.005493	1105.698853	1407.739258	1177.623901	23.813055
872.302063	1107.556396	1406.030273	1172.199707	21.657946
872.598572	1109.339722	1408.630859	1175.023315	21.946388
872.895020	1117.215698	1407.665039	1173.834351	19.493469
873.191406	1116.844116	1405.584595	1176.955078	20.818336
873.487671	1119.370483	1401.423706	1180.595947	21.707060
873.783997	1117.958740	1406.327515	1187.580444	24.143288
874.080200	1118.107300	1401.126465	1187.208984	24.415903
874.376343	1117.215698	1410.265625	1185.797119	23.402641
874.672424	1111.940308	1409.745605	1186.837280	25.149645
874.968445	1111.940308	1409.968384	1193.747437	27.449471
875.264465	1112.609009	1401.349243	1192.261475	27.586203
875.560364	1115.506714	1402.835327	1182.825073	23.429049
875.856201	1112.980469	1407.070679	1173.462891	20.565943
876.152039	1106.813354	1410.117065	1172.348267	21.607027
876.447754	1109.562500	1400.457642	1167.741577	20.000017
876.743469	1111.494385	1402.092285	1171.531128	20.659731
877.039063	1114.243652	1398.302856	1165.289551	17.970161
877.334595	1112.014526	1405.956055	1165.958374	18.351898
877.630127	1109.785522	1413.906372	1160.459961	16.662600
877.925537	1111.197144	1417.918823	1164.397827	17.344938
878.221008	1104.212769	1414.872437	1169.896362	21.143265
878.516296	1104.658569	1420.147949	1170.787964	20.960894
878.811646	1107.705078	1427.503906	1177.103760	21.700731
879.106812	1122.565552	1444.964966	1189.289429	20.696030
879.401978	1118.627441	1455.887573	1200.286133	24.212376
879.697083	1110.602905	1483.453735	1205.784546	25.528076
879.992126	1102.726685	1514.586548	1214.106445	27.043121
880.287109	1105.178711	1562.883423	1227.926758	26.818174
880.582031	1109.711182	1631.093262	1246.205200	26.179270
880.876892	1103.469727	1758.522461	1271.691040	25.680576
881.171753	1103.023926	1991.461548	1339.752441	26.645485
881.466492	1100.126099	2385.117432	1462.054688	28.165838
881.761230	1102.800903	2936.517822	1630.721802	28.789661
882.055786	1107.853638	3527.224609	1791.141479	28.242374
882.350403	1104.361450	3935.592529	1899.920532	28.099405
882.644958	1114.466675	4033.374756	1930.161621	27.945208
882.939453	1110.379883	3825.177979	1879.858765	28.343872
883.233826	1114.392212	3450.321045	1777.841187	28.401936
883.528137	1113.203491	3033.037109	1656.876343	28.318748
883.822449	1113.723511	2656.842529	1546.239624	28.028694
884.116577	1109.785522	2359.260010	1459.751343	28.009041
884.410828	1106.887573	2129.887451	1390.352539	27.709188
884.704956	1109.190918	1958.916992	1349.114502	28.235403
884.999023	1117.215698	1843.301880	1310.551392	26.627100
885.292969	1118.478882	1757.928101	1283.356567	25.784328
885.586914	1116.026855	1696.554077	1260.842896	24.945606
885.880798	1110.454224	1649.074585	1250.663330	26.031157
886.174622	1109.191040	1614.375122	1246.353760	27.151037
886.468384	1112.608887	1589.335327	1230.675903	24.766199
886.762085	1118.776001	1562.214722	1219.381958	22.687679
887.055664	1116.472656	1538.066406	1213.140503	22.929146
887.349304	1118.181641	1518.599121	1214.552246	24.067532
887.642822	1116.249878	1496.159668	1221.462524	27.694113
887.936340	1120.707886	1477.212402	1218.713257	27.490639
888.229736	1115.135254	1456.927734	1204.001343	26.000013
888.523071	1116.844116	1436.643188	1186.168579	21.677505
888.816284	1107.779175	1418.810425	1175.766235	21.858595
889.109619	1110.156860	1402.166626	1177.698120	23.129795
889.402710	1112.237427	1391.392578	1174.057251	22.145329
889.695862	1117.290039	1379.727173	1165.140991	18.233301
889.988892	1113.500488	1378.984253	1164.620850	19.255550
890.281921	1101.835083	1397.857178	1174.057373	24.397602
>>>>>End Processed Spectral Data<<<<<
