Jaz Data File
++++++++++++++++++++++++++++++++++++
Date: Fri Jun 04 11:49:57 2021
User: jaz
Dark Spectrum Present: Yes
Reference Spectrum Present: Yes
Processed Spectrum Present: Yes
Spectrometers: JAZA3586
Integration Time (usec): 40000 (JAZA3586)
Spectra Averaged: 10 (JAZA3586)
Boxcar Smoothing: 1 (JAZA3586)
Correct for Electrical Dark: No (JAZA3586)
Strobe/Lamp Enabled: Yes (JAZA3586)
Correct for Detector Non-linearity: No (JAZA3586)
Correct for Stray Light: No (JAZA3586)
Number of Pixels in Processed Spectrum: 2048
>>>>>Begin Processed Spectral Data<<<<<
W	D	R	S	P
191.335022	0.000000	0.000000	0.000000	0.000000
191.713211	383.699249	385.259644	376.937714	-433.322266
192.091385	766.209656	765.392395	755.064270	1363.749023
192.469528	1150.726196	1154.069946	1130.590210	-602.197693
192.847641	1155.853149	1160.014038	1134.602539	-510.722870
193.225739	1163.877808	1177.029419	1141.289917	-171.749985
193.603790	1172.719727	1178.218262	1153.178223	-355.394714
193.981842	1184.534058	1180.224365	1161.351440	537.918152
194.359863	1191.146973	1181.264648	1168.038696	233.834427
194.737854	1193.598999	1187.060181	1173.239868	311.357941
195.115829	1192.855957	1188.546265	1175.766357	396.538727
195.493774	1186.094360	1186.094360	1167.964600	0.000000
195.871704	1180.595825	1186.094360	1160.088501	-372.959778
196.249603	1184.979858	1194.639160	1159.122559	-267.693268
196.627457	1194.861938	1196.719604	1164.695190	-1623.905884
197.005310	1200.954956	1200.731934	1169.524902	14092.775391
197.383133	1193.004517	1199.914673	1169.301880	-343.011597
197.760910	1190.403931	1203.629761	1171.159546	-145.506058
198.138687	1194.193359	1204.744263	1169.970581	-229.580139
198.516449	1199.023071	1197.388306	1168.261597	1881.705444
198.894180	1197.611206	1189.215088	1164.323608	396.464142
199.271866	1198.057007	1184.385498	1170.416382	202.176849
199.649536	1192.632935	1188.546387	1171.679565	512.740112
200.027191	1191.221069	1192.781616	1167.964478	-1490.284790
200.404816	1191.964233	1188.917847	1159.419678	1068.300171
200.782410	1188.843628	1194.267578	1161.202881	-509.605469
201.159988	1185.945801	1204.595703	1162.020264	-128.287735
201.537537	1180.075806	1226.812134	1166.701294	-28.616951
201.915070	1179.704224	1230.155762	1164.620972	-29.896515
202.292557	1181.190308	1230.007202	1158.230835	-47.031818
202.670029	1175.989136	1212.248901	1152.212280	-65.573662
203.047485	1171.233765	1209.796997	1149.611694	-56.069134
203.424911	1169.599243	1206.676147	1161.648682	-21.443434
203.802292	1173.165649	1217.524414	1166.478394	-15.075388
204.179688	1182.453491	1212.100220	1161.945923	-69.173126
204.557037	1185.648560	1207.790649	1154.812866	-139.262802
204.934357	1185.574219	1207.344849	1145.822388	-182.593842
205.311661	1177.326660	1210.762817	1157.265015	-59.999855
205.688934	1174.725952	1215.146606	1160.385620	-35.477734
206.066177	1177.252319	1201.029175	1164.918091	-51.874935
206.443390	1180.001465	1204.892944	1156.893433	-92.835106
206.820587	1182.304932	1206.973389	1158.007935	-98.494194
207.197769	1183.122192	1214.403687	1165.140991	-57.481915
207.574921	1182.973633	1211.282959	1169.822144	-46.456383
207.952042	1181.487427	1207.419312	1170.044922	-44.125233
208.329147	1178.961304	1210.762817	1165.809692	-41.355301
208.706223	1188.843384	1225.177490	1165.512451	-64.212212
209.083267	1187.431763	1224.360229	1161.574341	-70.020294
209.460297	1178.961304	1223.765869	1156.373169	-50.414806
209.837280	1169.822144	1209.945679	1152.138062	-44.074089
210.214264	1168.558960	1208.162231	1155.035767	-34.146656
210.591217	1167.964478	1212.248901	1150.577637	-39.261753
210.968124	1163.357788	1212.843262	1151.023560	-24.924948
211.345016	1163.952148	1217.004272	1142.330078	-40.756275
211.721893	1156.373291	1216.558472	1150.503418	-9.753020
212.098724	1153.549683	1214.849487	1154.144165	0.969795
212.475555	1153.178223	1217.227173	1164.546509	17.749372
212.852356	1168.707520	1210.911377	1159.270996	-22.359386
213.229126	1169.376221	1210.391235	1152.360840	-41.485737
213.605865	1171.085083	1205.933105	1140.695313	-87.206589
213.982590	1163.580566	1205.264526	1137.128784	-63.457939
214.359283	1166.701294	1204.075562	1139.432251	-72.962082
214.735931	1167.370117	1203.703979	1147.234009	-55.419674
215.112579	1173.016968	1207.567871	1156.596191	-47.526329
215.489197	1171.976807	1206.156128	1151.989380	-58.478127
215.865799	1169.896362	1202.440918	1147.605591	-68.493088
216.242355	1169.079102	1209.351074	1138.912109	-74.908157
216.618896	1170.044922	1218.787598	1135.494263	-70.883797
216.995407	1166.032593	1227.555298	1142.404297	-38.405815
217.371902	1160.980103	1223.097046	1148.794312	-19.617500
217.748367	1163.134766	1215.295288	1154.292847	-16.951363
218.124802	1166.701416	1221.016602	1151.246338	-28.454433
218.501236	1165.289673	1212.694702	1154.144165	-23.511234
218.877609	1168.113159	1216.781372	1156.150269	-24.580502
219.253983	1169.227661	1202.440918	1151.617798	-53.020584
219.630295	1176.286499	1212.546143	1147.679810	-78.894020
220.006592	1176.880859	1215.443848	1147.456909	-76.301010
220.382889	1178.366821	1219.827759	1149.537476	-69.533752
220.759140	1175.840576	1210.688599	1150.280518	-73.347229
221.135391	1171.902710	1208.013672	1154.144165	-49.177711
221.511581	1165.958374	1219.233398	1161.128784	-9.065392
221.887772	1168.187500	1226.737915	1156.224731	-20.431570
222.263931	1166.032593	1223.171387	1142.181519	-41.742348
222.640060	1173.537109	1216.484253	1134.602539	-90.656952
223.016159	1167.221558	1215.146606	1134.528320	-68.217430
223.392212	1174.354492	1222.502563	1151.989380	-46.450691
223.768265	1177.178101	1217.227051	1154.738647	-56.030067
224.144302	1183.568115	1225.103271	1163.283325	-48.837639
224.520294	1173.462891	1223.840210	1157.487671	-31.711136
224.896286	1162.540283	1232.162109	1166.775513	6.083192
225.272217	1159.493896	1225.549072	1162.837524	5.061871
225.648148	1169.450562	1230.007324	1161.128784	-13.742110
226.024048	1169.822144	1228.967041	1147.977051	-36.934872
226.399902	1167.592896	1239.220825	1153.921265	-19.087011
226.775772	1159.568237	1235.654175	1155.630127	-5.175871
227.151581	1165.883911	1249.548950	1163.506226	-2.841911
227.527374	1166.329956	1250.069092	1155.258667	-13.221165
227.903137	1171.679565	1254.750122	1150.949219	-24.955107
228.278870	1167.370117	1259.208130	1150.726196	-18.123129
228.654572	1173.314331	1262.848999	1148.942993	-27.220001
229.030273	1171.010864	1275.480469	1151.692261	-18.492081
229.405930	1170.193481	1276.446411	1149.685913	-19.300709
229.781555	1172.794067	1289.895142	1157.041870	-13.451796
230.157181	1173.685669	1294.056152	1157.339233	-13.580103
230.532761	1168.038818	1294.056152	1158.230835	-7.783043
230.908325	1158.676636	1288.334839	1148.497192	-7.850983
231.283859	1158.899536	1286.180054	1143.518921	-12.084029
231.659332	1166.181274	1290.043823	1152.063843	-11.397659
232.034821	1169.376221	1285.882813	1159.865601	-8.163160
232.410263	1171.902466	1278.824097	1164.323608	-7.088236
232.785690	1167.667236	1273.251465	1152.138062	-14.707854
233.161087	1169.598999	1279.938599	1145.673706	-21.683325
233.536469	1167.741577	1279.418579	1150.057617	-15.834916
233.911804	1165.363892	1277.115234	1155.110107	-9.175535
234.287140	1167.667236	1277.040894	1160.385620	-6.657559
234.662430	1173.091431	1286.774536	1158.676636	-12.679804
235.037704	1181.338989	1299.183105	1161.351440	-16.961006
235.412933	1181.264648	1301.040649	1156.447510	-20.719625
235.788162	1165.735474	1298.588745	1147.456909	-13.758460
236.163345	1156.224731	1290.564087	1143.964722	-9.126149
236.538513	1152.212280	1294.204834	1148.720215	-2.459330
236.913635	1155.853149	1301.858032	1154.961548	-0.610666
237.288742	1162.614746	1301.932251	1152.286621	-7.413372
237.663834	1159.791138	1301.635132	1154.515625	-3.719236
238.038879	1169.747681	1302.452515	1156.001709	-10.358305
238.413910	1169.970703	1307.505005	1158.676636	-8.211819
238.788910	1169.747681	1315.083862	1159.568237	-7.004067
239.163879	1164.472290	1323.628662	1156.373413	-5.088629
239.538834	1162.391846	1337.969116	1160.682739	-0.973421
239.913757	1165.512573	1340.123901	1159.791138	-3.276669
240.288651	1170.119263	1348.668579	1165.215210	-2.746610
240.663528	1174.874634	1364.346558	1164.100708	-5.686291
241.038361	1180.521606	1400.531860	1168.261719	-5.572416
241.413177	1178.664063	1438.649292	1167.890259	-4.144006
241.787979	1176.806641	1472.011230	1173.240112	-1.208155
242.162735	1175.246216	1500.766479	1175.320435	0.022800
242.537476	1175.246216	1516.369995	1174.428833	-0.239615
242.912170	1173.388550	1528.109863	1168.335938	-1.424389
243.286865	1166.032593	1518.004517	1165.512451	-0.147779
243.661514	1168.187378	1513.100586	1168.113159	-0.021518
244.036148	1168.187378	1497.571289	1173.388550	1.579061
244.410751	1172.199707	1489.695313	1171.010864	-0.374444
244.785339	1165.883911	1481.521851	1169.153320	1.035810
245.159882	1165.586792	1497.868530	1160.534180	-1.520581
245.534378	1161.202881	1527.143921	1162.986206	0.487326
245.908890	1160.979980	1575.589233	1160.757202	-0.053732
246.283356	1163.729370	1636.814819	1159.865479	-0.816743
246.657791	1163.803589	1706.510620	1155.704590	-1.492334
247.032196	1163.580688	1770.411133	1170.936523	1.212173
247.406586	1164.695190	1815.067017	1185.128418	3.141776
247.780960	1168.484619	1828.887207	1194.490601	3.937898
248.155289	1168.261719	1810.311523	1184.459595	2.522838
248.529602	1166.552612	1761.197388	1182.973633	2.761484
248.903870	1161.277222	1706.436401	1181.636230	3.734507
249.278122	1160.979980	1662.226196	1178.069702	3.409446
249.652344	1155.927368	1627.898315	1169.376221	2.849509
250.026550	1164.249268	1600.926392	1170.713745	1.480379
250.400711	1164.620850	1582.425171	1172.051147	1.778416
250.774857	1174.057251	1583.613892	1174.280151	0.054425
251.148987	1168.930298	1596.245483	1168.856079	-0.017369
251.523071	1168.113159	1620.468140	1168.484497	0.082090
251.897125	1163.803589	1637.260620	1169.302002	1.161333
252.271164	1168.187378	1657.842407	1173.462891	1.077394
252.645187	1174.131470	1654.573120	1175.543335	0.293868
253.019165	1177.475220	1654.647461	1173.314331	-0.871989
253.393112	1178.515503	1638.449341	1170.416504	-1.760905
253.767044	1178.515503	1613.632202	1173.462891	-1.161209
254.140930	1171.828247	1584.951294	1172.348267	0.125875
254.514801	1163.506348	1572.542603	1172.348267	2.161647
254.888657	1158.305176	1578.041138	1168.930420	2.531411
255.262466	1161.128662	1593.124634	1173.239868	2.803546
255.636276	1172.199707	1599.960571	1176.806519	1.076960
256.010010	1175.766235	1613.929565	1176.806519	0.237419
256.383759	1177.326538	1631.762207	1178.292603	0.212586
256.757446	1170.490723	1667.055786	1173.017090	0.508769
257.131134	1172.125366	1707.179321	1173.462891	0.249979
257.504791	1165.883911	1747.674316	1177.995361	2.081755
257.878418	1167.295776	1800.354980	1187.654663	3.215953
258.252014	1167.072876	1870.570923	1195.084961	3.981828
258.625580	1169.599121	1976.526733	1197.239746	3.425416
258.999115	1173.091431	2103.510010	1201.995117	3.106525
259.372650	1171.902466	2242.010498	1208.682495	3.437039
259.746124	1174.131714	2349.823486	1221.016602	3.987855
260.119598	1175.914917	2406.367920	1225.771973	4.051927
260.493042	1173.388550	2409.562988	1229.709961	4.556106
260.866425	1174.428711	2355.916260	1213.586304	3.314262
261.239838	1168.633179	2268.907959	1201.177734	2.957857
261.613159	1163.803589	2167.633301	1191.889893	2.797915
261.986511	1163.060547	2085.826172	1193.970337	3.349690
262.359802	1165.883911	2037.083374	1198.057007	3.692966
262.733063	1166.478394	2002.978394	1199.617310	3.961616
263.106293	1165.512573	1986.706055	1201.549194	4.388323
263.479523	1158.973877	1971.102417	1200.731934	5.141804
263.852692	1162.614746	1967.461792	1202.143677	4.911359
264.225861	1156.224609	1959.213989	1201.177734	5.598222
264.598969	1162.020386	1958.545288	1200.360474	4.813420
264.972076	1167.221313	1976.600952	1192.707153	3.148812
265.345154	1176.434937	2015.312622	1199.320190	2.728080
265.718201	1177.623901	2060.711670	1204.670044	3.062679
266.091217	1179.630005	2110.791748	1215.295410	3.830205
266.464203	1184.459595	2160.946045	1207.344849	2.343632
266.837158	1180.893066	2207.533936	1199.245972	1.787666
267.210114	1179.184204	2238.740967	1192.261353	1.234209
267.583038	1173.834351	2248.028809	1196.942505	2.151208
267.955902	1178.961304	2261.180420	1201.177734	2.052859
268.328766	1169.896362	2265.935791	1201.549194	2.887928
268.701569	1164.769409	2285.700195	1198.131226	2.976260
269.074371	1159.716797	2302.641357	1201.549194	3.660119
269.447144	1171.307983	2326.418213	1209.871216	3.338489
269.819885	1178.292480	2376.052490	1215.666748	3.120347
270.192596	1181.190308	2465.661377	1226.589233	3.534445
270.565277	1174.725952	2581.648193	1239.295044	4.589386
270.937927	1177.103638	2701.498291	1240.706909	4.172362
271.310577	1177.029419	2780.630615	1237.660400	3.780926
271.683136	1181.041626	2834.797119	1233.499512	3.172046
272.055725	1171.605347	2859.762939	1233.276489	3.653163
272.428284	1170.490723	2848.617432	1233.425293	3.750287
272.800812	1165.140991	2819.936768	1224.657471	3.596606
273.173279	1166.998535	2747.640381	1224.954712	3.666623
273.545776	1162.614624	2709.300049	1216.781372	3.502118
273.918152	1168.781738	2664.718506	1226.143555	3.834508
274.290558	1164.769409	2662.266602	1221.610962	3.795770
274.662964	1163.283325	2652.532715	1226.440552	4.240877
275.035278	1161.277222	2674.303467	1222.205444	4.026911
275.407593	1168.335938	2687.752441	1225.771973	3.780138
275.779907	1176.806519	2724.755127	1225.474854	3.144054
276.152161	1177.252319	2765.770264	1227.926758	3.190045
276.524384	1181.413208	2811.540771	1233.053711	3.167881
276.896606	1173.091309	2844.531250	1234.539673	3.676373
277.268799	1170.416504	2855.007813	1236.843140	3.943190
277.640930	1163.060547	2867.490479	1236.545898	4.311433
278.013031	1170.267944	2871.057373	1237.883423	3.975535
278.385162	1177.846680	2892.381836	1230.378784	3.063927
278.757233	1188.620605	2898.846436	1229.932983	2.415610
279.129272	1188.174805	2925.520752	1225.846313	2.168337
279.501282	1173.834351	2943.799561	1223.840210	2.825245
279.873230	1165.215210	3005.396484	1222.799927	3.129296
280.245178	1166.701294	3088.912842	1232.459229	3.420952
280.617126	1168.558960	3204.676025	1240.706909	3.543409
280.988983	1172.942749	3308.551758	1245.908081	3.416605
281.360870	1172.571167	3404.996338	1248.211426	3.388255
281.732697	1176.063477	3466.370850	1248.211426	3.150143
282.104492	1173.685669	3499.583984	1256.310425	3.552380
282.476288	1169.004761	3511.175049	1264.558105	4.079692
282.848053	1175.023193	3506.791016	1266.415527	3.919444
283.219757	1173.016968	3510.877930	1259.505371	3.699468
283.591461	1173.611450	3487.769775	1256.830444	3.596081
283.963135	1168.336060	3508.722900	1259.802612	3.908181
284.334747	1166.849976	3569.651367	1263.071899	4.004573
284.706360	1167.890259	3659.260498	1265.226685	3.906944
285.077942	1172.422607	3750.504150	1273.325684	3.913882
285.449524	1177.549561	3834.094482	1278.155396	3.787093
285.821014	1179.407104	3860.323486	1275.777710	3.594689
286.192535	1173.537231	3893.759766	1272.062500	3.621956
286.563995	1167.518677	3876.150391	1273.102905	3.898065
286.935425	1163.654907	3864.558838	1269.759155	3.928472
287.306824	1167.592896	3792.113525	1272.434204	3.994684
287.678223	1173.983032	3713.872803	1266.638550	3.648014
288.049561	1180.521606	3666.393555	1265.746704	3.428378
288.420898	1173.165649	3650.344482	1262.180298	3.593388
288.792145	1171.159546	3690.690674	1264.780884	3.715824
289.163452	1166.924194	3781.785889	1274.514526	4.114571
289.534668	1174.205811	3891.233643	1276.446411	3.762957
289.905914	1167.815918	4000.755615	1275.629028	3.805697
290.277039	1171.233765	4079.516357	1278.824219	3.699450
290.648193	1176.732178	4127.144531	1285.214233	3.676844
291.019318	1181.710449	4131.603027	1290.415405	3.685048
291.390381	1175.394653	4094.154297	1283.653809	3.709081
291.761475	1169.376099	4036.569580	1284.619873	4.019393
292.132507	1168.558838	3992.433594	1280.310303	3.957380
292.503510	1171.902466	3973.486328	1278.898438	3.819124
292.874481	1167.147095	4019.182861	1275.406250	3.795856
293.245422	1170.490723	4092.593750	1284.768188	3.910795
293.616364	1173.016968	4219.279785	1294.427612	3.985561
293.987213	1176.880859	4340.690430	1299.926147	3.889150
294.358093	1170.490723	4442.262207	1304.532959	4.096931
294.728943	1168.187378	4547.623535	1310.477173	4.210460
295.099731	1162.094604	4641.765625	1320.656616	4.556810
295.470490	1170.119263	4767.113770	1331.207520	4.478413
295.841248	1162.391724	4860.363770	1338.786499	4.770041
296.211975	1168.261719	4963.718750	1339.678101	4.516357
296.582642	1167.593018	5049.390137	1345.770874	4.590087
296.953308	1180.967529	5088.250000	1346.885376	4.246375
297.323883	1175.097534	5076.881836	1344.730591	4.347577
297.694519	1164.100708	4989.798828	1330.836060	4.358299
298.065063	1152.880981	4884.734863	1321.325317	4.513690
298.435608	1155.035767	4732.785645	1306.836304	4.242905
298.806122	1164.918091	4571.475098	1299.480347	3.950095
299.176575	1170.713745	4409.940918	1290.192383	3.688492
299.547028	1168.187378	4311.712402	1286.031494	3.748789
299.917450	1168.856079	4277.162109	1288.260620	3.841467
300.287872	1163.357666	4286.301270	1291.084106	4.089938
300.658234	1171.159546	4277.533691	1296.136597	4.023245
301.028564	1169.747681	4250.487793	1295.319336	4.076022
301.398865	1174.354370	4208.580566	1292.570190	3.896078
301.769135	1170.342163	4164.370117	1295.988037	4.196550
302.139374	1167.370117	4113.992676	1288.780762	4.120332
302.509583	1163.803467	4074.835205	1285.140015	4.168163
302.879791	1162.465942	4040.061523	1278.601196	4.035843
303.249939	1168.633179	4004.768311	1273.845825	3.709719
303.620087	1177.103638	3962.638672	1275.554810	3.534372
303.990173	1181.636108	3946.960938	1270.205078	3.202842
304.360260	1181.338989	3939.604736	1271.765259	3.278374
304.730286	1180.670288	3938.118408	1275.851929	3.451802
305.100281	1182.081909	3930.836670	1281.276001	3.608692
305.470276	1174.354492	3935.443604	1283.653687	3.958554
305.840179	1164.843750	3955.208008	1274.440308	3.927679
306.210144	1159.345337	3985.375000	1271.170898	3.956985
306.579987	1168.856079	4013.758545	1270.799438	3.583369
306.949890	1173.685791	4058.563232	1275.257690	3.520839
307.319702	1172.942749	4135.986328	1291.975708	4.017253
307.689484	1167.444336	4244.022461	1306.167603	4.509012
308.059265	1169.153320	4352.653320	1312.854736	4.513944
308.429016	1171.605347	4428.813965	1308.470947	4.201930
308.798737	1170.044922	4499.550293	1310.105591	4.206651
309.168396	1164.026367	4535.215332	1314.935181	4.476427
309.538055	1163.952026	4554.236816	1312.780396	4.389849
309.907684	1169.970703	4546.063965	1315.529663	4.311461
310.277313	1170.044922	4559.363770	1314.860962	4.272718
310.646851	1171.679565	4556.911621	1319.170532	4.356894
311.016388	1164.695190	4552.676270	1313.597900	4.395028
311.385895	1174.280151	4495.537598	1310.328613	4.096294
311.755371	1176.732178	4448.355469	1310.848633	4.099386
312.124817	1177.103638	4386.535645	1308.916870	4.107058
312.494232	1167.890015	4343.736816	1315.009644	4.632454
312.863617	1162.465942	4318.771484	1316.867065	4.891830
313.232971	1164.769409	4339.650391	1325.486328	5.062140
313.602295	1168.410278	4408.529297	1334.997070	5.141378
313.971619	1167.890015	4480.825684	1342.353027	5.266116
314.340820	1165.735352	4517.977051	1350.674927	5.516892
314.710083	1172.274048	4519.462891	1343.244507	5.107882
315.079285	1177.400879	4470.200195	1336.334473	4.826702
315.448486	1177.623901	4397.532227	1325.560669	4.594440
315.817596	1173.983032	4278.647949	1328.384155	4.973197
316.186707	1171.456665	4186.958008	1327.640991	5.179381
316.555786	1173.908691	4103.664551	1325.709229	5.181337
316.924866	1172.422729	4052.469971	1326.823730	5.361058
317.293884	1171.308228	4034.043213	1334.699829	5.707535
317.662872	1170.416626	4040.359375	1343.021606	6.014231
318.031830	1170.119263	4074.538330	1339.009399	5.814937
318.400757	1173.834473	4110.575195	1341.312622	5.702858
318.769684	1176.286377	4135.317871	1342.798706	5.627258
319.138550	1181.116089	4149.360840	1345.622192	5.542202
319.507416	1176.212036	4119.491699	1337.894897	5.493289
319.876190	1175.914917	4094.971436	1346.885376	5.857045
320.244995	1175.394775	4026.241455	1352.160889	6.200478
320.613770	1179.555786	3977.201904	1370.142212	6.812386
320.982483	1174.131592	3957.363037	1358.773926	6.634099
321.351166	1165.363892	4000.607178	1364.049438	7.007708
321.719818	1161.574341	4063.095459	1359.739868	6.829712
322.088440	1163.357788	4166.673340	1378.538452	7.164771
322.457062	1171.233765	4312.975098	1397.336914	7.196746
322.825623	1171.010864	4472.652344	1416.581421	7.437832
323.194183	1168.410278	4602.607910	1431.739258	7.667846
323.562653	1167.072754	4667.102051	1437.832031	7.735915
323.931183	1168.781860	4695.114746	1439.763794	7.684525
324.299591	1175.617676	4667.845703	1444.667847	7.704256
324.668060	1177.326660	4627.127441	1448.605835	7.863618
325.036407	1177.921021	4544.131836	1452.172241	8.147179
325.404755	1167.295776	4476.516113	1440.432495	8.253809
325.773102	1157.933594	4395.080566	1429.138550	8.377901
326.141388	1169.450562	4333.483398	1431.219116	8.273257
326.509674	1176.212036	4251.898926	1433.596680	8.368362
326.877899	1182.007690	4180.642578	1438.946411	8.568523
327.246124	1176.286499	4136.061035	1439.095093	8.879345
327.614288	1175.469116	4102.104980	1448.011353	9.312475
327.982422	1171.828125	4100.915527	1444.444824	9.307223
328.350525	1176.212036	4106.859863	1444.667847	9.160289
328.718628	1182.750732	4155.082520	1451.206421	9.031821
329.086700	1188.546509	4205.311035	1464.655273	9.152479
329.454712	1177.698242	4263.563965	1480.704590	9.819168
329.822693	1172.497070	4285.037598	1486.203003	10.078774
330.190674	1169.673462	4325.756348	1501.063477	10.500041
330.558563	1165.140991	4370.263672	1508.567993	10.714941
330.926483	1164.397949	4443.153809	1519.861938	10.841429
331.294312	1161.500122	4517.753906	1533.979614	11.098072
331.662231	1165.215332	4611.821289	1550.846313	11.188717
332.029999	1163.877808	4712.873047	1570.982422	11.470983
332.397766	1165.140991	4781.974609	1579.304321	11.450993
332.765503	1158.305054	4799.287109	1585.620117	11.736259
333.133240	1153.995605	4801.219238	1592.010132	12.009533
333.500916	1154.664429	4800.178711	1595.650879	12.096687
333.868561	1164.843750	4808.574707	1604.715820	12.072023
334.236176	1168.113159	4782.420410	1609.248413	12.205251
334.603790	1168.484619	4747.200684	1614.375122	12.459511
334.971344	1163.209106	4717.331055	1612.369019	12.637717
335.338867	1168.335938	4699.869629	1609.619751	12.495529
335.706360	1167.072876	4692.439453	1609.694214	12.555327
336.073853	1173.685669	4701.876465	1617.495972	12.578977
336.441284	1167.964478	4728.253418	1625.520630	12.851657
336.808655	1172.794067	4762.655762	1645.210938	13.159751
337.176086	1168.336060	4801.590332	1660.517212	13.546564
337.543396	1165.661133	4834.952148	1675.229126	13.887369
337.910706	1166.478394	4860.512207	1677.235352	13.826538
338.277954	1162.986206	4863.336426	1675.526367	13.851126
338.645264	1172.125488	4839.931152	1676.789551	13.759292
339.012421	1165.215332	4792.971191	1678.721313	14.154922
339.379669	1169.524780	4700.464355	1672.554199	14.246334
339.746796	1163.580566	4602.310547	1663.415039	14.535439
340.113953	1166.998535	4525.406738	1659.254028	14.657405
340.481018	1169.970581	4496.651855	1661.334595	14.770397
340.848114	1171.679565	4505.270996	1665.347046	14.808878
341.215118	1169.450562	4545.840332	1682.733765	15.202132
341.582153	1171.233765	4649.492676	1697.074219	15.117922
341.949066	1169.376099	4820.909668	1721.371094	15.116798
342.316010	1173.016968	5041.365234	1763.277832	15.258732
342.682922	1168.261597	5292.211426	1821.233887	15.833663
343.049835	1171.159546	5589.570801	1882.607910	16.101906
343.416656	1175.617554	5875.785156	1924.960571	15.942901
343.783478	1176.806396	6091.039551	1962.334961	15.984763
344.150269	1178.143921	6198.630371	1991.536011	16.201460
344.516998	1167.295776	6216.834473	2012.266235	16.733618
344.883728	1167.518555	6143.868652	2011.597656	16.961811
345.250427	1166.626953	6024.167480	1991.015747	16.971321
345.617065	1167.667114	5877.270996	1969.096313	17.016912
345.983704	1167.741577	5745.235840	1947.028320	17.024309
346.350281	1166.924194	5615.873535	1935.585938	17.277378
346.716827	1167.964478	5483.689453	1916.044312	17.333817
347.083405	1166.255493	5394.823730	1915.821289	17.726231
347.449860	1174.057251	5351.133301	1917.010132	17.786434
347.816376	1180.893188	5342.811035	1927.635376	17.942261
348.182770	1181.859131	5348.383789	1933.579712	18.041910
348.549194	1174.800415	5378.401855	1943.982056	18.298157
348.915558	1165.215210	5460.283691	1951.412476	18.304651
349.281921	1171.902466	5538.970703	1970.210938	18.280191
349.648193	1174.800293	5575.453125	1980.539063	18.309528
350.014526	1183.939575	5580.803223	1989.752563	18.326994
350.380737	1174.725952	5601.831543	1995.102173	18.530758
350.746948	1175.766235	5636.753418	2019.845093	18.921347
351.113159	1167.072876	5693.743652	2048.377197	19.469149
351.479309	1171.605347	5752.219238	2070.593750	19.625938
351.845428	1164.620850	5869.320313	2097.863037	19.836384
352.211517	1167.815918	5997.417969	2128.475586	19.891073
352.577576	1165.809692	6131.683594	2156.487793	19.949722
352.943604	1169.822144	6244.697754	2187.249023	20.048311
353.309601	1169.747681	6376.808105	2216.821777	20.108736
353.675537	1166.701294	6515.977051	2257.539795	20.392265
354.041473	1163.654907	6669.263672	2289.489746	20.448870
354.407379	1164.918091	6783.838379	2321.737061	20.587923
354.773254	1162.243164	6909.410156	2348.708984	20.644360
355.139038	1157.190552	7022.052246	2381.550781	20.876200
355.504913	1154.812866	7238.719238	2441.736084	21.152910
355.870636	1157.116211	7498.779297	2507.865479	21.299606
356.236389	1159.642456	7767.383301	2570.056885	21.344881
356.602081	1162.763184	8009.609863	2615.604248	21.219126
356.967804	1164.992432	8172.259277	2656.990967	21.292162
357.333405	1161.128784	8266.846680	2682.253662	21.407055
357.699036	1159.196655	8243.664063	2684.260010	21.526859
358.064606	1160.088257	8198.116211	2669.845459	21.451424
358.430176	1164.174927	8144.395996	2670.959961	21.586494
358.795654	1161.054321	8185.856934	2687.157959	21.724504
359.161163	1165.438110	8336.393555	2737.832275	21.927261
359.526581	1161.797363	8693.417969	2807.008057	21.844046
359.892029	1164.472290	9201.425781	2925.818115	21.915590
360.257416	1153.995483	9748.887695	3043.513672	21.984198
360.622772	1157.339233	10188.983398	3169.754150	22.281822
360.988098	1161.128784	10459.964844	3250.149658	22.465403
361.353394	1168.707520	10546.528320	3288.416016	22.603424
361.718658	1174.428833	10405.352539	3269.171143	22.692659
362.083893	1174.874634	10002.260742	3181.865479	22.735960
362.449097	1177.103638	9426.042969	3065.061523	22.887280
362.814209	1176.286255	8811.039063	2934.734619	23.032158
363.179382	1178.515381	8274.202148	2815.107178	23.064602
363.544434	1174.057251	7898.676270	2724.086426	23.050066
363.909546	1170.342163	7654.666016	2659.963135	22.972651
364.274536	1168.410278	7522.036621	2629.424805	22.994970
364.639587	1166.404175	7387.919922	2609.585938	23.196627
365.004517	1168.781738	7319.263672	2602.007080	23.302650
365.369507	1166.106812	7259.375488	2599.554932	23.525110
365.734344	1165.512329	7272.527344	2604.310303	23.559757
366.099274	1168.633179	7254.100098	2595.914063	23.453926
366.464081	1163.654907	7207.810059	2589.078369	23.583502
366.828918	1164.769531	7141.160156	2584.917236	23.762632
367.193665	1168.410278	7076.442871	2570.874023	23.738253
367.558411	1166.701294	7027.031250	2560.397461	23.781872
367.923126	1165.586792	6936.901855	2550.292236	23.992893
368.287781	1160.162598	6865.497559	2551.852539	24.392782
368.652435	1171.976685	6827.899902	2547.022949	24.311615
369.017059	1177.400879	6849.447266	2549.252197	24.186180
369.381653	1177.549438	6901.162109	2564.929932	24.239594
369.746185	1171.902466	6968.554688	2578.601563	24.267439
370.110687	1168.261719	7070.052246	2590.118652	24.091959
370.475220	1163.209106	7148.516113	2611.666260	24.200214
370.839661	1166.329834	7213.457031	2645.548340	24.461510
371.204041	1163.134888	7246.893066	2656.990967	24.554823
371.568451	1166.849976	7250.087891	2652.978760	24.429897
371.932770	1167.518677	7216.948730	2647.851807	24.470621
372.297150	1168.187500	7179.203125	2648.297363	24.623291
372.661377	1169.450562	7193.171875	2652.606934	24.621929
373.025696	1165.809692	7220.664063	2653.201416	24.565275
373.389862	1166.032593	7279.363281	2677.498535	24.724100
373.754059	1170.119263	7368.824219	2697.560303	24.641293
374.118225	1169.896362	7496.327637	2735.305908	24.743959
374.482361	1173.462769	7656.003906	2768.742188	24.608860
374.846436	1163.803589	7831.135254	2813.398193	24.741451
375.210510	1161.500000	8100.111328	2889.261719	24.900684
375.574524	1161.945923	8372.504883	2962.078125	24.965223
375.938538	1168.930420	8662.136719	3045.891602	25.048840
376.302460	1177.549438	8870.036133	3087.278076	24.825893
376.666412	1176.435059	9015.223633	3120.714111	24.803310
377.030304	1178.812622	9026.815430	3134.683350	24.921890
377.394196	1170.490845	8908.375977	3108.900391	25.050896
377.757996	1169.153320	8708.501953	3064.467041	25.138958
378.121796	1170.416504	8452.827148	2997.668945	25.091312
378.485565	1180.150024	8218.847656	2935.849365	24.943525
378.849304	1180.744507	8007.307129	2875.663818	24.828299
379.212982	1170.119141	7879.952637	2830.190674	24.740875
379.576630	1160.162598	7797.550293	2818.376709	24.982933
379.940277	1159.939819	7785.438965	2821.868896	25.083832
380.303864	1167.369995	7761.216309	2809.906006	24.910135
380.667450	1165.512573	7785.661621	2816.518799	24.939110
381.030945	1165.363892	7785.810547	2812.803955	24.884123
381.394501	1162.837524	7838.193848	2832.419922	25.011135
381.757935	1172.719849	7889.314941	2838.958252	24.807783
382.121399	1175.320435	7980.707031	2855.824951	24.693741
382.484741	1177.103760	8113.783203	2896.617188	24.788710
382.848145	1174.948853	8251.911133	2934.065674	24.856947
383.211487	1174.280151	8361.137695	2975.452393	25.062029
383.574768	1174.948853	8425.631836	2983.477295	24.942869
383.938019	1172.794067	8448.961914	2988.306641	24.951494
384.301270	1166.329834	8484.256836	2984.517578	24.845667
384.664459	1167.518677	8508.850586	2979.836670	24.686501
385.027649	1160.534302	8540.131836	2974.709717	24.583662
385.390778	1168.261719	8637.541992	3007.031250	24.617760
385.753876	1170.565063	8745.801758	3031.179688	24.561802
386.116943	1180.447388	8861.193359	3057.854248	24.443027
386.479980	1179.109863	8860.895508	3051.315430	24.372009
386.842987	1171.456665	8876.203125	3050.572510	24.389067
387.205994	1168.930298	8868.846680	3035.563477	24.242252
387.568909	1171.233765	8862.976563	3023.897705	24.086401
387.931793	1172.274048	8815.125977	2996.034180	23.862297
388.294678	1171.531006	8771.584961	2987.266602	23.891088
388.657471	1165.215210	8799.299805	2987.712646	23.873163
389.020294	1165.140991	8834.891602	3006.659424	24.010147
389.383057	1166.478394	9009.502930	3034.523193	23.817913
389.745819	1174.725952	9175.123047	3062.386719	23.594589
390.108521	1179.332886	9398.997070	3106.447998	23.445181
390.471191	1176.360718	9631.044922	3155.190674	23.405130
390.833801	1173.239868	9843.624023	3207.722656	23.464737
391.196442	1170.639282	10008.725586	3229.567627	23.296087
391.558960	1178.738403	10056.649414	3231.945557	23.127142
391.921509	1171.753906	10036.959961	3201.630127	22.897112
392.284027	1170.416382	9977.889648	3194.125244	22.977179
392.646484	1159.345337	9905.963867	3178.298828	23.082676
393.008911	1163.803589	9867.029297	3175.995361	23.120070
393.371307	1164.100708	9886.645508	3162.546631	22.911272
393.733673	1165.140991	9882.782227	3132.305664	22.565331
394.096008	1166.255493	9808.553711	3092.776611	22.291769
394.458344	1167.592896	9700.741211	3048.937744	22.047487
394.820587	1177.103638	9502.129883	2999.229492	21.887329
395.182831	1178.366821	9317.487305	2948.480469	21.748217
395.545013	1179.555664	9072.138672	2888.518311	21.652767
395.907196	1173.388550	8906.146484	2839.032471	21.540102
396.269287	1177.401001	8808.735352	2802.772705	21.298656
396.631409	1186.020020	8777.900391	2775.503906	20.936630
396.993469	1186.168579	8759.028320	2762.352295	20.813585
397.355530	1176.732178	8777.827148	2747.268799	20.661980
397.717499	1166.404175	8785.924805	2744.148193	20.706606
398.079468	1159.196777	8800.934570	2735.380127	20.625980
398.441376	1160.831421	8792.909180	2735.008789	20.625803
398.803284	1148.199951	8758.582031	2721.411377	20.671911
399.165131	1156.298950	8759.100586	2713.981201	20.488266
399.526978	1159.196777	8739.336914	2692.359131	20.226042
399.888763	1164.843750	8750.779297	2676.235352	19.923601
400.250519	1157.413452	8760.067383	2660.928955	19.776194
400.612244	1160.162720	8780.129883	2644.805420	19.483583
400.973938	1164.695190	8861.788086	2644.730957	19.228504
401.335602	1164.026489	8950.356445	2640.644287	18.964233
401.697205	1157.636353	9111.221680	2654.241943	18.816742
402.058807	1161.054321	9253.214844	2667.987793	18.622139
402.420349	1165.289551	9483.924805	2690.649902	18.336666
402.781860	1173.388550	9666.858398	2720.593994	18.216412
403.143341	1172.274048	9867.178711	2743.702148	18.072977
403.504822	1176.435059	10054.124023	2757.151123	17.805489
403.866241	1169.524780	10187.720703	2767.999268	17.724991
404.227631	1171.233765	10279.930664	2761.237549	17.455885
404.588959	1170.936523	10277.107422	2752.618408	17.369341
404.950287	1166.329834	10245.083008	2728.469971	17.206551
405.311554	1161.648682	10149.157227	2704.618896	17.167942
405.672821	1154.218384	10045.801758	2674.080566	17.093269
406.034027	1158.676636	9921.047852	2627.492676	16.762770
406.395203	1160.162598	9777.569336	2575.703857	16.426535
406.756348	1164.249268	9644.493164	2533.945557	16.151613
407.117493	1172.868286	9606.375977	2498.726074	15.721309
407.478516	1175.394775	9639.886719	2490.775635	15.539986
407.839600	1180.744629	9708.541992	2489.364014	15.345340
408.200592	1174.725952	9816.578125	2513.512451	15.491893
408.561554	1168.558960	9955.153320	2519.085205	15.370303
408.922485	1162.020264	10077.083008	2520.051025	15.232992
409.283417	1159.419800	10157.850586	2511.208984	15.022499
409.644257	1161.871704	10249.019531	2510.762939	14.843946
410.005096	1166.775513	10307.719727	2506.824951	14.659858
410.365906	1175.766235	10290.332031	2485.128662	14.365604
410.726715	1183.642334	10237.726563	2462.614990	14.125920
411.087433	1183.642334	10168.104492	2428.212891	13.852477
411.448120	1182.007690	10145.887695	2404.213135	13.634782
411.808807	1174.131592	10101.900391	2382.516846	13.535132
412.169434	1174.057251	10096.773438	2358.665283	13.276317
412.530029	1167.592896	10140.166992	2337.786377	13.041892
412.890564	1172.274048	10249.317383	2327.086670	12.722343
413.251099	1171.976929	10385.291992	2341.130127	12.689820
413.611572	1177.698120	10545.116211	2348.263184	12.496134
413.972076	1171.382324	10686.811523	2346.777100	12.352514
414.332489	1166.032471	10797.151367	2337.192139	12.160162
414.692871	1161.425903	10973.620117	2357.253906	12.187161
415.053223	1159.716919	11147.562500	2369.439453	12.111946
415.413574	1162.391724	11416.389648	2390.541260	11.977275
415.773834	1161.277222	11614.778320	2391.878906	11.772149
416.134094	1161.723022	11894.528320	2406.739502	11.600102
416.494263	1162.466064	12162.090820	2418.925049	11.422744
416.854462	1168.261597	12535.981445	2448.274658	11.260069
417.214630	1180.150024	12963.149414	2471.159912	10.956548
417.574738	1184.459595	13373.002930	2494.342285	10.746836
417.934784	1177.772339	13822.757813	2516.484375	10.586901
418.294861	1170.045044	14254.307617	2548.360352	10.534145
418.654846	1166.106934	14804.074219	2579.270264	10.361979
419.014832	1170.193481	15354.954102	2626.972656	10.270030
419.374756	1167.964478	16006.664063	2682.774170	10.208508
419.734680	1168.484619	16642.322266	2734.711670	10.121775
420.094543	1167.667236	17147.656250	2764.729736	9.994140
420.454376	1170.713501	17477.560547	2771.120117	9.814323
420.814148	1168.856079	17651.652344	2769.930908	9.713612
421.173920	1166.404175	17810.882813	2753.510498	9.535333
421.533691	1171.308228	17875.748047	2737.758545	9.377449
421.893341	1166.701416	17892.021484	2724.829346	9.315983
422.253021	1163.357788	17863.638672	2705.510742	9.234293
422.612640	1158.305176	17797.953125	2675.566650	9.118351
422.972260	1168.410278	17825.742188	2654.910156	8.923998
423.331757	1174.503052	17901.904297	2643.096436	8.779568
423.691315	1170.787964	18089.591797	2645.102539	8.714059
424.050781	1162.911987	18095.908203	2641.090332	8.729573
424.410248	1157.785034	17901.533203	2617.016113	8.715080
424.769653	1158.453735	17554.908203	2570.725586	8.613276
425.128998	1166.552612	17149.958984	2520.422607	8.470472
425.488373	1173.239868	16714.322266	2465.141357	8.312816
425.847656	1175.469116	16282.178711	2433.934326	8.330504
426.206940	1169.822144	15923.816406	2382.888184	8.221951
426.566193	1164.398071	15566.864258	2342.095947	8.177057
426.925385	1162.614746	15216.527344	2290.158203	8.022986
427.284576	1163.729126	14807.491211	2257.836670	8.019105
427.643677	1163.209106	14538.589844	2226.852783	7.952250
428.002777	1167.964355	14305.725586	2196.462646	7.828566
428.361847	1166.032471	14156.301758	2166.593018	7.702385
428.720856	1168.484497	13930.421875	2148.091553	7.676006
429.079865	1168.187378	13810.870117	2125.875000	7.575035
429.438812	1173.760132	13755.291992	2120.599609	7.525630
429.797760	1175.246216	13755.069336	2111.534912	7.442781
430.156616	1173.091431	13643.540039	2102.469482	7.452643
430.515503	1178.292603	13564.926758	2087.088867	7.336911
430.874268	1177.623901	13549.250000	2071.782715	7.227496
431.233093	1171.308105	13661.745117	2083.225586	7.300925
431.591827	1166.552856	13823.797852	2089.169678	7.289239
431.950562	1172.719971	13973.073242	2100.092041	7.244894
432.309204	1178.218262	14087.127930	2100.834961	7.147131
432.667877	1180.001587	14235.956055	2107.968018	7.107611
433.026459	1171.753906	14342.059570	2108.711182	7.114165
433.385010	1178.589844	14444.299805	2108.116943	7.006991
433.743561	1177.401001	14436.051758	2096.897217	6.935066
434.102051	1179.778564	14472.164063	2087.386475	6.828029
434.460510	1174.577393	14481.971680	2092.513428	6.897940
434.818939	1167.369995	14454.256836	2089.095215	6.937105
435.177338	1163.580688	14421.042969	2096.376953	7.036009
435.535675	1161.797363	14402.096680	2079.510254	6.931210
435.894012	1165.661133	14420.299805	2079.361816	6.893441
436.252289	1168.410278	14552.708008	2079.807617	6.809452
436.610535	1164.175171	14617.203125	2073.194580	6.756987
436.968719	1164.918091	14916.791992	2077.875488	6.638785
437.326935	1168.410278	15150.175781	2084.711426	6.553544
437.685028	1171.605347	15463.139648	2108.711182	6.557070
438.043152	1176.955200	15677.651367	2120.228027	6.505017
438.401215	1171.679688	15988.459961	2145.788330	6.574361
438.759277	1172.794067	16341.843750	2167.261963	6.555901
439.117249	1165.363892	16803.783203	2201.738281	6.627105
439.475250	1169.153320	17187.111328	2215.113037	6.529919
439.833130	1168.856079	17603.949219	2241.861572	6.528746
440.191071	1173.091431	17749.062500	2252.709961	6.513154
440.548889	1171.382446	17827.822266	2257.167969	6.518713
440.906708	1168.707520	17725.136719	2246.616943	6.510519
441.264496	1163.729126	17543.093750	2229.007324	6.503782
441.622223	1165.661133	17286.601563	2212.883545	6.496038
441.979950	1166.404175	16981.587891	2185.020264	6.440748
442.337616	1166.255493	16760.982422	2176.995361	6.481293
442.695251	1162.391724	16517.197266	2165.849854	6.535141
443.052887	1165.958374	16460.132813	2167.707275	6.549872
443.410461	1170.565063	16571.736328	2176.623779	6.532352
443.768005	1170.119263	16827.708984	2187.546387	6.497981
444.125458	1171.085327	17054.033203	2196.760010	6.457710
444.482941	1161.648804	17364.544922	2213.329346	6.490695
444.840393	1163.803589	17880.876953	2233.762939	6.400398
445.197754	1168.484497	18359.458984	2276.263916	6.443959
445.555084	1175.989136	18727.332031	2290.009766	6.347210
445.912415	1175.394775	18895.775391	2314.604248	6.428809
446.269714	1171.531006	19017.111328	2318.022217	6.424511
446.626953	1166.998535	19019.712891	2313.563965	6.422359
446.984161	1169.747681	18864.121094	2313.415283	6.463454
447.341309	1171.902466	18673.982422	2288.152344	6.377813
447.698456	1178.589722	18365.404297	2272.251709	6.363378
448.055542	1179.555786	18149.703125	2242.010254	6.260726
448.412598	1177.326660	17790.896484	2229.973389	6.336066
448.769653	1178.292480	17446.798828	2216.375977	6.380939
449.126617	1168.707520	16991.025391	2194.233643	6.481516
449.483582	1167.667114	16730.373047	2180.636475	6.508954
449.840515	1159.716797	16497.876953	2167.856201	6.572753
450.197388	1167.518677	16359.526367	2165.330078	6.568002
450.554230	1166.552734	16251.416992	2163.546631	6.609233
450.911041	1170.787964	16192.198242	2156.562256	6.562462
451.267822	1172.422607	16274.227539	2155.596191	6.510305
451.624573	1166.329834	16282.921875	2149.726318	6.505412
451.981262	1166.849976	16272.816406	2151.286865	6.516874
452.337921	1166.106812	16077.250977	2137.540771	6.514818
452.694580	1169.747681	15736.573242	2119.187988	6.517826
453.051147	1175.914795	15511.137695	2105.516113	6.484736
453.407715	1170.639282	15146.237305	2091.324463	6.587805
453.764221	1177.921021	15085.977539	2092.661865	6.577057
454.120728	1170.862183	14750.723633	2071.411377	6.631505
454.477142	1179.704224	14735.640625	2067.621826	6.550028
454.833557	1176.509277	14604.421875	2056.253662	6.551610
455.189911	1175.766235	14642.911133	2056.699219	6.541349
455.546265	1170.193481	14684.296875	2060.934570	6.591196
455.902557	1173.165649	14778.067383	2071.782715	6.605098
456.258820	1170.787964	14993.843750	2088.129150	6.636312
456.615051	1171.976807	15305.247070	2111.163330	6.645217
456.971252	1173.908813	15619.250000	2127.064209	6.598359
457.327393	1180.744507	16164.929688	2166.370117	6.577772
457.683502	1177.326660	16729.183594	2206.642334	6.618603
458.039612	1165.883911	17576.828125	2268.907959	6.721272
458.395630	1164.323608	18435.025391	2315.867188	6.667614
458.751648	1170.639404	19157.916016	2366.170166	6.646535
459.107605	1175.617554	19783.396484	2418.999268	6.682053
459.463562	1173.388550	19960.755859	2446.714355	6.777564
459.819458	1167.221313	19885.191406	2449.389160	6.849930
460.175323	1166.701294	19365.072266	2402.058350	6.788284
460.531158	1166.701294	18676.804688	2354.133057	6.781409
460.886932	1171.679565	17936.677734	2294.839600	6.699434
461.242676	1174.948853	17282.662109	2257.465088	6.720484
461.598419	1172.422729	16806.904297	2225.663818	6.736655
461.954102	1174.800415	16348.083008	2205.527588	6.793040
462.309723	1176.509399	15892.014648	2177.961426	6.805421
462.665344	1174.354492	15554.903320	2157.750732	6.838377
463.020905	1168.558960	15361.567383	2146.010986	6.886856
463.376373	1169.896362	15365.430664	2150.766602	6.909710
463.731873	1170.565186	15383.338867	2148.834717	6.883030
464.087341	1172.274048	15433.343750	2141.701660	6.797720
464.442749	1167.369995	15555.867188	2146.828369	6.807232
464.798126	1174.354370	15648.078125	2159.162842	6.804113
465.153503	1175.023193	15789.550781	2176.400635	6.851932
465.508820	1176.509277	15928.497070	2191.633057	6.881268
465.864105	1177.103638	16027.393555	2210.654541	6.959803
466.219330	1175.691895	16269.398438	2233.093994	7.005582
466.574524	1172.199707	16286.264648	2229.973389	6.998605
466.929657	1172.719727	16202.004883	2220.165283	6.969364
467.284790	1176.063354	16005.622070	2205.007568	6.938468
467.639893	1178.292603	15820.015625	2184.722900	6.873715
467.994934	1177.326660	15661.304688	2176.029541	6.895225
468.349945	1177.401001	15447.386719	2162.283447	6.901776
468.704926	1175.840576	15297.592773	2158.271240	6.956861
469.059875	1168.558960	15182.125000	2148.760498	6.994661
469.414764	1166.849976	15104.479492	2140.141357	6.983191
469.769653	1164.695190	15067.106445	2145.565186	7.055395
470.124451	1174.428833	15129.668945	2157.676758	7.045725
470.479248	1170.862183	15226.559570	2167.707764	7.092111
470.834015	1171.382324	15306.137695	2169.119385	7.058750
471.188721	1170.342163	15491.968750	2178.927490	7.042394
471.543365	1175.469116	15721.713867	2197.057129	7.023036
471.898010	1176.509399	15922.331055	2213.552246	7.032791
472.252625	1175.617798	16177.338867	2225.738037	6.999999
472.607178	1178.589844	16362.054688	2239.855469	6.989614
472.961700	1180.595825	16472.171875	2254.418945	7.022318
473.316193	1173.314331	16494.906250	2255.161865	7.060935
473.670654	1165.289551	16468.677734	2255.087402	7.121284
474.025055	1158.528076	16567.203125	2258.356934	7.137725
474.379456	1163.729370	16628.501953	2266.233154	7.129130
474.733795	1161.723145	16781.492188	2283.471191	7.181592
475.088104	1160.682739	17035.904297	2305.241943	7.209721
475.442383	1157.710571	17334.453125	2328.795898	7.239315
475.796570	1164.769409	17634.933594	2347.222900	7.179367
476.150787	1171.753906	17995.970703	2368.993652	7.116169
476.504944	1172.868530	18344.970703	2397.525879	7.131669
476.859070	1165.289673	18643.443359	2423.011719	7.195966
477.213135	1169.227539	18893.248047	2441.290039	7.177054
477.567200	1163.208984	19136.146484	2452.881104	7.175633
477.921173	1165.735352	19438.408203	2466.107178	7.116484
478.275146	1163.803467	19646.306641	2484.534424	7.145844
478.629089	1177.698120	19942.701172	2498.874756	7.040641
478.983002	1179.630005	20340.890625	2525.400635	7.023393
479.336823	1173.239990	20856.998047	2565.226807	7.071754
479.690643	1166.775757	21465.091797	2614.861572	7.134019
480.044403	1167.667358	22261.021484	2671.257080	7.128263
480.398163	1169.079102	23392.724609	2748.011963	7.104743
480.751862	1173.240112	24974.109375	2857.979736	7.078479
481.105499	1175.097534	27099.318359	2997.966064	7.031527
481.459137	1182.899292	30148.328125	3204.973389	6.980991
481.812744	1168.261719	34206.000000	3477.887451	6.990871
482.166290	1157.710815	39101.285156	3835.358154	7.056920
482.519806	1152.806763	44126.453125	4196.617676	7.082972
482.873291	1163.506470	48467.964844	4538.707520	7.135059
483.226715	1170.639526	51280.691406	4776.327637	7.195539
483.580139	1167.815796	52258.738281	4885.106445	7.275834
483.933502	1161.500122	51495.425781	4848.772461	7.325621
484.286804	1166.478394	49382.628906	4680.105469	7.287241
484.640106	1176.137817	46380.203125	4425.024414	7.187156
484.993347	1177.029419	43330.003906	4190.970703	7.150009
485.346558	1174.057251	41135.027344	4022.675049	7.128500
485.699738	1166.924194	40193.535156	3955.208008	7.144571
486.052887	1167.444336	40477.667969	3947.554688	7.072233
486.405975	1163.134644	41408.312500	4008.631592	7.070405
486.759064	1161.574341	42413.480469	4101.732910	7.127328
487.112061	1168.707397	42836.261719	4157.757324	7.173567
487.464996	1173.165649	42433.988281	4140.964844	7.192778
487.817963	1176.286499	41282.441406	4052.544189	7.171612
488.170868	1173.463013	39537.371094	3926.304443	7.175602
488.523743	1176.806519	37575.628906	3773.092041	7.132883
488.876587	1175.989258	35712.933594	3637.192383	7.126291
489.229401	1177.326538	34543.410156	3551.447266	7.115371
489.582153	1175.023315	34273.691406	3532.128174	7.121449
489.934845	1174.948853	34935.503906	3567.793701	7.087694
490.287537	1172.348267	36108.078125	3645.217041	7.078337
490.640198	1169.970703	37345.664063	3728.807617	7.073359
490.992798	1173.537231	38036.457031	3787.729736	7.091659
491.345337	1173.462891	37882.574219	3763.209717	7.054780
491.697876	1176.212158	36681.246094	3692.102295	7.086010
492.050354	1172.794189	34711.187500	3554.642578	7.101856
492.402832	1170.639282	32211.494141	3388.649658	7.145455
492.755219	1167.964478	29656.521484	3200.069580	7.133058
493.107605	1169.376221	27397.642578	3036.157959	7.117443
493.459930	1171.010864	25611.400391	2914.227295	7.132524
493.812225	1169.078979	24345.580078	2831.973877	7.174918
494.164490	1171.828247	23604.710938	2776.841064	7.154733
494.516724	1175.468994	23267.822266	2758.414063	7.165126
494.868896	1180.595825	23245.755859	2748.457764	7.105599
495.221039	1173.834351	23423.562500	2760.345947	7.130476
495.573120	1165.809692	23687.408203	2770.822510	7.126550
495.925201	1162.763184	23995.318359	2783.602783	7.098810
496.277222	1167.667236	24182.490234	2796.531250	7.077456
496.629211	1172.571167	24183.232422	2792.593750	7.040313
496.981140	1181.264648	24030.689453	2800.246826	7.085439
497.333069	1183.270874	23758.146484	2783.082764	7.086692
497.684967	1179.555664	23430.697266	2760.791748	7.106315
498.036804	1167.072876	22983.615234	2715.913086	7.099384
498.388580	1166.478394	22526.802734	2675.566650	7.064913
498.740326	1166.849976	22057.208984	2656.025146	7.128528
499.092072	1173.834351	21612.728516	2626.006592	7.104945
499.443756	1179.258423	21217.142578	2588.037842	7.030580
499.795410	1183.122192	20907.373047	2558.688477	6.973985
500.147003	1180.075806	20662.917969	2544.571045	7.003574
500.498566	1172.942749	20419.279297	2539.146973	7.098516
500.850098	1176.286377	20225.869141	2524.286133	7.076270
501.201599	1169.896362	20072.880859	2513.958252	7.110316
501.553009	1165.586792	19996.421875	2511.951904	7.149789
501.904449	1157.636475	19996.273438	2502.738525	7.140124
502.255859	1163.432007	20054.898438	2496.794434	7.058014
502.607178	1164.992310	20175.123047	2499.320557	7.019038
502.958405	1171.902466	20229.955078	2488.992676	6.910938
503.309692	1165.661011	20291.626953	2496.422852	6.957880
503.660919	1163.803467	20337.322266	2500.212158	6.970075
504.012115	1154.441284	20344.306641	2505.264893	7.039255
504.363251	1156.596191	20309.980469	2497.537354	7.001066
504.714294	1158.156494	20188.123047	2494.193604	7.020701
505.065369	1168.410278	20125.412109	2497.908936	7.013233
505.416443	1168.707520	20004.968750	2496.794434	7.050693
505.767395	1164.695190	19967.220703	2481.785400	7.004858
506.118317	1164.472168	19870.775391	2469.005127	6.973762
506.469238	1162.540405	19996.273438	2464.323975	6.911979
506.820160	1164.620972	20176.904297	2475.543701	6.895136
507.170929	1166.255493	20450.634766	2485.054443	6.838690
507.521729	1175.543213	20663.289063	2509.351318	6.844343
507.872498	1180.150024	20900.685547	2524.955078	6.819313
508.223236	1174.205811	21140.980469	2548.062988	6.880716
508.573883	1169.227539	21347.765625	2565.821289	6.921184
508.924500	1162.020386	21523.640625	2578.007080	6.954194
509.275116	1154.367065	21669.496094	2588.781250	6.991982
509.625702	1153.475464	21879.625000	2587.146729	6.917210
509.976196	1160.162720	22052.750000	2584.620361	6.818005
510.326660	1165.586792	22263.695313	2600.000977	6.798781
510.677124	1164.843750	22430.429688	2610.626221	6.798696
511.027557	1163.432007	22604.296875	2629.944824	6.839802
511.377869	1164.843750	22727.197266	2633.808594	6.812637
511.728180	1168.038696	22793.697266	2639.678467	6.805064
512.078430	1173.537231	22738.564453	2641.090088	6.805244
512.428650	1182.230591	22659.580078	2630.836182	6.744806
512.778931	1179.109985	22483.335938	2621.548584	6.770669
513.129028	1179.407104	22309.687500	2595.988525	6.704035
513.479126	1169.524780	22130.619141	2580.161865	6.729787
513.829285	1173.536987	21969.306641	2572.137207	6.725408
514.179382	1171.159302	21838.386719	2572.137451	6.778743
514.529297	1170.862183	21833.630859	2572.583008	6.783799
514.879272	1172.719849	22006.609375	2565.598877	6.685641
515.229187	1164.917969	22258.349609	2566.638916	6.645296
515.579163	1175.617554	22662.478516	2596.285889	6.611800
515.928955	1167.072754	23135.117188	2630.762451	6.662813
516.278748	1170.119263	23795.445313	2682.179688	6.683043
516.628540	1167.815918	24534.236328	2721.485840	6.649157
516.978333	1172.645508	25373.634766	2780.482178	6.643682
517.327942	1178.069702	26218.978516	2840.072998	6.637153
517.677612	1175.989136	26862.439453	2887.106445	6.661556
518.027222	1183.270874	27263.302734	2912.740967	6.631396
518.376831	1180.521606	27302.312500	2908.728516	6.615959
518.726379	1179.184204	27089.210938	2883.614258	6.578264
519.075867	1174.651733	26528.968750	2845.571045	6.590276
519.425293	1178.069580	25924.291016	2809.459961	6.592483
519.774658	1176.732178	25245.833984	2766.587646	6.605380
520.124084	1174.651611	24722.076172	2724.755127	6.582901
520.473389	1171.828125	24249.287109	2680.322021	6.536655
520.822693	1168.558716	23932.384766	2667.616211	6.585261
521.171997	1168.781860	23719.287109	2655.579102	6.593188
521.521240	1166.478394	23681.017578	2651.195313	6.594481
521.870361	1171.010864	23764.166016	2645.102539	6.524506
522.219482	1174.577393	24004.906250	2645.919678	6.444683
522.568604	1174.354614	24305.162109	2667.467529	6.455084
522.917664	1175.989136	24763.685547	2688.420898	6.411952
523.266724	1177.772339	25378.166016	2719.479736	6.370588
523.615662	1180.967407	26216.376953	2750.909912	6.270888
523.964600	1174.800293	27238.115234	2814.809814	6.292406
524.313538	1171.085083	28412.837891	2896.320313	6.333055
524.662354	1163.729126	29655.626953	2999.749268	6.444008
525.011169	1169.227539	30863.416016	3087.352295	6.459597
525.359985	1167.147095	32051.000000	3164.701416	6.467957
525.708740	1174.131592	33267.113281	3230.162354	6.406481
526.057434	1172.719849	34762.753906	3311.300781	6.366713
526.406067	1172.571167	36684.070313	3418.519531	6.324566
526.754700	1173.983032	39398.050781	3590.010498	6.320697
527.103333	1173.314331	42689.363281	3800.212891	6.327428
527.451782	1172.794312	46206.562500	4050.389893	6.389862
527.800293	1163.432129	48960.292969	4251.824707	6.461497
528.148743	1158.973999	50581.355469	4364.987793	6.486967
528.497131	1154.367065	50635.074219	4358.151855	6.474816
528.845642	1161.797363	49191.222656	4244.617188	6.418606
529.193909	1164.249268	46484.675781	4058.934570	6.387154
529.542175	1170.639282	42986.574219	3817.376221	6.329494
529.890503	1171.233765	39428.589844	3591.347656	6.325878
530.238770	1171.531128	36328.457031	3405.442627	6.354115
530.586914	1169.896362	34253.699219	3268.948486	6.344652
530.934998	1164.918091	33224.906250	3180.602295	6.287227
531.283142	1162.837646	33244.519531	3152.813232	6.202841
531.631226	1161.054321	33953.152344	3200.515381	6.219368
531.979248	1168.187378	35156.707031	3274.669189	6.197628
532.327148	1170.342163	36379.730469	3349.269531	6.188484
532.675110	1174.726074	37242.753906	3391.696289	6.146636
533.023071	1166.998535	37370.031250	3408.414307	6.191238
533.370850	1175.171753	36654.574219	3372.897705	6.194372
533.718689	1176.063477	35402.718750	3305.059326	6.220286
534.066467	1178.441162	33843.031250	3205.716553	6.206340
534.414246	1178.961304	32422.882813	3109.271484	6.178194
534.761963	1178.812622	31310.275391	3033.333984	6.154767
535.109619	1182.750610	30703.445313	2995.885742	6.141912
535.457153	1173.091309	30467.904297	2981.173828	6.172023
535.804749	1174.651733	30391.296875	2980.282227	6.180143
536.152344	1175.246094	30302.656250	2967.353516	6.152649
536.499817	1179.109863	29938.275391	2935.552002	6.107417
536.847229	1177.103638	29395.939453	2893.868164	6.083754
537.194641	1168.558960	28622.599609	2850.921143	6.127922
537.542114	1169.376343	27854.380859	2804.927734	6.129103
537.889404	1166.849976	27215.822266	2775.057861	6.173786
538.236694	1176.880859	26887.406250	2746.005615	6.103045
538.583984	1177.549561	27088.244141	2750.760986	6.071668
538.931213	1174.057251	27793.898438	2780.927734	6.036364
539.278381	1162.094604	29191.458984	2856.716797	6.045881
539.625488	1163.580566	30993.521484	2976.418701	6.077243
539.972595	1163.506226	33309.238281	3126.584229	6.106808
540.319641	1167.369995	35557.046875	3271.920166	6.119715
540.666687	1161.797241	37379.394531	3376.092773	6.113866
541.013611	1168.930298	38419.339844	3431.745361	6.074604
541.360596	1164.695190	38519.644531	3432.860107	6.071927
541.707458	1165.586792	37878.410156	3385.529053	6.046776
542.054260	1165.735352	36478.699219	3296.737305	6.034616
542.401062	1173.908691	34801.687500	3191.598877	6.000070
542.747864	1167.667358	32895.523438	3090.770264	6.061244
543.094666	1166.775635	31118.724609	2991.501953	6.092179
543.441284	1167.072876	29380.632813	2882.796875	6.081203
543.787903	1167.667358	28049.427734	2800.841064	6.075397
544.134460	1171.382446	26877.671875	2729.882080	6.062717
544.481079	1162.540405	26107.302734	2691.838867	6.130740
544.827637	1168.484741	25575.367188	2647.554688	6.060053
545.174072	1160.014160	25356.322266	2625.486816	6.056596
545.520508	1172.274170	25378.390625	2618.948242	5.976481
545.866943	1171.233887	25359.369141	2618.799561	5.984611
546.213318	1169.896484	25262.031250	2612.483643	5.987793
546.559631	1171.828247	24926.185547	2590.193115	5.970967
546.905823	1173.908691	24436.677734	2575.703857	6.025917
547.252136	1178.069702	23693.947266	2532.831299	6.016917
547.598389	1168.261597	22828.468750	2475.246582	6.034038
547.944458	1173.314331	21886.384766	2413.500977	5.987459
548.290588	1181.933350	21002.851563	2360.894775	5.948067
548.636658	1192.335815	20175.937500	2315.421143	5.916081
548.982727	1188.397705	19515.906250	2264.969727	5.874077
549.328735	1175.914795	19074.771484	2243.942139	5.967014
549.674622	1176.434937	18749.029297	2226.035156	5.972939
550.020569	1176.583618	18533.773438	2212.215088	5.966585
550.366455	1181.933472	18367.929688	2187.695068	5.852216
550.712280	1172.868530	18366.591797	2185.688721	5.890639
551.058044	1171.159546	18426.181641	2190.444092	5.907176
551.403748	1176.360718	18552.052734	2193.044922	5.851187
551.749512	1180.447388	18729.931641	2199.063477	5.804251
552.095154	1181.413330	18914.351563	2219.645264	5.854822
552.440735	1172.571167	19006.708984	2227.967041	5.917840
552.786316	1166.329834	18944.148438	2220.388184	5.929065
553.131897	1168.707520	18724.880859	2187.843506	5.805001
553.477417	1173.239868	18449.738281	2176.549561	5.807367
553.822815	1177.252319	18063.437500	2156.264893	5.797713
554.168213	1166.552612	17741.484375	2134.494141	5.839792
554.513672	1159.791138	17434.835938	2109.454346	5.835088
554.859009	1158.602295	17226.341797	2088.426514	5.786901
555.204285	1172.794067	17023.570313	2080.402100	5.725953
555.549500	1174.874512	16864.935547	2064.575439	5.670475
555.894714	1168.187378	16678.285156	2059.300049	5.745371
556.239990	1161.797363	16573.742188	2056.625000	5.806066
556.585022	1169.822021	16429.816406	2053.727295	5.792304
556.930115	1180.744507	16362.871094	2046.371094	5.701616
557.275146	1176.583618	16218.723633	2046.594116	5.783822
557.620178	1167.964478	16150.364258	2050.978027	5.893672
557.965149	1164.620728	16072.867188	2044.067871	5.899065
558.310059	1163.952148	16054.959961	2027.424194	5.798614
558.654968	1169.970703	15979.022461	2016.501465	5.716306
558.999756	1163.209106	15946.551758	2024.600586	5.826771
559.344604	1168.113037	15949.229492	2035.671509	5.869370
559.689331	1167.667358	16017.585938	2036.563110	5.851182
560.033997	1165.661133	16073.983398	2028.166992	5.785398
560.378723	1166.181274	16145.907227	2025.269165	5.735004
560.723389	1158.082153	16197.844727	2021.256958	5.739285
561.067932	1161.128662	16272.592773	2024.154785	5.711069
561.412476	1166.478394	16261.968750	2022.000000	5.667398
561.757019	1174.057251	16224.890625	2024.303345	5.649163
562.101501	1179.852905	16120.346680	2030.321899	5.692375
562.445862	1176.063477	16029.401367	2028.612915	5.739783
562.790222	1171.456665	15970.700195	2023.634644	5.758254
563.134644	1175.171753	15989.871094	2025.343384	5.738703
563.478943	1170.862305	16053.698242	2028.464233	5.762356
563.823181	1175.320435	16168.941406	2033.293945	5.722257
564.167358	1168.781738	16382.562500	2028.464355	5.650683
564.511536	1169.302002	16687.873047	2042.730347	5.628278
564.855774	1166.627075	17044.226563	2070.148193	5.690540
565.199768	1170.044800	17382.750000	2092.884766	5.692079
565.543823	1170.564941	17677.509766	2104.327393	5.656785
565.887817	1175.617676	17872.109375	2095.559570	5.509791
566.231812	1177.549683	17878.201172	2105.590576	5.556914
566.575745	1177.846802	17733.533203	2100.017822	5.570117
566.919617	1176.360718	17539.009766	2100.760986	5.649454
567.263428	1169.450562	17256.138672	2078.915771	5.653527
567.607239	1170.119263	17044.597656	2066.061523	5.643916
567.950989	1164.546509	16813.515625	2057.219482	5.704357
568.294678	1173.017090	16711.425781	2053.727295	5.667956
568.638367	1171.085205	16626.943359	2045.405273	5.656885
568.981995	1173.388550	16609.111328	2037.306274	5.596872
569.325623	1173.165649	16662.013672	2042.507446	5.612695
569.669128	1176.137817	16784.912109	2047.931641	5.585280
570.012573	1180.744507	16938.568359	2055.362061	5.550370
570.356140	1172.125366	17173.736328	2061.603271	5.558677
570.699524	1164.769409	17389.214844	2076.017822	5.616515
571.042908	1160.088379	17723.130859	2086.420166	5.592763
571.386230	1165.363892	17917.804688	2092.884521	5.536630
571.729492	1172.571289	18071.982422	2096.674072	5.468255
572.072815	1168.930542	18053.779297	2099.200439	5.509495
572.416016	1165.438110	17968.033203	2093.404785	5.522758
572.759094	1161.277222	17787.107422	2090.358643	5.588181
573.102234	1164.620850	17588.271484	2080.550537	5.576895
573.445374	1167.518677	17414.253906	2071.262695	5.562619
573.788391	1165.363770	17302.875000	2063.683838	5.566658
574.131409	1158.899536	17244.025391	2060.563232	5.605574
574.474365	1157.264771	17158.876953	2058.259766	5.630651
574.817261	1162.168823	17063.990234	2049.491943	5.580009
575.160156	1173.239990	16868.054688	2038.197876	5.511106
575.502930	1172.274048	16635.857422	2018.433472	5.471949
575.845703	1177.623901	16358.635742	2006.990723	5.463185
576.188477	1180.521606	16050.502930	1999.932007	5.510500
576.531250	1180.075806	15734.122070	1996.142456	5.607146
576.873901	1175.543457	15413.803711	1969.021973	5.572862
577.216431	1168.930420	15123.352539	1941.232788	5.534463
577.559082	1165.735474	14827.256836	1910.322876	5.450253
577.901611	1157.710815	14561.327148	1901.926636	5.552351
578.244080	1159.419678	14285.143555	1894.496460	5.600276
578.586487	1167.593018	14090.172852	1889.146606	5.583665
578.928955	1202.886719	13888.589844	1912.254883	5.591871
579.271301	1198.279907	13712.715820	1897.319946	5.585869
579.613647	1190.626831	13510.834961	1888.329468	5.663075
579.955872	1161.648804	13348.112305	1849.469116	5.644134
580.298157	1165.958252	13251.742188	1852.812500	5.683158
580.640320	1174.948853	13206.343750	1845.307983	5.571749
580.982483	1175.766357	13147.570313	1829.778809	5.462940
581.324524	1179.109985	13085.453125	1814.843872	5.339456
581.666626	1183.642456	13002.381836	1814.769531	5.340054
582.008728	1183.493774	12953.266602	1822.051270	5.425402
582.350647	1181.710449	12900.586914	1825.692261	5.495252
582.692566	1175.691895	12827.250000	1831.339233	5.627121
583.034424	1169.524780	12726.792969	1822.199829	5.647312
583.376343	1160.608521	12641.196289	1809.717163	5.653967
583.718201	1160.162720	12606.200195	1799.537598	5.585993
584.059937	1165.735474	12565.112305	1803.698608	5.596474
584.401611	1167.221558	12537.023438	1812.317749	5.673768
584.743347	1166.775635	12511.686523	1802.138184	5.600419
585.085022	1168.707520	12491.252930	1793.073242	5.514359
585.426514	1178.738281	12442.362305	1780.887573	5.345964
585.768127	1176.657837	12440.504883	1792.107422	5.463938
586.109619	1172.645508	12446.820313	1792.627319	5.499133
586.451172	1164.769409	12461.235352	1796.268188	5.590233
586.792542	1160.162598	12490.288086	1786.534546	5.528376
587.133850	1165.066528	12529.296875	1782.373657	5.432019
587.475220	1168.410278	12607.463867	1789.729492	5.431561
587.816589	1172.125366	12665.270508	1799.017578	5.454488
588.157776	1165.512329	12789.504883	1817.296021	5.607227
588.498962	1167.295776	12917.602539	1815.884277	5.519758
588.840210	1165.586914	13002.753906	1818.038940	5.511893
589.181335	1171.976929	13007.583008	1819.079102	5.467419
589.522400	1175.097534	13004.461914	1818.707642	5.440784
589.863403	1178.143921	12966.344727	1818.410522	5.431419
590.204407	1181.636230	12926.593750	1813.654907	5.381192
590.545410	1175.914917	12833.789063	1808.899536	5.429675
590.886353	1178.218262	12736.972656	1797.234009	5.355385
591.227112	1167.221436	12633.617188	1780.738892	5.350569
591.567932	1165.661011	12560.875000	1775.240723	5.349436
591.908752	1163.209106	12501.433594	1775.240601	5.397948
592.249512	1169.673340	12527.512695	1786.088867	5.427225
592.590149	1168.930298	12497.570313	1791.438477	5.494995
592.930786	1174.948853	12590.968750	1797.605591	5.454237
593.271423	1179.184204	12670.471680	1792.478882	5.337041
593.612000	1181.710449	12811.647461	1795.896851	5.281081
593.952576	1177.995239	12937.515625	1793.147583	5.231101
594.292969	1172.794067	13067.026367	1799.463257	5.268681
594.633484	1175.468872	13279.010742	1803.624146	5.189847
594.973877	1172.571289	13491.515625	1820.713867	5.261348
595.314209	1180.521606	13752.764648	1841.667114	5.258771
595.654480	1179.109863	14078.731445	1866.781616	5.330945
595.994812	1175.023193	14397.788086	1880.304688	5.333843
596.335022	1167.964478	14677.684570	1895.313843	5.383897
596.675171	1163.803467	14730.588867	1895.759644	5.395207
597.015320	1169.227539	14635.406250	1906.533569	5.475243
597.355408	1168.112915	14330.096680	1887.809204	5.467993
597.695496	1164.026367	13921.804688	1869.382202	5.528830
598.035461	1158.453613	13433.487305	1832.156616	5.488400
598.375366	1152.212158	12998.518555	1804.887329	5.509524
598.715271	1161.054321	12639.709961	1779.847290	5.390814
599.055176	1167.964478	12328.084961	1760.602905	5.310323
599.395081	1175.766235	12112.383789	1759.339844	5.335961
599.734802	1172.348267	11919.047852	1752.206665	5.395689
600.074524	1169.376343	11877.290039	1749.977539	5.422169
600.414246	1169.970581	11830.924805	1749.531860	5.436298
600.753906	1171.679565	11859.531250	1761.791870	5.521337
601.093506	1175.543335	11894.973633	1765.432739	5.502992
601.433044	1175.171753	12025.747070	1771.079712	5.491948
601.772583	1180.521606	12255.713867	1766.027222	5.286641
602.112122	1184.088135	12533.531250	1776.429565	5.219123
602.451538	1182.007690	12883.793945	1787.946289	5.178172
602.790894	1171.828369	13235.840820	1810.757324	5.296156
603.130310	1162.763428	13639.378906	1833.196655	5.373518
603.469604	1161.277344	14018.026367	1852.961304	5.379929
603.808838	1175.989136	14353.949219	1871.982788	5.281497
604.148010	1180.893066	14620.398438	1882.310913	5.219075
604.487305	1176.955078	14704.434570	1886.917603	5.248299
604.826416	1161.277222	14624.410156	1873.691772	5.291595
605.165527	1153.326782	14306.171875	1852.887085	5.318700
605.504456	1154.367065	13906.051758	1820.713867	5.225559
605.843445	1158.899536	13453.695313	1811.277466	5.306130
606.182434	1161.054321	13052.164063	1787.797852	5.270690
606.521423	1167.221313	12672.106445	1773.531860	5.270027
606.860229	1170.193481	12336.257813	1740.912720	5.111194
607.199036	1173.611450	12104.209961	1744.033569	5.218581
607.537903	1172.199829	12049.523438	1734.002563	5.164899
607.876648	1169.450562	12142.328125	1750.200562	5.292595
608.215271	1166.329712	12341.161133	1750.497681	5.227533
608.553955	1161.871704	12538.583008	1771.079590	5.354868
608.892578	1160.385620	12703.760742	1773.308594	5.309738
609.231140	1157.116333	12810.235352	1787.351929	5.408299
609.569641	1162.911987	12815.734375	1784.677124	5.335747
609.908081	1165.215210	12737.566406	1784.528320	5.351662
610.246521	1173.314209	12533.753906	1774.497559	5.291902
610.584961	1165.958130	12243.899414	1762.460571	5.384596
610.923340	1162.094360	11926.254883	1738.832153	5.357945
611.261597	1164.992310	11567.002930	1716.244263	5.299475
611.599854	1172.571167	11311.473633	1703.909790	5.240593
611.938110	1181.933472	11068.503906	1693.879028	5.178192
612.276245	1177.475220	10879.032227	1683.105103	5.211843
612.614319	1171.531128	10679.306641	1672.480103	5.268835
612.952393	1164.918091	10521.785156	1668.987793	5.387163
613.290466	1167.221558	10432.770508	1658.957031	5.307138
613.628479	1168.484741	10300.661133	1648.480103	5.256089
613.966370	1174.651733	10233.045898	1640.455444	5.142232
614.304260	1174.800415	10123.522461	1635.551392	5.148791
614.642151	1180.373169	10058.657227	1633.693970	5.105950
614.979980	1183.270874	9987.326172	1625.520630	5.023250
615.317749	1174.874634	9981.084961	1630.424683	5.173055
615.655396	1176.212036	9949.655273	1626.560913	5.133091
615.993164	1166.329956	9927.289063	1635.700195	5.357521
616.330811	1167.593018	9874.831055	1633.991211	5.356442
616.668396	1164.546509	9867.698242	1634.882813	5.404207
617.005859	1166.701294	9879.215820	1630.276001	5.320791
617.343445	1175.543335	9906.930664	1621.656860	5.109308
617.680908	1171.828125	9956.862305	1620.393677	5.106019
618.018311	1172.125488	9955.153320	1623.514526	5.139333
618.355652	1168.856079	9961.840820	1626.263672	5.201961
618.692993	1175.246094	9927.364258	1623.068726	5.116735
619.030273	1176.657837	9883.748047	1614.969727	5.033966
619.367554	1174.948975	9809.816406	1615.415527	5.101023
619.704712	1168.113159	9749.631836	1612.666382	5.180356
620.041870	1164.174927	9730.758789	1616.901367	5.284795
620.379028	1170.416504	9699.329102	1613.632202	5.196626
620.716064	1169.822144	9688.182617	1614.152222	5.216146
621.053040	1171.456665	9653.780273	1609.619751	5.165602
621.389954	1165.735352	9640.851563	1604.195679	5.173502
621.726929	1168.781738	9613.286133	1603.750000	5.150904
622.063843	1172.868408	9588.393555	1601.297852	5.090941
622.400635	1169.376221	9572.938477	1603.750000	5.168924
622.737427	1171.159546	9569.818359	1602.338257	5.133899
623.074219	1163.580688	9593.744141	1601.372192	5.193156
623.410889	1169.153320	9651.032227	1603.750000	5.123826
623.747559	1170.490845	9727.118164	1600.480591	5.025225
624.084167	1168.484619	9796.888672	1604.715820	5.055758
624.420715	1164.695190	9883.375977	1613.111938	5.143172
624.757324	1157.562134	9984.874023	1630.424683	5.356813
625.093750	1166.106934	10127.609375	1638.300781	5.269137
625.430176	1168.558960	10308.387695	1645.582397	5.219172
625.766602	1173.388672	10482.924805	1652.269531	5.143982
626.102905	1171.679688	10660.731445	1666.535645	5.215020
626.439209	1176.063599	10767.058594	1673.668579	5.188252
626.775452	1172.645508	10842.104492	1676.194946	5.207628
627.111694	1172.794067	10791.281250	1670.027954	5.169564
627.447876	1171.085083	10710.663086	1665.867065	5.186623
627.783997	1172.422729	10558.491211	1661.557495	5.211285
628.120056	1170.267944	10420.807617	1662.597656	5.322173
628.456055	1165.512573	10214.766602	1653.012695	5.387186
628.792053	1163.283569	10033.319336	1645.062378	5.431531
629.128052	1159.716919	9882.188477	1628.938477	5.379457
629.463928	1153.029663	9784.851563	1629.235718	5.516866
629.799744	1156.893433	9701.409180	1614.300903	5.353229
630.135559	1160.831421	9617.967773	1611.180298	5.325075
630.471375	1170.936646	9498.117188	1589.780884	5.029844
630.807068	1171.679565	9389.932617	1588.889282	5.076623
631.142700	1171.456665	9319.196289	1586.585938	5.095024
631.478333	1169.078979	9267.925781	1592.456055	5.227622
631.813965	1165.809692	9231.815430	1597.508667	5.352078
632.149475	1160.608521	9180.324219	1593.644897	5.399647
632.484924	1160.459839	9217.327148	1592.381470	5.360913
632.820435	1158.825073	9223.493164	1591.638672	5.366787
633.155884	1164.992310	9248.682617	1598.325806	5.360590
633.491150	1161.945923	9255.889648	1600.480591	5.418059
633.826477	1163.060425	9267.778320	1601.446655	5.409025
634.161804	1158.453735	9273.574219	1596.096680	5.392932
634.497009	1166.032593	9198.454102	1592.753296	5.312479
634.832153	1175.766235	9117.612305	1584.728516	5.149461
635.167297	1178.738281	9004.078125	1576.406616	5.081803
635.502380	1164.472168	8918.184570	1573.583008	5.276322
635.837463	1163.283325	8832.661133	1573.062866	5.343061
636.172424	1166.181274	8762.222656	1574.846191	5.379972
636.507324	1181.116089	8675.958008	1568.976440	5.175031
636.842224	1177.846802	8597.123047	1569.867798	5.283817
637.177124	1176.806519	8513.383789	1563.180664	5.266409
637.511963	1175.097534	8455.055664	1555.973267	5.231840
637.846741	1171.382446	8393.458008	1545.942383	5.186320
638.181396	1176.286499	8322.500000	1547.874390	5.199787
638.516113	1176.732300	8267.367188	1550.995117	5.278270
638.850769	1182.825073	8212.085938	1553.669922	5.275731
639.185303	1177.400879	8151.083496	1554.561523	5.408342
639.519836	1178.441162	8078.563965	1556.864868	5.484304
639.854370	1174.280151	8033.387207	1542.673218	5.370861
640.188843	1169.970703	7974.093750	1530.264526	5.295228
640.523254	1156.150269	7923.270020	1524.840454	5.448259
640.857605	1159.865356	7847.556152	1530.041626	5.535188
641.191895	1164.026489	7814.342285	1530.190308	5.505961
641.526184	1172.942749	7775.185547	1526.920898	5.361484
641.860413	1168.558960	7728.077637	1527.961304	5.479096
642.194580	1162.243164	7693.377441	1521.942749	5.507460
642.528748	1164.249390	7664.028809	1521.645386	5.498587
642.862793	1160.534180	7656.078125	1515.329590	5.462135
643.196838	1169.153442	7630.889160	1515.849731	5.365374
643.530823	1164.175171	7599.607910	1510.425781	5.380378
643.864746	1171.605225	7577.391113	1508.122192	5.253328
644.198669	1169.524780	7552.276855	1506.561890	5.280436
644.532532	1172.719849	7516.091309	1505.818970	5.251137
644.866333	1174.428833	7502.494141	1512.432007	5.341335
645.200073	1181.413208	7487.931152	1512.580444	5.251190
645.533813	1180.670166	7539.199707	1514.066528	5.243294
645.867554	1182.304810	7578.060059	1509.236816	5.111703
646.201172	1175.989136	7621.824707	1514.289551	5.248356
646.534729	1180.744629	7638.691406	1518.078979	5.223554
646.868225	1173.908691	7647.310059	1515.626953	5.278805
647.201782	1172.496948	7643.892578	1514.363770	5.282737
647.535217	1167.370117	7628.214844	1514.215210	5.368417
647.868591	1175.840454	7613.947754	1526.920898	5.453162
648.201965	1171.828125	7589.874512	1531.304810	5.601030
648.535278	1174.428711	7558.740723	1532.716431	5.612002
648.868591	1173.091309	7547.596191	1530.413208	5.605485
649.201782	1183.642334	7545.738281	1528.778687	5.424885
649.534912	1185.202759	7564.313965	1526.475098	5.349842
649.868103	1177.623901	7554.283203	1525.434937	5.454440
650.201172	1168.187378	7564.686035	1529.001465	5.640806
650.534180	1168.038696	7561.416504	1531.973633	5.692373
650.867188	1169.078979	7569.738281	1531.527710	5.662678
651.200134	1169.821899	7576.500000	1535.242798	5.703750
651.533020	1169.821899	7555.769531	1535.763062	5.730412
651.865845	1173.314209	7511.187500	1533.236694	5.678916
652.198608	1171.085205	7466.234375	1521.051147	5.559295
652.531433	1169.896362	7417.640625	1520.456543	5.610988
652.864136	1174.503052	7381.752441	1514.140991	5.471633
653.196777	1239.369507	7396.019043	1658.734009	6.811570
653.529358	1242.415894	7343.783691	1664.975220	6.925649
653.861938	1233.796753	7292.366699	1670.919556	7.214950
654.194519	1166.924316	7157.506348	1532.047729	6.094957
654.526978	1166.552856	7156.466797	1526.029297	6.001362
654.859375	1166.329834	7122.287109	1520.456543	5.945756
655.191833	1176.063477	7140.416504	1520.010742	5.766716
655.524170	1174.131592	7100.665527	1522.462769	5.877485
655.856445	1177.400879	7124.664551	1526.326538	5.866995
656.188660	1181.561890	7141.308594	1527.515259	5.804833
656.520874	1179.778564	7192.131348	1525.360718	5.747869
656.853088	1172.719849	7247.710449	1533.905396	5.945450
657.185181	1168.335938	7310.049316	1541.855835	6.081689
657.517212	1169.376099	7444.686035	1547.131348	6.019707
657.849243	1172.496826	7596.486816	1549.211792	5.864190
658.181274	1170.787964	7800.820313	1561.917480	5.899361
658.513123	1174.428711	7973.277344	1587.849121	6.080741
658.844971	1179.704346	8145.436035	1613.409180	6.226264
659.176819	1179.555664	8236.605469	1622.919922	6.282572
659.508667	1172.274048	8264.543945	1619.947876	6.312138
659.840393	1170.416382	8238.537109	1614.746704	6.286400
660.172058	1171.010864	8164.383301	1607.464966	6.240967
660.503662	1179.184204	8039.852051	1601.817993	6.160243
660.835266	1176.880737	7866.280762	1594.313477	6.240212
661.166931	1174.800293	7688.474121	1587.774902	6.340118
661.498413	1168.261719	7512.525391	1582.944946	6.536349
661.829773	1167.518677	7354.558105	1573.805786	6.566745
662.161194	1172.496948	7200.825684	1563.626465	6.488192
662.492615	1170.862305	7070.795410	1554.710083	6.505968
662.823975	1166.626953	6960.976563	1540.964233	6.460385
663.155212	1166.552612	6871.738281	1540.518188	6.554836
663.486450	1169.970581	6791.045410	1534.276733	6.481077
663.817627	1170.193481	6709.387207	1536.951660	6.621147
664.148743	1160.682739	6655.963379	1529.149902	6.705156
664.479858	1152.212280	6584.707031	1532.790894	7.005596
664.810913	1158.007935	6561.524902	1535.317017	6.982657
665.141907	1165.586792	6528.980469	1540.815552	6.996107
665.472778	1176.063477	6540.274902	1539.329468	6.772030
665.803711	1174.726074	6516.869141	1536.357422	6.769406
666.134583	1176.212036	6507.804199	1534.054077	6.711730
666.465454	1181.487671	6499.185059	1527.515259	6.507094
666.796143	1188.397705	6474.813965	1525.211914	6.371315
667.126831	1185.871460	6457.501465	1522.611328	6.387775
667.457458	1182.304810	6444.869629	1529.893066	6.604921
667.788147	1178.366821	6490.714355	1532.196411	6.660513
668.118774	1175.320435	6536.633301	1538.289185	6.770147
668.449219	1161.425781	6564.794434	1543.267456	7.066734
668.779663	1161.054199	6560.113281	1554.412964	7.285691
669.110107	1160.905640	6542.429688	1557.310913	7.366041
669.440552	1168.781738	6539.828613	1563.106445	7.341673
669.770874	1167.518677	6520.361328	1553.372681	7.208394
670.101135	1177.326538	6489.228027	1554.338745	7.097500
670.431396	1182.601929	6426.219238	1546.833984	6.946198
670.761597	1184.310913	6367.743652	1548.468750	7.025419
671.091797	1177.103638	6309.192871	1545.125122	7.170988
671.421875	1172.719849	6284.003906	1545.422241	7.291757
671.751892	1174.205933	6265.576660	1546.239624	7.307142
672.081909	1178.366821	6243.880371	1549.508789	7.326838
672.411865	1181.190430	6228.797363	1541.707031	7.142327
672.741821	1175.469116	6179.979980	1541.558594	7.315190
673.071716	1176.286499	6182.654785	1538.735229	7.239754
673.401550	1179.332886	6126.779785	1538.512207	7.259892
673.731262	1180.298828	6114.519531	1537.174805	7.232672
674.060974	1176.360718	6071.274902	1540.815552	7.445582
674.390625	1170.862305	6044.154785	1549.434570	7.768306
674.720276	1172.199707	6010.197754	1558.053711	7.975489
675.049927	1170.862305	5969.480469	1551.886719	7.940294
675.379395	1166.255493	5970.075684	1547.131226	7.928601
675.708923	1167.295776	5952.911621	1542.227173	7.834549
676.038330	1166.775513	5952.762207	1540.369751	7.806002
676.367737	1175.097534	5952.911621	1548.245728	7.810019
676.697083	1176.657959	5977.431152	1555.230347	7.885654
677.026428	1177.995361	5999.944824	1566.004272	8.046723
677.355652	1178.218262	6021.714844	1565.558228	7.997115
677.684875	1181.710571	6054.408203	1565.929688	7.885141
678.013977	1185.276978	6083.238281	1566.227051	7.777727
678.343079	1183.419434	6131.088379	1575.366333	7.921850
678.672180	1181.116089	6184.437988	1579.527344	7.962935
679.001221	1178.812622	6255.546387	1589.929688	8.098063
679.330139	1178.812622	6320.040527	1592.233032	8.041278
679.659058	1174.280151	6371.310059	1604.715820	8.282340
679.987976	1175.617676	6442.416504	1611.180176	8.269966
680.316772	1175.171753	6491.605469	1628.418457	8.525390
680.645630	1171.382446	6521.252441	1631.019043	8.591547
680.974304	1171.605347	6492.497559	1631.242065	8.638339
681.302979	1170.119141	6448.361816	1632.133667	8.753188
681.631653	1173.908691	6411.433594	1634.139771	8.787187
681.960266	1169.970703	6378.220215	1629.607300	8.825165
682.288757	1170.119263	6327.768066	1621.954102	8.760481
682.617249	1169.524902	6237.861816	1619.947876	8.886997
682.945679	1176.955078	6132.128906	1625.372070	9.049471
683.274109	1177.400879	6036.799316	1618.610718	9.079515
683.602478	1180.372925	5948.081543	1617.867554	9.176204
683.930725	1174.428833	5886.484375	1612.591919	9.298767
684.259033	1181.041748	5809.506348	1608.505249	9.235536
684.587280	1178.218262	5756.900391	1598.771484	9.185028
684.915344	1177.400879	5703.922363	1597.359863	9.277742
685.243469	1173.091309	5662.907715	1594.090454	9.376757
685.571533	1172.422729	5644.406250	1591.341431	9.367626
685.899536	1175.617676	5591.502441	1585.768677	9.288082
686.227539	1175.394775	5580.134277	1590.524048	9.424605
686.555420	1181.190308	5569.880859	1596.319824	9.459075
686.883301	1179.035522	5597.595703	1606.722046	9.679319
687.211121	1175.097534	5626.053223	1600.629272	9.560458
687.538940	1168.038818	5649.532715	1598.177124	9.598101
687.866638	1161.945923	5652.728027	1601.817993	9.794999
688.194336	1166.478516	5652.356934	1607.093384	9.822265
688.521973	1171.976807	5624.716309	1610.065796	9.838640
688.849609	1173.834351	5580.802734	1603.452759	9.748616
689.177063	1173.091187	5520.097656	1606.424927	9.968555
689.504578	1169.821899	5437.621582	1611.923218	10.358998
689.832031	1176.509155	5366.142578	1605.533203	10.240133
690.159485	1177.252197	5311.084473	1595.948242	10.128521
690.486816	1182.899292	5283.889648	1586.363159	9.838206
690.814087	1186.020020	5244.880371	1594.387817	10.061144
691.141296	1190.998291	5189.822266	1601.743774	10.271657
691.468506	1183.493774	5147.172363	1597.880005	10.454587
691.795715	1176.955200	5110.020996	1594.313477	10.611526
692.122803	1175.394775	5060.163574	1588.740845	10.640172
692.449829	1181.561890	5016.399902	1595.502319	10.794209
692.776855	1181.710449	5010.975586	1593.198853	10.745884
693.103821	1173.685791	4980.511230	1593.050293	11.016121
693.430664	1163.952026	4961.563965	1591.712891	11.263944
693.757568	1163.432007	4941.502441	1600.034790	11.556237
694.084351	1163.208984	4946.629395	1605.533203	11.691120
694.411133	1170.787964	4934.443848	1605.755981	11.557062
694.737854	1173.239868	4915.199219	1602.858398	11.481112
695.064575	1180.447266	4922.406738	1599.960449	11.211057
695.391174	1177.921021	4930.431152	1605.830444	11.403285
695.717773	1179.852905	4945.737793	1611.180176	11.453544
696.044250	1173.091309	4959.483887	1619.279297	11.783986
696.370789	1178.366821	5010.381348	1630.722046	11.804632
696.697205	1169.301880	5092.782715	1646.251099	12.156277
697.023621	1177.029297	5224.744629	1662.746216	11.999780
697.349915	1171.902466	5370.897949	1672.554321	11.923134
697.676208	1171.010864	5535.329590	1695.067993	12.007765
698.002380	1163.952148	5710.535156	1727.835571	12.402356
698.328674	1164.992310	5890.720215	1767.438843	12.748227
698.654724	1169.227539	6055.968750	1792.776001	12.760006
698.980896	1168.558716	6146.543457	1813.729492	12.960481
699.306946	1168.781738	6182.060547	1815.141235	12.892949
699.632935	1174.354492	6126.259277	1801.618164	12.667119
699.958862	1180.298706	6017.777344	1784.751465	12.495203
700.284729	1182.825073	5836.924316	1772.788696	12.676215
700.610596	1179.555664	5632.071777	1752.132446	12.859623
700.936340	1176.212036	5439.776367	1726.795288	12.913684
701.262146	1174.131592	5242.948730	1703.166992	13.002192
701.587830	1184.534058	5095.755371	1694.473633	13.037861
701.913513	1182.825073	4954.431641	1683.030884	13.262407
702.239075	1182.379272	4851.225098	1667.130249	13.212629
702.564697	1164.472290	4760.872559	1652.715454	13.575885
702.890137	1156.893433	4671.561035	1641.421387	13.785883
703.215698	1158.156616	4609.518066	1635.774536	13.838537
703.541016	1163.357788	4528.973633	1636.666138	14.063054
703.866455	1169.227661	4490.708008	1638.300781	14.122411
704.191711	1165.884155	4442.410645	1637.854980	14.404610
704.517029	1163.506470	4427.253418	1634.065430	14.417752
704.842163	1166.775757	4393.965820	1637.631958	14.590284
705.167419	1165.958374	4375.092773	1633.173828	14.558925
705.492493	1166.775757	4341.433594	1624.331665	14.412764
705.817566	1158.899536	4311.860840	1620.022095	14.625062
706.142578	1160.014160	4297.074707	1625.520630	14.838938
706.467590	1164.472168	4315.873535	1638.523560	15.042559
706.792480	1171.159546	4324.938965	1644.022095	14.993521
707.117371	1173.016968	4346.783691	1647.662720	14.955282
707.442200	1170.936523	4340.690918	1639.861206	14.793723
707.766907	1171.828247	4358.449219	1631.019043	14.409959
708.091675	1168.930420	4364.318848	1624.257446	14.249505
708.416321	1163.209106	4376.430176	1633.619629	14.639843
708.741028	1162.763184	4404.814453	1637.186157	14.633420
709.065552	1170.267822	4420.566406	1655.984741	14.943763
709.390137	1180.670288	4445.086426	1667.947388	14.926930
709.714600	1178.292358	4455.116699	1682.139282	15.376074
710.039063	1168.261597	4478.373535	1684.219727	15.587333
710.363403	1163.729248	4497.766113	1689.643921	15.774111
710.687744	1173.017090	4534.249512	1693.804810	15.493952
711.012085	1178.886841	4572.366699	1702.721191	15.436495
711.336304	1180.001465	4615.759277	1719.067749	15.689880
711.660461	1172.125366	4627.722168	1729.990234	16.143806
711.984619	1170.490845	4630.248535	1736.603149	16.362772
712.308716	1170.713745	4603.425293	1725.234985	16.154030
712.632751	1169.376343	4561.592773	1723.897461	16.346869
712.956726	1179.555786	4499.772949	1720.776733	16.300770
713.280701	1185.351440	4454.596680	1715.798462	16.225367
713.604553	1181.413452	4414.547852	1711.860352	16.406584
713.928467	1162.911987	4390.324707	1701.681030	16.693529
714.252258	1157.339233	4376.876465	1703.315552	16.958223
714.575989	1169.599121	4357.260254	1699.303345	16.617332
714.899719	1180.521606	4352.282227	1707.253784	16.606934
715.223267	1180.521606	4336.232910	1710.374390	16.790279
715.546936	1174.874634	4352.950684	1716.541504	17.043861
715.870422	1174.057251	4370.486328	1715.872681	16.950647
716.193970	1171.828247	4379.550781	1721.371094	17.131868
716.517395	1172.051147	4360.009277	1727.315308	17.417549
716.840820	1169.524780	4317.582520	1728.950073	17.770491
717.164124	1167.890137	4248.853027	1717.581665	17.841549
717.487488	1162.317505	4179.379395	1707.253540	18.061811
717.810730	1158.825195	4102.922363	1701.012207	18.416071
718.133972	1163.357788	4050.984375	1688.455078	18.184391
718.457092	1162.614746	4004.544922	1675.303589	18.040163
718.780212	1170.936646	3960.112061	1651.006470	17.211891
719.103210	1175.840698	3908.917236	1654.275757	17.505365
719.426208	1185.276978	3851.555908	1652.938477	17.539858
719.749207	1184.533936	3799.841064	1667.873169	18.481165
720.072083	1177.103638	3770.788818	1653.161133	18.354483
720.394958	1168.633179	3748.720947	1649.223145	18.626884
720.717773	1170.639404	3728.807861	1637.854980	18.263676
721.040527	1165.958374	3704.956299	1644.765015	18.858093
721.363281	1168.113159	3682.665283	1640.232544	18.775486
721.685913	1162.986206	3652.201172	1641.867188	19.238234
722.008545	1164.323608	3616.164795	1646.399780	19.661802
722.331055	1167.890259	3592.610596	1648.925903	19.838810
722.653503	1169.079102	3589.044189	1646.399780	19.724279
722.976013	1168.558960	3592.833740	1643.501953	19.591137
723.298401	1163.060547	3595.508789	1647.439819	19.913240
723.620789	1155.407227	3581.019531	1653.532715	20.536072
723.943115	1154.961548	3575.000977	1649.074585	20.417561
724.265381	1159.939819	3573.589111	1640.307007	19.902111
724.587585	1168.038818	3582.282471	1643.130249	19.678686
724.909790	1176.955200	3582.208252	1656.207642	19.925241
725.231873	1168.707520	3578.939209	1670.102173	20.802757
725.553894	1170.787964	3589.266846	1677.384155	20.946892
725.875916	1200.954956	3656.659912	1711.637573	20.795763
726.197937	1206.453247	3688.981445	1715.649902	20.511211
726.519775	1208.385132	3689.798828	1725.977905	20.858788
726.841675	1172.199585	3662.158447	1698.931641	21.154245
727.163513	1177.177856	3673.823486	1705.544556	21.163065
727.485291	1167.741577	3707.408447	1696.405273	20.816261
727.806946	1171.828125	3740.398682	1705.767578	20.787416
728.128662	1170.193604	3752.213135	1719.216309	21.263306
728.450256	1174.726074	3784.832031	1729.618774	21.259394
728.771790	1173.611450	3771.531982	1723.154419	21.153187
729.093323	1166.998535	3769.079834	1715.872681	21.093658
729.414795	1166.701294	3733.117188	1722.782837	21.667631
729.736145	1166.329712	3714.615967	1724.714844	21.912184
730.057495	1177.921021	3713.649658	1731.625000	21.836090
730.378845	1180.744385	3727.098389	1735.191406	21.774153
730.700134	1184.385254	3732.076904	1746.856934	22.077698
731.021301	1179.184082	3735.494873	1743.513306	22.075924
731.342468	1170.193604	3761.203857	1747.228516	22.270653
731.663574	1161.425781	3793.525635	1743.364868	22.109308
731.984680	1154.441406	3810.169189	1754.584473	22.598064
732.305664	1162.168823	3798.726807	1761.420410	22.728556
732.626648	1169.524780	3792.485352	1771.748413	22.959692
732.947571	1170.267822	3795.977539	1771.822754	22.910185
733.268433	1173.314331	3797.760498	1762.237671	22.439909
733.589233	1171.456665	3790.701904	1759.934448	22.467457
733.909973	1177.698120	3753.699219	1752.949829	22.331192
734.230713	1180.075806	3705.476807	1759.191406	22.931631
734.551331	1175.097534	3651.309814	1757.333618	23.513172
734.871948	1172.645508	3605.911133	1757.482422	24.035063
735.192505	1161.797241	3579.310547	1743.810669	24.074881
735.513062	1167.369995	3538.889893	1734.448608	23.912031
735.833435	1171.456787	3514.147217	1725.903687	23.667101
736.153931	1173.760132	3476.995850	1719.662231	23.701529
736.474304	1175.097534	3458.865967	1717.061523	23.731125
736.794617	1179.184204	3435.237549	1707.550781	23.419952
737.114807	1178.515503	3432.562500	1708.813965	23.526506
737.434998	1173.537109	3425.206787	1706.510742	23.670153
737.755188	1160.459961	3439.621826	1716.913086	24.414814
738.075256	1162.391724	3450.024170	1724.714844	24.581009
738.395325	1163.357788	3474.395264	1730.138672	24.524954
738.715271	1170.787964	3485.614990	1741.804321	24.667776
739.035278	1166.849976	3498.394775	1741.507202	24.647058
739.355164	1163.803467	3504.041748	1745.222290	24.844429
739.675049	1167.444336	3489.330078	1741.655762	24.730391
739.994873	1166.924194	3465.924805	1741.209961	24.979801
740.314636	1171.382446	3423.646484	1736.603149	25.095667
740.634277	1171.976929	3404.104736	1732.665161	25.119001
740.953979	1177.326660	3361.751953	1719.364868	24.813766
741.273499	1175.989136	3338.049561	1710.300171	24.713047
741.593140	1171.753906	3301.864258	1704.058594	24.989536
741.912598	1170.565063	3277.121338	1703.984375	25.321865
742.232117	1181.859009	3238.484131	1709.408325	25.651217
742.551453	1180.521606	3201.406982	1703.984253	25.902639
742.870850	1182.602173	3170.051025	1701.160767	26.091669
743.190063	1177.103638	3156.528076	1695.588013	26.193693
743.509338	1185.054077	3154.447510	1692.764648	25.780048
743.828552	1183.270874	3141.890625	1691.427124	25.944611
744.147705	1178.441040	3119.748291	1684.591309	26.072651
744.466797	1171.679688	3082.225586	1678.275513	26.515762
744.785828	1175.766357	3076.132813	1678.944336	26.477945
745.104858	1175.617676	3066.399170	1677.903931	26.565008
745.423706	1178.218262	3053.098877	1676.492310	26.576307
745.742615	1174.131714	3033.928711	1677.829712	27.083494
746.061401	1178.515503	3043.216553	1677.309692	26.749285
746.380249	1178.515503	3056.368164	1670.919556	26.221655
746.698975	1181.710571	3057.036865	1664.083862	25.722099
747.017639	1176.435059	3046.708984	1667.947632	26.280245
747.336304	1167.815796	3052.132813	1679.835938	27.172718
747.654907	1166.701294	3054.807861	1692.764648	27.861952
747.973389	1166.255493	3053.469971	1701.606567	28.367262
748.291931	1166.998535	3040.095703	1706.436157	28.799232
748.610352	1170.267944	3035.934814	1696.628296	28.212988
748.928711	1180.373047	3041.804688	1691.724243	27.470856
749.247070	1190.181030	3049.606445	1683.476929	26.529480
749.565308	1187.134521	3046.337158	1692.467407	27.180086
749.883545	1176.360718	3038.684326	1696.405396	27.924507
750.201782	1173.314331	3011.415039	1707.402344	29.056515
750.519836	1165.586792	3001.681641	1696.256836	28.902103
750.837952	1164.918091	2983.923096	1684.442749	28.560925
751.155884	1158.528076	2983.031250	1676.343750	28.381187
751.473877	1160.088501	2975.526611	1681.767944	28.735733
751.791809	1167.815918	2968.690674	1691.352905	29.071260
752.109619	1164.695190	2977.458740	1692.095825	29.093735
752.427490	1167.592896	2972.628906	1695.662476	29.255348
752.745300	1169.227661	2973.372070	1700.937866	29.471600
753.062988	1176.806519	2965.941650	1711.340210	29.876654
753.380615	1181.264648	2971.960205	1713.272095	29.709541
753.698303	1171.530884	2969.879639	1707.253540	29.789698
754.015808	1178.292603	2964.901367	1704.504517	29.453114
754.333374	1175.840576	2956.654053	1704.504517	29.686655
754.650757	1177.995483	2959.923096	1706.287720	29.647234
754.968262	1165.438232	2964.530029	1722.782837	30.979219
755.285583	1165.958252	2966.758789	1733.185181	31.498598
755.602905	1163.877808	2959.551514	1735.340210	31.824402
755.920105	1166.329712	2950.858154	1726.275024	31.377775
756.237305	1162.614624	2942.908203	1714.238159	30.984976
756.554443	1165.363892	2938.152588	1708.962524	30.663475
756.871582	1171.382324	2942.313232	1699.897583	29.843924
757.188599	1176.360596	2955.761963	1703.687012	29.635046
757.505615	1179.407104	2970.771484	1717.581665	30.042719
757.822510	1171.679565	2989.718750	1730.807617	30.754456
758.139465	1172.199707	3002.498779	1744.479492	31.267010
758.456238	1162.391724	3022.634766	1754.658813	31.838156
758.773010	1169.078979	3041.879150	1755.550415	31.315216
759.089783	1165.140991	3065.135742	1753.544312	30.968681
759.406433	1169.970581	3091.513428	1751.835327	30.281122
759.723145	1166.701294	3100.801514	1766.026978	30.987312
760.039673	1170.045044	3113.209717	1775.166382	31.141022
760.356201	1171.085327	3113.432861	1784.082642	31.559610
760.672668	1171.010986	3105.927979	1780.293335	31.488811
760.989136	1167.815918	3096.417236	1790.398438	32.281555
761.305481	1167.964478	3098.943604	1786.386108	32.026325
761.621826	1167.815918	3105.110596	1792.701782	32.255592
761.938049	1169.079102	3118.114014	1793.147583	32.019360
762.254333	1171.902466	3143.599609	1813.432251	32.536934
762.570496	1172.868530	3214.558594	1844.044922	32.873569
762.886597	1176.880737	3339.758545	1885.060059	32.742455
763.202637	1180.372925	3519.348389	1937.740723	32.380322
763.518677	1176.657837	3741.364990	2006.544922	32.357967
763.834656	1171.902466	3938.490234	2080.476074	32.840946
764.150574	1161.425903	4061.461670	2133.973877	33.535725
764.466370	1164.175049	4083.083252	2144.525146	33.586193
764.782288	1162.911987	4022.006592	2115.918701	33.332462
765.097961	1162.911865	3901.487305	2066.730225	33.003231
765.413696	1158.082153	3735.049072	2014.272339	33.224728
765.729309	1160.162720	3553.378906	1968.353149	33.770054
766.044861	1169.153320	3403.733398	1936.031738	34.318680
766.360474	1177.921021	3298.520752	1901.480957	34.120537
766.675903	1179.184204	3220.205811	1864.329712	33.568752
766.991394	1176.137817	3151.401367	1839.438110	33.580345
767.306763	1170.936523	3089.581299	1823.462891	34.009754
767.622131	1166.626953	3052.355469	1810.980103	34.169987
767.937378	1167.221558	3004.133057	1791.438477	33.981873
768.252625	1172.794067	2969.731201	1771.079712	33.294746
768.567810	1174.874634	2933.991211	1762.312134	33.393894
768.882996	1175.766235	2900.778076	1755.773438	33.623375
769.197998	1175.543457	2869.496826	1759.042603	34.445999
769.513062	1179.778687	2836.952148	1759.859985	35.004261
769.828064	1180.447388	2812.952393	1757.630859	35.355694
770.142944	1175.097534	2790.884766	1743.810547	35.197269
770.457825	1165.661011	2772.977783	1730.881836	35.165489
770.772705	1152.806763	2762.203857	1720.256470	35.258526
771.087402	1152.806763	2749.646484	1712.677734	35.061188
771.402100	1159.048218	2742.216064	1714.683960	35.096451
771.716736	1164.917969	2725.126709	1704.281616	34.569965
772.031372	1167.221436	2701.126709	1695.142212	34.416779
772.345947	1164.769409	2678.464600	1683.699707	34.282352
772.660461	1173.314209	2664.792725	1683.996948	34.240032
772.974854	1168.113037	2645.771240	1691.204224	35.400013
773.289246	1173.834351	2621.771729	1687.266113	35.459530
773.603638	1168.113159	2603.790283	1679.018555	35.586372
773.917908	1170.862183	2602.452881	1674.634766	35.189709
774.232178	1172.645508	2596.656982	1678.498413	35.523090
774.546265	1176.509155	2593.610596	1680.801880	35.586212
774.860474	1182.899170	2581.870850	1672.331421	34.985142
775.174561	1181.190308	2584.620117	1662.671997	34.307499
775.488586	1182.750610	2576.595459	1661.037476	34.314213
775.802551	1174.354492	2571.320068	1666.833008	35.253448
776.116516	1165.512451	2557.128174	1668.987793	36.179192
776.430359	1159.270996	2560.471436	1668.690552	36.355938
776.744202	1164.546509	2550.812256	1663.340698	35.981136
777.057922	1166.181152	2532.236572	1662.151733	36.306770
777.371704	1175.023315	2510.168945	1659.848267	36.312515
777.685303	1172.571289	2510.317383	1664.603882	36.780716
777.998962	1175.171875	2512.695068	1667.576050	36.814629
778.312500	1167.147095	2515.667236	1664.232422	36.861542
778.626038	1171.085205	2506.825195	1658.213867	36.468822
778.939453	1167.592896	2505.859375	1653.235718	36.288948
779.252869	1167.369995	2496.199951	1657.173706	36.859772
779.566223	1164.843750	2497.017334	1655.093140	36.800713
779.879578	1162.391724	2500.880859	1649.891968	36.421680
780.192749	1162.540405	2504.595947	1658.734009	36.972656
780.505920	1161.202881	2505.859131	1664.083862	37.398479
780.819031	1164.992310	2499.840576	1662.523438	37.272484
781.132141	1170.119141	2487.803711	1658.065308	37.030575
781.445190	1172.051147	2472.943115	1658.882446	37.422886
781.758118	1172.868408	2453.104248	1664.529663	38.403961
782.071045	1169.227539	2437.723389	1649.594727	37.869038
782.383911	1172.868408	2421.376709	1641.941772	37.570705
782.696838	1173.314331	2410.157227	1650.635132	38.591869
783.009583	1165.512451	2410.974365	1644.467773	38.456039
783.322266	1162.763184	2402.281250	1635.848633	38.166885
783.634888	1162.243164	2390.243896	1619.502075	37.236046
783.947510	1171.233765	2375.754883	1627.823853	37.906357
784.260132	1171.679565	2367.358643	1632.727905	38.559540
784.572571	1168.484497	2373.229004	1628.121094	38.152206
784.885010	1163.283325	2367.061768	1624.851929	38.343319
785.197449	1162.020142	2361.934814	1619.056274	38.089054
785.509766	1164.472168	2356.956543	1619.799438	38.183079
785.822083	1163.803589	2356.064941	1614.226685	37.778889
786.134277	1173.017090	2354.950439	1626.858032	38.398186
786.446533	1174.354492	2348.857666	1635.848633	39.292709
786.758606	1182.899292	2349.229248	1640.158203	39.204937
787.070740	1178.366821	2356.882324	1637.186157	38.931973
787.382690	1173.314331	2366.095947	1638.672241	39.014511
787.694641	1167.815918	2392.696289	1662.226196	40.363964
788.006653	1161.723022	2421.154053	1672.034180	40.519184
788.318481	1166.701294	2458.008545	1685.928711	40.209438
788.630310	1171.605347	2487.580811	1680.356079	38.659592
788.942017	1171.531006	2511.877930	1693.879272	38.971123
789.253784	1171.531128	2522.726074	1700.566406	39.153141
789.565430	1168.410278	2516.558838	1702.201050	39.594357
789.877014	1172.496948	2496.125732	1696.405640	39.581242
790.188538	1173.834351	2463.952393	1682.436646	39.422928
790.500061	1173.611450	2426.726807	1671.885376	39.762814
790.811462	1170.639282	2398.566162	1654.127075	39.374313
791.122925	1168.558960	2378.281494	1635.031372	38.560280
791.434204	1169.747803	2358.516846	1623.217285	38.146137
791.745483	1172.274048	2348.783203	1620.468140	38.095249
792.056702	1172.274048	2324.635010	1624.034668	39.203049
792.367920	1168.856079	2307.916748	1620.096680	39.615150
792.678955	1161.425781	2288.969482	1607.390747	39.551899
792.990112	1166.181152	2285.254639	1601.669434	38.915073
793.301086	1173.834351	2275.297852	1599.737671	38.667038
793.612122	1183.047852	2273.514893	1605.458984	38.736717
793.922974	1181.636230	2262.740967	1602.561157	38.934704
794.233826	1171.159546	2262.443604	1594.833618	38.823444
794.544556	1171.902466	2259.471436	1587.700562	38.231884
794.855286	1166.849854	2267.644775	1590.152466	38.454266
795.166016	1173.091187	2281.019287	1599.811890	38.515198
795.476624	1162.688965	2300.412109	1616.827148	39.916405
795.787292	1162.020386	2314.975586	1626.709473	40.304176
796.097778	1162.243164	2328.052734	1646.325562	41.523281
796.408264	1169.747681	2336.894775	1646.325317	40.832699
796.718689	1166.626953	2362.900879	1661.483032	41.366451
797.029053	1173.685669	2374.046143	1665.346802	40.959457
797.339355	1171.902466	2370.108154	1659.625610	40.704460
797.649658	1185.054199	2351.458252	1656.727905	40.438278
797.959839	1180.298706	2329.167236	1641.421509	40.137127
798.270020	1177.995239	2317.724854	1646.102539	41.071785
798.580078	1170.639282	2305.910400	1632.876587	40.716026
798.890137	1164.026367	2288.449463	1637.186157	42.080227
799.200195	1162.466064	2273.737305	1634.585571	42.484634
799.510071	1168.633179	2257.614014	1627.378296	42.126095
799.820007	1171.233765	2250.926514	1612.369019	40.857479
800.129883	1170.639526	2236.586182	1612.443359	41.447086
800.439575	1164.249390	2216.821533	1616.307129	42.947910
800.749329	1164.695190	2207.013672	1616.158569	43.313381
801.058960	1162.986206	2195.868164	1610.288574	43.306244
801.368591	1158.899536	2199.732178	1603.601196	42.725567
801.678162	1158.305176	2200.177734	1601.000610	42.490364
801.987671	1164.472290	2195.645508	1598.102905	42.052162
802.297119	1161.277222	2187.769287	1597.731445	42.519005
802.606506	1159.270996	2177.589844	1601.817993	43.458588
802.915894	1159.642578	2173.354492	1595.130859	42.959766
803.225159	1168.707520	2166.072998	1598.251587	43.067871
803.534424	1174.800415	2157.156738	1590.449707	42.311459
803.843628	1176.137817	2144.673828	1595.056519	43.252773
804.152771	1176.434937	2148.537598	1588.369263	42.375599
804.461792	1169.599121	2156.785400	1589.409546	42.525959
804.770874	1166.255493	2167.261963	1585.248535	41.857178
805.079773	1162.986206	2171.719971	1586.214478	41.956390
805.388733	1171.307983	2184.574219	1592.307251	41.548733
805.697571	1170.193481	2194.456299	1599.291626	41.893364
806.006470	1175.543335	2204.338867	1607.836548	42.019352
806.315125	1173.314331	2197.502930	1612.220581	42.854046
806.623901	1171.456665	2201.292480	1606.424805	42.236649
806.932495	1174.428833	2199.211914	1603.824219	41.901100
807.241150	1178.589722	2198.171631	1595.428101	40.883266
807.549622	1187.060303	2195.645508	1591.861450	40.135544
807.858154	1181.413330	2164.958496	1584.877075	41.021374
808.166565	1171.531006	2148.908936	1580.641724	41.857986
808.474915	1170.639282	2124.314697	1584.877075	43.435932
808.783264	1170.490845	2126.320557	1586.214478	43.493484
809.091492	1167.815918	2116.438477	1583.613770	43.831749
809.399719	1171.531128	2110.271484	1575.366211	43.018826
809.707825	1174.725952	2100.314941	1565.706665	42.241287
810.015930	1182.007690	2080.476074	1569.273438	43.102879
810.323975	1171.531006	2068.513428	1568.753296	44.284290
810.632080	1169.078979	2047.262817	1563.700806	44.936131
810.939880	1171.976807	2049.343506	1555.453125	43.707645
811.247864	1171.753784	2045.999878	1554.338501	43.761673
811.555664	1169.153198	2058.185547	1551.515137	43.008778
811.863464	1165.512451	2051.424072	1541.707153	42.464134
812.171143	1170.342163	2038.643921	1542.301392	42.837555
812.478882	1167.890259	2026.755371	1541.632813	43.515862
812.786438	1170.416504	2026.086548	1553.298462	44.746449
813.094055	1169.747681	2034.482788	1544.233398	43.306408
813.401489	1168.633301	2022.594360	1538.809448	43.348129
813.708984	1157.487793	2012.489258	1532.344849	43.842854
814.016357	1154.812866	2002.012329	1534.722656	44.843018
814.323730	1162.689087	2000.154907	1540.889648	45.160118
814.630981	1165.735474	1993.616211	1539.255249	45.117584
814.938232	1169.227661	1997.108398	1544.084839	45.279129
815.245361	1165.586792	1997.703003	1545.719360	45.682629
815.552490	1166.552856	2004.910156	1554.041382	46.219975
815.859619	1159.494019	1997.925781	1546.759766	46.189297
816.166565	1155.630249	2002.458374	1546.536743	46.161255
816.473572	1156.521851	2004.835938	1535.763062	44.705284
816.780457	1157.116333	2019.696655	1546.239746	45.111557
817.087341	1162.317505	2038.941040	1546.759766	43.854885
817.394043	1168.410278	2045.628296	1552.778320	43.816708
817.700806	1171.085327	2052.687012	1553.892700	43.421806
818.007507	1169.599121	2045.256714	1559.316895	44.505726
818.314209	1164.249390	2049.566406	1564.963867	45.262260
818.620667	1169.301880	2051.275146	1563.329468	44.675682
818.927246	1174.800293	2070.445068	1572.691406	44.425102
819.233704	1168.856079	2111.163086	1584.134155	44.070358
819.540161	1165.512573	2151.063721	1606.944946	44.790409
819.846497	1155.407227	2218.530518	1636.294556	45.233448
820.152832	1159.345337	2282.133789	1675.600708	45.979755
820.458984	1161.203003	2374.566406	1720.182251	46.068577
820.765259	1170.490723	2460.534912	1766.324341	46.187069
821.071350	1171.902466	2579.939209	1817.073120	45.820583
821.377502	1165.809692	2733.076904	1899.771973	46.830704
821.683472	1164.843750	3061.346436	2044.216431	46.368122
821.989441	1168.410278	3684.671875	2342.393311	46.655838
822.295349	1174.354492	4691.474121	2815.181396	46.652576
822.601196	1172.422607	5950.607910	3433.825928	47.327660
822.907043	1171.976685	7144.578125	4010.489258	47.525566
823.212769	1166.181274	7902.614746	4369.148438	47.546928
823.518494	1168.038818	7976.173828	4389.433105	47.316841
823.824097	1167.370117	7421.504395	4104.407715	46.961536
824.129700	1170.044922	6473.476074	3641.279297	46.596897
824.435242	1168.187500	5469.869141	3167.153564	46.469410
824.740723	1167.072876	4621.926270	2775.355469	46.551399
825.046082	1171.010986	4014.501709	2493.599365	46.512844
825.351501	1169.599121	3583.248779	2295.062500	46.629112
825.656799	1171.456665	3312.118164	2168.004883	46.553280
825.962036	1172.645508	3122.794922	2096.302734	47.363407
826.267212	1178.292480	3039.278564	2059.968506	47.376820
826.572449	1180.075806	3022.857666	2064.352539	47.985970
826.877502	1180.447266	3149.097656	2122.977295	47.876965
827.182495	1179.704224	3405.516357	2247.211670	47.960361
827.487488	1178.218262	3749.092529	2401.984131	47.601154
827.792419	1181.487549	4031.739990	2535.654541	47.510422
828.097290	1180.893188	4151.590332	2612.037842	48.175377
828.402100	1175.023315	4039.987305	2578.155518	48.975563
828.706848	1168.410278	3774.503906	2447.234131	49.070522
829.011597	1168.261719	3402.544678	2256.870850	48.722977
829.316223	1172.125488	3042.473633	2076.463867	48.351341
829.620789	1172.051147	2742.439209	1931.796509	48.379467
829.925354	1169.599121	2538.478271	1815.141235	47.158443
830.229797	1171.605347	2393.216553	1733.854126	46.025181
830.534302	1175.543335	2283.619873	1676.938110	45.249111
830.838562	1182.602051	2200.920898	1640.455566	44.961704
831.142944	1181.933228	2143.559326	1614.598145	44.993050
831.447144	1180.744507	2093.850830	1597.434204	45.634300
831.751404	1170.342163	2059.968506	1585.174316	46.629932
832.055542	1171.679565	2040.427124	1578.784180	46.861095
832.359619	1172.571289	2050.829346	1581.682007	46.582062
832.663635	1177.995239	2089.912842	1587.849121	44.944180
832.967651	1176.880737	2139.175537	1616.975952	45.733929
833.271545	1173.239868	2235.248779	1661.186035	45.945580
833.575439	1174.874634	2370.479736	1745.445313	47.722336
833.879211	1174.503052	2591.456055	1853.407104	47.912956
834.183044	1178.812744	2824.692383	1959.139771	47.410942
834.486694	1172.942749	3033.928711	2049.566162	47.105320
834.790344	1172.348267	3109.717529	2083.299805	47.020027
835.093933	1163.283325	3058.596924	2076.835449	48.200581
835.397522	1163.432007	2900.258057	2001.418091	48.248131
835.700928	1165.586792	2701.572754	1902.000977	47.944069
836.004395	1171.382324	2510.020264	1801.469604	47.069283
836.307739	1166.775757	2346.554443	1726.275269	47.424107
836.611023	1168.187378	2225.143555	1669.582153	47.437611
836.914307	1167.964478	2120.451172	1620.616699	47.523209
837.217529	1180.521606	2035.894653	1588.443726	47.689381
837.520691	1180.150024	1970.210938	1555.824707	47.550091
837.823730	1178.589722	1932.539551	1533.162231	47.028660
838.126831	1169.747803	1893.530640	1505.521606	46.391514
838.429749	1159.791138	1863.512329	1489.397949	46.837700
838.732727	1162.540405	1824.280396	1470.005005	46.463051
839.035522	1171.085083	1806.373413	1458.339478	45.216381
839.338379	1173.685669	1801.098022	1451.503540	44.279949
839.641113	1169.227661	1811.871948	1463.912109	45.854984
839.943848	1166.032715	1838.546509	1487.466187	47.795818
840.246460	1170.342163	1877.852539	1521.348267	49.611443
840.549072	1176.806519	1936.626099	1550.846313	49.227448
840.851563	1168.113159	1970.285156	1566.895874	49.712868
841.154053	1169.896362	1980.761841	1566.672852	48.932468
841.456482	1161.574463	1951.040894	1545.570923	48.639999
841.758850	1163.952148	1899.994995	1520.233765	48.405010
842.061157	1162.763184	1834.459961	1489.398071	48.628323
842.363403	1164.918091	1780.293335	1467.553101	49.178940
842.665588	1171.159546	1744.033569	1438.426392	46.653687
842.967712	1172.051147	1722.039917	1419.924927	45.068882
843.269775	1172.868530	1697.445679	1410.339966	45.269115
843.571777	1174.354492	1680.578735	1407.590820	46.073719
843.873840	1170.342163	1655.910278	1404.618652	48.247913
844.175659	1175.617676	1646.251099	1391.912964	45.958336
844.477600	1168.707397	1631.910767	1388.940796	47.545723
844.779297	1176.657837	1619.204956	1392.061523	48.673615
845.081116	1177.177979	1605.607422	1385.522827	48.629910
845.382751	1182.825073	1591.267090	1376.457886	47.407661
845.684387	1179.407104	1585.620117	1359.739746	44.393616
845.985962	1170.490845	1576.183594	1352.829590	44.945034
846.287537	1168.558960	1568.307495	1346.588257	44.535320
846.588989	1162.540405	1559.985474	1341.089844	44.924305
846.890381	1165.438110	1557.385132	1337.820435	43.981026
847.191711	1168.707520	1550.474976	1336.780273	44.024902
847.493042	1171.010864	1543.490356	1334.551270	43.905880
847.794250	1176.509277	1539.478027	1330.167358	42.333694
848.095459	1175.691895	1545.199341	1326.972290	40.941093
848.396606	1175.617554	1546.610962	1324.668945	40.176292
848.697693	1176.955200	1546.090942	1330.836060	41.686794
848.998657	1172.645630	1536.208618	1330.018799	43.286354
849.299622	1180.373169	1541.112793	1327.863892	40.885647
849.600464	1176.583618	1531.602051	1327.640991	42.549164
849.901367	1176.880737	1534.276978	1334.625488	44.137215
850.202087	1161.723022	1531.230469	1337.077515	47.456280
850.502808	1164.397949	1528.629761	1334.105347	46.593239
850.803467	1162.168823	1521.868164	1320.508057	44.019886
851.104065	1169.227661	1512.654663	1320.433716	44.028587
851.404663	1164.472290	1514.958130	1322.291138	45.028595
851.705139	1169.896362	1512.134644	1325.932007	45.592693
852.005615	1172.645508	1512.580444	1318.650391	42.950832
852.306030	1173.017090	1509.756836	1312.037476	41.284222
852.606384	1163.877930	1509.385376	1308.545166	41.870945
852.906616	1159.345337	1501.138062	1311.814575	44.608685
853.206909	1162.391724	1497.274048	1307.133423	43.221661
853.506958	1166.329834	1495.267944	1308.693848	43.279877
853.807129	1165.586792	1496.976929	1310.774292	43.811653
854.107178	1168.781738	1491.924316	1315.901245	45.527737
854.407166	1173.239990	1492.964478	1314.043701	44.039078
854.707092	1173.165649	1493.707642	1316.124146	44.598991
855.007019	1166.404175	1486.574585	1308.991089	44.534695
855.306763	1167.295776	1483.825317	1310.625610	45.281662
855.606567	1164.769409	1475.800781	1299.034546	43.167717
855.906250	1165.363892	1475.503418	1296.508179	42.285576
856.205933	1162.466064	1472.457031	1291.232788	41.538864
856.505493	1171.531006	1474.314453	1286.105835	37.840519
856.805054	1174.800415	1486.203125	1290.192505	37.055584
857.104492	1173.760132	1486.648926	1294.873535	38.708130
857.403931	1168.930542	1488.060669	1310.625610	44.400406
857.703308	1162.614624	1478.475586	1312.929199	47.588840
858.002563	1168.113037	1471.119629	1312.186157	47.547852
858.301819	1175.766235	1470.822388	1308.619507	45.026436
858.601013	1181.190430	1470.228027	1307.653687	43.753220
858.900208	1178.812622	1475.280640	1304.978638	42.556366
859.199219	1177.103760	1461.831665	1297.325562	42.223400
859.498291	1173.611450	1459.676880	1293.238892	41.818211
859.797302	1166.255493	1453.509766	1294.650757	44.697426
860.096191	1163.952148	1458.859497	1294.427612	44.242867
860.395020	1156.967651	1459.231079	1301.114868	47.689270
860.693787	1158.899536	1450.389160	1295.244995	46.775406
860.992554	1158.973999	1450.314819	1290.489624	45.141502
861.291260	1167.741577	1440.581177	1295.467896	46.813702
861.589844	1171.159546	1449.720337	1293.015991	43.745010
861.888428	1167.741577	1449.200195	1299.257324	46.726494
862.186890	1172.571289	1449.646118	1290.489624	42.558300
862.485413	1182.453613	1443.182007	1291.083984	41.664188
862.783813	1182.750854	1437.163452	1293.536133	43.545517
863.082153	1185.054077	1443.553345	1294.650513	42.397194
863.380371	1173.983032	1449.869019	1300.743408	45.946651
863.678589	1179.927124	1450.834961	1300.669189	44.569424
863.976746	1173.165649	1450.314941	1300.743530	46.032188
864.274902	1169.524780	1451.652222	1300.223267	46.326046
864.572937	1168.113037	1459.231079	1299.628906	45.176132
864.870911	1176.732178	1459.008179	1300.074707	43.695721
865.168884	1180.150024	1463.094849	1294.576294	40.441196
865.466736	1175.543335	1465.621094	1287.591919	38.627087
865.764587	1158.973877	1465.769897	1279.938599	39.428387
866.062317	1162.317505	1458.562500	1275.406128	38.174019
866.360107	1169.450562	1456.036133	1271.839722	35.727257
866.657715	1176.286377	1459.825562	1268.793335	32.625813
866.955322	1174.503052	1463.020508	1275.926270	35.153233
867.252808	1168.930420	1463.540649	1280.087280	37.730145
867.550293	1167.444458	1451.354980	1290.266724	43.260906
867.847717	1170.713623	1439.986694	1286.031372	42.825577
868.145081	1171.902466	1429.064331	1287.814819	45.073696
868.442383	1170.787964	1433.893921	1280.607422	41.739632
868.739624	1169.970581	1439.243652	1280.161621	40.921669
869.036804	1169.301880	1446.302368	1283.282227	41.148067
869.333984	1175.171875	1445.336548	1285.585571	40.869034
869.631042	1170.044922	1442.438843	1289.895142	43.998859
869.928101	1171.902466	1444.222046	1287.443237	42.428375
870.224976	1168.781738	1445.856567	1284.842651	41.887932
870.521851	1169.301880	1456.853516	1282.464966	39.354004
870.818726	1171.233765	1455.664551	1276.669312	37.068966
871.115479	1169.673462	1455.590210	1274.960327	36.824310
871.412231	1166.775635	1446.822632	1282.687866	41.390278
871.708862	1164.026367	1444.222046	1282.390747	42.243469
872.005493	1164.843750	1447.268188	1290.043823	44.330467
872.302063	1169.376221	1448.828735	1286.402954	41.877144
872.598572	1172.868530	1450.983521	1296.508057	44.456261
872.895020	1173.834351	1449.869019	1299.554443	45.545036
873.191406	1176.137817	1449.646118	1301.337769	45.775558
873.487671	1173.016968	1445.262329	1303.566895	47.953041
873.783997	1169.524780	1450.017578	1300.223389	46.596066
874.080200	1164.992310	1452.098022	1303.715576	48.317837
874.376343	1164.769409	1458.042358	1299.703247	46.009644
874.672424	1169.599121	1455.441772	1293.536133	43.358475
874.968445	1176.137817	1455.070313	1286.551636	39.584423
875.264465	1171.679688	1451.429321	1285.957153	40.849907
875.560364	1167.072876	1445.484985	1290.489624	44.328800
875.856201	1161.351440	1433.968140	1289.523804	47.015594
876.152039	1162.614624	1433.670898	1296.508179	49.396957
876.447754	1165.066650	1434.488281	1294.947754	48.207378
876.743469	1166.404175	1442.513062	1289.598022	44.617851
877.039063	1172.199707	1435.900024	1274.737427	38.884186
877.334595	1171.605225	1436.940430	1279.790039	40.772884
877.630127	1175.692017	1443.553345	1285.808594	41.109547
877.925537	1174.280151	1452.246704	1293.758911	42.983143
878.221008	1171.902588	1461.757446	1293.238770	41.861015
878.516296	1164.472290	1460.865845	1298.217163	45.124084
878.811646	1161.128662	1472.754272	1302.823853	45.469688
879.106812	1165.958374	1481.447632	1310.328491	45.760708
879.401978	1174.280151	1499.057251	1315.678345	43.536995
879.697083	1176.880737	1513.620728	1315.158203	41.063572
879.992126	1177.252319	1542.078735	1331.950562	42.403244
880.287109	1170.416504	1587.700562	1347.256958	42.378914
880.582031	1167.592896	1664.009399	1390.426758	44.888489
880.876892	1165.586792	1779.475952	1449.200317	46.199467
881.171753	1165.140991	2011.077515	1571.874023	48.080799
881.466492	1164.546509	2380.361816	1780.070313	50.626423
881.761230	1162.540405	2903.601563	2049.789307	50.960239
882.055786	1167.518677	3421.491455	2339.124023	51.979572
882.350403	1165.512451	3785.946289	2519.085205	51.654530
882.644958	1168.261597	3862.329834	2561.883545	51.729271
882.939453	1165.363770	3661.935547	2446.417236	51.312504
883.233826	1167.518677	3318.434326	2269.873779	51.250507
883.528137	1163.580688	2942.536377	2068.216553	50.852074
883.822449	1165.066772	2623.331787	1900.960938	50.463676
884.116577	1163.877808	2350.343506	1752.578247	49.617992
884.410828	1167.072876	2137.466553	1646.102539	49.364468
884.704956	1160.385620	1971.622681	1563.180664	49.651955
884.999023	1156.447632	1850.880737	1501.063477	49.625492
885.292969	1159.048218	1764.986816	1455.293091	48.890247
885.586914	1167.147095	1708.739624	1429.807251	48.497742
885.880798	1181.190308	1666.387085	1410.562866	47.274132
886.174622	1182.230591	1633.693848	1392.061523	46.477966
886.468384	1183.345093	1612.071777	1379.132813	45.667259
886.762085	1175.171875	1606.350586	1369.547852	45.080143
887.055664	1177.252319	1583.316528	1366.352905	46.569134
887.349304	1173.239868	1561.248657	1347.554199	44.925358
887.642822	1176.063477	1525.434937	1337.151733	46.108017
887.936340	1171.605347	1507.825073	1321.473877	44.574581
888.229736	1170.490845	1489.323853	1314.192261	45.071060
888.523071	1174.205933	1479.441528	1309.213867	44.230732
888.816284	1175.914917	1463.392090	1298.514404	42.646687
889.109619	1181.264648	1452.023804	1291.158325	40.587242
889.402710	1176.583618	1437.237427	1283.059448	40.849522
889.695862	1174.874634	1428.767090	1283.282349	42.698280
889.988892	1173.908691	1407.665039	1278.526978	44.755272
890.281921	1177.846680	1386.934570	1274.588867	46.268669
>>>>>End Processed Spectral Data<<<<<
