Jaz Data File
++++++++++++++++++++++++++++++++++++
Date: Fri Jun 04 14:04:05 2021
User: jaz
Dark Spectrum Present: Yes
Reference Spectrum Present: Yes
Processed Spectrum Present: Yes
Spectrometers: JAZA3586
Integration Time (usec): 519000 (JAZA3586)
Spectra Averaged: 10 (JAZA3586)
Boxcar Smoothing: 1 (JAZA3586)
Correct for Electrical Dark: No (JAZA3586)
Strobe/Lamp Enabled: Yes (JAZA3586)
Correct for Detector Non-linearity: No (JAZA3586)
Correct for Stray Light: No (JAZA3586)
Number of Pixels in Processed Spectrum: 2048
>>>>>Begin Processed Spectral Data<<<<<
W	D	R	S	P
191.335022	0.000000	0.000000	0.000000	0.000000
191.713211	267.935577	267.712708	268.901550	-433.424622
192.091385	537.060059	543.450073	537.208679	2.325826
192.469528	806.704590	817.404236	810.939880	39.583466
192.847641	811.831543	822.010986	816.066711	41.605110
193.225739	843.335876	843.707458	846.307922	799.835754
193.603790	875.583252	872.536865	868.004395	248.781860
193.981842	902.852356	903.000977	887.471680	-10348.953125
194.359863	902.703796	908.202148	894.158997	-155.406555
194.737854	915.038025	914.592224	917.044250	-450.027374
195.115829	908.276428	906.047363	923.062683	-663.338928
195.493774	909.762512	901.737793	918.307373	-106.481743
195.871704	903.000977	893.490234	898.691406	45.312660
196.249603	921.353699	915.558105	913.997742	126.923279
196.627457	928.115234	915.409485	908.796570	152.046631
197.005310	926.629211	920.090576	911.025635	238.636597
197.383133	919.570496	905.675842	891.038269	205.346802
197.760910	930.121399	927.075012	921.428040	285.366241
198.138687	927.669434	931.310242	922.988464	-128.569519
198.516449	922.096863	932.944885	922.096741	-0.001125
198.894180	908.870911	909.985413	887.471680	-1920.071167
199.271866	910.356934	900.325989	882.864929	274.071930
199.649536	907.161926	890.666687	881.601746	154.954895
200.027191	909.019531	902.778015	892.821472	259.521240
200.404816	893.936035	900.623230	886.431458	-112.223106
200.782410	896.982422	916.672668	903.372375	32.452381
201.159988	890.072266	922.245361	909.316650	59.815147
201.537537	897.279602	942.455750	917.787170	45.394680
201.915070	892.524231	945.576416	910.728455	34.313805
202.292557	880.933044	940.746765	903.000977	36.894432
202.670029	883.607910	936.139954	912.585938	55.162575
203.047485	881.824707	928.189636	906.864746	54.006420
203.424911	885.465515	931.756104	904.858582	41.894188
203.802292	889.775085	937.031677	907.607727	37.735775
204.179688	888.140442	941.935608	914.443604	48.895027
204.557037	902.926697	940.078064	921.502380	50.000000
204.934357	898.617126	937.774658	910.951355	31.498993
205.311661	902.183594	935.842773	904.709961	7.505730
205.688934	904.115479	943.050110	897.948425	-15.839506
206.066177	896.759521	925.366150	891.038269	-19.999744
206.443390	892.078430	922.691223	887.620300	-14.562963
206.820587	870.233459	912.957520	881.973328	27.478354
207.197769	882.790710	927.520813	902.703796	44.518311
207.574921	892.078430	931.384705	905.898743	35.160576
207.952042	900.400391	933.390808	910.802795	31.531595
208.329147	897.428223	944.907715	892.004150	-11.424032
208.706223	1063.123413	1120.187866	1073.525757	18.229113
209.083267	1066.838501	1134.528198	1083.407959	24.478552
209.460297	1066.615601	1132.224854	1095.370728	43.827854
209.837280	889.700867	952.858093	918.233093	45.176502
210.214264	879.521301	940.969727	908.870911	47.762997
210.591217	868.598816	922.096741	897.799805	54.583405
210.968124	882.790710	940.523743	906.195984	40.540524
211.345016	894.753418	945.427734	918.901672	47.653835
211.721893	891.335449	951.594910	918.084473	44.389748
212.098724	887.991760	941.638367	910.356934	41.689819
212.475555	889.552185	947.879822	905.824524	27.898163
212.852356	897.799805	956.944763	911.174316	22.613106
213.229126	893.044434	957.390625	919.124695	40.531166
213.605865	879.149841	938.591980	907.236145	47.249821
213.982590	872.313965	927.520813	906.790344	62.449463
214.359283	868.970398	915.038025	893.861755	54.032211
214.735931	874.468750	921.130859	894.604736	43.152756
215.112579	886.431458	934.876770	899.508789	26.994007
215.489197	890.220886	951.223450	907.904968	28.989080
215.865799	887.471680	948.994385	912.363098	40.458916
216.242355	875.583252	942.752930	897.874023	33.185764
216.618896	880.933105	947.805603	895.942200	22.444345
216.995407	882.790588	955.458679	890.666687	10.838455
217.371902	880.561523	951.743469	889.923645	13.152382
217.748367	876.549133	942.901550	883.459290	10.414325
218.124802	879.744202	943.124451	885.614075	9.261360
218.501236	882.344727	942.678711	890.220947	13.054369
218.877609	876.400574	938.889343	893.936035	28.061781
219.253983	870.827881	939.112122	893.044434	32.535404
219.630295	878.703918	945.353516	896.685242	26.978893
220.006592	884.871094	950.703308	890.518066	8.577826
220.382889	887.917480	949.885986	893.713135	9.352580
220.759140	884.053711	948.845703	895.347839	17.431364
221.135391	889.032043	952.709473	892.524231	5.484184
221.511581	879.224121	948.325500	889.329285	14.623678
221.887772	879.818542	952.560852	900.028870	27.783455
222.263931	885.242615	970.987976	917.044250	37.088463
222.640060	899.211487	989.043457	924.920227	28.618698
223.016159	896.982422	999.445862	909.391052	12.110300
223.392212	888.214661	991.718445	907.533508	18.664871
223.768265	878.778259	994.096008	902.629456	20.683023
224.144302	876.400635	991.346924	900.623291	21.073021
224.520294	868.524597	983.842468	892.821472	21.069479
224.896286	879.224121	996.250977	908.202148	24.761862
225.272217	891.261047	1019.581970	924.251648	25.709448
225.648148	909.390930	1053.984009	945.130615	24.717424
226.024048	899.211487	1054.801392	931.161804	20.534956
226.399902	890.815247	1059.185303	923.657043	19.505724
226.775772	870.233459	1063.569214	902.852356	16.871632
227.151581	876.252014	1096.856812	913.551941	16.908031
227.527374	873.651428	1114.615112	917.490051	18.193041
227.903137	880.933105	1156.670532	932.499207	18.701160
228.278870	884.425293	1201.697998	949.811707	20.608900
228.654572	880.041504	1274.217407	958.133545	19.811470
229.030273	879.669922	1355.281616	966.232483	18.200258
229.405930	871.570984	1439.317993	961.848633	15.901034
229.781555	878.926941	1512.432007	977.749451	15.599324
230.157181	874.988831	1530.041626	960.957031	13.123858
230.532761	879.149719	1493.187500	959.842590	13.141353
230.908325	869.787598	1432.556641	943.793213	13.150264
231.283859	882.419128	1387.306274	966.009766	16.556301
231.659332	884.499573	1359.739868	960.734192	16.041279
232.034821	890.369568	1335.368530	957.167664	15.010843
232.410263	877.143616	1308.842407	944.164734	15.524972
232.785690	877.292236	1291.604248	936.808777	14.365149
233.161087	877.217957	1273.697266	945.799316	17.297588
233.536469	880.710205	1254.898682	948.548645	18.129484
233.911804	883.979492	1256.384644	959.099548	20.171595
234.287140	880.041504	1268.941895	951.000549	18.246073
234.662430	888.289063	1307.356323	960.808411	17.304943
235.037704	875.583313	1319.541992	964.672180	20.066927
235.412933	877.292236	1317.238647	964.003601	19.709528
235.788162	860.871399	1310.551392	949.588867	19.729023
236.163345	874.320129	1310.922974	953.229553	18.073502
236.538513	884.276672	1333.436646	966.158264	18.229940
236.913635	889.403564	1336.334473	970.542053	18.154593
237.288742	890.072266	1351.269409	972.919739	17.963570
237.663834	883.830872	1348.371582	972.845520	19.161861
238.038879	882.196228	1352.235229	979.681396	20.739803
238.413910	875.063171	1342.724487	978.195313	22.052742
238.788910	877.812317	1359.814087	982.802063	21.782024
239.163879	878.852600	1371.033813	983.842285	21.331511
239.538834	871.199402	1391.467163	986.517273	22.165100
239.913757	874.691589	1422.005493	996.919617	22.332344
240.288651	875.583191	1468.816284	1012.746094	23.121250
240.663528	877.217957	1537.992188	1029.910034	23.108055
241.038361	864.883606	1596.245483	1036.077148	23.407501
241.413177	867.187012	1695.959595	1052.498047	22.359697
241.787979	864.586487	1799.686157	1066.095337	21.549452
242.162735	874.691589	1933.282593	1093.661743	20.685057
242.537476	870.010559	2040.575684	1104.807251	20.058403
242.912170	896.982422	2177.292725	1142.552979	19.180550
243.286865	902.703796	2232.945557	1154.664307	18.940958
243.661514	907.161926	2242.307373	1160.757202	18.993830
244.036148	900.920471	2153.664307	1136.311401	18.790028
244.410751	891.335449	2062.271973	1114.169312	19.030396
244.785339	886.802979	1965.901367	1101.760620	19.920115
245.159882	879.669922	1930.087524	1101.909302	21.157240
245.534378	892.449951	1957.653687	1124.943237	21.826180
245.908890	890.146545	2059.968750	1158.007813	22.897604
246.283356	883.310730	2216.747314	1203.332520	23.999777
246.657791	867.558594	2437.946533	1240.632446	23.756796
247.032196	875.508972	2692.582275	1292.198608	22.931911
247.406586	872.165344	2925.892578	1314.043579	21.515915
247.780960	873.279846	3091.513428	1324.817505	20.355730
248.155289	868.598877	3118.410889	1301.486450	19.241055
248.529602	866.444031	3021.817383	1276.595093	19.029236
248.903870	869.936218	2823.354492	1244.199097	19.159384
249.278122	867.261414	2606.167969	1206.081787	19.484680
249.652344	862.877502	2415.655762	1174.800293	20.088043
250.026550	862.877441	2276.263916	1162.763184	21.217533
250.400711	888.363281	2187.249268	1169.301880	21.629196
250.774857	894.456116	2120.154053	1170.639282	22.532726
251.148987	892.152771	2085.157471	1167.295776	23.063028
251.523071	865.923889	2081.813721	1167.667236	24.816668
251.897125	881.601746	2129.887451	1190.849609	24.773806
252.271164	876.920715	2195.273926	1195.605103	24.172913
252.645187	876.177673	2252.263916	1194.862061	23.158752
253.019165	858.419250	2267.793213	1175.840454	22.522141
253.393112	883.162109	2262.220703	1199.468872	22.936426
253.767044	885.539856	2178.407227	1189.437988	23.505745
254.140930	894.010315	2094.073975	1182.676392	24.054230
254.514801	878.926941	1991.015747	1156.819092	24.988304
254.888657	883.905212	1956.464844	1148.571533	24.676142
255.262466	876.326355	1927.041016	1146.193726	25.684174
255.636276	894.753357	1942.941772	1159.791138	25.285316
256.010010	910.282532	1968.873413	1187.283081	26.166914
256.383759	922.765442	2022.148438	1204.224121	25.601511
256.757446	900.474670	2070.965576	1210.317017	26.471144
257.131134	889.626465	2131.893555	1224.731689	26.975296
257.504791	877.515137	2215.632568	1254.824341	28.197018
257.878418	872.982727	2333.551270	1285.511353	28.244385
258.252014	875.508972	2494.342529	1335.740112	28.429800
258.625580	886.951660	2686.563477	1400.829224	28.554911
258.999115	879.967102	2915.416016	1473.125610	29.141409
259.372650	870.456360	3182.980225	1541.707031	29.026756
259.746124	864.809387	3481.454102	1612.591919	28.577915
260.119598	864.140625	3785.575439	1658.956909	27.206367
260.493042	865.775208	3991.319336	1671.291138	25.772022
260.866425	862.357239	4040.284912	1645.656616	24.648117
261.239838	869.341797	3866.639404	1596.393921	24.256922
261.613159	861.985840	3582.802734	1534.053833	24.700964
261.986511	864.289307	3283.214111	1467.627319	24.942404
262.359802	864.809387	3051.538330	1416.878540	25.246346
262.733063	865.924011	2896.989014	1392.210083	25.911829
263.106293	870.084961	2793.559326	1372.965698	26.144396
263.479523	884.573914	2749.126221	1376.829224	26.400724
263.852692	888.066162	2718.142090	1359.739746	25.773443
264.225861	871.125183	2683.591553	1365.683960	27.286509
264.598969	874.320129	2652.458740	1368.730469	27.804937
264.972076	871.645203	2641.833252	1383.516602	28.916218
265.345154	881.750305	2670.811279	1404.470093	29.217548
265.718201	867.112793	2715.021484	1429.584473	30.438284
266.091217	901.143372	2824.469482	1502.698242	31.276800
266.464203	903.372559	2931.019531	1533.385376	31.071129
266.837158	902.332214	3041.804688	1552.035156	30.367437
267.210114	871.199402	3120.639893	1530.933228	29.328798
267.583038	873.502747	3181.122314	1538.289185	28.808319
267.955902	870.604980	3213.147217	1551.069336	29.048115
268.328766	881.155945	3208.168701	1558.128052	29.091896
268.701569	877.292236	3200.143799	1556.419067	29.236773
269.074371	878.406738	3198.955078	1551.737915	29.016037
269.447144	868.598816	3230.385010	1573.434204	29.843319
269.819885	863.769226	3292.725342	1612.889038	30.841225
270.192596	864.958008	3395.708740	1681.767944	32.275402
270.565277	890.146667	3550.852783	1773.828979	33.212322
270.937927	892.747131	3735.123047	1834.757324	33.141647
271.310577	893.118652	3948.966553	1882.310913	32.370468
271.683136	870.307800	4153.447754	1903.487183	31.469248
272.055725	869.862000	4307.625977	1915.747070	30.423410
272.428284	869.638977	4343.291504	1896.131226	29.550802
272.800812	863.694824	4277.235840	1859.351196	29.167845
273.173279	868.301575	4140.890625	1832.082153	29.450094
273.545776	871.570862	4038.352783	1815.289673	29.800562
273.918152	886.654358	3939.901611	1796.342407	29.794117
274.290558	882.493408	3875.852783	1775.314819	29.826736
274.662964	883.756531	3799.544189	1763.203491	30.161558
275.035278	875.211731	3758.529053	1763.277710	30.800146
275.407593	880.190125	3768.559814	1786.757446	31.386818
275.779907	884.276672	3840.707764	1823.463257	31.767578
276.152161	878.852600	3895.394531	1851.326660	32.238041
276.524384	879.372620	3979.207764	1876.069336	32.153217
276.896606	874.914551	4027.950439	1891.152832	32.230469
277.268799	879.818542	4085.237549	1895.165161	31.675941
277.640930	872.611145	4090.439209	1893.233398	31.717737
278.013031	873.428467	4085.832764	1894.496460	31.785164
278.385162	866.889832	4072.904053	1891.227173	31.950495
278.757233	871.868164	4064.358643	1890.261230	31.899643
279.129272	867.855774	4085.906494	1893.530640	31.872549
279.501282	871.050842	4108.940430	1912.106323	32.152283
279.873230	869.490479	4170.463379	1949.703491	32.724079
280.245178	864.958008	4265.570801	1995.696899	33.251034
280.617126	872.016785	4425.172852	2070.073975	33.718113
280.988983	868.004395	4597.332520	2119.336670	33.553825
281.360870	893.193054	4778.631348	2204.710205	33.754677
281.732697	883.830872	4945.663574	2233.242432	33.221741
282.104492	887.100281	5074.355957	2265.341309	32.915134
282.476288	873.502747	5156.831543	2249.812012	32.131771
282.848053	878.555420	5181.648926	2254.344482	31.972092
283.219757	884.351013	5183.135254	2255.087646	31.886610
283.591461	881.601807	5136.992676	2236.660645	31.843348
283.963135	883.087891	5087.804688	2245.725586	32.407360
284.334747	880.710144	5098.132324	2284.808838	33.292816
284.706360	889.552063	5171.543457	2355.470703	34.234509
285.077942	902.034973	5327.802246	2414.838623	34.181728
285.449524	901.366272	5445.943848	2446.714355	34.004219
285.821014	886.654358	5542.166016	2439.060791	33.345562
286.192535	869.564758	5653.693848	2440.026855	32.826500
286.563995	868.598816	5747.167480	2432.373779	32.053967
286.935425	878.704041	5800.293457	2422.045654	31.358601
287.306824	877.440918	5718.857422	2382.888184	31.095182
287.678223	869.193298	5577.756348	2329.093018	31.005205
288.049561	881.601807	5462.587402	2329.687500	31.610790
288.420898	884.722473	5336.421387	2319.656982	32.233418
288.792145	893.861633	5298.526855	2348.188965	33.017887
289.163452	875.731934	5309.598145	2361.712158	33.514324
289.534668	876.846436	5454.265625	2412.386719	33.545986
289.905914	871.570862	5621.372559	2466.850342	33.586235
290.277039	885.837097	5826.002441	2539.146729	33.466682
290.648193	902.926697	6017.480469	2597.845947	33.139141
291.019318	907.459167	6136.587891	2599.183350	32.351929
291.390381	881.676086	6108.353027	2538.923828	31.707485
291.761475	862.580261	6010.421387	2484.237061	31.501684
292.132507	862.283142	5892.057129	2452.732910	31.620699
292.503510	872.016785	5806.534668	2462.466553	32.231106
292.874481	909.465332	5798.955566	2509.351318	32.720917
293.245422	912.734680	5834.175293	2573.251709	33.740471
293.616364	917.787292	5989.542480	2636.929443	33.896393
293.987213	881.676086	6126.482422	2674.303711	34.179104
294.358093	875.806152	6340.845703	2714.427002	33.643322
294.728943	862.357361	6537.450684	2776.246826	33.724369
295.099731	860.202576	6759.987793	2818.896484	33.199409
295.470490	860.128235	6917.806152	2879.750732	33.339882
295.841248	871.422180	7023.242188	2914.895752	33.217384
296.211975	869.787598	7114.931152	2971.960205	33.660919
296.582642	870.530579	7278.471191	3034.746094	33.773964
296.953308	864.363525	7447.732910	3064.838867	33.424759
297.323883	864.214905	7554.729004	3062.089600	32.850609
297.694519	867.632813	7561.192871	3002.498779	31.894327
298.065063	874.245789	7480.798340	2947.440430	31.380882
298.435608	874.394348	7270.520996	2863.255127	31.094770
298.806122	871.347900	6948.642090	2768.742432	31.221043
299.176575	877.366516	6616.136719	2678.835938	31.391212
299.547028	875.657532	6392.040527	2624.446289	31.701731
299.917450	867.484314	6259.707031	2594.948242	32.036213
300.287872	857.899231	6173.070313	2581.350830	32.425140
300.658234	855.149963	6097.652832	2572.137451	32.751293
301.028564	862.728821	6033.306152	2572.137207	33.060303
301.398865	858.345032	5968.812012	2539.444092	32.895218
301.769135	867.558594	5911.450684	2519.307861	32.747513
302.139374	873.874329	5877.642090	2489.958496	32.297348
302.509583	869.193176	5839.673828	2484.013916	32.488224
302.879791	869.861877	5772.207031	2446.342773	32.157688
303.249939	863.471863	5682.449219	2414.987061	32.195942
303.620087	875.508972	5592.691406	2391.953369	32.147247
303.990173	871.719482	5519.429199	2381.699219	32.488682
304.360260	880.561523	5475.664551	2381.625244	32.666595
304.730286	886.208496	5456.123047	2379.321777	32.672672
305.100281	897.354004	5459.986816	2384.597412	32.596169
305.470276	886.282776	5458.724121	2378.132813	32.626991
305.840179	874.022888	5460.581543	2387.569336	32.999607
306.210144	860.797058	5468.680176	2378.429932	32.935574
306.579987	881.750488	5496.767090	2411.866211	33.155151
306.949890	890.815369	5536.221191	2430.070557	33.134998
307.319702	900.326111	5617.062500	2498.057373	33.873661
307.689484	877.812317	5704.368652	2529.561768	34.222115
308.059265	875.508972	5839.971191	2582.539795	34.385006
308.429016	860.054016	5948.229980	2606.465088	34.322933
308.798737	863.917725	6082.568848	2651.492432	34.253574
309.168396	860.202576	6199.150391	2676.161133	34.013416
309.538055	872.462585	6285.712891	2682.699951	33.440857
309.907684	875.434631	6297.155762	2666.353271	33.032291
310.277313	876.846375	6322.566895	2665.610107	32.847141
310.646851	873.131287	6336.981934	2661.895020	32.738152
311.016388	887.323059	6370.492676	2680.916748	32.710896
311.385895	913.700500	6334.529785	2670.959961	32.416805
311.755371	910.505554	6279.322754	2652.012695	32.437443
312.124817	894.456238	6213.639160	2600.223633	32.068218
312.494232	875.880432	6138.296387	2560.768799	32.017395
312.863617	873.279846	6075.064453	2548.583252	32.206322
313.232971	876.697754	6022.087402	2567.307617	32.856789
313.602295	861.911560	6013.021973	2591.530273	33.577587
313.971619	867.409973	6070.234863	2621.919922	33.722260
314.340820	864.289246	6100.625000	2627.938477	33.680977
314.710083	878.852600	6168.463379	2653.424561	33.548252
315.079285	885.539856	6170.543457	2627.418701	32.958897
315.448486	904.041199	6187.484375	2605.276367	32.199364
315.817596	912.065918	6070.086426	2525.549561	31.281063
316.186707	907.904968	5901.642090	2472.051514	31.322163
316.555786	890.072266	5695.525879	2420.039795	31.838150
316.924866	878.481018	5517.720215	2383.111084	32.432690
317.293884	881.304504	5430.042969	2377.984131	32.903183
317.662872	889.552185	5398.835449	2384.968750	33.163063
318.031830	875.583252	5429.448242	2397.971680	33.430687
318.400757	878.852539	5474.996094	2417.810547	33.483681
318.769684	867.112793	5520.470215	2422.343018	33.421680
319.138550	864.586426	5529.832031	2426.206787	33.473488
319.507416	859.905334	5513.335938	2414.764404	33.413177
319.876190	855.521484	5490.599609	2390.987305	33.127075
320.244995	887.025879	5484.209473	2379.321777	32.461090
320.613770	887.694580	5437.770508	2350.492432	32.148865
320.982483	898.171204	5387.839355	2340.981445	32.136238
321.351166	876.623474	5320.148926	2347.520264	33.102020
321.719818	873.651367	5312.198730	2374.343506	33.810432
322.088440	869.490417	5362.204590	2436.832031	34.886295
322.457062	872.908386	5475.962402	2508.980225	35.543179
322.825623	881.378906	5633.781250	2588.558350	35.922451
323.194183	875.806152	5803.414063	2639.530029	35.792698
323.562653	875.657532	5965.988281	2669.622559	35.242603
323.931183	868.747498	6092.674316	2693.622314	34.933006
324.299591	867.335632	6180.128906	2682.476807	34.165474
324.668060	868.004333	6210.742188	2650.155273	33.356510
325.036407	870.679260	6192.463379	2603.418701	32.559372
325.404755	875.806152	6122.989746	2576.000977	32.402046
325.773102	866.146790	6025.802246	2545.759766	32.552814
326.141388	869.118958	5919.103516	2515.741455	32.606487
326.509674	868.153015	5820.949707	2465.512939	32.251675
326.877899	876.623535	5758.238281	2434.528809	31.913729
327.246124	868.004395	5707.488770	2407.259521	31.806181
327.614288	882.790588	5660.529785	2415.358398	32.077259
327.982422	880.338623	5608.146484	2397.228760	32.084431
328.350525	895.867981	5576.122559	2416.472900	32.489792
328.718628	887.471680	5558.661621	2422.343018	32.858250
329.086700	895.273438	5575.602051	2478.664307	33.830761
329.454712	885.911316	5612.827637	2491.741699	33.972046
329.822693	883.979492	5669.148926	2518.862061	34.165615
330.190674	888.140381	5722.349609	2534.614502	34.058811
330.558563	894.901917	5755.786621	2551.852539	34.087429
330.926483	899.360107	5786.695801	2586.403564	34.518673
331.294312	882.121887	5839.524902	2617.536377	35.006527
331.662231	876.995056	5957.220703	2682.625244	35.542320
332.029999	870.679260	6074.990723	2718.142334	35.498703
332.397766	882.047546	6194.023438	2746.302734	35.095322
332.765503	892.970154	6272.041016	2775.057861	34.989086
333.133240	889.106384	6351.248047	2784.866211	34.707260
333.500916	882.344788	6409.056152	2801.584229	34.726608
333.868561	858.047791	6433.575684	2782.934326	34.523842
334.236176	852.920898	6422.281250	2771.639893	34.451336
334.603790	851.657776	6357.341309	2761.757813	34.693241
334.971344	857.527771	6314.468262	2762.575195	34.910542
335.338867	864.140686	6261.712891	2768.296631	35.278008
335.706360	856.933289	6253.911621	2758.563232	35.235085
336.073853	855.595886	6221.812500	2752.916016	35.356754
336.441284	858.939453	6228.500000	2766.661865	35.528465
336.808655	869.639099	6239.273926	2798.760742	35.926495
337.176086	868.375916	6253.168457	2834.723389	36.516678
337.543396	872.016663	6258.964355	2870.388672	37.096554
337.910706	865.923889	6237.268066	2874.401123	37.392452
338.277954	879.447021	6238.828125	2885.323242	37.427387
338.645264	876.029114	6211.410156	2858.500000	37.157066
339.012421	879.075500	6177.305176	2841.558838	37.040363
339.379669	878.183899	6144.760254	2800.246826	36.495495
339.746796	897.205383	6150.630859	2779.516357	35.830166
340.113953	903.966980	6184.587402	2764.507080	35.233360
340.481018	895.199219	6178.494141	2755.293701	35.207092
340.848114	875.731873	6202.196777	2758.340088	35.344421
341.215118	869.193176	6241.502441	2780.482422	35.576683
341.582153	878.035217	6353.402832	2855.082031	36.108021
341.949066	884.053772	6456.312500	2953.087158	37.130966
342.316010	886.357117	6576.385254	3071.674561	38.406090
342.682922	872.016785	6684.941895	3187.735107	39.837399
343.049835	861.391418	6828.271484	3338.644287	41.516724
343.416656	883.459290	7051.550781	3515.856201	42.677658
343.783478	889.106262	7325.282715	3658.740234	43.032291
344.150269	896.759521	7638.616699	3750.875732	42.334270
344.516998	885.911377	7885.747559	3767.742188	41.169975
344.883728	897.056824	8041.412109	3747.531982	39.898281
345.250427	894.381897	8053.671875	3690.467041	39.055344
345.617065	883.979492	7958.490234	3622.480225	38.709400
345.983704	874.988953	7813.525391	3548.103516	38.525623
346.350281	874.765930	7646.344238	3472.389404	38.360683
346.716827	872.611145	7472.921875	3396.674561	38.241585
347.083405	868.970276	7304.923828	3357.962891	38.673252
347.449860	923.211243	7241.691895	3383.225586	38.933640
347.816376	947.359619	7170.955566	3403.956055	39.472301
348.182770	948.028320	7076.368652	3401.949951	40.042191
348.549194	893.490173	6955.402832	3388.278320	41.155132
348.915558	876.846375	6970.635254	3416.439209	41.675102
349.281921	874.765869	7038.399902	3451.881592	41.811630
349.648193	874.245789	7117.011719	3479.373291	41.730339
350.014526	870.233398	7159.364746	3519.199463	42.119743
350.380737	871.496582	7228.243652	3566.902100	42.402279
350.746948	879.521301	7329.592285	3621.589111	42.512215
351.113159	875.063171	7374.024902	3625.824463	42.326164
351.479309	873.428528	7434.210449	3655.768311	42.408665
351.845428	864.512207	7469.800781	3698.938232	42.911465
352.211517	855.447266	7576.053223	3777.401611	43.477543
352.577576	861.465820	7675.099121	3865.896240	44.094395
352.943604	868.004395	7801.710938	3954.539307	44.514935
353.309601	898.022766	7962.354004	4049.424072	44.610046
353.675537	892.450012	8155.540527	4133.906250	44.629162
354.041473	880.487305	8354.671875	4214.227539	44.603397
354.407379	862.506042	8504.837891	4281.917480	44.743034
354.773254	865.032288	8690.743164	4369.074219	44.776020
355.139038	873.205566	8868.549805	4458.312012	44.839928
355.504913	891.781250	9124.151367	4618.657227	45.270996
355.870636	883.236511	9369.499023	4772.984375	45.835815
356.236389	885.985657	9625.842773	4942.988770	46.419559
356.602081	871.570984	9895.785156	5085.798340	46.699108
356.967804	879.149841	10151.757813	5187.890625	46.467407
357.333405	872.016785	10411.965820	5257.660645	45.971355
357.699036	864.363586	10613.846680	5251.196289	44.995537
358.064606	859.608215	10764.161133	5237.152832	44.197296
358.430176	860.574219	10805.622070	5194.503418	43.578766
358.795654	861.465820	10811.714844	5241.685547	44.021206
359.161163	864.066406	10804.209961	5339.245117	45.021267
359.526581	861.317200	10926.512695	5544.469238	46.528175
359.892029	884.202454	11207.153320	5825.630859	47.868366
360.257416	884.276672	11614.852539	6142.754395	49.004616
360.622772	885.316895	12126.055664	6406.900391	49.121181
360.988098	869.267517	12628.937500	6576.607910	48.533169
361.353394	874.617371	13132.262695	6648.013184	47.100368
361.718658	888.437683	13428.953125	6598.156250	45.530174
362.083893	884.350891	13483.863281	6381.563965	43.630360
362.449097	889.997864	13245.054688	6064.439453	41.881165
362.814209	881.527405	12775.833008	5690.696777	40.432537
363.179382	885.242615	12116.840820	5350.464844	39.755890
363.544434	878.183777	11394.323242	5095.829590	40.106411
363.909546	873.576965	10738.303711	4937.415527	41.195656
364.274536	877.143555	10264.326172	4858.951660	42.417500
364.639587	883.905090	9930.186523	4781.528320	43.085365
365.004517	886.134277	9710.622070	4728.773438	43.545177
365.369507	883.830872	9533.187500	4665.468262	43.721603
365.734344	871.199402	9430.129883	4656.774414	44.229530
366.099274	869.638977	9366.750000	4662.124023	44.632641
366.464081	870.827881	9306.861328	4668.291504	45.014801
366.828918	878.332458	9241.103516	4643.028809	45.017326
367.193665	885.094055	9161.600586	4579.871094	44.641747
367.558411	898.840027	9105.575195	4547.920410	44.464458
367.923126	894.902039	9018.567383	4490.707520	44.263336
368.287781	905.675964	8944.487305	4495.314453	44.653847
368.652435	884.871094	8833.033203	4450.807129	44.864914
369.017059	896.908203	8784.884766	4467.822266	45.270344
369.381653	897.131104	8744.910156	4480.602051	45.662228
369.746185	901.440735	8759.844727	4533.283203	46.216034
370.110687	895.793701	8778.049805	4563.524902	46.531490
370.475220	881.601868	8824.786133	4596.217285	46.764816
370.839661	890.889648	8931.038086	4621.183105	46.395828
371.204041	888.809265	9029.118164	4648.377930	46.184593
371.568451	885.614075	9089.303711	4651.944824	45.910206
371.932770	870.307800	9095.841797	4648.155762	45.928299
372.297150	878.258118	9089.823242	4632.254395	45.715965
372.661377	878.332458	9092.646484	4628.539551	45.654533
373.025696	885.985596	9079.867188	4639.833496	45.812813
373.389862	872.388184	9067.979492	4659.300781	46.206699
373.754059	888.734863	9105.129883	4707.226074	46.474049
374.118225	876.772156	9172.373047	4756.785645	46.771942
374.482361	877.069336	9312.136719	4859.100098	47.208050
374.846436	855.224304	9467.281250	4961.267090	47.677845
375.210510	862.283020	9706.312500	5119.977539	48.142021
375.574524	876.772156	9971.499023	5299.641113	48.631138
375.938538	889.552246	10282.530273	5476.853516	48.837559
376.302460	891.632629	10574.094727	5632.294922	48.961330
376.666412	894.604797	10851.763672	5710.981934	48.370995
377.030304	894.827637	11057.062500	5724.355469	47.524273
377.394196	894.307617	11155.067383	5641.805176	46.268478
377.757996	891.409668	11174.980469	5528.716309	45.094326
378.121796	885.762756	11032.468750	5363.616211	44.131104
378.485565	887.100159	10840.543945	5218.874512	43.520359
378.849304	864.289246	10520.670898	5077.550781	43.631889
379.212982	863.992004	10268.264648	5003.099609	44.013054
379.576630	870.753601	10003.152344	4957.923340	44.754616
379.940277	889.997986	9860.713867	4966.765625	45.445286
380.303864	892.227051	9723.700195	4951.013672	45.958210
380.667450	881.230286	9692.567383	4942.765625	46.094429
381.030945	873.577087	9647.614258	4914.010742	46.049881
381.394501	891.261169	9685.954102	4946.629395	46.111534
381.757935	915.483887	9708.913086	4999.755859	46.446861
382.121399	921.651062	9756.690430	5057.562988	46.812607
382.484741	914.072083	9878.621094	5149.029785	47.241169
382.848145	887.545959	9972.316406	5231.431641	47.815029
383.211487	884.796814	10091.944336	5321.412109	48.186642
383.574768	872.611145	10217.069336	5360.718262	48.029613
383.938019	870.604980	10319.384766	5377.362793	47.696720
384.301270	871.050781	10432.176758	5388.581543	47.248940
384.664459	870.902161	10453.278320	5394.972168	47.212402
385.027649	879.372742	10492.956055	5406.488770	47.090832
385.390778	885.391174	10560.051758	5482.500488	47.517010
385.753876	897.131042	10638.886719	5549.669922	47.758732
386.116943	894.010254	10727.009766	5650.350098	48.371197
386.479980	889.775085	10773.894531	5661.718262	48.278893
386.842987	888.586182	10858.599609	5684.157715	48.099945
387.205994	897.651184	10941.000977	5669.743652	47.514946
387.568909	889.032043	10989.149414	5676.058594	47.395752
387.931793	882.493408	10942.562500	5664.987793	47.539375
388.294678	873.056946	10885.720703	5661.644043	47.825302
388.657471	876.846375	10863.355469	5662.089844	47.917084
389.020294	895.496338	10848.270508	5722.795410	48.502041
389.383057	906.418884	10930.523438	5838.781738	49.205021
389.745819	907.013367	10990.858398	5972.601074	50.234688
390.108521	896.388000	11169.333008	6102.481934	50.677711
390.471191	889.626465	11355.015625	6224.710449	50.978363
390.833801	885.911316	11613.738281	6352.808594	50.959969
391.196442	879.744202	11859.458008	6449.773438	50.730186
391.558960	872.016785	12046.700195	6488.931152	50.264641
391.921509	872.388245	12167.071289	6500.819824	49.832581
392.284027	871.050781	12237.213867	6479.123047	49.340065
392.646484	870.604980	12259.577148	6473.252441	49.193615
393.008911	865.329407	12185.497070	6420.423340	49.072536
393.371307	866.295410	12127.096680	6441.822754	49.512707
393.733673	873.279846	12046.848633	6434.689941	49.772911
394.096008	873.131165	12016.979492	6438.851074	49.944324
394.458344	875.583252	11963.629883	6390.033691	49.733288
394.820587	867.855774	11872.163086	6286.381348	49.240040
395.182831	870.010559	11755.953125	6154.345215	48.542736
395.545013	862.134460	11534.160156	6003.139160	48.172718
395.907196	871.942383	11310.805664	5903.722656	48.202377
396.269287	881.527527	11072.516602	5857.952637	48.831623
396.631409	885.762695	10897.534180	5832.912598	49.413334
396.993469	891.781189	10757.473633	5826.299316	50.016945
397.355530	895.273438	10666.601563	5839.079590	50.595028
397.717499	895.422119	10637.325195	5858.992188	50.950726
398.079468	883.459412	10630.043945	5882.992188	51.295227
398.441376	872.313965	10675.741211	5886.558594	51.147873
398.803284	865.255188	10662.812500	5877.270996	51.155766
399.165131	875.434753	10679.381836	5878.979980	51.036030
399.526978	887.174500	10650.922852	5867.462891	51.007957
399.888763	890.666748	10653.375000	5877.865234	51.084167
400.250519	882.642029	10643.790039	5869.691895	51.090809
400.612244	898.840088	10680.496094	5931.066406	51.445545
400.973938	913.700623	10676.781250	5993.852051	52.034306
401.335602	919.496155	10722.625977	6067.560547	52.514500
401.697205	922.394043	10845.522461	6171.510254	52.897793
402.058807	916.078308	11041.383789	6283.261719	53.007622
402.420349	917.787292	11331.387695	6460.175781	53.222595
402.781860	894.679138	11629.043945	6610.341797	53.246395
403.143341	894.679016	12026.934570	6759.243652	52.680828
403.504822	890.815369	12411.006836	6905.396973	52.209042
403.866241	895.645020	12829.405273	7029.557129	51.399662
404.227631	891.409729	13128.770508	7141.829590	51.076538
404.588959	897.056824	13401.164063	7186.336426	50.297710
404.950287	894.233215	13445.151367	7149.779785	49.841347
405.311554	893.193054	13343.653320	7084.318848	49.726082
405.672821	893.415955	13046.963867	7026.734375	50.465252
406.034027	887.174561	12674.409180	6950.498535	51.439754
406.395203	890.443848	12276.295898	6818.611816	52.066093
406.756348	882.716309	11996.100586	6725.659668	52.575733
407.117493	887.917480	11823.644531	6678.402832	52.950165
407.478516	883.013489	11781.143555	6732.867188	53.677589
407.839600	882.790588	11769.476563	6774.104980	54.114857
408.200592	891.186829	11850.020508	6858.587402	54.452877
408.561554	898.319824	11867.629883	6942.400391	55.099915
408.922485	898.245605	11914.663086	7035.947266	55.714130
409.283417	893.936035	11925.437500	7113.667969	56.381550
409.644257	897.502625	12064.309570	7193.543457	56.381752
410.005096	907.384827	12211.057617	7251.796875	56.126995
410.365906	907.607727	12309.731445	7236.416504	55.505524
410.726715	900.920471	12379.352539	7212.193848	54.983761
411.087433	894.530457	12354.758789	7156.764160	54.643185
411.448120	892.524231	12340.789063	7163.078613	54.772968
411.808807	892.970032	12269.385742	7138.782715	54.901409
412.169434	890.815247	12156.668945	7119.834473	55.291142
412.530029	911.620056	12150.204102	7152.751465	55.533077
412.890564	914.220703	12154.440430	7194.955078	55.877327
413.251099	925.886230	12261.137695	7283.152344	56.084030
413.611572	912.140198	12326.821289	7361.021973	56.496384
413.972076	914.815186	12456.182617	7448.253906	56.608879
414.332489	906.418945	12558.051758	7532.216309	56.865826
414.692871	910.877014	12739.424805	7658.753418	57.047379
415.053223	908.870789	12910.171875	7787.296875	57.314007
415.413574	912.957458	13178.331055	7960.570801	57.459423
415.773834	905.973083	13392.397461	8115.269531	57.737076
416.134094	910.208313	13634.028320	8306.969727	58.133179
416.494263	903.372498	13864.441406	8485.667969	58.500538
416.854462	902.257996	14230.010742	8712.513672	58.601444
417.214630	903.892578	14634.143555	8969.824219	58.745697
417.574738	908.127869	15043.403320	9235.902344	58.914837
417.934784	912.363098	15484.389648	9539.132813	59.200893
418.294861	918.381653	16039.133789	9897.270508	59.381229
418.654846	915.929626	16637.865234	10247.682617	59.354988
419.014832	915.632385	17287.716797	10614.366211	59.239456
419.374756	896.536621	17923.154297	10997.026367	59.321766
419.734680	925.217468	18688.396484	11492.698242	59.490929
420.094543	923.954346	19320.787109	11883.307617	59.571960
420.454376	931.756165	19865.650391	12144.110352	59.218426
420.814148	908.573730	20286.947266	12254.004883	58.546875
421.173920	902.183655	20719.759766	12358.325195	57.807987
421.533691	907.979309	21067.791016	12402.312500	57.016071
421.893341	900.474670	21244.113281	12425.495117	56.651718
422.253021	898.914307	21294.937500	12368.504883	56.234447
422.612640	894.233215	21225.240234	12332.542969	56.260414
422.972260	902.406555	21151.458984	12351.936523	56.543537
423.331757	902.480896	21096.177734	12428.838867	57.078991
423.691315	923.582825	21238.541016	12586.211914	57.409069
424.050781	937.105957	21387.740234	12607.018555	57.063812
424.410248	939.557922	21410.996094	12514.436523	56.541603
424.769653	913.849121	21297.982422	12297.323242	55.844784
425.128998	901.440613	21117.353516	12073.002930	55.261234
425.488373	899.731628	20800.007813	11810.640625	54.827930
425.847656	903.669678	20399.591797	11538.768555	54.550377
426.206940	908.425049	19983.791016	11251.958008	54.224564
426.566193	918.604492	19543.693359	10973.843750	53.987602
426.925385	912.808899	19094.757813	10693.126953	53.791363
427.284576	900.474670	18525.078125	10404.535156	53.924961
427.643677	900.400391	18070.125000	10204.809570	54.190788
428.002777	904.264160	17658.412109	10043.944336	54.551743
428.361847	915.335205	17281.400391	9945.270508	55.174747
428.720856	912.288818	16921.330078	9780.245117	55.393425
429.079865	910.728516	16688.392578	9659.280273	55.448967
429.438812	902.555176	16534.212891	9584.309570	55.539558
429.797760	899.360168	16456.937500	9586.166992	55.836502
430.156616	906.641785	16248.444336	9530.661133	56.212555
430.515503	909.465332	16108.831055	9475.602539	56.358517
430.874268	905.304382	16025.536133	9452.197266	56.526203
431.233093	892.970154	16041.213867	9505.324219	56.853813
431.591827	891.558350	16121.757813	9580.889648	57.053299
431.950562	892.672913	16197.621094	9656.827148	57.263535
432.309204	901.514893	16333.596680	9731.724609	57.219822
432.667877	900.920410	16519.576172	9853.953125	57.322685
433.026459	907.904968	16850.371094	9977.517578	56.889645
433.385010	907.459167	17288.087891	10082.582031	56.012032
433.743561	904.709900	17903.833984	10177.318359	54.547562
434.102051	907.756287	18540.236328	10310.320313	53.325253
434.460510	921.948181	19289.134766	10473.711914	52.004498
434.818939	925.068909	19888.458984	10585.387695	50.941936
435.177338	918.827454	20424.332031	10636.434570	49.819824
435.535675	904.487000	20674.435547	10663.109375	49.360886
435.894012	917.192810	20674.210938	10672.025391	49.374016
436.252289	921.725281	20530.509766	10710.215820	49.918903
436.610535	933.465088	20071.986328	10651.071289	50.775116
436.968719	954.938538	19647.570313	10677.968750	52.015312
437.326935	952.412292	19065.333984	10679.233398	53.701008
437.685028	951.149170	18609.708984	10756.507813	55.527508
438.043152	926.332031	18259.001953	10819.293945	57.076965
438.401215	922.245361	18214.791016	10949.026367	57.983261
438.759277	911.025635	18396.535156	11161.235352	58.621166
439.117249	920.239075	18862.414063	11475.090820	58.827045
439.475250	937.031555	19266.992188	11786.418945	59.189365
439.833130	949.142883	19799.224609	12072.855469	59.011482
440.191071	940.672363	20079.865234	12165.211914	58.646877
440.548889	928.263855	20326.029297	12196.198242	58.088829
440.906708	913.180420	20455.244141	12141.807617	57.458755
441.264496	912.957520	20468.244141	12053.460938	56.969269
441.622223	913.403320	20397.138672	11914.070313	56.460773
441.979950	919.942078	20172.445313	11739.606445	56.198738
442.337616	918.604492	19997.982422	11591.893555	55.941490
442.695251	921.799561	19745.205078	11436.155273	55.857880
443.052887	911.620117	19511.152344	11355.833008	56.153099
443.410461	898.840027	19380.156250	11350.706055	56.553688
443.768005	902.406555	19383.869141	11467.956055	57.168362
444.125458	912.511719	19468.873047	11610.468750	57.651157
444.482941	921.502380	19695.718750	11851.804688	58.219753
444.840393	919.124695	20027.333984	12158.229492	58.818199
445.197754	919.050476	20500.716797	12491.328125	59.097511
445.555084	911.248718	20844.960938	12721.073242	59.245483
445.912415	902.257996	21234.531250	12867.299805	58.847538
446.269714	903.743958	21425.710938	12951.558594	58.706921
446.626953	912.214539	21576.396484	12965.898438	58.331291
446.984161	918.158691	21637.546875	12884.463867	57.754139
447.341309	935.545593	21711.105469	12763.127930	56.930267
447.698456	948.028503	21722.175781	12630.718750	56.236679
448.055542	951.817871	21632.271484	12517.481445	55.925583
448.412598	939.186340	21347.837891	12291.824219	55.626591
448.769653	929.452820	20964.068359	12037.932617	55.446434
449.126617	927.595154	20485.111328	11720.957031	55.187798
449.483582	952.635193	20146.365234	11558.828125	55.258633
449.840515	957.464844	19761.849609	11370.247070	55.374226
450.197388	950.331787	19485.666016	11250.174805	55.568691
450.554230	936.288574	19258.744141	11170.893555	55.858265
450.911041	927.446533	19143.501953	11146.596680	56.099689
451.267822	932.647766	19067.861328	11183.749023	56.525951
451.624573	908.350769	18967.107422	11132.405273	56.615498
451.981262	903.744080	18917.769531	11077.941406	56.479309
452.337921	901.143372	18750.439453	10962.920898	56.370720
452.694580	902.034973	18542.988281	10800.049805	56.108162
453.051147	907.384827	18354.853516	10706.651367	56.164402
453.407715	906.493164	18099.324219	10501.500977	55.808186
453.764221	940.895325	18026.283203	10400.671875	55.367638
454.120728	952.337891	17693.558594	10153.838867	54.963142
454.477142	951.892151	17579.132813	10118.247070	55.128540
454.833557	933.910889	17370.935547	10032.948242	55.356956
455.189911	926.777832	17297.451172	10063.931641	55.814163
455.546265	931.533203	17217.203125	10088.081055	56.224571
455.902557	932.721985	17154.044922	10149.454102	56.818623
456.258820	932.499207	17269.216797	10300.140625	57.341026
456.615051	933.539368	17420.867188	10440.350586	57.661324
456.971252	941.638367	17543.615234	10647.579102	58.462559
457.327393	941.489746	17837.259766	10935.577148	59.151421
457.683502	941.118225	18237.677734	11334.210938	60.087635
458.039612	941.118225	18950.537109	11883.308594	60.758156
458.395630	955.087158	19710.060547	12441.916992	61.246849
458.751648	949.440125	20425.445313	12893.453125	61.326809
459.107605	941.192566	21238.763672	13315.122070	60.962616
459.463562	927.595154	21821.818359	13496.198242	60.153488
459.819458	939.186340	22206.111328	13500.061523	59.062958
460.175323	923.211243	22259.091797	13218.379883	57.626724
460.531158	925.960449	22190.583984	12844.489258	56.048626
460.886932	922.468262	21923.539063	12430.622070	54.797943
461.242676	937.923157	21496.519531	11961.401367	53.619804
461.598419	941.341125	20892.291016	11580.674805	53.327457
461.954102	938.666260	20226.240234	11233.159180	53.373707
462.309723	940.598206	19524.376953	10960.096680	53.915287
462.665344	928.635437	18929.138672	10737.040039	54.489609
463.020905	925.514709	18542.837891	10596.311523	54.893681
463.376373	926.183411	18295.781250	10569.785156	55.520004
463.731873	941.638428	18105.863281	10557.375977	56.021973
464.087341	943.050110	17988.392578	10566.070313	56.455425
464.442749	945.204895	17941.580078	10619.418945	56.919277
464.798126	934.728210	17902.570313	10666.378906	57.353497
465.153503	933.316406	18011.275391	10762.600586	57.555382
465.508820	914.592102	18112.773438	10830.140625	57.654636
465.864105	914.740723	18277.726563	10903.403320	57.528481
466.219330	926.926453	18489.044922	11050.449219	57.644081
466.574524	936.139954	18612.607422	11112.195313	57.568382
466.929657	936.957336	18649.908203	11094.213867	57.343674
467.284790	945.353516	18634.677734	10996.875977	56.822536
467.639893	946.096497	18576.421875	10858.823242	56.225430
467.994934	940.152283	18541.351563	10743.430664	55.696651
468.349945	924.994568	18362.802734	10611.171875	55.546989
468.704926	925.143127	18189.750000	10523.271484	55.594242
469.059875	949.217285	17958.744141	10430.319336	55.739948
469.414764	950.183167	17770.312500	10357.576172	55.929371
469.769653	943.718933	17661.013672	10312.250977	56.040958
470.124451	930.047119	17672.607422	10356.833008	56.304329
470.479248	926.554871	17636.865234	10368.127930	56.501484
470.834015	929.601257	17594.958984	10413.823242	56.909801
471.188721	926.777771	17700.541016	10509.821289	57.131149
471.543365	940.449402	17876.861328	10652.557617	57.344543
471.898010	947.879700	18078.074219	10810.154297	57.572456
472.252625	953.303894	18278.693359	10994.053711	57.953968
472.607178	949.737305	18526.492188	11162.645508	58.104633
472.961700	950.703308	18696.201172	11230.113281	57.926861
473.316193	958.876648	18867.169922	11283.165039	57.650879
473.670654	956.350281	18909.892578	11265.481445	57.421150
474.025055	965.861023	19039.998047	11325.666992	57.318398
474.379456	948.028381	19082.945313	11313.703125	57.158661
474.733795	953.155273	19212.603516	11425.083008	57.350731
475.088104	930.195801	19365.814453	11531.485352	57.504383
475.442383	942.901550	19543.025391	11708.549805	57.879448
475.796570	934.431091	19770.021484	11872.312500	58.070290
476.150787	956.276062	20110.328125	12143.071289	58.404324
476.504944	957.241943	20474.560547	12362.262695	58.435387
476.859070	972.919739	20825.642578	12587.846680	58.505459
477.213135	963.632019	21106.505859	12728.426758	58.406738
477.567200	955.755920	21456.992188	12909.502930	58.307446
477.921173	943.347351	21807.330078	13104.399414	58.287300
478.275146	947.211121	22191.771484	13287.851563	58.088470
478.629089	960.659912	22435.335938	13479.331055	58.295040
478.983002	972.474060	22835.009766	13722.895508	58.320877
479.336823	975.371826	23241.966797	14036.007813	58.655735
479.690643	968.684570	23788.833984	14448.461914	59.069630
480.044403	959.099548	24388.828125	14931.800781	59.636631
480.398163	967.718689	25331.728516	15683.372070	60.399143
480.751862	968.090149	26542.271484	16620.849609	61.205318
481.105499	964.300781	28217.201172	17970.261719	62.400555
481.459137	952.783875	30512.634766	19860.078125	63.962753
481.812744	952.338074	33480.953125	22439.421875	66.055946
482.166290	966.306946	37165.105469	25567.712891	67.961945
482.519806	971.805359	41348.277344	28925.232422	69.231972
482.873291	975.817688	45704.343750	32009.611328	69.382553
483.226715	983.916687	49577.375000	34302.742188	68.566483
483.580139	982.727722	51805.863281	35058.699219	67.048149
483.933502	990.975403	53572.261719	34851.171875	64.395905
484.286804	998.182800	54244.105469	33639.222656	61.302422
484.640106	1001.154968	54707.160156	32085.177734	57.878117
484.993347	991.346924	53968.886719	30189.345703	55.113918
485.346558	971.953918	52692.667969	28605.062500	53.427547
485.699738	961.031433	51301.718750	27841.900391	53.397900
486.052887	954.715637	49860.988281	27758.162109	54.805744
486.405975	956.350342	49189.738281	28272.630859	56.633553
486.759064	967.495789	48847.425781	28835.031250	58.202957
487.112061	977.823792	48889.109375	29147.474609	58.795441
487.464996	975.000305	48909.019531	28941.208984	58.343132
487.817963	970.987976	48801.281250	28239.712891	57.011410
488.170868	960.734192	48229.378906	27117.000000	55.335342
488.523743	963.483337	47287.667969	25859.205078	53.742390
488.876587	966.158386	46072.515625	24637.740234	52.479485
489.229401	995.136414	44796.144531	23879.187500	52.245491
489.582153	992.758728	43494.808594	23545.568359	53.062878
489.934845	1003.904114	42614.246094	23811.349609	54.811962
490.287537	981.241760	42352.105469	24387.937500	56.577728
490.640198	995.582214	42608.078125	25152.882813	58.052998
490.992798	977.526611	42845.625000	25588.220703	58.781494
491.345337	975.966248	43082.949219	25607.466797	58.497421
491.697876	971.285156	42834.925781	24930.197266	57.230839
492.050354	1006.430359	42356.265625	23808.523438	55.144341
492.402832	1031.098999	41231.394531	22280.117188	52.857861
492.755219	1038.900757	39721.339844	20723.251953	50.887051
493.107605	1010.071228	37657.214844	19208.367188	49.658157
493.459930	992.833008	35556.230469	17986.310547	49.166103
493.812225	991.792786	33409.847656	17007.818359	49.404648
494.164490	992.387146	31668.193359	16417.556641	50.284481
494.516724	986.294250	30203.015625	16091.368164	51.700100
494.868896	975.223145	29236.859375	15997.821289	53.155441
495.221039	983.768005	28675.275391	16049.461914	54.405468
495.573120	987.706055	28307.552734	16080.891602	55.246227
495.925201	1032.659180	28227.376953	16240.567383	55.922287
496.277222	1048.411499	28216.906250	16355.143555	56.340012
496.629211	1049.228638	28296.708984	16441.853516	56.491920
496.981140	996.473816	28263.642578	16333.371094	56.246758
497.333069	979.830017	28122.912109	16134.687500	55.833221
497.684967	971.062256	28000.609375	15913.265625	55.280998
498.036804	966.306885	27724.427734	15624.227539	54.779335
498.388580	964.449280	27371.859375	15332.886719	54.410625
498.740326	976.040527	26895.501953	14994.065430	54.083012
499.092072	983.916687	26379.322266	14705.549805	54.031948
499.443756	977.229431	25896.578125	14418.590820	53.939453
499.795410	978.195313	25418.960938	14231.421875	54.225906
500.147003	991.569824	25087.273438	14105.182617	54.423035
500.498566	1003.606873	24694.062500	13973.518555	54.747417
500.850098	995.433594	24365.943359	13793.706055	54.762486
501.201599	987.557556	23998.291016	13642.499023	54.995815
501.553009	983.247864	23745.960938	13567.899414	55.286255
501.904449	991.198242	23545.193359	13554.079102	55.701351
502.255859	1005.984436	23477.208984	13573.175781	55.925709
502.607178	1009.328125	23469.181641	13624.963867	56.169716
502.958405	997.142395	23490.431641	13675.192383	56.363701
503.309692	976.634949	23472.228516	13701.793945	56.567341
503.660919	966.455383	23490.283203	13703.726563	56.550209
504.012115	989.266357	23511.533203	13708.184570	56.472633
504.363251	995.730774	23541.552734	13695.032227	56.326630
504.714294	998.702820	23527.955078	13656.914063	56.185669
505.065369	1002.566650	23518.296875	13623.254883	56.052761
505.416443	1011.111389	23418.431641	13548.803711	55.953556
505.767395	1017.947266	23320.578125	13512.321289	56.021973
506.118317	1005.241516	23177.099609	13481.784180	56.271980
506.469238	998.702820	23191.585938	13554.229492	56.574562
506.820160	992.387146	23208.009766	13639.527344	56.929039
507.170929	1007.247620	23352.380859	13759.526367	57.069603
507.521729	1010.739990	23521.789063	13891.116211	57.218018
507.872498	1010.962891	23726.791016	14056.440430	57.429020
508.223236	989.340820	23965.080078	14238.257813	57.664814
508.573883	983.619446	24198.318359	14391.768555	57.757153
508.924500	992.758606	24456.146484	14523.059570	57.665588
509.275116	993.650330	24585.806641	14591.567383	57.637447
509.625702	1000.634705	24768.146484	14657.473633	57.460114
509.976196	997.513977	24966.900391	14717.213867	57.238430
510.326660	1013.117676	25212.322266	14861.881836	57.228176
510.677124	1009.699707	25414.724609	14999.491211	57.323402
511.027557	1030.950317	25584.583984	15164.961914	57.563831
511.377869	1028.349609	25753.619141	15225.890625	57.421177
511.728180	1028.423950	25832.382813	15268.540039	57.410660
512.078430	1012.820374	25876.888672	15248.776367	57.255135
512.428650	998.479980	25908.318359	15230.721680	57.135025
512.778931	1010.739929	25928.750000	15136.801758	56.690166
513.129028	1009.773987	25904.900391	15018.437500	56.270702
513.479126	1014.306396	25777.843750	14884.989258	56.012527
513.829285	998.851501	25622.179688	14808.086914	56.081921
514.179382	989.266418	25435.232422	14755.332031	56.312214
514.529297	993.055847	25363.234375	14758.377930	56.484291
514.879272	994.913391	25352.833984	14830.081055	56.799465
515.229187	1003.086731	25358.328125	14913.894531	57.116276
515.579163	990.752441	25528.630859	15125.507813	57.603821
515.928955	986.963074	25747.898438	15382.148438	58.136681
516.278748	983.545105	26243.197266	15776.844727	58.564938
516.628540	995.879395	26763.244141	16247.848633	59.191029
516.978333	1002.640869	27471.724609	16777.998047	59.599182
517.327942	995.284912	28162.884766	17341.140625	60.166725
517.677612	993.130127	28898.484375	17762.585938	60.094044
518.027222	984.139465	29540.906250	18062.693359	59.805630
518.376831	985.848450	30075.291016	18139.373047	58.968216
518.726379	986.517273	30347.236328	18016.626953	58.003040
519.075867	991.718445	30251.609375	17680.556641	57.036572
519.425293	1016.238281	30116.529297	17356.150391	56.150341
519.774658	1018.467346	29773.177734	16958.630859	55.434963
520.124084	1028.201050	29425.064453	16655.326172	55.031166
520.473389	1013.191895	28886.000000	16289.756836	54.808128
520.822693	1012.894714	28420.791016	16084.754883	54.990940
521.171997	1018.913269	28042.587891	15962.231445	55.297138
521.521240	1033.773804	27713.353516	15916.386719	55.782787
521.870361	1034.368286	27502.333984	15968.472656	56.423321
522.219482	1025.229004	27406.111328	16059.269531	56.988392
522.568604	1005.613037	27453.591797	16227.268555	57.553188
522.917664	1008.287903	27629.689453	16481.457031	58.123043
523.266724	1013.340515	27984.560547	16835.732422	58.663979
523.615662	1023.817200	28552.976563	17376.658203	59.401886
523.964600	1031.247437	29271.929688	18025.021484	60.174801
524.313538	1035.334106	30194.101563	18813.447266	60.970043
524.662354	1029.984253	31224.234375	19609.304688	61.532642
525.011169	1048.188354	32392.273438	20438.375000	61.862347
525.359985	1032.139038	33588.472656	21199.087891	61.944778
525.708740	1026.417603	34838.093750	22008.021484	62.054314
526.057434	1016.089661	36262.179688	22964.369141	62.271530
526.406067	1026.269165	37950.933594	24217.708984	62.807449
526.754700	1029.687134	39988.386719	25908.244141	63.858795
527.103333	1016.238281	42483.546875	27952.087891	64.956833
527.451782	1014.529358	45212.687500	30229.244141	66.099396
527.800293	1014.157898	47962.628906	32201.681641	66.429260
528.148743	1016.089661	50085.683594	33393.054688	65.981728
528.497131	1000.188904	51566.683594	33577.253906	64.424210
528.845642	1005.167175	52087.324219	32753.013672	62.150558
529.193909	998.331299	51922.296875	31183.439453	59.274857
529.542175	1009.625305	50947.515625	29014.841797	56.080097
529.890503	1009.179504	49310.847656	26777.734375	53.349201
530.238770	1012.374512	47035.480469	24747.490234	51.572174
530.586914	1018.838867	44790.269531	23392.205078	51.114090
530.934998	1029.092651	42612.386719	22504.437500	51.644169
531.283142	1031.544556	41152.042969	22393.429688	53.244312
531.631226	1026.417847	39924.187500	22596.646484	55.453640
531.979248	1014.083557	39587.449219	23322.509766	57.833752
532.327148	1009.996887	39665.988281	23960.177734	59.370308
532.675110	1006.950500	40039.730469	24516.330078	60.229832
533.023071	1006.727722	40295.703125	24534.460938	59.883801
533.370850	1010.517090	40429.449219	24242.080078	58.935036
533.718689	1016.238342	40400.988281	23603.298828	57.349762
534.066467	1018.913269	40013.574219	22793.994141	55.841183
534.414246	1013.860657	39126.550781	21858.298828	54.691593
534.761963	1020.473572	38154.968750	21121.513672	54.130371
535.109619	1033.773804	37366.468750	20703.115234	54.136753
535.457153	1043.433105	36677.312500	20516.617188	54.647949
535.804749	1036.077148	36101.687500	20430.722656	55.309589
536.152344	1026.194824	35585.207031	20321.646484	55.833344
536.499817	1027.532227	35115.542969	20085.289063	55.907509
536.847229	1030.355835	34740.832031	19723.880859	55.453163
537.194641	1027.903931	34328.601563	19265.876953	54.767536
537.542114	1032.510620	34084.292969	18836.333984	53.866459
537.889404	1029.538574	33726.453125	18485.328125	53.386658
538.236694	1035.779907	33508.597656	18326.914063	53.248028
538.583984	1024.783081	33514.988281	18442.009766	53.607624
538.931213	1031.619019	34040.378906	18938.576172	54.249104
539.278381	1028.646851	35143.550781	19892.769531	55.295845
539.625488	1036.745972	36835.574219	21202.279297	56.330151
539.972595	1048.708618	39148.914063	22811.306641	57.119370
540.319641	1049.451660	41812.144531	24419.812500	57.332726
540.666687	1060.597046	44521.593750	25799.318359	56.921661
541.013611	1048.114258	46912.285156	26738.427734	56.013901
541.360596	1051.829346	48464.394531	26999.156250	54.726685
541.707458	1039.272095	49598.406250	26781.005859	53.011108
542.054260	1051.755005	49859.730469	26002.240234	51.119686
542.401062	1049.526001	49854.152344	25042.837891	49.161964
542.747864	1062.380249	49037.343750	23866.257813	47.532867
543.094666	1058.442261	48003.199219	22742.353516	46.190273
543.441284	1064.535156	46571.609375	21649.955078	45.235649
543.787903	1049.748901	45407.281250	20815.980469	44.561165
544.134460	1042.690063	44538.832031	20126.525391	43.874779
544.481079	1043.210205	44140.421875	19748.472656	43.402489
544.827637	1058.590942	43941.218750	19560.562500	43.145607
545.174072	1057.996460	43890.019531	19536.859375	43.142635
545.520508	1059.185303	43827.015625	19570.818359	43.284012
545.866943	1048.114136	43647.277344	19503.722656	43.323875
546.213318	1054.578491	43225.238281	19395.687500	43.492584
546.559631	1064.015015	42554.878906	19090.525391	43.446938
546.905823	1068.101685	41401.625000	18636.236328	43.557152
547.252136	1059.705444	39895.582031	17943.587891	43.474964
547.598389	1048.039917	37882.945313	17156.423828	43.731300
547.944458	1049.823120	35919.644531	16346.598633	43.868237
548.290588	1063.940552	33873.421875	15568.797852	44.209347
548.636658	1050.120483	32114.974609	14871.094727	44.490711
548.982727	1034.442505	30315.437500	14249.702148	45.132553
549.328735	1022.702637	28804.640625	13795.414063	45.974876
549.674622	1033.773804	27447.650391	13415.950195	46.877544
550.020569	1037.934692	26403.546875	13161.909180	47.796894
550.366455	1038.380493	25452.396484	12950.963867	48.794033
550.712280	1026.937988	24681.802734	12813.207031	49.825985
551.058044	1029.315552	24185.984375	12804.959961	50.852070
551.403748	1029.166992	23768.921875	12825.541992	51.875561
551.749512	1046.479492	23520.156250	12914.110352	52.806808
552.095154	1041.426880	23236.093750	12913.665039	53.491402
552.440735	1062.603149	23088.458984	12936.252930	53.907780
552.786316	1046.182251	22923.132813	12854.667969	53.976833
553.131897	1038.751953	22684.546875	12716.687500	53.950134
553.477417	1012.448792	22367.867188	12501.358398	53.798569
553.822815	1015.495300	22043.462891	12264.481445	53.495358
554.168213	1023.297119	21691.935547	12042.614258	53.314190
554.513672	1023.371399	21306.232422	11819.778320	53.229214
554.859009	1029.018433	20851.572266	11615.596680	53.406731
555.204285	1033.922363	20454.423828	11450.346680	53.636223
555.549500	1033.402222	20104.310547	11309.023438	53.881130
555.894714	1013.266113	19831.171875	11213.617188	54.205559
556.239990	1006.430359	19525.640625	11123.265625	54.628864
556.585022	1020.845032	19316.849609	11066.645508	54.907078
556.930115	1039.272095	19064.814453	11006.609375	55.295628
557.275146	1033.922363	18881.064453	10938.622070	55.497395
557.620178	1012.671814	18663.060547	10873.906250	55.869785
557.965149	1001.674988	18505.685547	10788.903320	55.914207
558.310059	997.216797	18362.951172	10735.405273	56.077034
558.654968	996.845215	18247.187500	10703.379883	56.268654
558.999756	994.467590	18181.207031	10692.607422	56.428036
559.344604	997.588318	18196.291016	10680.718750	56.301517
559.689331	990.678162	18159.882813	10643.938477	56.224274
560.033997	1001.600586	18125.480469	10655.233398	56.375271
560.378723	998.479980	18092.638672	10714.750000	56.839706
560.723389	1005.018555	18144.873047	10771.814453	56.982952
561.067932	984.139587	18172.291016	10821.374023	57.232647
561.412476	989.415039	18185.664063	10789.795898	56.991383
561.757019	996.102295	18163.892578	10762.897461	56.890224
562.101501	999.297302	18143.533203	10717.126953	56.682781
562.445862	1005.613037	18058.087891	10677.969727	56.721130
562.790222	995.507874	17994.855469	10630.490234	56.678543
563.134644	1007.916321	18004.664063	10615.852539	56.528088
563.478943	1012.746094	18010.683594	10644.534180	56.664452
563.823181	1016.684082	18038.472656	10720.694336	57.009342
564.167358	1006.801819	18090.335938	10838.018555	57.547913
564.511536	992.758606	18241.021484	10985.657227	57.935677
564.855774	986.740173	18426.853516	11166.436523	58.369438
565.199768	992.461426	18658.974609	11382.656250	58.812935
565.543823	988.374756	18924.085938	11591.819336	59.119175
565.887817	996.325195	19198.931641	11739.979492	59.022617
566.231812	1004.349915	19353.925781	11745.773438	58.537724
566.575745	1006.430420	19409.060547	11650.293945	57.838814
566.919617	1007.990723	19386.843750	11516.328125	57.176243
567.263428	997.439758	19299.462891	11363.635742	56.639618
567.607239	992.535706	19210.744141	11238.956055	56.242741
567.950989	995.062012	19075.439453	11110.782227	55.948616
568.294678	996.696716	18965.248047	11048.963867	55.943676
568.638367	997.365417	18788.556641	11000.442383	56.224888
568.981995	981.761719	18663.058594	10977.260742	56.531483
569.325623	986.294250	18554.056641	11011.886719	57.068127
569.669128	1001.229187	18529.833984	11095.847656	57.589397
570.012573	1004.498474	18531.542969	11208.342773	58.217712
570.356140	1008.436523	18645.375000	11373.518555	58.769173
570.699524	1002.863770	18768.347656	11498.420898	59.078358
571.042908	1007.024719	18982.564453	11673.774414	59.340363
571.386230	988.449036	19157.396484	11725.563477	59.095963
571.729492	1002.417969	19369.306641	11831.593750	58.960316
572.072815	1003.235291	19469.466797	11865.104492	58.820168
572.416016	1010.442627	19502.085938	11844.596680	58.589462
572.759094	997.365417	19477.046875	11742.801758	58.147305
573.102234	987.929016	19416.490234	11608.090820	57.628822
573.445374	989.266418	19342.187500	11481.405273	57.168766
573.788391	988.374817	19229.617188	11381.096680	56.973763
574.131409	1003.235352	19150.039063	11295.871094	56.718723
574.474365	994.244629	19111.697266	11233.307617	56.514912
574.817261	992.833008	19085.841797	11205.593750	56.445896
575.160156	989.192139	19095.353516	11155.440430	56.148003
575.502930	995.507874	19061.250000	11102.536133	55.945824
575.845703	987.483215	19081.681641	10963.440430	55.133453
576.188477	1011.037170	19040.146484	10845.745117	54.549049
576.531250	1008.882324	18970.970703	10640.373047	53.621216
576.873901	1013.043396	18777.337891	10466.950195	53.218590
577.216431	975.074646	18608.669922	10259.348633	52.651058
577.559082	970.170715	18445.353516	10098.184570	52.234150
577.901611	967.570068	18308.486328	9918.076172	51.614956
578.244080	970.542175	18119.759766	9741.680664	51.146000
578.586487	989.935120	17943.810547	9637.508789	51.006470
578.928955	1552.109497	18344.080078	10150.866211	51.207550
579.271301	1586.140259	18108.539063	10059.325195	51.283016
579.613647	1572.839966	17814.298828	9921.642578	51.404266
579.955872	1017.650085	16972.748047	9198.230469	51.272518
580.298157	993.873230	16680.960938	9110.627930	51.741631
580.640320	989.786560	16463.181641	9055.643555	52.127258
580.982483	981.464661	16236.483398	8981.340820	52.440945
581.324524	989.712219	16131.417969	8935.718750	52.477615
581.666626	989.043518	16020.409180	8867.137695	52.411037
582.008728	984.956848	15948.334961	8835.411133	52.464451
582.350647	972.102478	15846.391602	8787.040039	52.539906
582.692566	985.997131	15834.653320	8751.598633	52.298347
583.034424	993.501648	15775.656250	8725.072266	52.303410
583.376343	990.306641	15721.788086	8702.334961	52.350662
583.718201	980.944519	15629.428711	8682.124023	52.573219
584.059937	974.554504	15603.125977	8642.000977	52.414185
584.401611	967.421387	15564.339844	8593.778320	52.246349
584.743347	965.489563	15535.139648	8577.877930	52.248257
585.085022	966.009766	15468.637695	8536.491211	52.200756
585.426514	977.749573	15502.743164	8537.382813	52.045692
585.768127	974.851746	15551.708008	8543.921875	51.925259
586.109619	987.557434	15652.239258	8589.692383	51.839752
586.451172	980.870300	15746.456055	8624.093750	51.763767
586.792542	984.288147	15829.897461	8656.118164	51.677433
587.133850	979.904297	15853.895508	8685.839844	51.808121
587.475220	983.173523	15850.034180	8719.202148	52.035389
587.816589	977.377930	15796.238281	8742.680664	52.401485
588.157776	984.065247	15772.909180	8771.659180	52.658569
588.498962	987.706055	15706.333008	8817.950195	53.199554
588.840210	981.984680	15631.956055	8813.492188	53.457493
589.181335	991.718323	15565.157227	8840.315430	53.855492
589.522400	996.622375	15504.898438	8842.618164	54.079449
589.863403	1001.377747	15425.914063	8833.924805	54.300163
590.204407	998.628601	15317.209961	8793.208008	54.436817
590.545410	985.179749	15284.145508	8704.266602	53.983532
590.886353	998.628601	15265.570313	8677.442383	53.822426
591.227112	974.777344	15250.485352	8594.669922	53.376637
591.567932	976.932129	15224.480469	8537.829102	53.068054
591.908752	963.780579	15252.565430	8470.436523	52.535297
592.249512	974.480225	15396.711914	8518.880859	52.310909
592.590149	962.740295	15415.362305	8534.930664	52.393196
592.930786	976.932129	15464.921875	8606.632813	52.662243
593.271423	959.248108	15421.604492	8622.682617	52.988838
593.612000	969.873535	15437.504883	8706.125000	53.472828
593.952576	956.647644	15455.262695	8779.163086	53.953537
594.292969	965.861084	15469.456055	8861.193359	54.437069
594.633484	966.083984	15500.141602	8951.397461	54.942078
594.973877	962.814636	15464.773438	9038.554688	55.687237
595.314209	971.805237	15519.682617	9183.295898	56.444595
595.654480	973.217041	15638.270508	9353.523438	57.144737
595.994812	978.046692	15822.690430	9524.122070	57.570095
596.335022	969.130371	15968.472656	9639.738281	57.806587
596.675171	971.136536	16053.624023	9688.481445	57.797794
597.015320	968.090149	16117.300781	9650.809570	57.314667
597.355408	977.452332	16067.293945	9521.374023	56.620354
597.695496	970.839355	16009.413086	9285.983398	55.292107
598.035461	971.582336	15799.953125	8983.124023	54.028465
598.375366	965.341003	15598.073242	8716.451172	52.971039
598.715271	969.799133	15335.338867	8479.500000	52.275799
599.055176	988.820618	15108.492188	8346.573242	52.109940
599.395081	976.337708	14846.796875	8200.866211	52.085720
599.734802	971.953857	14569.425781	8101.597168	52.433598
600.074524	960.511230	14315.757813	8026.328125	52.906677
600.414246	967.867188	14090.395508	7975.133301	53.398750
600.753906	983.768066	13913.780273	7984.347656	54.142097
601.093506	967.272766	13710.413086	7964.136719	54.906902
601.433044	971.285156	13644.284180	8039.332031	55.772488
601.772583	954.789978	13612.333008	8116.681152	56.582001
602.112122	981.910461	13732.257813	8304.072266	57.427155
602.451538	978.566833	13855.601563	8466.646484	58.150650
602.790894	979.904297	14011.338867	8697.653320	59.224094
603.130310	961.848633	14240.338867	8887.719727	59.689548
603.469604	971.953918	14513.252930	9116.125977	60.143211
603.808838	968.387390	14832.754883	9297.944336	60.078880
604.148010	959.173828	15115.476563	9448.556641	59.968925
604.487305	959.842529	15304.206055	9487.639648	59.450508
604.826416	971.656738	15410.905273	9442.760742	58.667206
605.165527	981.390381	15399.463867	9295.641602	57.665478
605.504456	963.334778	15340.836914	9109.364258	56.658169
605.843445	952.189270	15216.082031	8855.546875	55.408138
606.182434	951.743591	15014.200195	8624.985352	54.565441
606.521423	961.700134	14788.766602	8412.405273	53.884930
606.860229	966.826965	14570.390625	8231.180664	53.400372
607.199036	968.758850	14418.442383	8108.953125	53.088196
607.537903	966.752686	14381.440430	8070.093262	52.951965
607.876648	974.628845	14462.059570	8156.877441	53.251423
608.215271	978.566895	14731.109375	8288.319336	53.152004
608.553955	977.600891	15195.128906	8479.351563	52.764099
608.892578	980.944519	16049.312500	8715.188477	51.327682
609.231140	978.641113	17279.619141	9011.285156	49.277065
609.569641	977.972412	18917.919922	9301.437500	46.396263
609.908081	968.535950	20817.394531	9574.872070	43.359348
610.246521	977.675232	22792.806641	9804.168945	40.460423
610.584961	982.579102	24579.337891	9958.125000	38.037201
610.923340	985.848450	25870.201172	10000.922852	36.227882
611.261597	993.873230	26535.507813	9954.038086	35.080624
611.599854	1001.303528	26681.068359	9837.605469	34.409588
611.938110	1001.897888	26461.576172	9694.276367	34.141747
612.276245	989.786621	25929.791016	9460.371094	33.963844
612.614319	979.458496	25026.937500	9208.335938	34.219292
612.952393	972.028137	23804.361328	8906.666992	34.751762
613.290466	966.901306	22530.515625	8649.356445	35.626934
613.628479	970.987976	21278.070313	8391.749023	36.542725
613.966370	981.167419	20053.189453	8167.354980	37.679211
614.304260	976.932129	18841.982422	7909.227051	38.803669
614.642151	968.684570	17635.380859	7685.130371	40.298607
614.979980	955.607239	16632.515625	7474.259277	41.581234
615.317749	956.498840	15741.700195	7333.381348	43.130169
615.655396	972.399658	15049.421875	7231.810059	44.465443
615.993164	975.223145	14440.066406	7145.841309	45.827625
616.330811	989.935059	13949.221680	7080.900879	47.000778
616.668396	971.730957	13443.368164	6968.480469	48.083099
617.005859	983.545105	13019.397461	6909.261719	49.233875
617.343445	982.430664	12626.929688	6853.312012	50.417637
617.680908	978.492615	12341.534180	6810.216309	51.321854
618.018311	984.139587	12115.132813	6779.975098	52.069347
618.355652	971.508118	11909.612305	6709.684082	52.460423
618.692993	995.507813	11746.442383	6699.282715	53.053761
619.030273	974.703125	11598.358398	6649.871094	53.420105
619.367554	968.610168	11501.764648	6648.681641	53.925644
619.704712	953.526855	11434.222656	6600.087891	53.875824
620.041870	961.997375	11362.668945	6565.537109	53.876709
620.379028	954.715637	11294.385742	6511.221191	53.739677
620.716064	938.220520	11232.416992	6495.915527	53.988625
621.053040	926.777832	11188.429688	6472.063965	54.038921
621.389954	932.499207	11159.004883	6463.742188	54.087322
621.726929	932.127625	11129.359375	6435.730469	53.971542
622.063843	929.824219	11127.575195	6425.625000	53.892284
622.400635	923.434265	11133.742188	6427.630859	53.908237
622.737427	934.653870	11157.222656	6453.190918	53.983860
623.074219	937.403076	11165.172852	6474.738770	54.140209
623.410889	953.823975	11173.122070	6496.435547	54.236713
623.747559	960.808594	11226.026367	6535.443848	54.306061
624.084167	970.839417	11287.028320	6590.130859	54.470615
624.420715	967.570068	11379.461914	6651.281738	54.588657
624.757324	973.217102	11480.440430	6729.522949	54.784267
625.093750	967.198547	11590.704102	6809.324219	54.992443
625.430176	968.387390	11712.040039	6916.765625	55.366444
625.766602	979.086975	11830.554688	6991.737793	55.408642
626.102905	975.297546	11971.284180	7078.746094	55.506149
626.439209	965.861084	12081.696289	7132.986816	55.480545
626.775452	941.266907	12166.401367	7178.386230	55.563869
627.111694	944.461914	12189.659180	7171.847656	55.378181
627.447876	941.118347	12178.215820	7131.055176	55.084839
627.783997	942.455750	12126.649414	7034.833496	54.473110
628.120056	943.644531	12113.870117	6938.982422	53.672485
628.456055	957.836426	12059.554688	6856.135254	53.129601
628.792053	947.879883	12006.651367	6789.708496	52.825294
629.128052	938.369141	11869.414063	6735.689941	53.035378
629.463928	942.158508	11820.894531	6683.604004	52.776768
629.799744	946.245117	11797.934570	6633.671875	52.410519
630.135559	954.195496	11839.618164	6560.855957	51.506134
630.471375	933.390686	11812.870117	6488.484863	51.060295
630.807068	958.802246	11742.429688	6461.216309	51.025635
631.142700	971.953918	11610.914063	6448.213379	51.473633
631.478333	981.315979	11457.999023	6390.628906	51.631927
631.813965	954.121277	11261.468750	6320.412598	52.062778
632.149475	932.053284	11024.739258	6250.865234	52.699669
632.484924	931.607483	10780.582031	6248.115723	53.980324
632.820435	939.706482	10557.971680	6205.986328	54.752903
633.155884	942.158447	10360.252930	6183.397949	55.650738
633.491150	977.526550	10265.960938	6182.061035	56.032421
633.826477	978.343933	10105.541992	6175.819824	56.944923
634.161804	1000.486145	9997.208008	6172.326660	57.485832
634.497009	964.746582	9793.619141	6082.494629	57.966038
634.832153	948.325684	9620.790039	6018.520996	58.463142
635.167297	923.954346	9476.198242	5926.013184	58.488258
635.502380	912.437439	9335.245117	5861.369629	58.756325
635.837463	926.629211	9248.459961	5784.392578	58.373730
636.172424	933.836609	9125.786133	5718.411621	58.405819
636.507324	951.297791	9036.102539	5664.765137	58.300323
636.842224	954.418457	8949.317383	5620.852051	58.367638
637.177124	959.471008	8845.590820	5580.803223	58.600838
637.511963	941.415344	8753.975586	5528.122559	58.709400
637.846741	934.579590	8667.262695	5481.236816	58.797924
638.181396	915.260925	8568.143555	5406.562988	58.687717
638.516113	933.613708	8496.145508	5374.018555	58.715851
638.850769	930.641602	8404.530273	5323.344238	58.773991
639.185303	938.666199	8363.514648	5309.152832	58.862976
639.519836	933.836609	8281.484375	5270.068848	59.015244
639.854370	926.703552	8208.073242	5245.771973	59.316704
640.188843	932.350525	8129.089355	5203.419434	59.347282
640.523254	935.322693	8083.467285	5164.856445	59.169674
640.857605	958.059265	8049.140137	5132.534668	58.869381
641.191895	948.994385	8002.180176	5111.878906	59.021343
641.526184	935.842773	7914.651855	5073.018066	59.281967
641.860413	922.319641	7869.921387	5053.773926	59.465904
642.194580	922.914063	7826.008301	5032.895020	59.538242
642.528748	925.811951	7801.710938	5020.932129	59.557594
642.862793	942.604309	7762.405762	5017.291016	59.747883
643.196838	943.050110	7743.681152	5013.873047	59.859489
643.530823	944.164612	7721.910156	5006.962891	59.943211
643.864746	929.304199	7692.932129	4982.071777	59.920025
644.198669	927.892395	7639.806152	4949.675293	59.920063
644.532532	931.979065	7621.007324	4926.938965	59.724072
644.866333	931.013184	7597.230469	4913.118652	59.735607
645.200073	943.718933	7591.138184	4912.375488	59.702213
645.533813	935.619934	7547.076172	4931.248535	60.434929
645.867554	925.737610	7541.429199	4912.673340	60.264839
646.201172	920.090637	7535.856934	4932.140137	60.643764
646.534729	960.288391	7592.475098	4959.558105	60.300926
646.868225	966.381287	7595.595703	4992.325684	60.730339
647.201782	953.749756	7569.886719	4967.508301	60.666199
647.535217	913.031799	7560.004395	4949.155762	60.721237
647.868591	926.926453	7578.134277	4948.338379	60.461376
648.201965	935.768494	7617.068848	4959.038086	60.216866
648.535278	933.019287	7607.558594	4936.301270	59.978405
648.868591	915.186584	7614.914551	4929.093750	59.911495
649.201782	912.214539	7643.074707	4901.973633	59.275616
649.534912	918.381653	7685.799316	4919.806152	59.127792
649.868103	907.979248	7701.031250	4912.152832	58.945137
650.201172	909.539551	7737.662109	4943.062500	59.072212
650.534180	910.356934	7754.306152	4945.291504	58.956230
650.867188	928.189636	7767.605957	4947.446777	58.766083
651.200134	922.765442	7749.550781	4942.468262	58.881344
651.533020	916.449707	7699.099121	4924.784668	59.096893
651.865845	936.288574	7672.350098	4930.505371	59.296024
652.198608	955.904480	7636.610840	4928.573730	59.464806
652.531433	959.991150	7598.567871	4905.093750	59.426933
652.864136	938.220459	7544.326660	4851.818848	59.242134
653.196777	3431.300049	10204.067383	7505.689453	60.158413
653.529358	3540.822266	10197.677734	7553.688965	60.281715
653.861938	3539.781982	10124.489258	7524.636719	60.516811
654.194519	1035.259888	7328.254395	4791.336426	59.686634
654.526978	931.904785	7246.298340	4700.539063	59.683235
654.859375	927.743713	7184.403809	4679.957031	59.971508
655.191833	931.607422	7149.927734	4678.322266	60.252846
655.524170	923.582764	7074.511230	4664.501953	60.818771
655.856445	935.322693	7059.130371	4669.331543	60.975281
656.188660	1014.083496	7141.532715	4747.349609	60.926922
656.520874	1027.458008	7161.370605	4759.758301	60.846977
656.853088	1017.650085	7181.135254	4786.283691	61.144520
657.185181	935.768555	7120.058594	4749.132324	61.662109
657.517212	921.948181	7194.212891	4818.828613	62.128761
657.849243	931.533203	7293.332520	4916.537109	62.639572
658.181274	937.997559	7403.968750	5035.792480	63.374779
658.513123	933.242188	7488.302246	5115.891113	63.807941
658.844971	919.570496	7596.784668	5209.437988	64.246368
659.176819	914.072021	7698.728027	5278.613770	64.329597
659.508667	912.883118	7780.683594	5332.334473	64.350319
659.840393	922.022461	7832.472656	5326.241699	63.732738
660.172058	922.468262	7839.382813	5278.836426	62.981380
660.503662	937.626038	7814.193848	5189.971191	61.838192
660.835266	941.415527	7738.033691	5104.671387	61.254814
661.166931	937.626038	7648.945313	4987.272949	60.340549
661.498413	932.796387	7548.190918	4882.803223	59.709316
661.829773	932.945007	7428.712402	4766.520020	59.016502
662.161194	944.536194	7315.548828	4692.514160	58.828606
662.492615	934.728271	7178.014160	4614.793457	58.944363
662.823975	949.068665	7078.076660	4574.520996	59.152355
663.155212	941.044006	6940.171387	4505.939941	59.423576
663.486450	940.300964	6841.126465	4447.240234	59.431332
663.817627	933.465088	6719.863281	4392.702637	59.782223
664.148743	932.870667	6631.443848	4353.322266	60.022949
664.479858	938.220459	6552.682129	4348.121582	60.734245
664.810913	915.855286	6479.271484	4303.984863	60.900166
665.141907	907.384827	6411.285156	4282.065918	61.314358
665.472778	899.360107	6342.777344	4266.165039	61.850948
665.803711	937.403137	6333.043457	4296.332031	62.252651
666.134583	941.861328	6303.396973	4293.062500	62.504501
666.465454	960.288391	6309.192871	4291.799805	62.284000
666.796143	922.765442	6251.979004	4237.335938	62.196243
667.126831	931.458984	6244.920410	4235.998047	62.191833
667.457458	925.811829	6213.713379	4224.406738	62.380039
667.788147	935.619812	6194.469238	4244.691406	62.923866
668.118774	939.409241	6202.716797	4260.666504	63.102093
668.449219	943.718811	6196.178223	4276.790527	63.457352
668.779663	953.749756	6213.416504	4279.391113	63.229122
669.110107	934.133850	6170.989746	4250.189941	63.321507
669.440552	924.251648	6182.209473	4242.908203	63.116833
669.770874	895.050598	6144.611816	4207.465820	63.098900
670.101135	903.669678	6129.231934	4207.316895	63.220890
670.431396	902.629395	6078.111328	4169.497559	63.122009
670.761597	918.010071	6032.191895	4140.370117	63.008324
671.091797	920.387695	6006.037109	4099.652344	62.514427
671.421875	914.369324	5950.384766	4061.609375	62.494644
671.751892	916.301208	5940.279297	4056.408203	62.502403
672.081909	911.545715	5913.232910	4025.424072	62.256561
672.411865	919.347473	5902.310547	4008.334717	61.990974
672.741821	910.579834	5853.865234	3972.818115	61.947433
673.071716	911.099915	5807.723145	3968.954102	62.448227
673.401550	913.477722	5772.652344	3951.641602	62.524277
673.731262	915.632385	5742.856934	3947.183594	62.801125
674.060974	907.904968	5683.266113	3923.481201	63.148647
674.390625	911.991638	5650.127441	3918.651123	63.456593
674.720276	915.186707	5625.533203	3910.477783	63.589607
675.049927	924.102966	5596.183594	3897.846436	63.649231
675.379395	917.489990	5563.713379	3868.348389	63.510899
675.708923	918.455994	5540.233887	3837.958252	63.168381
676.038330	919.347656	5554.425781	3825.995850	62.709801
676.367737	921.725281	5543.502441	3822.652100	62.766476
676.697083	938.369080	5553.459473	3852.150146	63.135948
677.026428	937.700256	5555.094238	3860.843750	63.307213
677.355652	920.907898	5559.181152	3887.295654	63.954567
677.684875	933.465149	5588.232910	3917.759766	64.112648
678.013977	921.650940	5569.509277	3948.000977	65.112785
678.343079	934.505371	5603.985840	3980.916992	65.240913
678.672180	906.790344	5590.759277	3977.276123	65.553078
679.001221	903.075195	5659.786621	4005.139648	65.214478
679.330139	910.728516	5711.575684	4053.213623	65.456886
679.659058	907.607727	5788.181641	4094.600342	65.299553
679.987976	909.465332	5854.683105	4138.290039	65.291862
680.316772	903.149597	5897.257813	4158.500488	65.183823
680.645630	897.948425	5912.416016	4160.803223	65.068817
680.974304	903.223877	5921.183594	4160.208984	64.906555
681.302979	894.679016	5907.660156	4144.382813	64.825775
681.631653	899.583008	5908.552246	4140.742188	64.707108
681.960266	907.310547	5892.874512	4123.727051	64.514595
682.288757	914.889465	5876.082520	4093.039307	64.060196
682.617249	917.118469	5831.128906	4055.516602	63.866333
682.945679	917.341370	5760.318359	3991.616211	63.479031
683.274109	935.471191	5714.251465	3947.703369	63.033493
683.602478	944.907715	5633.261230	3885.363525	62.718304
683.930725	936.808777	5558.809082	3825.401611	62.496593
684.259033	909.985535	5455.231445	3748.795654	62.456684
684.587280	903.521057	5373.795410	3699.384033	62.543430
684.915344	919.719055	5328.842285	3667.285156	62.315479
685.243469	935.619873	5285.523926	3651.161377	62.427616
685.571533	937.105896	5269.548340	3644.548584	62.492294
685.899536	939.186340	5245.697266	3643.062500	62.785778
686.227539	925.811829	5232.917480	3626.492920	62.702927
686.555420	918.307312	5244.062988	3627.161865	62.621529
686.883301	908.722229	5256.472168	3636.152344	62.731991
687.211121	907.459045	5282.403320	3669.142578	63.125000
687.538940	917.935791	5310.117676	3696.560547	63.262974
687.866638	905.898743	5316.508301	3686.975342	63.054249
688.194336	910.431213	5298.749512	3649.155273	62.409424
688.521973	890.072266	5254.242188	3605.168213	62.213341
688.849609	894.827637	5199.480957	3581.391357	62.410686
689.177063	905.230042	5163.519043	3573.514893	62.660961
689.504578	915.632385	5099.395996	3547.657471	62.910465
689.832031	915.409485	5038.244629	3509.540283	62.921047
690.159485	901.960693	4965.353516	3460.500732	62.965611
690.486816	899.508728	4909.106445	3415.621826	62.752258
690.814087	932.201904	4875.596191	3426.024170	63.240501
691.141296	947.656921	4816.673828	3400.166748	63.388451
691.468506	938.368958	4734.346191	3372.005859	64.110947
691.795715	900.251770	4645.777344	3300.303955	64.077850
692.122803	898.096985	4605.059570	3283.288330	64.343552
692.449829	909.688293	4589.976563	3278.087158	64.353622
692.776855	910.654236	4581.431641	3264.861572	64.133751
693.103821	890.072266	4555.500000	3241.084717	64.140190
693.430664	873.502747	4542.794434	3216.490234	63.853947
693.757568	879.298340	4516.416504	3203.338867	63.897858
694.084351	887.545959	4492.416504	3203.264648	64.238609
694.411133	906.567566	4461.209473	3197.543701	64.450264
694.737854	903.818298	4436.318359	3179.488037	64.420937
695.064575	901.514893	4428.070801	3169.382813	64.308296
695.391174	905.527283	4423.761230	3175.029541	64.506859
695.717773	908.499451	4408.751953	3197.171631	65.385918
696.044250	910.431213	4386.460938	3210.992188	66.183586
696.370789	904.561279	4399.166504	3228.081787	66.488785
696.697205	901.366394	4435.129395	3268.947998	66.998878
697.023621	905.007141	4512.850098	3330.767822	67.235764
697.349915	918.901794	4617.468262	3437.987061	68.109772
697.676208	914.889404	4723.943848	3527.447510	68.588104
698.002380	911.025696	4848.029785	3637.266846	69.246590
698.328674	895.422058	4975.904785	3721.526123	69.259064
698.654724	897.056824	5122.280762	3818.788330	69.149742
698.980896	906.121765	5234.998535	3892.347656	68.983849
699.306946	916.152527	5282.552246	3906.242920	68.479538
699.632935	925.960449	5274.750488	3869.611328	67.688965
699.958862	921.502258	5223.778320	3781.042725	66.465767
700.284729	910.134033	5136.918457	3684.523438	65.638306
700.610596	903.892578	5051.247559	3588.598633	64.732971
700.936340	897.651184	4931.174316	3502.184814	64.572174
701.262146	891.261169	4787.770020	3401.355713	64.419067
701.587830	893.341614	4661.158691	3309.740479	64.132599
701.913513	903.075256	4539.450684	3223.474854	63.810783
702.239075	908.573730	4435.872559	3149.097656	63.519539
702.564697	909.316711	4318.696777	3082.522461	63.741962
702.890137	894.604736	4215.564453	3005.767578	63.570866
703.215698	890.295227	4136.061035	2962.226563	63.834900
703.541016	883.682312	4070.526123	2925.298096	64.063881
703.866455	889.403564	4036.718018	2912.889648	64.292465
704.191711	903.000977	4024.829834	2917.125000	64.517441
704.517029	906.493164	4009.894775	2899.366455	64.215775
704.842163	920.759277	3993.622803	2885.546143	63.939934
705.167419	914.889404	3995.554688	2853.670654	62.933849
705.492493	914.889404	4013.907471	2854.710205	62.594692
705.817566	901.366394	4029.288086	2842.598877	62.061417
706.142578	905.973083	4065.250732	2846.166016	61.412548
706.467590	915.558105	4106.711426	2871.057373	61.278763
706.792480	919.570496	4155.603027	2889.558594	60.876648
707.117371	912.808899	4163.701660	2907.168213	61.348049
707.442200	928.932617	4205.905762	2925.298096	60.921021
707.766907	932.424805	4227.453613	2933.471436	60.729259
708.091675	932.573425	4260.592285	2943.205078	60.415272
708.416321	908.796631	4240.530762	2919.799805	60.359055
708.741028	905.452942	4252.790527	2928.864502	60.448387
709.065552	913.403381	4254.722656	2930.053467	60.354904
709.390137	912.065918	4248.035156	2954.796143	61.233486
709.714600	912.214539	4246.548828	2967.205078	61.631210
710.039063	914.369324	4231.911133	2992.319092	62.635223
710.363403	937.328857	4234.140625	3013.198242	62.965965
710.687744	936.437256	4231.613770	3023.823486	63.346718
711.012085	921.948242	4257.620117	3025.458252	63.061058
711.336304	911.620178	4299.452637	3035.117188	62.680107
711.660461	906.567566	4315.204590	3041.433350	62.631069
711.984619	919.421875	4327.019043	3049.012451	62.495373
712.308716	913.477722	4317.507813	3021.222900	61.919109
712.632751	926.777832	4291.873535	2993.582764	61.418903
712.956726	942.752930	4250.933105	2967.799561	61.213310
713.280701	951.223389	4189.410156	2950.784180	61.749397
713.604553	963.706238	4130.934082	2934.437500	62.222591
713.928467	957.910645	4055.591064	2917.645264	63.264584
714.252258	949.217102	3971.554688	2881.831055	63.944344
714.575989	931.979004	3896.360596	2856.791016	64.931320
714.899719	916.078308	3827.184814	2827.218506	65.649956
715.223267	910.134033	3788.027344	2813.398438	66.133949
715.546936	914.146423	3766.627686	2824.097900	66.957542
715.870422	911.917297	3759.271729	2804.482178	66.467484
716.193970	908.276550	3737.873047	2799.206299	66.826836
716.517395	905.304382	3715.210693	2765.101318	66.187149
716.840820	897.874023	3668.622803	2742.290283	66.567429
717.164124	904.338379	3626.567139	2720.742920	66.724907
717.487488	910.134033	3588.152344	2703.653076	66.971870
717.810730	920.759338	3555.310791	2690.501709	67.174332
718.133972	909.762512	3508.574463	2644.656982	66.757217
718.457092	895.496399	3445.194092	2602.452881	66.947411
718.780212	884.202393	3385.751953	2549.400635	66.566673
719.103210	886.357117	3351.869873	2512.917969	65.972519
719.426208	881.081726	3304.985107	2479.333008	65.937088
719.749207	911.843018	3307.139893	2495.233887	66.104156
720.072083	917.638672	3261.963623	2483.419922	66.790283
720.394958	923.805664	3235.289063	2475.469482	67.128487
720.717773	890.666687	3163.884033	2409.860352	66.830109
721.040527	888.957703	3147.983398	2391.656006	66.519753
721.363281	901.812073	3137.580811	2384.448486	66.314392
721.685913	930.121399	3126.138428	2401.835449	67.017426
722.008545	929.378418	3093.519531	2403.172852	68.100662
722.331055	915.409485	3054.659424	2373.229004	68.146294
722.653503	895.273499	3032.517334	2349.675049	68.050331
722.976013	899.731689	3029.098877	2339.866943	67.632080
723.298401	903.521179	3022.857666	2343.062012	67.924126
723.620789	903.966980	3005.173828	2349.600830	68.800171
723.943115	908.276550	3001.607178	2338.752686	68.334938
724.265381	908.573669	3000.269531	2346.554199	68.747116
724.587585	909.613953	3004.802002	2340.312744	68.284981
724.909790	908.945129	3002.275635	2349.897705	68.835411
725.231873	905.081482	3003.390381	2342.393311	68.498581
725.553894	927.595215	3020.405518	2365.798828	68.721161
725.875916	1492.964478	3609.923096	3232.242920	82.159309
726.197937	1521.422363	3642.764893	3272.811768	82.560425
726.519775	1499.874634	3645.662842	3263.598389	82.194687
726.841675	929.675720	3064.318359	2409.785645	69.337593
727.163513	901.291992	3044.702881	2390.615723	69.483818
727.485291	897.131042	3058.076904	2402.355469	69.655815
727.806946	907.533447	3087.203857	2419.519531	69.367645
728.128662	907.087585	3113.952393	2427.692627	68.903404
728.450256	921.725281	3127.327148	2438.466553	68.767677
728.771790	908.722351	3122.125732	2445.748291	69.441742
729.093323	914.146301	3121.679932	2437.054932	68.986885
729.414795	902.852356	3119.154053	2440.027100	69.357651
729.736145	902.109375	3114.844482	2418.182373	68.515793
730.057495	895.347839	3108.974609	2414.243896	68.615723
730.378845	896.536621	3102.212891	2407.556885	68.505989
730.700134	903.223816	3115.438721	2421.079834	68.612503
731.021301	900.548889	3131.710938	2435.717529	68.805786
731.342468	903.743958	3146.868896	2451.023682	68.978760
731.663574	898.096985	3150.063721	2460.831787	69.394226
731.984680	918.901672	3153.927734	2474.057617	69.581108
732.305664	912.363098	3154.150391	2471.085693	69.530350
732.626648	919.198975	3162.769531	2474.057617	69.302864
732.947571	903.223877	3163.661377	2480.224854	69.765297
733.268433	908.053528	3168.639404	2466.924561	68.958717
733.589233	903.595398	3158.831299	2461.797852	69.092659
733.909973	922.022461	3149.246826	2449.388916	68.577126
734.230713	943.570313	3145.605469	2457.562500	68.754227
734.551331	941.861328	3098.720703	2419.222412	68.495941
734.871948	921.576660	3040.987305	2373.154541	68.489693
735.192505	900.400391	2976.789795	2329.538818	68.828056
735.513062	898.096985	2934.585938	2306.876465	69.176880
735.833435	906.716125	2901.372314	2286.740479	69.186081
736.153931	896.685242	2858.722656	2253.304443	69.143387
736.474304	903.446777	2839.924072	2245.799561	69.319313
736.794617	910.282654	2837.769531	2240.449951	69.010445
737.114807	935.025452	2838.512451	2247.583008	68.955429
737.434998	932.201965	2839.180908	2237.329346	68.439529
737.755188	935.248352	2839.255127	2247.137451	68.901497
738.075256	924.177246	2828.704834	2234.654297	68.808510
738.395325	918.976074	2834.649170	2244.016602	69.168404
738.715271	922.096741	2853.150391	2255.310303	69.040733
739.035278	919.124695	2867.787842	2280.424561	69.858139
739.355164	925.663269	2864.964600	2284.139893	70.049797
739.675049	913.106140	2843.268311	2268.833740	70.239052
739.994873	923.954407	2850.698242	2262.592529	69.476707
740.314636	923.731445	2837.249268	2253.452881	69.490936
740.634277	931.681824	2814.735596	2236.957764	69.316978
740.953979	911.768738	2776.469971	2216.673096	69.979271
741.273499	913.626221	2771.640381	2207.013672	69.611282
741.593140	916.746887	2761.163330	2190.964355	69.085129
741.912598	924.028625	2743.479492	2166.667236	68.297455
742.232117	921.130859	2710.711914	2138.580811	68.029884
742.551453	902.406494	2669.548096	2111.237549	68.406006
742.870850	922.022461	2652.755615	2110.643311	68.677299
743.190063	921.205078	2619.170898	2085.305908	68.558556
743.509338	922.171082	2604.904785	2080.401611	68.830292
743.828552	901.291992	2577.338623	2064.352539	69.393089
744.147705	906.344543	2566.713135	2061.305908	69.560539
744.466797	911.174316	2549.400635	2043.993530	69.149132
744.785828	929.378418	2558.985840	2042.433105	68.302017
745.104858	930.418701	2553.264404	2049.268799	68.943710
745.423706	930.121521	2541.673340	2048.822998	69.417656
745.742615	929.824219	2517.525146	2038.643677	69.838058
746.061401	948.622864	2521.834473	2037.306274	69.201324
746.380249	945.873596	2510.391846	2024.674805	68.954208
746.698975	938.369080	2487.357910	2011.151855	69.256973
747.017639	920.239075	2451.915527	1983.436890	69.413986
747.336304	915.558105	2446.565674	1982.099487	69.662712
747.654907	921.799500	2457.339600	1991.089966	69.636124
747.973389	931.087402	2481.042236	2009.145508	69.554161
748.291931	943.050232	2478.144287	2026.235229	70.561478
748.610352	933.985168	2469.896729	2013.900879	70.311066
748.928711	933.687988	2459.865967	2017.913452	71.041878
749.247070	947.433899	2478.812988	2006.247681	69.141190
749.565308	947.062439	2465.141357	1998.074341	69.233025
749.883545	938.591980	2455.556396	1987.449219	69.141846
750.201782	924.845947	2440.398682	1991.238647	70.363289
750.519836	917.415710	2441.661865	1992.873047	70.556671
750.837952	910.728516	2437.203613	1979.944458	70.044769
751.155884	905.675842	2429.550537	1965.975708	69.579193
751.473877	902.406555	2417.290283	1960.922974	69.874428
751.791809	892.747253	2399.680664	1960.551636	70.859436
752.109619	894.084656	2377.241211	1953.715698	71.444321
752.427490	899.954590	2377.612549	1949.257446	71.011215
752.745300	923.805847	2390.169678	1965.752808	71.056519
753.062988	914.592224	2396.559814	1965.529907	70.915031
753.380615	906.864563	2400.795166	1962.929321	70.690346
753.698303	907.533386	2397.971680	1954.755981	70.262733
754.015808	914.963684	2392.399170	1957.876587	70.589394
754.333374	923.062683	2379.693359	1957.951050	71.046730
754.650757	915.038025	2369.216553	1944.353516	70.783295
754.968262	916.449707	2365.055664	1957.876587	71.891663
755.285583	928.858215	2375.606445	1966.495728	71.722046
755.602905	926.777832	2370.331055	1967.164551	72.071243
755.920105	925.366028	2371.148438	1944.205078	70.469734
756.237305	908.722229	2357.996826	1923.846069	70.043579
756.554443	904.932800	2355.396240	1909.059937	69.228027
756.871582	904.412659	2353.018311	1910.620239	69.460419
757.188599	900.251770	2347.965820	1920.353882	70.462952
757.505615	907.013367	2351.904053	1940.341187	71.515991
757.822510	919.941895	2369.588135	1956.762207	71.522301
758.139465	926.034729	2390.689941	1976.006714	71.687309
758.456238	922.542542	2410.603027	1988.118042	71.608337
758.773010	907.161865	2426.281006	1992.947632	71.474693
759.089783	909.911133	2443.742188	2003.201538	71.278412
759.406433	903.372375	2438.020752	2002.755493	71.637451
759.723145	903.298157	2428.064209	2005.281860	72.272308
760.039673	904.709961	2424.125977	2013.380859	72.966911
760.356201	900.103210	2419.593750	2017.616211	73.545242
760.672668	899.731689	2433.191162	2024.452026	73.345291
760.989136	893.713074	2430.813477	2017.541626	73.113548
761.305481	900.697571	2440.101318	2024.451782	72.999306
761.621826	909.390930	2446.491455	2049.640625	74.181854
761.938049	939.706543	2475.172119	2085.380127	74.614082
762.254333	942.307129	2507.865479	2111.014648	74.651161
762.570496	935.099792	2543.307861	2128.624268	74.214554
762.886597	899.805969	2583.877197	2163.323730	75.027573
763.202637	892.672852	2685.671875	2262.369141	76.391357
763.518677	902.555176	2831.305420	2393.364990	77.294083
763.834656	908.796570	2990.164307	2528.595703	77.823784
764.150574	902.926697	3104.218994	2593.313477	76.790657
764.466370	905.304382	3149.617920	2621.400146	76.464172
764.782288	896.090820	3131.710938	2569.313721	74.843796
765.097961	914.815125	3096.863037	2508.237061	73.024147
765.413696	898.468506	3001.755615	2386.529053	70.749283
765.729309	906.344543	2908.951416	2296.177002	69.401161
766.044861	899.805969	2793.262451	2203.373047	68.845894
766.360474	897.948425	2708.259766	2148.908936	69.101952
766.675903	896.462402	2618.427979	2082.705322	68.888885
766.991394	894.381836	2530.676514	2040.427124	70.039055
767.306763	908.945129	2475.172119	2009.442871	70.264259
767.622131	902.406555	2435.048828	1987.746460	70.814949
767.937378	902.629456	2386.009033	1968.873413	71.879364
768.252625	902.629456	2354.653076	1955.276001	72.495132
768.567810	904.709961	2303.235596	1941.232788	74.115395
768.882996	913.106140	2289.564209	1937.517944	74.423767
769.197998	897.948425	2251.149658	1900.143555	74.061058
769.513062	915.781067	2244.016602	1885.877319	73.036461
769.828064	907.756348	2216.153076	1849.023071	71.940468
770.142944	914.146301	2187.695068	1845.010864	73.092178
770.457825	902.778076	2158.717041	1832.602173	74.034180
770.772705	898.765808	2132.933838	1809.122681	73.762802
771.087402	898.171387	2121.639893	1792.850220	73.126427
771.402100	897.428284	2104.253174	1778.435547	73.002075
771.716736	904.635742	2095.634033	1773.085815	72.917824
772.031372	902.332275	2076.760986	1766.026978	73.541687
772.345947	898.840088	2054.990234	1745.667969	73.245491
772.660461	894.530457	2043.473267	1738.312134	73.439827
772.974854	907.904968	2028.612915	1725.012085	72.909904
773.289246	920.610779	2033.145386	1729.990234	72.750946
773.603638	917.044189	2013.900879	1727.092407	73.851784
773.917908	908.796570	2003.721558	1720.702515	74.151733
774.232178	900.474670	1989.455444	1711.488892	74.474617
774.546265	904.487061	1995.176758	1709.036987	73.765244
774.860474	906.493164	1997.851563	1704.504395	73.120911
775.174561	907.310547	1989.826782	1704.578735	73.649536
775.488586	917.861511	1987.746460	1705.247437	73.595375
775.802551	919.496155	1982.470825	1716.764282	75.003494
776.116516	913.477722	1967.758911	1704.430176	75.022911
776.430359	900.028870	1956.242065	1687.712036	74.576157
776.744202	913.106140	1966.644531	1683.699707	73.143379
777.057922	913.403320	1963.746704	1673.297363	72.347198
777.371704	909.465332	1949.332031	1671.885620	73.319038
777.685303	883.905090	1918.199097	1643.947754	73.484200
777.998962	883.682312	1912.700562	1642.313110	73.723740
778.312500	885.539856	1908.390991	1642.164551	73.972122
778.626038	888.140442	1891.672852	1646.028320	75.522011
778.939453	909.539612	1903.189819	1665.421265	76.071205
779.252869	932.647766	1925.777954	1690.164063	76.275627
779.566223	931.384583	1930.161743	1685.631470	75.517036
779.879578	916.078186	1922.285645	1677.458374	75.668312
780.192749	902.183594	1889.741089	1648.405884	75.562416
780.505920	909.019470	1897.394165	1658.882690	75.868317
780.819031	902.109314	1884.688477	1642.610352	75.362991
781.132141	969.056091	1950.966431	1704.578735	74.907310
781.445190	969.204651	1938.706665	1693.879272	74.747101
781.758118	988.597717	1945.468140	1703.241211	74.685501
782.071045	926.480652	1874.509155	1646.919922	75.993416
782.383911	922.022461	1867.376099	1646.919800	76.680016
782.696838	899.211609	1844.416504	1636.145874	77.965561
783.009583	890.369446	1833.122437	1620.988159	77.498421
783.322266	885.911316	1816.404297	1611.848999	78.016457
783.634888	890.518066	1802.732544	1595.725220	77.307167
783.947510	886.877258	1790.621094	1582.945190	77.020493
784.260132	888.809265	1786.386108	1570.016479	75.894028
784.572571	892.375793	1786.014526	1570.388062	75.870956
784.885010	889.775146	1784.528442	1557.533691	74.630463
785.197449	899.211609	1794.113403	1563.106323	74.186317
785.509766	904.264160	1793.222046	1560.357056	73.804726
785.822083	910.059753	1789.729614	1571.576782	75.200600
786.134277	912.734680	1787.054688	1572.468384	75.456779
786.446533	909.836853	1788.540894	1574.103149	75.596138
786.758606	926.257751	1795.376587	1575.440552	74.694366
787.070740	918.678894	1784.900024	1575.366211	75.810585
787.382690	919.050354	1778.286987	1573.583008	76.176064
787.694641	899.508789	1771.079468	1567.861694	76.683731
788.006653	899.731628	1794.856445	1579.378540	75.927612
788.318481	905.007141	1829.481445	1615.935547	76.900826
788.630310	905.155762	1864.998413	1645.953735	77.179108
788.942017	897.874084	1876.515259	1656.504761	77.518776
789.253784	899.583008	1889.889648	1661.854614	76.973289
789.565430	904.709961	1883.425293	1660.740112	77.247192
789.877014	904.635559	1860.168579	1653.012695	78.320381
790.188538	904.338379	1839.512573	1627.155273	77.292221
790.500061	899.954529	1813.209351	1602.486816	76.926208
790.811462	905.229980	1809.345703	1580.641602	74.704109
791.122925	906.418762	1802.732788	1570.462280	74.086037
791.434204	899.434387	1786.980469	1553.149780	73.654251
791.745483	900.920471	1763.352173	1542.524414	74.394753
792.056702	881.081726	1727.909790	1517.410156	75.142578
792.367920	894.902039	1721.222534	1527.366699	76.539871
792.678955	889.849426	1703.612915	1515.403931	76.871780
792.990112	903.446777	1703.315552	1524.171753	77.603348
793.301086	888.809143	1694.102051	1505.670410	76.600861
793.612122	905.081360	1703.092651	1510.351440	75.847305
793.922974	904.338379	1697.668457	1492.518921	74.140709
794.233826	915.037903	1696.331055	1498.165649	74.636230
794.544556	905.898743	1695.810913	1507.899414	76.211090
794.855286	893.490234	1682.139282	1515.924194	78.924072
795.166016	902.555176	1694.993652	1531.007690	79.306160
795.476624	900.400391	1690.684082	1517.558960	78.093292
795.787292	910.951355	1709.036743	1536.728882	78.409843
796.097778	893.341553	1709.111328	1530.413086	78.094528
796.408264	888.140381	1723.600220	1566.375610	81.181068
796.718689	882.716309	1731.624878	1574.548950	81.496719
797.029053	891.706970	1744.999390	1597.805664	82.749908
797.339355	894.976257	1747.079956	1588.294922	81.365524
797.649658	899.062988	1747.377319	1579.452759	80.204910
797.959839	888.214661	1724.863403	1548.468750	78.916519
798.270020	890.072266	1726.721069	1530.487305	76.545265
798.580078	898.914307	1727.538208	1536.580200	76.954803
798.890137	898.394226	1719.662109	1537.174683	77.779793
799.200195	893.638855	1695.885376	1530.710327	79.410934
799.510071	885.093933	1672.628540	1502.698242	78.422501
799.820007	892.524231	1667.724609	1489.175171	76.967316
800.129883	888.066101	1659.922729	1479.367188	76.607635
800.439575	888.066162	1653.904297	1470.005005	75.987183
800.749329	891.112610	1648.554565	1473.422852	76.878532
801.058960	897.205383	1640.678345	1467.181519	76.664001
801.368591	891.186829	1628.715698	1459.751343	77.090477
801.678162	890.815369	1624.406250	1450.314819	76.268593
801.987671	900.549011	1621.136719	1452.915405	76.654984
802.297119	911.917297	1626.932495	1451.949585	75.527390
802.606506	895.124817	1608.059448	1443.255981	76.883789
802.915894	883.607971	1597.657227	1430.327515	76.566086
803.225159	874.245850	1578.784180	1424.606079	78.116432
803.534424	889.998047	1587.552124	1427.280884	77.023827
803.843628	891.186829	1588.666504	1431.739136	77.500793
804.152771	896.833801	1590.821289	1444.742065	78.950745
804.461792	901.366394	1587.997681	1457.373535	80.976089
804.770874	900.549011	1587.997681	1464.432251	82.025505
805.079773	893.564453	1590.598267	1456.556274	80.769661
805.388733	882.196106	1590.746948	1452.841187	80.536926
805.697571	876.623535	1587.997681	1460.717285	82.107811
806.006470	876.400574	1606.870483	1467.627319	80.937866
806.315125	870.976563	1621.359497	1466.809937	79.403908
806.623901	879.224121	1632.876465	1460.122681	77.077789
806.932495	873.131348	1619.873535	1458.785278	78.427864
807.241150	895.942200	1609.545532	1460.940063	79.175339
807.549622	907.607727	1610.362915	1463.243530	79.065346
807.858154	913.180420	1596.765503	1456.927734	79.543472
808.166565	899.360107	1579.378540	1444.296387	80.135513
808.474915	885.316895	1569.273438	1426.166504	79.076607
808.783264	901.217712	1576.555176	1428.841431	78.127419
809.091492	895.942200	1564.443848	1408.705444	76.703362
809.399719	897.353943	1555.230347	1399.566040	76.338364
809.707825	893.341614	1544.605103	1384.779785	75.459190
810.015930	890.889648	1553.744263	1385.894409	74.677727
810.323975	893.936035	1554.858887	1390.352539	75.109596
810.632080	885.539856	1542.747437	1382.699219	75.647232
810.939880	881.601807	1525.732056	1383.962524	77.990547
811.247864	880.561584	1514.883789	1387.974731	79.992966
811.555664	879.298401	1510.128418	1387.900513	80.624275
811.863464	887.620300	1505.373047	1384.705444	80.466682
812.171143	881.378845	1490.364136	1363.826538	79.221565
812.478882	889.849365	1486.574585	1362.117554	79.143326
812.786438	904.487061	1500.469116	1377.795410	79.416542
813.094055	906.493225	1507.527954	1385.894531	79.762665
813.401489	891.335510	1490.512573	1376.309204	80.939964
813.708984	875.509033	1476.172241	1359.293945	80.541794
814.016357	892.747253	1492.444336	1376.383423	80.646744
814.323730	911.768738	1497.422729	1387.380371	81.210342
814.630981	918.307312	1483.973999	1381.733398	81.925644
814.938232	913.626282	1461.831665	1365.832642	82.488495
815.245361	890.146667	1461.163086	1348.817383	80.325310
815.552490	883.682312	1464.878296	1347.034058	79.723839
815.859619	874.468750	1463.020508	1343.244507	79.649025
816.166565	878.703918	1464.358032	1365.461304	83.113457
816.473572	875.285950	1466.141235	1362.489136	82.457275
816.780457	875.508850	1467.701660	1367.392944	83.061478
817.087341	881.155945	1475.949219	1355.430176	79.737656
817.394043	882.790710	1488.283569	1364.421021	79.543518
817.700806	880.635925	1496.754028	1361.894653	78.111443
818.007507	887.248779	1494.896484	1366.798706	78.919075
818.314209	891.781250	1487.094727	1368.656250	80.104858
818.620667	890.963867	1483.156616	1375.863647	81.882088
818.927246	881.676025	1500.989380	1386.042969	81.439697
819.233704	883.830872	1537.694946	1406.773315	79.977242
819.540161	886.802979	1568.010376	1425.348999	79.057571
819.846497	897.205383	1611.700317	1474.091675	80.740433
820.152832	897.651184	1653.681274	1516.592773	81.867325
820.458984	889.329285	1711.860474	1566.078491	82.276421
820.765259	881.676086	1761.643188	1610.734375	82.850632
821.071350	890.295227	1842.187134	1684.814087	83.467339
821.377502	893.638855	1956.242065	1780.664673	83.476669
821.683472	904.561340	2170.679688	1979.350220	84.888489
821.989441	894.158936	2561.511963	2345.885498	87.067741
822.295349	900.846191	3196.874268	2943.205078	88.951828
822.601196	898.691406	3998.081055	3665.352783	89.264717
822.907043	897.205383	4748.390137	4329.173828	89.114616
823.212769	885.762695	5229.128418	4729.517090	88.497139
823.518494	892.970154	5336.867676	4733.900879	86.431580
823.824097	886.877258	5079.557129	4393.445313	83.635490
824.129700	891.112549	4620.812500	3866.490967	79.775276
824.435242	879.224060	4096.531738	3338.644287	76.443428
824.740723	880.635803	3641.427734	2897.286133	73.046082
825.046082	882.419128	3261.963867	2567.084717	70.797813
825.351501	873.948547	2948.332031	2307.322510	69.098793
825.656799	871.347961	2704.247559	2127.806885	68.550339
825.962036	867.558533	2503.853027	2005.207642	69.525948
826.267212	886.282776	2389.203857	1969.096558	72.047272
826.572449	902.703674	2330.950684	1984.402832	75.736145
826.877502	905.898743	2376.126709	2049.789063	77.803604
827.182495	910.877136	2501.103760	2207.830811	81.557785
827.487488	894.827637	2675.864014	2371.668701	82.920319
827.792419	897.502625	2816.890625	2536.026123	85.366974
828.097290	869.862000	2858.500000	2556.608154	84.819168
828.402100	876.326355	2803.441406	2500.955322	84.303680
828.706848	884.871155	2678.315918	2344.993896	81.414429
829.011597	891.335449	2495.010986	2149.206299	78.436745
829.316223	886.728516	2297.440186	1948.960449	75.297592
829.620789	889.254883	2119.782227	1787.426270	72.990768
829.925354	908.870850	1990.347046	1682.065063	71.494331
830.229797	924.771667	1882.682251	1608.951172	71.424149
830.534302	946.616638	1810.162720	1563.180664	71.399086
830.838562	929.229797	1712.900513	1497.942871	72.570412
831.142944	921.205078	1643.056030	1452.246704	73.566658
831.447144	889.180664	1560.803101	1399.417480	75.970779
831.751404	888.214661	1537.100464	1376.755249	75.289146
832.055542	894.679016	1525.657837	1374.526001	76.048035
832.359619	888.586243	1525.360718	1388.866577	78.564758
832.663635	895.793640	1545.570923	1423.194336	81.166382
832.967651	888.734863	1568.456055	1454.475708	83.231308
833.271545	879.521301	1623.068726	1493.410522	82.562218
833.575439	869.564758	1695.216675	1567.341675	84.512238
833.879211	862.951843	1821.382690	1681.024780	85.355446
834.183044	870.159180	1963.077759	1815.586914	86.504868
834.486694	869.193176	2096.674072	1914.260864	85.139214
834.790344	896.462402	2172.760010	1971.696899	84.246376
835.093933	899.583008	2162.209229	1937.814941	82.227974
835.397522	899.954590	2079.435791	1856.676392	81.113785
835.700928	877.886658	1961.220215	1725.680664	78.257896
836.004395	903.595398	1873.394531	1638.895142	75.819801
836.307739	904.115540	1786.683228	1547.279907	72.874222
836.611023	906.344543	1710.597290	1485.682983	72.034378
836.914307	877.292175	1618.833374	1416.878540	72.765526
837.217529	897.725525	1557.459473	1387.528931	74.242561
837.520691	891.186829	1499.503296	1341.758667	74.068657
837.823730	890.072266	1450.834839	1308.247925	74.572678
838.126831	870.233459	1418.215820	1278.303955	74.467819
838.429749	880.115723	1397.336914	1265.969727	74.601349
838.732727	886.059998	1378.389771	1253.784058	74.690598
839.035522	889.775146	1352.755249	1240.781128	75.814484
839.338379	882.716370	1331.653320	1229.561401	77.259186
839.641113	880.710205	1336.483032	1238.700806	78.545837
839.943848	889.106384	1357.510620	1258.093750	78.775414
840.246460	887.545959	1384.036743	1288.929321	80.844070
840.549072	886.654297	1411.603027	1305.647461	79.816017
840.851563	881.973206	1437.163208	1324.594604	79.724312
841.154053	884.945374	1447.788452	1329.498657	78.983521
841.456482	884.053772	1428.989868	1322.216919	80.406334
841.758850	887.843262	1393.993286	1292.198608	79.888435
842.061157	879.595642	1364.718140	1250.737671	76.504807
842.363403	874.988831	1339.529419	1213.883545	72.952660
842.665588	861.837219	1307.653442	1181.338989	71.666702
842.967712	864.958008	1288.111938	1172.274048	72.625114
843.269775	872.016785	1269.536255	1160.236938	72.504662
843.571777	866.889832	1240.558228	1150.577637	75.919670
843.873840	876.772156	1233.573853	1145.822144	75.406029
844.175659	883.013489	1232.161987	1147.308228	75.696945
844.477600	912.288757	1274.886108	1164.769409	69.631134
844.779297	907.979248	1259.802612	1158.750854	71.277702
845.081116	905.973083	1250.589233	1143.816040	69.016777
845.382751	897.279602	1218.193115	1126.652222	71.474899
845.684387	898.542786	1206.601929	1116.621338	70.791130
845.985962	894.158936	1178.738281	1103.023804	73.394249
846.287537	884.722473	1160.311279	1087.271606	73.496864
846.588989	886.802979	1153.698364	1085.414063	74.415329
846.890381	891.632629	1164.175171	1098.417114	75.872368
847.191711	896.165100	1170.342163	1100.497681	74.525772
847.493042	896.313721	1169.599121	1096.336670	73.191963
847.794250	905.601563	1178.589722	1108.819580	74.442062
848.095459	908.796570	1181.338989	1118.404663	76.908432
848.396606	904.041199	1178.961304	1120.187866	78.621628
848.697693	894.679016	1162.391724	1100.200317	76.769348
848.998657	887.546082	1142.627319	1084.076660	77.046272
849.299622	890.072327	1145.153442	1085.414185	76.580292
849.600464	888.734863	1141.809937	1077.166626	74.456863
849.901367	883.310791	1134.231079	1074.342896	76.132584
850.202087	883.236389	1117.364258	1065.129517	77.689651
850.502808	880.933105	1120.262085	1076.275024	81.620674
850.803467	887.546082	1127.395142	1075.606201	78.407692
851.104065	899.508728	1156.819214	1098.937256	77.505013
851.404663	903.298157	1150.057617	1095.444946	77.868057
851.705139	893.341614	1145.376465	1085.191284	76.120293
852.005615	879.892822	1125.166138	1071.742432	78.218704
852.306030	872.165344	1127.395142	1055.916016	71.994209
852.606384	886.059875	1140.100952	1072.782593	73.500992
852.906616	895.793640	1142.478638	1073.822876	72.168648
853.206909	895.867859	1129.029907	1078.578247	78.361977
853.506958	894.679016	1112.831909	1066.838501	78.916893
853.807129	885.539795	1103.989746	1052.052246	76.224533
854.107178	885.242615	1114.838013	1056.287476	74.498383
854.407166	885.688416	1122.416870	1063.048950	74.921509
854.707092	882.790588	1120.039185	1060.299805	74.819923
855.007019	886.802979	1114.317871	1060.002563	76.126701
855.306763	887.174500	1116.101196	1052.423706	72.184334
855.606567	880.858704	1109.859741	1040.089478	69.532776
855.906250	876.549133	1112.460327	1032.733398	66.204689
856.205933	874.097168	1103.023804	1036.745728	71.048332
856.505493	883.385010	1100.200439	1046.182251	75.085632
856.805054	899.583008	1100.051758	1059.928345	79.985207
857.104492	891.335449	1095.444946	1055.247192	80.305786
857.403931	882.493408	1103.766968	1057.104858	78.912025
857.703308	863.843323	1092.472900	1036.374268	75.463089
858.002563	869.416077	1095.370728	1037.340332	74.317680
858.301819	879.224060	1096.411011	1039.123657	73.623024
858.601013	885.985596	1100.794800	1051.234985	76.928452
858.900208	888.734863	1097.302612	1043.730347	74.314217
859.199219	884.573914	1095.965210	1034.962524	71.142288
859.498291	884.573914	1102.503784	1034.591064	68.837349
859.797302	892.301453	1113.277710	1050.046021	71.385300
860.096191	912.660339	1128.881226	1068.695923	72.164902
860.395020	912.957520	1126.875122	1057.476196	67.558105
860.693787	900.103210	1111.048584	1037.711792	65.234222
860.992554	868.004395	1088.237671	1016.461243	67.408905
861.291260	879.149841	1091.729858	1028.943970	70.464821
861.589844	881.081726	1091.655640	1036.448608	73.782585
861.888428	901.589172	1099.605957	1054.801392	77.373352
862.186890	904.115479	1104.807129	1056.584717	75.971886
862.485413	909.539734	1110.454102	1057.401978	73.594658
862.783813	905.230042	1095.965210	1038.157715	69.692276
863.082153	892.895813	1080.658813	1028.349609	72.140839
863.380371	886.357117	1087.940430	1025.229004	68.890564
863.678589	880.561523	1097.376831	1030.652954	69.225479
863.976746	873.279846	1085.934204	1028.498169	72.990898
864.274902	879.149841	1081.773315	1034.219604	76.530998
864.572937	882.939209	1080.584473	1041.798462	80.375946
864.870911	897.056702	1108.893799	1058.219360	76.078583
865.168884	882.642029	1096.039429	1051.457764	79.108620
865.466736	881.824707	1084.002319	1041.872681	79.162064
865.764587	867.409973	1063.123413	1020.547852	78.245972
866.062317	882.641907	1068.101563	1025.526245	77.043350
866.360107	885.316895	1080.510132	1025.451904	71.792961
866.657715	894.381836	1078.429688	1025.080444	71.013382
866.955322	886.951599	1087.494629	1021.588135	67.135986
867.252808	880.412903	1078.726929	1011.185730	65.942299
867.550293	877.515137	1085.859985	1016.758484	66.833115
867.847717	878.183899	1075.308960	1019.953430	71.918571
868.145081	880.115723	1076.943726	1032.510620	77.425415
868.442383	883.756592	1077.835327	1035.928589	78.407349
868.739624	881.898987	1080.287231	1040.906860	80.149849
869.036804	890.443848	1086.231445	1039.792236	76.280823
869.333984	878.109558	1075.977661	1029.612793	76.567787
869.631042	870.679260	1062.751831	1008.733704	71.876190
869.928101	861.317139	1053.686890	1001.972168	73.117020
870.224976	874.097168	1054.727173	1002.120789	70.876167
870.521851	929.229797	1114.020630	1057.921997	69.642090
870.818726	927.966736	1123.011353	1057.550659	66.438095
871.115479	929.006897	1147.679810	1076.646484	67.516174
871.412231	887.843201	1115.729614	1038.380493	66.058037
871.708862	892.598633	1104.361450	1033.253662	66.421021
872.005493	884.053772	1080.138672	1022.479736	70.594910
872.302063	884.276672	1061.637207	1013.786316	73.020554
872.598572	876.029053	1073.154175	1029.687012	77.949455
872.895020	879.298340	1075.606079	1023.371338	73.391403
873.191406	879.224121	1091.135498	1041.352661	76.507706
873.487671	887.397400	1085.191284	1033.996582	74.117149
873.783997	898.245605	1095.222046	1037.265991	70.577164
874.080200	888.957825	1079.692749	1022.033936	69.770187
874.376343	883.162170	1075.903320	1014.380798	68.080238
874.672424	890.146667	1080.733032	1035.334106	76.179344
874.968445	898.542786	1092.324219	1042.690063	74.386528
875.264465	899.211487	1097.153931	1052.126587	77.252304
875.560364	887.248718	1088.832031	1034.071045	72.834564
875.856201	871.570862	1075.754761	1013.934875	69.723427
876.152039	874.765930	1075.606079	1019.507629	72.068108
876.447754	868.004395	1077.835327	1011.334290	68.307327
876.743469	897.576843	1096.559692	1034.962524	69.043983
877.039063	901.886414	1085.042847	1027.903931	68.803215
877.334595	898.914307	1075.457642	1035.928589	77.609436
877.630127	875.508972	1061.265747	1026.640747	81.360031
877.925537	867.261414	1083.036499	1028.795410	74.862213
878.221008	866.221191	1082.887939	1024.337280	72.976631
878.516296	862.803223	1083.482300	1025.526123	73.737350
878.811646	854.481262	1079.618530	1020.473633	73.729408
879.106812	866.295410	1106.887695	1041.203979	72.699158
879.401978	870.679382	1117.141479	1050.863281	73.108154
879.697083	886.059998	1134.231079	1073.897095	75.688553
879.992126	883.830872	1148.422852	1082.590698	75.119370
880.287109	890.963928	1188.323364	1102.652466	71.189445
880.582031	889.329285	1237.066040	1151.989380	75.534180
880.876892	875.137390	1318.056030	1223.022827	78.543869
881.171753	861.465759	1464.209473	1362.265991	83.086761
881.466492	862.506042	1715.649902	1573.731445	83.365234
881.761230	872.016785	2039.535522	1850.880859	83.841400
882.055786	880.338623	2371.965820	2120.822510	83.163132
882.350403	872.165344	2607.430908	2292.833252	81.870346
882.644958	864.363586	2696.445557	2318.244873	79.356781
882.939453	861.911560	2630.093262	2210.357422	76.261726
883.233826	868.524475	2483.939697	2028.018555	71.776848
883.528137	870.456360	2295.805420	1845.307983	68.393883
883.822449	878.481018	2140.438232	1678.721313	63.412628
884.116577	872.313965	1977.492554	1534.945679	59.956982
884.410828	876.251953	1850.955078	1417.770142	55.557243
884.704956	879.744202	1725.977905	1352.458252	55.860935
884.999023	875.954773	1611.923218	1287.591919	55.931358
885.292969	878.481140	1497.348511	1246.799805	59.514961
885.586914	867.855774	1392.209961	1184.534058	60.393967
885.880798	881.453186	1332.842285	1164.843750	62.781879
886.174622	883.533691	1294.204712	1142.627197	63.090282
886.468384	886.951599	1268.198853	1127.692383	63.145580
886.762085	873.651428	1229.710083	1109.339600	66.193634
887.055664	863.026062	1198.577148	1094.479126	68.976997
887.349304	860.425476	1175.840454	1081.773315	70.176704
887.642822	861.094177	1166.998535	1068.918945	67.937828
887.936340	870.530701	1151.543579	1059.408325	67.213158
888.229736	871.273682	1129.847046	1049.080200	68.764435
888.523071	874.022888	1115.878296	1040.535400	68.847961
888.816284	900.771790	1127.246704	1050.863403	66.272957
889.109619	905.898743	1139.878052	1056.733276	64.464905
889.402710	911.694397	1132.224976	1057.253418	66.004005
889.695862	880.784424	1100.720459	1028.349609	67.094589
889.988892	865.923889	1073.674194	1001.303467	65.164566
890.281921	846.828125	1057.922119	968.313110	57.550186
>>>>>End Processed Spectral Data<<<<<
