Jaz Data File
++++++++++++++++++++++++++++++++++++
Date: Fri Jun 04 14:03:21 2021
User: jaz
Dark Spectrum Present: Yes
Reference Spectrum Present: Yes
Processed Spectrum Present: Yes
Spectrometers: JAZA3586
Integration Time (usec): 519000 (JAZA3586)
Spectra Averaged: 10 (JAZA3586)
Boxcar Smoothing: 1 (JAZA3586)
Correct for Electrical Dark: No (JAZA3586)
Strobe/Lamp Enabled: Yes (JAZA3586)
Correct for Detector Non-linearity: No (JAZA3586)
Correct for Stray Light: No (JAZA3586)
Number of Pixels in Processed Spectrum: 2048
>>>>>Begin Processed Spectral Data<<<<<
W	D	R	S	P
191.335022	0.000000	0.000000	0.000000	0.000000
191.713211	267.935577	267.712708	266.375244	700.109558
192.091385	537.060059	543.450073	535.648315	-22.092957
192.469528	806.704590	817.404236	810.271179	33.333714
192.847641	811.831543	822.010986	823.199890	111.679459
193.225739	843.335876	843.707458	855.670105	3319.382324
193.603790	875.583252	872.536865	879.298401	-121.952637
193.981842	902.852356	903.000977	894.604797	-5549.404297
194.359863	902.703796	908.202148	896.313782	-116.216904
194.737854	915.038025	914.592224	918.381653	-750.027405
195.115829	908.276428	906.047363	917.564270	-416.669861
195.493774	909.762512	901.737793	909.539612	2.777672
195.871704	903.000977	893.490234	897.131042	61.718990
196.249603	921.353699	915.558105	918.158691	55.128220
196.627457	928.115234	915.409485	919.421875	68.420677
197.005310	926.629211	920.090576	915.483826	170.454315
197.383133	919.570496	905.675842	900.028809	140.641769
197.760910	930.121399	927.075012	926.554932	117.072044
198.138687	927.669434	931.310242	933.687988	165.308212
198.516449	922.096863	932.944885	931.087402	82.877220
198.894180	908.870911	909.985413	899.211426	-866.708679
199.271866	910.356934	900.325989	887.620178	226.666138
199.649536	907.161926	890.666687	890.963867	98.198387
200.027191	909.019531	902.778015	903.595398	86.904099
200.404816	893.936035	900.623230	896.908203	44.445660
200.782410	896.982422	916.672668	900.400391	17.358690
201.159988	890.072266	922.245361	912.140198	68.591263
201.537537	897.279602	942.455750	929.007019	70.230461
201.915070	892.524231	945.576416	926.629333	64.285950
202.292557	880.933044	940.746765	922.616882	69.689423
202.670029	883.607910	936.139954	931.756165	91.655022
203.047485	881.824707	928.189636	933.539368	111.538315
203.424911	885.465515	931.756104	925.960510	87.479973
203.802292	889.775085	937.031677	918.827454	61.477917
204.179688	888.140442	941.935608	921.353760	61.740337
204.557037	902.926697	940.078064	928.486755	68.799782
204.934357	898.617126	937.774658	927.297913	73.244621
205.311661	902.183594	935.842773	925.589050	69.536621
205.688934	904.115479	943.050110	916.969910	33.015419
206.066177	896.759521	925.366150	909.391052	44.155956
206.443390	892.078430	922.691223	905.081482	42.475876
206.820587	870.233459	912.957520	903.446777	77.739143
207.197769	882.790710	927.520813	920.610657	84.551437
207.574921	892.078430	931.384705	932.499084	102.835121
207.952042	900.400391	933.390808	936.214172	108.558136
208.329147	897.428223	944.907715	931.904724	72.613457
208.706223	1063.123413	1120.187866	1090.689575	48.307064
209.083267	1066.838501	1134.528198	1103.989746	54.884636
209.460297	1066.615601	1132.224854	1104.435669	57.644413
209.837280	889.700867	952.858093	931.756165	66.588257
210.214264	879.521301	940.969727	918.010071	62.635891
210.591217	868.598816	922.096741	908.647949	74.861099
210.968124	882.790710	940.523743	931.533203	84.427391
211.345016	894.753418	945.427734	943.124512	95.454849
211.721893	891.335449	951.594910	944.387634	88.039597
212.098724	887.991760	941.638367	939.112061	95.290840
212.475555	889.552185	947.879822	942.232727	90.318321
212.852356	897.799805	956.944763	953.824036	94.723595
213.229126	893.044434	957.390625	948.919983	86.835831
213.605865	879.149841	938.591980	926.852112	80.249924
213.982590	872.313965	927.520813	908.053528	64.737556
214.359283	868.970398	915.038025	898.914307	64.999893
214.735931	874.468750	921.130859	906.121765	67.834511
215.112579	886.431458	934.876770	915.112305	59.202522
215.489197	890.220886	951.223450	921.873962	51.888107
215.865799	887.471680	948.994385	928.932617	67.391281
216.242355	875.583252	942.752930	927.223633	76.880493
216.618896	880.933105	947.805603	934.802490	80.555367
216.995407	882.790588	955.458679	927.892395	62.065491
217.371902	880.561523	951.743469	918.158691	52.818405
217.748367	876.549133	942.901550	910.654114	51.399757
218.124802	879.744202	943.124451	916.969910	58.733925
218.501236	882.344727	942.678711	921.576660	65.024605
218.877609	876.400574	938.889343	916.301086	63.852295
219.253983	870.827881	939.112122	910.654114	58.324192
219.630295	878.703918	945.353516	921.725281	64.548569
220.006592	884.871094	950.703308	920.610779	54.289051
220.382889	887.917480	949.885986	916.969910	46.882572
220.759140	884.053711	948.845703	904.932800	32.224800
221.135391	889.032043	952.709473	912.140137	36.289299
221.511581	879.224121	948.325500	916.152588	53.440998
221.887772	879.818542	952.560852	922.616943	58.835636
222.263931	885.242615	970.987976	939.112061	62.824909
222.640060	899.211487	989.043457	942.084167	47.725414
223.016159	896.982422	999.445862	945.873535	47.715668
223.392212	888.214661	991.718445	924.920227	35.463020
223.768265	878.778259	994.096008	922.245361	37.693333
224.144302	876.400635	991.346924	915.558105	34.065884
224.520294	868.524597	983.842468	918.307373	43.170044
224.896286	879.224121	996.250977	928.338196	41.968208
225.272217	891.261047	1019.581970	943.347351	40.590656
225.648148	909.390930	1053.984009	960.957214	35.663036
226.024048	899.211487	1054.801392	948.548584	31.709703
226.399902	890.815247	1059.185303	942.975830	30.979727
226.775772	870.233459	1063.569214	926.629211	29.169851
227.151581	876.252014	1096.856812	942.381409	29.976408
227.527374	873.651428	1114.615112	941.043945	27.967915
227.903137	880.933105	1156.670532	957.539246	27.782278
228.278870	884.425293	1201.697998	977.303711	29.274002
228.654572	880.041504	1274.217407	989.638000	27.803957
229.030273	879.669922	1355.281616	994.021790	24.043116
229.405930	871.570984	1439.317993	986.963074	20.324562
229.781555	878.926941	1512.432007	988.151855	17.241364
230.157181	874.988831	1530.041626	989.340637	17.456884
230.532761	879.149719	1493.187500	987.111633	17.582293
230.908325	869.787598	1432.556641	991.644226	21.653044
231.283859	882.419128	1387.306274	998.108459	22.913898
231.659332	884.499573	1359.739868	993.353088	22.904942
232.034821	890.369568	1335.368530	987.037292	21.723135
232.410263	877.143616	1308.842407	974.182922	22.478476
232.785690	877.292236	1291.604248	974.703064	23.511465
233.161087	877.217957	1273.697266	971.433777	23.763111
233.536469	880.710205	1254.898682	971.805237	24.344692
233.911804	883.979492	1256.384644	974.703125	24.361540
234.287140	880.041504	1268.941895	979.681396	25.620930
234.662430	888.289063	1307.356323	992.387207	24.840439
235.037704	875.583313	1319.541992	994.319031	26.744768
235.412933	877.292236	1317.238647	987.631775	25.080223
235.788162	860.871399	1310.551392	978.418274	26.140118
236.163345	874.320129	1310.922974	987.408875	25.901972
236.538513	884.276672	1333.436646	1003.755432	26.600491
236.913635	889.403564	1336.334473	1007.916443	26.517046
237.288742	890.072266	1351.269409	1009.625305	25.922329
237.663834	883.830872	1348.371582	1006.430359	26.391548
238.038879	882.196228	1352.235229	1007.321960	26.620287
238.413910	875.063171	1342.724487	1003.235291	27.407040
238.788910	877.812317	1359.814087	1012.968994	28.040701
239.163879	878.852600	1371.033813	1016.015381	27.868349
239.538834	871.199402	1391.467163	1022.256836	29.034555
239.913757	874.691589	1422.005493	1037.488892	29.744778
240.288651	875.583191	1468.816284	1057.104858	30.598709
240.663528	877.217957	1537.992188	1074.640259	29.877422
241.038361	864.883606	1596.245483	1079.990112	29.411774
241.413177	867.187012	1695.959595	1104.509888	28.635464
241.787979	864.586487	1799.686157	1134.231079	28.835920
242.162735	874.691589	1933.282593	1165.958374	27.514570
242.537476	870.010559	2040.575684	1181.338989	26.596420
242.912170	896.982422	2177.292725	1206.007446	24.136728
243.286865	902.703796	2232.945557	1217.895874	23.694347
243.661514	907.161926	2242.307373	1212.397583	22.861603
244.036148	900.920471	2153.664307	1195.382202	23.505341
244.410751	891.335449	2062.271973	1174.131714	24.151289
244.785339	886.802979	1965.901367	1158.379517	25.166986
245.159882	879.669922	1930.087524	1169.227661	27.565964
245.534378	892.449951	1957.653687	1198.205688	28.703968
245.908890	890.146545	2059.968750	1258.093628	31.453247
246.283356	883.310730	2216.747314	1295.690918	30.926121
246.657791	867.558594	2437.946533	1346.588257	30.503906
247.032196	875.508972	2692.582275	1389.535156	28.288689
247.406586	872.165344	2925.892578	1418.587524	26.606365
247.780960	873.279846	3091.513428	1426.983887	24.961485
248.155289	868.598877	3118.410889	1415.541138	24.310575
248.529602	866.444031	3021.817383	1386.042969	24.107143
248.903870	869.936218	2823.354492	1351.863647	24.670980
249.278122	867.261414	2606.167969	1304.830078	25.163439
249.652344	862.877502	2415.655762	1267.307251	26.045557
250.026550	862.877441	2276.263916	1243.084595	26.900438
250.400711	888.363281	2187.249268	1250.812012	27.904585
250.774857	894.456116	2120.154053	1252.000854	29.170704
251.148987	892.152771	2085.157471	1247.914185	29.820623
251.523071	865.923889	2081.813721	1241.449829	30.884865
251.897125	881.601746	2129.887451	1277.486694	31.714291
252.271164	876.920715	2195.273926	1292.644531	31.533567
252.645187	876.177673	2252.263916	1299.777588	30.782949
253.019165	858.419250	2267.793213	1273.920288	29.481247
253.393112	883.162109	2262.220703	1279.567261	28.744619
253.767044	885.539856	2178.407227	1253.041138	28.425287
254.140930	894.010315	2094.073975	1242.267212	29.019867
254.514801	878.926941	1991.015747	1229.487183	31.522682
254.888657	883.905212	1956.464844	1232.830811	32.532047
255.262466	876.326355	1927.041016	1234.242554	34.064075
255.636276	894.753357	1942.941772	1245.387817	33.451469
256.010010	910.282532	1968.873413	1264.780884	33.487759
256.383759	922.765442	2022.148438	1296.508179	33.995678
256.757446	900.474670	2070.965576	1299.034546	34.050659
257.131134	889.626465	2131.893555	1330.241577	35.468628
257.504791	877.515137	2215.632568	1353.944214	35.604431
257.878418	872.982727	2333.551270	1396.445313	35.839645
258.252014	875.508972	2494.342529	1456.927734	35.915909
258.625580	886.951660	2686.563477	1547.205444	36.688679
258.999115	879.967102	2915.416016	1638.003418	37.241726
259.372650	870.456360	3182.980225	1728.355591	37.097961
259.746124	864.809387	3481.454102	1791.513062	35.415722
260.119598	864.140625	3785.575439	1854.447388	33.897957
260.493042	865.775208	3991.319336	1860.168579	31.815048
260.866425	862.357239	4040.284912	1833.642456	30.563477
261.239838	869.341797	3866.639404	1765.358276	29.894144
261.613159	861.985840	3582.802734	1686.894653	30.318424
261.986511	864.289307	3283.214111	1606.944946	30.701891
262.359802	864.809387	3051.538330	1545.793823	31.141693
262.733063	865.924011	2896.989014	1516.815796	32.046822
263.106293	870.084961	2793.559326	1504.778687	32.997253
263.479523	884.573914	2749.126221	1517.856079	33.964302
263.852692	888.066162	2718.142090	1509.088379	33.934231
264.225861	871.125183	2683.591553	1504.407227	34.940350
264.598969	874.320129	2652.458740	1509.162476	35.702633
264.972076	871.645203	2641.833252	1519.119141	36.576565
265.345154	881.750305	2670.811279	1564.518066	38.163471
265.718201	867.112793	2715.021484	1579.155640	38.532360
266.091217	901.143372	2824.469482	1651.303711	39.003281
266.464203	903.372559	2931.019531	1676.417969	38.125248
266.837158	902.332214	3041.804688	1709.482788	37.726616
267.210114	871.199402	3120.639893	1703.018555	36.978935
267.583038	873.502747	3181.122314	1719.736450	36.671284
267.955902	870.604980	3213.147217	1729.544556	36.666985
268.328766	881.155945	3208.168701	1731.401978	36.538094
268.701569	877.292236	3200.143799	1730.510376	36.731495
269.074371	878.406738	3198.955078	1738.089233	37.046524
269.447144	868.598816	3230.385010	1762.534790	37.849998
269.819885	863.769226	3292.725342	1801.692261	38.614246
270.192596	864.958008	3395.708740	1873.765991	39.862003
270.565277	890.146667	3550.852783	1980.390503	40.975735
270.937927	892.747131	3735.123047	2064.278076	41.216610
271.310577	893.118652	3948.966553	2131.819092	40.535408
271.683136	870.307800	4153.447754	2154.184326	39.105141
272.055725	869.862000	4307.625977	2153.590088	37.341949
272.428284	869.638977	4343.291504	2130.927734	36.310162
272.800812	863.694824	4277.235840	2105.962158	36.392338
273.173279	868.301575	4140.890625	2079.881836	37.022072
273.545776	871.570862	4038.352783	2048.526123	37.165657
273.918152	886.654358	3939.901611	2017.764771	37.046143
274.290558	882.493408	3875.852783	2000.006470	37.333073
274.662964	883.756531	3799.544189	1995.325195	38.122414
275.035278	875.211731	3758.529053	1984.179810	38.461533
275.407593	880.190125	3768.559814	2010.780273	39.142845
275.779907	884.276672	3840.707764	2059.894287	39.764759
276.152161	878.852600	3895.394531	2109.528564	40.797577
276.524384	879.372620	3979.207764	2143.485107	40.779991
276.896606	874.914551	4027.950439	2145.639648	40.301636
277.268799	879.818542	4085.237549	2155.447510	39.796013
277.640930	872.611145	4090.439209	2147.497070	39.619457
278.013031	873.428467	4085.832764	2155.224854	39.901466
278.385162	866.889832	4072.904053	2154.333252	40.157131
278.757233	871.868164	4064.358643	2169.639404	40.650749
279.129272	867.855774	4085.906494	2188.661133	41.043648
279.501282	871.050842	4108.940430	2210.282959	41.361267
279.873230	869.490479	4170.463379	2244.239502	41.646782
280.245178	864.958008	4265.570801	2309.700195	42.484760
280.617126	872.016785	4425.172852	2392.176025	42.783352
280.988983	868.004395	4597.332520	2464.101318	42.798512
281.360870	893.193054	4778.631348	2547.171631	42.568649
281.732697	883.830872	4945.663574	2592.421875	42.064533
282.104492	887.100281	5074.355957	2629.498779	41.611942
282.476288	873.502747	5156.831543	2617.313232	40.711575
282.848053	878.555420	5181.648926	2619.839600	40.465866
283.219757	884.351013	5183.135254	2607.654053	40.088150
283.591461	881.601807	5136.992676	2591.381592	40.179150
283.963135	883.087891	5087.804688	2591.456055	40.629803
284.334747	880.710144	5098.132324	2638.192383	41.671951
284.706360	889.552063	5171.543457	2704.916260	42.395329
285.077942	902.034973	5327.802246	2788.135498	42.616356
285.449524	901.366272	5445.943848	2831.156494	42.463577
285.821014	886.654358	5542.166016	2829.447510	41.731033
286.192535	869.564758	5653.693848	2848.246094	41.359283
286.563995	868.598816	5747.167480	2857.385498	40.765781
286.935425	878.704041	5800.293457	2868.902344	40.438122
287.306824	877.440918	5718.857422	2807.899658	39.873840
287.678223	869.193298	5577.756348	2742.736328	39.790123
288.049561	881.601807	5462.587402	2703.281494	39.766109
288.420898	884.722473	5336.421387	2688.644043	40.522095
288.792145	893.861633	5298.526855	2709.597412	41.223019
289.163452	875.731934	5309.598145	2767.107666	42.657482
289.534668	876.846436	5454.265625	2850.475342	43.116634
289.905914	871.570862	5621.372559	2924.629639	43.224094
290.277039	885.837097	5826.002441	2992.616455	42.645924
290.648193	902.926697	6017.480469	3038.981445	41.764244
291.019318	907.459167	6136.587891	3044.331055	40.864777
291.390381	881.676086	6108.353027	2995.216797	40.437565
291.761475	862.580261	6010.421387	2926.635742	40.095554
292.132507	862.283142	5892.057129	2898.846436	40.490154
292.503510	872.016785	5806.534668	2897.731689	41.051929
292.874481	909.465332	5798.955566	2971.440186	42.171570
293.245422	912.734680	5834.175293	3023.377686	42.886692
293.616364	917.787292	5989.542480	3108.900391	43.202263
293.987213	881.676086	6126.482422	3171.462891	43.658180
294.358093	875.806152	6340.845703	3250.372314	43.450119
294.728943	862.357361	6537.450684	3307.734375	43.089634
295.099731	860.202576	6759.987793	3358.483154	42.345280
295.470490	860.128235	6917.806152	3429.516602	42.415401
295.841248	871.422180	7023.242188	3495.645752	42.657681
296.211975	869.787598	7114.931152	3576.561523	43.342060
296.582642	870.530579	7278.471191	3653.836182	43.435261
296.953308	864.363525	7447.732910	3697.155029	43.029510
297.323883	864.214905	7554.729004	3683.334717	42.136070
297.694519	867.632813	7561.192871	3610.220703	40.973530
298.065063	874.245789	7480.798340	3533.762939	40.255745
298.435608	874.394348	7270.520996	3420.674561	39.809723
298.806122	871.347900	6948.642090	3302.310547	40.000740
299.176575	877.366516	6616.136719	3186.695313	40.240833
299.547028	875.657532	6392.040527	3125.395264	40.782845
299.917450	867.484314	6259.707031	3086.311768	41.148659
300.287872	857.899231	6173.070313	3072.268799	41.661304
300.658234	855.149963	6097.652832	3041.656250	41.707298
301.028564	862.728821	6033.306152	3021.594482	41.752895
301.398865	858.345032	5968.812012	2994.548096	41.800549
301.769135	867.558594	5911.450684	2966.461914	41.612774
302.139374	873.874329	5877.642090	2947.069092	41.432678
302.509583	869.193176	5839.673828	2917.867920	41.216835
302.879791	869.861877	5772.207031	2901.149658	41.435024
303.249939	863.471863	5682.449219	2870.016846	41.638397
303.620087	875.508972	5592.691406	2845.125732	41.754089
303.990173	871.719482	5519.429199	2822.760498	41.978546
304.360260	880.561523	5475.664551	2827.292969	42.365349
304.730286	886.208496	5456.123047	2820.754150	42.332207
305.100281	897.354004	5459.986816	2808.717041	41.891670
305.470276	886.282776	5458.724121	2806.264893	41.990307
305.840179	874.022888	5460.581543	2814.958740	42.317913
306.210144	860.797058	5468.680176	2830.784912	42.752552
306.579987	881.750488	5496.767090	2847.503174	42.594704
306.949890	890.815369	5536.221191	2876.704102	42.749519
307.319702	900.326111	5617.062500	2926.189453	42.950531
307.689484	877.812317	5704.368652	2983.179688	43.620491
308.059265	875.508972	5839.971191	3062.906982	44.061123
308.429016	860.054016	5948.229980	3134.683350	44.704224
308.798737	863.917725	6082.568848	3185.729248	44.490643
309.168396	860.202576	6199.150391	3210.026123	44.012859
309.538055	872.462585	6285.712891	3214.558594	43.265980
309.907684	875.434631	6297.155762	3205.642334	42.979115
310.277313	876.846375	6322.566895	3213.815430	42.913860
310.646851	873.131287	6336.981934	3219.165283	42.937374
311.016388	887.323059	6370.492676	3219.239502	42.528625
311.385895	913.700500	6334.529785	3204.899414	42.266579
311.755371	910.505554	6279.322754	3152.961670	41.768158
312.124817	894.456238	6213.639160	3105.036377	41.558640
312.494232	875.880432	6138.296387	3055.030518	41.409691
312.863617	873.279846	6075.064453	3041.433350	41.680954
313.232971	876.697754	6022.087402	3064.764404	42.524799
313.602295	861.911560	6013.021973	3098.423584	43.418056
313.971619	867.409973	6070.234863	3163.958252	44.140415
314.340820	864.289246	6100.625000	3182.757080	44.276527
314.710083	878.852600	6168.463379	3184.986084	43.597416
315.079285	885.539856	6170.543457	3145.308594	42.758133
315.448486	904.041199	6187.484375	3096.268799	41.492401
315.817596	912.065918	6070.086426	3016.987549	40.808708
316.186707	907.904968	5901.642090	2936.963623	40.632065
316.555786	890.072266	5695.525879	2872.468750	41.253056
316.924866	878.481018	5517.720215	2835.614502	42.186520
317.293884	881.304504	5430.042969	2833.014404	42.906624
317.662872	889.552185	5398.835449	2847.280273	43.415504
318.031830	875.583252	5429.448242	2857.236572	43.515854
318.400757	878.852539	5474.996094	2875.960938	43.451828
318.769684	867.112793	5520.470215	2885.991943	43.385429
319.138550	864.586426	5529.832031	2883.837158	43.282837
319.507416	859.905334	5513.335938	2868.902344	43.172386
319.876190	855.521484	5490.599609	2840.518799	42.825542
320.244995	887.025879	5484.209473	2842.970703	42.546589
320.613770	887.694580	5437.770508	2813.026611	42.314281
320.982483	898.171204	5387.839355	2810.723389	42.598969
321.351166	876.623474	5320.148926	2809.682861	43.502831
321.719818	873.651367	5312.198730	2848.543213	44.494102
322.088440	869.490417	5362.204590	2914.598633	45.520546
322.457062	872.908386	5475.962402	3023.823486	46.727997
322.825623	881.378906	5633.781250	3142.410889	47.576611
323.194183	875.806152	5803.414063	3221.542969	47.603966
323.562653	875.657532	5965.988281	3245.691406	46.559528
323.931183	868.747498	6092.674316	3245.542969	45.498253
324.299591	867.335632	6180.128906	3239.821533	44.656090
324.668060	868.004333	6210.742188	3213.147217	43.894028
325.036407	870.679260	6192.463379	3174.880859	43.297539
325.404755	875.806152	6122.989746	3127.698975	42.916218
325.773102	866.146790	6025.802246	3085.940674	43.022137
326.141388	869.118958	5919.103516	3047.303467	43.132500
326.509674	868.153015	5820.949707	2998.486328	43.012733
326.877899	876.623535	5758.238281	2972.109131	42.926075
327.246124	868.004395	5707.488770	2948.629150	42.992695
327.614288	882.790588	5660.529785	2940.084229	43.059982
327.982422	880.338623	5608.146484	2929.533203	43.343441
328.350525	895.867981	5576.122559	2952.047119	43.933064
328.718628	887.471680	5558.661621	2965.347412	44.482792
329.086700	895.273438	5575.602051	3003.316162	45.040485
329.454712	885.911316	5612.827637	3020.851563	45.165600
329.822693	883.979492	5669.148926	3078.733398	45.865749
330.190674	888.140381	5722.349609	3125.766846	46.287334
330.558563	894.901917	5755.786621	3162.175049	46.643219
330.926483	899.360107	5786.695801	3188.255859	46.833199
331.294312	882.121887	5839.524902	3229.865234	47.358334
331.662231	876.995056	5957.220703	3319.771240	48.084007
332.029999	870.679260	6074.990723	3395.337158	48.510891
332.397766	882.047546	6194.023438	3447.348877	48.292786
332.765503	892.970154	6272.041016	3487.472656	48.233284
333.133240	889.106384	6351.248047	3514.444580	48.064262
333.500916	882.344788	6409.056152	3544.685547	48.172241
333.868561	858.047791	6433.575684	3522.915039	47.795784
334.236176	852.920898	6422.281250	3515.633057	47.810017
334.603790	851.657776	6357.341309	3499.435303	48.091713
334.971344	857.527771	6314.468262	3503.893311	48.495407
335.338867	864.140686	6261.712891	3517.862305	49.165096
335.706360	856.933289	6253.911621	3530.047852	49.529835
336.073853	855.595886	6221.812500	3557.093994	50.342693
336.441284	858.939453	6228.500000	3577.824463	50.635151
336.808655	869.639099	6239.273926	3612.152344	51.074482
337.176086	868.375916	6253.168457	3657.328369	51.793125
337.543396	872.016663	6258.964355	3701.241455	52.519997
337.910706	865.923889	6237.268066	3728.362061	53.290909
338.277954	879.447021	6238.828125	3754.144775	53.638618
338.645264	876.029114	6211.410156	3760.757813	54.067905
339.012421	879.075500	6177.305176	3753.922119	54.260517
339.379669	878.183899	6144.760254	3704.362061	53.662533
339.746796	897.205383	6150.630859	3662.232422	52.632843
340.113953	903.966980	6184.587402	3636.523438	51.746880
340.481018	895.199219	6178.494141	3634.517578	51.848675
340.848114	875.731873	6202.196777	3645.217041	51.994808
341.215118	869.193176	6241.502441	3689.650391	52.499908
341.582153	878.035217	6353.402832	3789.661865	53.176826
341.949066	884.053772	6456.312500	3932.025391	54.699032
342.316010	886.357117	6576.385254	4109.089355	56.638245
342.682922	872.016785	6684.941895	4305.025391	59.058193
343.049835	861.391418	6828.271484	4556.911621	61.933880
343.416656	883.459290	7051.550781	4826.630371	63.928547
343.783478	889.106262	7325.282715	5050.504395	64.656372
344.150269	896.759521	7638.616699	5202.453613	63.865105
344.516998	885.911377	7885.747559	5241.313965	62.221493
344.883728	897.056824	8041.412109	5197.252441	60.190117
345.250427	894.381897	8053.671875	5096.720703	58.697704
345.617065	883.979492	7958.490234	4991.136719	58.055706
345.983704	874.988953	7813.525391	4910.592285	58.162167
346.350281	874.765930	7646.344238	4850.778809	58.716194
346.716827	872.611145	7472.921875	4756.042969	58.837109
347.083405	868.970276	7304.923828	4703.287598	59.576523
347.449860	923.211243	7241.691895	4704.402344	59.843361
347.816376	947.359619	7170.955566	4741.851074	60.969440
348.182770	948.028320	7076.368652	4758.495117	62.177795
348.549194	893.490173	6955.402832	4748.761230	63.598263
348.915558	876.846375	6970.635254	4811.993164	64.576355
349.281921	874.765869	7038.399902	4883.843262	65.044052
349.648193	874.245789	7117.011719	4935.929688	65.062248
350.014526	870.233398	7159.364746	4972.932129	65.234741
350.380737	871.496582	7228.243652	5018.033691	65.230484
350.746948	879.521301	7329.592285	5101.476074	65.455940
351.113159	875.063171	7374.024902	5170.132324	66.088547
351.479309	873.428528	7434.210449	5255.134766	66.786339
351.845428	864.512207	7469.800781	5346.303711	67.851563
352.211517	855.447266	7576.053223	5459.095215	68.500488
352.577576	861.465820	7675.099121	5567.502441	69.067947
352.943604	868.004395	7801.710938	5688.765137	69.526459
353.309601	898.022766	7962.354004	5839.599609	69.951088
353.675537	892.450012	8155.540527	5996.080566	70.268028
354.041473	880.487305	8354.671875	6159.917969	70.635544
354.407379	862.506042	8504.837891	6266.839844	70.715767
354.773254	865.032288	8690.743164	6410.912598	70.867432
355.139038	873.205566	8868.549805	6568.880859	71.237396
355.504913	891.781250	9124.151367	6840.234375	72.256874
355.870636	883.236511	9369.499023	7110.845215	73.384590
356.236389	885.985657	9625.842773	7376.478027	74.263138
356.602081	871.570984	9895.785156	7602.283203	74.585030
356.967804	879.149841	10151.757813	7772.213379	74.337914
357.333405	872.016785	10411.965820	7891.617188	73.581108
357.699036	864.363586	10613.846680	7892.658203	72.088890
358.064606	859.608215	10764.161133	7863.382813	70.712677
358.430176	860.574219	10805.622070	7807.284668	69.850952
358.795654	861.465820	10811.714844	7872.076172	70.456635
359.161163	864.066406	10804.209961	8051.442871	72.306564
359.526581	861.317200	10926.512695	8421.693359	75.114052
359.892029	884.202454	11207.153320	8917.589844	77.820648
360.257416	884.276672	11614.852539	9456.953125	79.890182
360.622772	885.316895	12126.055664	9892.218750	80.127319
360.988098	869.267517	12628.937500	10175.311523	79.135246
361.353394	874.617371	13132.262695	10277.848633	76.713196
361.718658	888.437683	13428.953125	10157.478516	73.912758
362.083893	884.350891	13483.863281	9806.546875	70.813820
362.449097	889.997864	13245.054688	9276.992188	67.883087
362.814209	881.527405	12775.833008	8700.328125	65.735664
363.179382	885.242615	12116.840820	8118.018066	64.396667
363.544434	878.183777	11394.323242	7708.610840	64.951851
363.909546	873.576965	10738.303711	7414.966309	66.310905
364.274536	877.143555	10264.326172	7291.326172	68.329155
364.639587	883.905090	9930.186523	7175.190918	69.545547
365.004517	886.134277	9710.622070	7134.249512	70.804276
365.369507	883.830872	9533.187500	7079.712402	71.634018
365.734344	871.199402	9430.129883	7080.900879	72.552307
366.099274	869.638977	9366.750000	7072.876465	73.004074
366.464081	870.827881	9306.861328	7051.996582	73.271034
366.828918	878.332458	9241.103516	7005.260254	73.264320
367.193665	885.094055	9161.600586	6912.159668	72.821365
367.558411	898.840027	9105.575195	6865.274902	72.701691
367.923126	894.902039	9018.567383	6768.606934	72.303627
368.287781	905.675964	8944.487305	6752.928223	72.737770
368.652435	884.871094	8833.033203	6700.396484	73.168175
369.017059	896.908203	8784.884766	6724.247559	73.876228
369.381653	897.131104	8744.910156	6753.968750	74.630516
369.746185	901.440735	8759.844727	6805.535156	75.130959
370.110687	895.793701	8778.049805	6883.255859	75.961273
370.475220	881.601868	8824.786133	6949.979004	76.397285
370.839661	890.889648	8931.038086	7045.235840	76.545181
371.204041	888.809265	9029.118164	7073.618652	75.977577
371.568451	885.614075	9089.303711	7075.625000	75.453987
371.932770	870.307800	9095.841797	7028.442871	74.866081
372.297150	878.258118	9089.823242	7005.929199	74.622444
372.661377	878.332458	9092.646484	6985.867676	74.352341
373.025696	885.985596	9079.867188	7014.548340	74.794373
373.389862	872.388184	9067.979492	7051.476563	75.395271
373.754059	888.734863	9105.129883	7151.191406	76.219032
374.118225	876.772156	9172.373047	7260.341309	76.951263
374.482361	877.069336	9312.136719	7430.123535	77.688225
374.846436	855.224304	9467.281250	7596.115723	78.272728
375.210510	862.283020	9706.312500	7827.717285	78.758606
375.574524	876.772156	9971.499023	8102.786621	79.452797
375.938538	889.552246	10282.530273	8390.262695	79.854439
376.302460	891.632629	10574.094727	8668.898438	80.323227
376.666412	894.604797	10851.763672	8829.615234	79.691505
377.030304	894.827637	11057.062500	8836.971680	78.153519
377.394196	894.307617	11155.067383	8705.084961	76.122795
377.757996	891.409668	11174.980469	8474.671875	73.741531
378.121796	885.762756	11032.468750	8221.374023	72.295494
378.485565	887.100159	10840.543945	7963.171875	71.091698
378.849304	864.289246	10520.670898	7734.987793	71.151894
379.212982	863.992004	10268.264648	7601.316895	71.641106
379.576630	870.753601	10003.152344	7533.181152	72.953758
379.940277	889.997986	9860.713867	7561.639160	74.371338
380.303864	892.227051	9723.700195	7551.831543	75.407631
380.667450	881.230286	9692.567383	7566.171875	75.867508
381.030945	873.577087	9647.614258	7528.723145	75.850441
381.394501	891.261169	9685.954102	7584.524902	76.105705
381.757935	915.483887	9708.913086	7646.270020	76.543358
382.121399	921.651062	9756.690430	7758.095703	77.378777
382.484741	914.072083	9878.621094	7903.580566	77.968323
382.848145	887.545959	9972.316406	8041.561035	78.747337
383.211487	884.796814	10091.944336	8171.516113	79.141983
383.574768	872.611145	10217.069336	8251.391602	78.964241
383.938019	870.604980	10319.384766	8295.006836	78.575249
384.301270	871.050781	10432.176758	8355.563477	78.280663
384.664459	870.902161	10453.278320	8386.101563	78.427307
385.027649	879.372742	10492.956055	8400.442383	78.233788
385.390778	885.391174	10560.051758	8497.852539	78.684532
385.753876	897.131042	10638.886719	8623.499023	79.311867
386.116943	894.010254	10727.009766	8770.618164	80.103813
386.479980	889.775085	10773.894531	8818.841797	80.220268
386.842987	888.586182	10858.599609	8842.098633	79.774338
387.205994	897.651184	10941.000977	8864.538086	79.324997
387.568909	889.032043	10989.149414	8848.415039	78.804855
387.931793	882.493408	10942.562500	8824.489258	78.945740
388.294678	873.056946	10885.720703	8782.804688	78.997437
388.657471	876.846375	10863.355469	8784.958984	79.187965
389.020294	895.496338	10848.270508	8864.760742	80.070786
389.383057	906.418884	10930.523438	9071.842773	81.457886
389.745819	907.013367	10990.858398	9300.992188	83.241844
390.108521	896.388000	11169.333008	9555.999023	84.295311
390.471191	889.626465	11355.015625	9815.834961	85.292664
390.833801	885.911316	11613.738281	10075.671875	85.662834
391.196442	879.744202	11859.458008	10227.769531	85.139061
391.558960	872.016785	12046.700195	10270.567383	84.105743
391.921509	872.388245	12167.071289	10244.264648	82.975998
392.284027	871.050781	12237.213867	10204.586914	82.116859
392.646484	870.604980	12259.577148	10188.685547	81.816689
393.008911	865.329407	12185.497070	10147.745117	81.998924
393.371307	866.295410	12127.096680	10186.011719	82.762466
393.733673	873.279846	12046.848633	10170.629883	83.208420
394.096008	873.131165	12016.979492	10133.627930	83.099632
394.458344	875.583252	11963.629883	10023.510742	82.502609
394.820587	867.855774	11872.163086	9818.137695	81.334351
395.182831	870.010559	11755.953125	9603.997070	80.231789
395.545013	862.134460	11534.160156	9393.721680	79.943466
395.907196	871.942383	11310.805664	9247.865234	80.237885
396.269287	881.527527	11072.516602	9178.094727	81.410812
396.631409	885.762695	10897.534180	9111.667969	82.162338
396.993469	891.781189	10757.473633	9082.838867	83.025673
397.355530	895.273438	10666.601563	9094.356445	83.909607
397.717499	895.422119	10637.325195	9168.806641	84.925751
398.079468	883.459412	10630.043945	9225.276367	85.587082
398.441376	872.313965	10675.741211	9256.334961	85.521324
398.803284	865.255188	10662.812500	9219.555664	85.269218
399.165131	875.434753	10679.381836	9230.477539	85.221214
399.526978	887.174500	10650.922852	9206.850586	85.209854
399.888763	890.666748	10653.375000	9234.639648	85.467812
400.250519	882.642029	10643.790039	9251.877930	85.740280
400.612244	898.840088	10680.496094	9323.505859	86.127197
400.973938	913.700623	10676.781250	9414.674805	87.072662
401.335602	919.496155	10722.625977	9525.832031	87.791718
401.697205	922.394043	10845.522461	9727.117188	88.729301
402.058807	916.078308	11041.383789	9903.809570	88.765038
402.420349	917.787292	11331.387695	10178.284180	88.926949
402.781860	894.679138	11629.043945	10400.894531	88.558716
403.143341	894.679016	12026.934570	10678.490234	87.887054
403.504822	890.815369	12411.006836	10921.237305	87.068184
403.866241	895.645020	12829.405273	11142.288086	85.862648
404.227631	891.409729	13128.770508	11277.293945	84.870293
404.588959	897.056824	13401.164063	11333.691406	83.465652
404.950287	894.233215	13445.151367	11283.983398	82.780800
405.311554	893.193054	13343.653320	11185.754883	82.668121
405.672821	893.415955	13046.963867	11045.397461	83.531013
406.034027	887.174561	12674.409180	10888.915039	84.852310
406.395203	890.443848	12276.295898	10711.108398	86.253227
406.756348	882.716309	11996.100586	10572.163086	87.187187
407.117493	887.917480	11823.644531	10520.967773	88.087891
407.478516	883.013489	11781.143555	10587.692383	89.049026
407.839600	882.790588	11769.476563	10681.981445	90.010780
408.200592	891.186829	11850.020508	10842.476563	90.806099
408.561554	898.319824	11867.629883	10960.097656	91.726616
408.922485	898.245605	11914.663086	11117.916992	92.767647
409.283417	893.936035	11925.437500	11213.023438	93.542000
409.644257	897.502625	12064.309570	11343.350586	93.543732
410.005096	907.384827	12211.057617	11433.851563	93.124306
410.365906	907.607727	12309.731445	11430.285156	92.286995
410.726715	900.920471	12379.352539	11397.293945	91.444313
411.087433	894.530457	12354.758789	11320.167969	90.972336
411.448120	892.524231	12340.789063	11282.200195	90.753281
411.808807	892.970032	12269.385742	11255.375977	91.086739
412.169434	890.815247	12156.668945	11228.702148	91.763016
412.530029	911.620056	12150.204102	11286.731445	92.316895
412.890564	914.220703	12154.440430	11375.523438	93.070267
413.251099	925.886230	12261.137695	11533.043945	93.576729
413.611572	912.140198	12326.821289	11697.179688	94.483932
413.972076	914.815186	12456.182617	11855.592773	94.796196
414.332489	906.418945	12558.051758	11990.824219	95.131775
414.692871	910.877014	12739.424805	12203.851563	95.472198
415.053223	908.870789	12910.171875	12416.281250	95.884689
415.413574	912.957458	13178.331055	12728.204102	96.330101
415.773834	905.973083	13392.397461	12962.851563	96.559898
416.134094	910.208313	13634.028320	13263.184570	97.085434
416.494263	903.372498	13864.441406	13512.989258	97.288399
416.854462	902.257996	14230.010742	13931.981445	97.763847
417.214630	903.892578	14634.143555	14375.049805	98.112968
417.574738	908.127869	15043.403320	14860.768555	98.707947
417.934784	912.363098	15484.389648	15340.020508	99.009270
418.294861	918.381653	16039.133789	15930.950195	99.284538
418.654846	915.929626	16637.865234	16576.193359	99.607735
419.014832	915.632385	17287.716797	17228.943359	99.641014
419.374756	896.536621	17923.154297	17894.992188	99.834602
419.734680	925.217468	18688.396484	18658.080078	99.829330
420.094543	923.954346	19320.787109	19277.541016	99.764923
420.454376	931.756165	19865.650391	19643.632813	98.827408
420.814148	908.573730	20286.947266	19833.623047	97.660667
421.173920	902.183655	20719.759766	20038.404297	96.561859
421.533691	907.979309	21067.791016	20183.962891	95.615891
421.893341	900.474670	21244.113281	20227.875000	95.004639
422.253021	898.914307	21294.937500	20188.568359	94.575562
422.612640	894.233215	21225.240234	20125.708984	94.591850
422.972260	902.406555	21151.458984	20111.591797	94.864616
423.331757	902.480896	21096.177734	20136.333984	95.246819
423.691315	923.582825	21238.541016	20343.119141	95.592300
424.050781	937.105957	21387.740234	20442.833984	95.379578
424.410248	939.557922	21410.996094	20292.220703	94.534943
424.769653	913.849121	21297.982422	19925.093750	93.264915
425.128998	901.440613	21117.353516	19435.662109	91.681351
425.488373	899.731628	20800.007813	19002.625000	90.968048
425.847656	903.669678	20399.591797	18538.232422	90.452568
426.206940	908.425049	19983.791016	18128.900391	90.275986
426.566193	918.604492	19543.693359	17694.748047	90.072823
426.925385	912.808899	19094.757813	17243.507813	89.818199
427.284576	900.474670	18525.078125	16739.437500	89.868477
427.643677	900.400391	18070.125000	16350.536133	89.984764
428.002777	904.264160	17658.412109	16110.242188	90.759483
428.361847	915.335205	17281.400391	15942.688477	91.820198
428.720856	912.288818	16921.330078	15718.963867	92.489456
429.079865	910.728516	16688.392578	15551.187500	92.792313
429.438812	902.555176	16534.212891	15475.473633	93.226952
429.797760	899.360168	16456.937500	15444.340820	93.491295
430.156616	906.641785	16248.444336	15302.793945	93.836121
430.515503	909.465332	16108.831055	15207.760742	94.071655
430.874268	905.304382	16025.536133	15189.036133	94.467674
431.233093	892.970154	16041.213867	15276.120117	94.949287
431.591827	891.558350	16121.757813	15421.976563	95.405304
431.950562	892.672913	16197.621094	15579.497070	95.961281
432.309204	901.514893	16333.596680	15735.458008	96.124054
432.667877	900.920410	16519.576172	15907.171875	96.079018
433.026459	907.904968	16850.371094	16040.471680	94.919861
433.385010	907.459167	17288.087891	16221.622070	93.489471
433.743561	904.709900	17903.833984	16365.768555	90.952087
434.102051	907.756287	18540.236328	16521.357422	88.550224
434.460510	921.948181	19289.134766	16688.687500	85.841881
434.818939	925.068909	19888.458984	16765.740234	83.532906
435.177338	918.827454	20424.332031	16830.013672	81.572807
435.535675	904.487000	20674.435547	16843.013672	80.619965
435.894012	917.192810	20674.210938	16852.525391	80.656570
436.252289	921.725281	20530.509766	16977.501953	81.880524
436.610535	933.465088	20071.986328	16947.337891	83.673515
436.968719	954.938538	19647.570313	17103.298828	86.388908
437.326935	952.412292	19065.333984	17216.312500	89.791702
437.685028	951.149170	18609.708984	17440.556641	93.379120
438.043152	926.332031	18259.001953	17601.050781	96.203979
438.401215	922.245361	18214.791016	17812.962891	97.676292
438.759277	911.025635	18396.535156	18134.322266	98.500397
439.117249	920.239075	18862.414063	18643.445313	98.779587
439.475250	937.031555	19266.992188	19125.296875	99.226974
439.833130	949.142883	19799.224609	19627.064453	99.086685
440.191071	940.672363	20079.865234	19780.052734	98.433517
440.548889	928.263855	20326.029297	19851.681641	97.554626
440.906708	913.180420	20455.244141	19703.966797	96.155586
441.264496	912.957520	20468.244141	19526.013672	95.181709
441.622223	913.403320	20397.138672	19270.855469	94.219376
441.979950	919.942078	20172.445313	18961.384766	93.709595
442.337616	918.604492	19997.982422	18738.328125	93.397812
442.695251	921.799561	19745.205078	18489.638672	93.329758
443.052887	911.620117	19511.152344	18413.849609	94.100388
443.410461	898.840027	19380.156250	18447.656250	94.954361
443.768005	902.406555	19383.869141	18699.468750	96.296829
444.125458	912.511719	19468.873047	18968.294922	97.302391
444.482941	921.502380	19695.718750	19362.619141	98.225761
444.840393	919.124695	20027.333984	19873.898438	99.197014
445.197754	919.050476	20500.716797	20367.044922	99.317360
445.555084	911.248718	20844.960938	20790.345703	99.726013
445.912415	902.257996	21234.531250	21067.941406	99.180664
446.269714	903.743958	21425.710938	21221.376953	99.004318
446.626953	912.214539	21576.396484	21216.992188	98.260735
446.984161	918.158691	21637.546875	21090.902344	97.361679
447.341309	935.545593	21711.105469	20882.482422	96.011551
447.698456	948.028503	21722.175781	20601.916016	94.607430
448.055542	951.817871	21632.271484	20305.818359	93.585960
448.412598	939.186340	21347.837891	19965.363281	93.226036
448.769653	929.452820	20964.068359	19539.757813	92.890755
449.126617	927.595154	20485.111328	19039.107422	92.606400
449.483582	952.635193	20146.365234	18696.794922	92.447685
449.840515	957.464844	19761.849609	18427.521484	92.904167
450.197388	950.331787	19485.666016	18244.068359	93.301453
450.554230	936.288574	19258.744141	18111.509766	93.738640
450.911041	927.446533	19143.501953	18045.306641	93.971275
451.267822	932.647766	19067.861328	18127.857422	94.816689
451.624573	908.350769	18967.107422	18142.570313	95.434143
451.981262	903.744080	18917.769531	18083.648438	95.369598
452.337921	901.143372	18750.439453	17843.873047	94.920998
452.694580	902.034973	18542.988281	17501.041016	94.093590
453.051147	907.384827	18354.853516	17298.787109	93.947166
453.407715	906.493164	18099.324219	16958.408203	93.363998
453.764221	940.895325	18026.283203	16878.904297	93.284439
454.120728	952.337891	17693.558594	16521.433594	92.998566
454.477142	951.892151	17579.132813	16443.044922	93.167313
454.833557	933.910889	17370.935547	16311.675781	93.555641
455.189911	926.777832	17297.451172	16332.926758	94.108215
455.546265	931.533203	17217.203125	16422.312500	95.119080
455.902557	932.721985	17154.044922	16460.281250	95.723137
456.258820	932.499207	17269.216797	16730.818359	96.704369
456.615051	933.539368	17420.867188	17007.150391	97.490700
456.971252	941.638367	17543.615234	17342.033203	98.785797
457.327393	941.489746	17837.259766	17871.068359	100.200104
457.683502	941.118225	18237.677734	18513.710938	101.595886
458.039612	941.118225	18950.537109	19524.525391	103.187157
458.395630	955.087158	19710.060547	20513.570313	104.284248
458.751648	949.440125	20425.445313	21350.736328	104.750931
459.107605	941.192566	21238.763672	22030.458984	103.900444
459.463562	927.595154	21821.818359	22262.134766	102.107361
459.819458	939.186340	22206.111328	22182.556641	99.889244
460.175323	923.211243	22259.091797	21626.697266	97.036003
460.531158	925.960449	22190.583984	20944.154297	94.138481
460.886932	922.468262	21923.539063	20213.460938	91.857185
461.242676	937.923157	21496.519531	19488.638672	90.233376
461.598419	941.341125	20892.291016	18892.134766	89.974632
461.954102	938.666260	20226.240234	18280.623047	89.912590
462.309723	940.598206	19524.376953	17815.935547	90.806816
462.665344	928.635437	18929.138672	17424.431641	91.640747
463.020905	925.514709	18542.837891	17292.546875	92.903061
463.376373	926.183411	18295.781250	17245.216797	93.951706
463.731873	941.638428	18105.863281	17237.933594	94.943382
464.087341	943.050110	17988.392578	17212.894531	95.450386
464.442749	945.204895	17941.580078	17309.787109	96.282776
464.798126	934.728210	17902.570313	17395.830078	97.013527
465.153503	933.316406	18011.275391	17554.541016	97.325592
465.508820	914.592102	18112.773438	17677.658203	97.469994
465.864105	914.740723	18277.726563	17814.892578	97.334366
466.219330	926.926453	18489.044922	18065.666016	97.589249
466.574524	936.139954	18612.607422	18168.947266	97.490105
466.929657	936.957336	18649.908203	18078.816406	96.775848
467.284790	945.353516	18634.677734	17886.669922	95.771416
467.639893	946.096497	18576.421875	17631.367188	94.639610
467.994934	940.152283	18541.351563	17443.158203	93.760689
468.349945	924.994568	18362.802734	17210.888672	93.394157
468.704926	925.143127	18189.750000	17048.017578	93.386856
469.059875	949.217285	17958.744141	16908.699219	93.826721
469.414764	950.183167	17770.312500	16810.099609	94.291290
469.769653	943.718933	17661.013672	16762.916016	94.627731
470.124451	930.047119	17672.607422	16857.355469	95.130661
470.479248	926.554871	17636.865234	16914.048828	95.674431
470.834015	929.601257	17594.958984	16979.804688	96.308784
471.188721	926.777771	17700.541016	17151.148438	96.724693
471.543365	940.449402	17876.861328	17437.585938	97.406326
471.898010	947.879700	18078.074219	17732.939453	97.985229
472.252625	953.303894	18278.693359	18002.507813	98.405891
472.607178	949.737305	18526.492188	18202.457031	98.156456
472.961700	950.703308	18696.201172	18309.380859	97.820175
473.316193	958.876648	18867.169922	18360.128906	97.168678
473.670654	956.350281	18909.892578	18343.707031	96.846382
474.025055	965.861023	19039.998047	18423.359375	96.588280
474.379456	948.028381	19082.945313	18480.275391	96.676743
474.733795	953.155273	19212.603516	18620.261719	96.755959
475.088104	930.195801	19365.814453	18893.025391	97.435455
475.442383	942.901550	19543.025391	19220.033203	98.263496
475.796570	934.431091	19770.021484	19566.951172	98.921883
476.150787	956.276062	20110.328125	19969.375000	99.264107
476.504944	957.241943	20474.560547	20364.218750	99.434647
476.859070	972.919739	20825.642578	20767.460938	99.706932
477.213135	963.632019	21106.505859	21009.390625	99.517868
477.567200	955.755920	21456.992188	21319.009766	99.326958
477.921173	943.347351	21807.330078	21578.474609	98.903107
478.275146	947.211121	22191.771484	21866.994141	98.471245
478.629089	960.659912	22435.335938	22114.943359	98.508041
478.983002	972.474060	22835.009766	22563.435547	98.757813
479.336823	975.371826	23241.966797	23115.650391	99.432709
479.690643	968.684570	23788.833984	23852.140625	100.277428
480.044403	959.099548	24388.828125	24701.419922	101.334167
480.398163	967.718689	25331.728516	25929.421875	102.453178
480.751862	968.090149	26542.271484	27536.365234	103.887100
481.105499	964.300781	28217.201172	29771.171875	105.702042
481.459137	952.783875	30512.634766	32976.144531	108.333969
481.812744	952.338074	33480.953125	37256.050781	111.605461
482.166290	966.306946	37165.105469	42354.925781	114.336998
482.519806	971.805359	41348.277344	47401.496094	114.991943
482.873291	975.817688	45704.343750	51586.375000	113.150513
483.226715	983.916687	49577.375000	54253.839844	109.623650
483.580139	982.727722	51805.863281	54793.425781	105.878349
483.933502	990.975403	53572.261719	54497.777344	101.760162
484.286804	998.182800	54244.105469	52994.781250	97.653671
484.640106	1001.154968	54707.160156	51142.042969	93.361794
484.993347	991.346924	53968.886719	48473.238281	89.626457
485.346558	971.953918	52692.667969	46282.644531	87.606468
485.699738	961.031433	51301.718750	45232.597656	87.943909
486.052887	954.715637	49860.988281	45115.792969	90.297371
486.405975	956.350342	49189.738281	45990.042969	93.366226
486.759064	967.495789	48847.425781	46909.167969	95.951836
487.112061	977.823792	48889.109375	47454.097656	97.004860
487.464996	975.000305	48909.019531	47113.269531	96.253708
487.817963	970.987976	48801.281250	46015.972656	94.176682
488.170868	960.734192	48229.378906	44338.066406	91.767670
488.523743	963.483337	47287.667969	42388.660156	89.424515
488.876587	966.158386	46072.515625	40491.937500	87.627953
489.229401	995.136414	44796.144531	39245.507813	87.327606
489.582153	992.758728	43494.808594	38772.570313	88.889389
489.934845	1003.904114	42614.246094	39201.148438	91.797478
490.287537	981.241760	42352.105469	40239.156250	94.892662
490.640198	995.582214	42608.078125	41457.355469	97.234673
490.992798	977.526611	42845.625000	42130.386719	98.291687
491.345337	975.966248	43082.949219	42008.753906	97.448891
491.697876	971.285156	42834.925781	40776.074219	95.082008
492.050354	1006.430359	42356.265625	38937.746094	91.732689
492.402832	1031.098999	41231.394531	36379.355469	87.930344
492.755219	1038.900757	39721.339844	33820.074219	84.744331
493.107605	1010.071228	37657.214844	31277.431641	82.591324
493.459930	992.833008	35556.230469	29342.960938	82.023560
493.812225	991.792786	33409.847656	27827.781250	82.780998
494.164490	992.387146	31668.193359	26923.443359	84.532600
494.516724	986.294250	30203.015625	26405.255859	87.001419
494.868896	975.223145	29236.859375	26259.029297	89.463348
495.221039	983.768005	28675.275391	26433.937500	91.906044
495.573120	987.706055	28307.552734	26659.742188	93.968445
495.925201	1032.659180	28227.376953	26942.462891	95.275131
496.277222	1048.411499	28216.906250	27091.142578	95.856361
496.629211	1049.228638	28296.708984	27137.431641	95.745377
496.981140	996.473816	28263.642578	26979.392578	95.290123
497.333069	979.830017	28122.912109	26659.742188	94.609421
497.684967	971.062256	28000.609375	26275.744141	93.618591
498.036804	966.306885	27724.427734	25786.384766	92.757179
498.388580	964.449280	27371.859375	25285.140625	92.097977
498.740326	976.040527	26895.501953	24790.287109	91.877861
499.092072	983.916687	26379.322266	24289.041016	91.769058
499.443756	977.229431	25896.578125	23848.052734	91.779381
499.795410	978.195313	25418.960938	23455.140625	91.964981
500.147003	991.569824	25087.273438	23242.783203	92.345146
500.498566	1003.606873	24694.062500	22972.990234	92.735168
500.850098	995.433594	24365.943359	22717.166016	92.945053
501.201599	987.557556	23998.291016	22475.458984	93.382080
501.553009	983.247864	23745.960938	22301.740234	93.655319
501.904449	991.198242	23545.193359	22215.843750	94.105919
502.255859	1005.984436	23477.208984	22285.765625	94.697914
502.607178	1009.328125	23469.181641	22446.853516	95.448196
502.958405	997.142395	23490.431641	22616.187500	96.113312
503.309692	976.634949	23472.228516	22643.085938	96.314201
503.660919	966.455383	23490.283203	22647.765625	96.259438
504.012115	989.266357	23511.533203	22599.841797	95.952042
504.363251	995.730774	23541.552734	22529.849609	95.512680
504.714294	998.702820	23527.955078	22442.468750	95.181877
505.065369	1002.566650	23518.296875	22422.037109	95.131142
505.416443	1011.111389	23418.431641	22383.248047	95.380157
505.767395	1017.947266	23320.578125	22417.650391	95.951477
506.118317	1005.241516	23177.099609	22376.115234	96.387383
506.469238	998.702820	23191.585938	22433.625000	96.584663
506.820160	992.387146	23208.009766	22488.906250	96.763069
507.170929	1007.247620	23352.380859	22715.087891	97.147957
507.521729	1010.739990	23521.789063	22977.150391	97.580574
507.872498	1010.962891	23726.791016	23335.736328	98.278496
508.223236	989.340820	23965.080078	23640.750000	98.588387
508.573883	983.619446	24198.318359	23853.107422	98.512962
508.924500	992.758606	24456.146484	24015.531250	98.122116
509.275116	993.650330	24585.806641	24143.333984	98.124489
509.625702	1000.634705	24768.146484	24402.052734	98.459686
509.976196	997.513977	24966.900391	24530.820313	98.180679
510.326660	1013.117676	25212.322266	24724.677734	97.984871
510.677124	1009.699707	25414.724609	24841.033203	97.649292
511.027557	1030.950317	25584.583984	25049.453125	97.820564
511.377869	1028.349609	25753.619141	25169.302734	97.636765
511.728180	1028.423950	25832.382813	25198.429688	97.444145
512.078430	1012.820374	25876.888672	25192.039063	97.245628
512.428650	998.479980	25908.318359	25068.849609	96.629974
512.778931	1010.739929	25928.750000	24970.099609	96.152779
513.129028	1009.773987	25904.900391	24813.095703	95.614388
513.479126	1014.306396	25777.843750	24609.208984	95.280823
513.829285	998.851501	25622.179688	24427.687500	95.148941
514.179382	989.266418	25435.232422	24267.640625	95.223785
514.529297	993.055847	25363.234375	24355.244141	95.863838
514.879272	994.913391	25352.833984	24548.431641	96.697571
515.229187	1003.086731	25358.328125	24745.851563	97.485237
515.579163	990.752441	25528.630859	25121.156250	98.339409
515.928955	986.963074	25747.898438	25616.681641	99.470062
516.278748	983.545105	26243.197266	26343.955078	100.398888
516.628540	995.879395	26763.244141	27193.162109	101.668457
516.978333	1002.640869	27471.724609	28119.791016	102.448387
517.327942	995.284912	28162.884766	29043.447266	103.241226
517.677612	993.130127	28898.484375	29754.525391	103.067657
518.027222	984.139465	29540.906250	30178.421875	102.232452
518.376831	985.848450	30075.291016	30313.728516	100.819672
518.726379	986.517273	30347.236328	30093.718750	99.136543
519.075867	991.718445	30251.609375	29513.041016	97.475830
519.425293	1016.238281	30116.529297	28848.181641	95.641464
519.774658	1018.467346	29773.177734	28165.337891	94.408432
520.124084	1028.201050	29425.064453	27635.041016	93.696404
520.473389	1013.191895	28886.000000	27153.857422	93.785545
520.822693	1012.894714	28420.791016	26749.500000	93.902153
521.171997	1018.913269	28042.587891	26483.646484	94.231201
521.521240	1033.773804	27713.353516	26348.935547	94.885910
521.870361	1034.368286	27502.333984	26392.177734	95.805664
522.219482	1025.229004	27406.111328	26582.021484	96.876183
522.568604	1005.613037	27453.591797	26864.669922	97.773285
522.917664	1008.287903	27629.689453	27338.945313	98.907852
523.266724	1013.340515	27984.560547	27997.416016	100.047661
523.615662	1023.817200	28552.976563	28945.146484	101.424561
523.964600	1031.247437	29271.929688	30061.916016	102.797333
524.313538	1035.334106	30194.101563	31386.658203	104.089874
524.662354	1029.984253	31224.234375	32764.525391	105.101273
525.011169	1048.188354	32392.273438	34072.777344	105.361473
525.359985	1032.139038	33588.472656	35367.875000	105.465607
525.708740	1026.417603	34838.093750	36699.003906	105.503754
526.057434	1016.089661	36262.179688	38312.042969	105.815857
526.406067	1026.269165	37950.933594	40330.328125	106.443916
526.754700	1029.687134	39988.386719	43028.484375	107.803383
527.103333	1016.238281	42483.546875	46304.417969	109.214180
527.451782	1014.529358	45212.687500	49639.046875	110.014809
527.800293	1014.157898	47962.628906	52276.421875	109.188354
528.148743	1016.089661	50085.683594	53708.230469	107.382469
528.497131	1000.188904	51566.683594	53906.027344	104.626274
528.845642	1005.167175	52087.324219	52808.136719	101.411087
529.193909	998.331299	51922.296875	50606.621094	97.416389
529.542175	1009.625305	50947.515625	47415.761719	92.927704
529.890503	1009.179504	49310.847656	43975.988281	88.955124
530.238770	1012.374512	47035.480469	40732.156250	86.304001
530.586914	1018.838867	44790.269531	38512.292969	85.657364
530.934998	1029.092651	42612.386719	37184.949219	86.948036
531.283142	1031.544556	41152.042969	37121.488281	89.953880
531.631226	1026.417847	39924.187500	37522.054688	93.824501
531.979248	1014.083557	39587.449219	38627.605469	97.511642
532.327148	1009.996887	39665.988281	39776.324219	100.285431
532.675110	1006.950500	40039.730469	40735.796875	101.783287
533.023071	1006.727722	40295.703125	40932.921875	101.621880
533.370850	1010.517090	40429.449219	40330.328125	99.748543
533.718689	1016.238342	40400.988281	39177.449219	96.893372
534.066467	1018.913269	40013.574219	37674.746094	94.002182
534.414246	1013.860657	39126.550781	36111.714844	92.089684
534.761963	1020.473572	38154.968750	34908.386719	91.257233
535.109619	1033.773804	37366.468750	34278.222656	91.500092
535.457153	1043.433105	36677.312500	34032.128906	92.576775
535.804749	1036.077148	36101.687500	33897.792969	93.714943
536.152344	1026.194824	35585.207031	33655.792969	94.417046
536.499817	1027.532227	35115.542969	33187.535156	94.344032
536.847229	1030.355835	34740.832031	32643.937500	93.779694
537.194641	1027.903931	34328.601563	31901.427734	92.711334
537.542114	1032.510620	34084.292969	31265.171875	91.470596
537.889404	1029.538574	33726.453125	30605.291016	90.454262
538.236694	1035.779907	33508.597656	30187.412109	89.772415
538.583984	1024.783081	33514.988281	30293.591797	90.085022
538.931213	1031.619019	34040.378906	31150.154297	91.244064
539.278381	1028.646851	35143.550781	32801.679688	93.135345
539.625488	1036.745972	36835.574219	34936.171875	94.694237
539.972595	1048.708618	39148.914063	37555.640625	95.818199
540.319641	1049.451660	41812.144531	40138.628906	95.894493
540.666687	1060.597046	44521.593750	42270.593750	94.820641
541.013611	1048.114258	46912.285156	43548.304688	92.665344
541.360596	1051.829346	48464.394531	43804.125000	90.170815
541.707458	1039.272095	49598.406250	43298.500000	87.026321
542.054260	1051.755005	49859.730469	41972.941406	83.841187
542.401062	1049.526001	49854.152344	40435.316406	80.700935
542.747864	1062.380249	49037.343750	38563.484375	78.168076
543.094666	1058.442261	48003.199219	36788.988281	76.111900
543.441284	1064.535156	46571.609375	34906.894531	74.367249
543.787903	1049.748901	45407.281250	33470.554688	73.089745
544.134460	1042.690063	44538.832031	32294.416016	71.849426
544.481079	1043.210205	44140.421875	31600.875000	70.904037
544.827637	1058.590942	43941.218750	31097.619141	70.049408
545.174072	1057.996460	43890.019531	30896.412109	69.663803
545.520508	1059.185303	43827.015625	30935.494141	69.856964
545.866943	1048.114136	43647.277344	30960.310547	70.217804
546.213318	1054.578491	43225.238281	30827.306641	70.600578
546.559631	1064.015015	42554.878906	30338.916016	70.557465
546.905823	1068.101685	41401.625000	29567.654297	70.659714
547.252136	1059.705444	39895.582031	28491.156250	70.634308
547.598389	1048.039917	37882.945313	27263.974609	71.171448
547.944458	1049.823120	35919.644531	26055.140625	71.710487
548.290588	1063.940552	33873.421875	24883.757813	72.600410
548.636658	1050.120483	32114.974609	23880.521484	73.492706
548.982727	1034.442505	30315.437500	22943.119141	74.822174
549.328735	1022.702637	28804.640625	22294.828125	76.568184
549.674622	1033.773804	27447.650391	21708.060547	78.270554
550.020569	1037.934692	26403.546875	21324.732422	79.977562
550.366455	1038.380493	25452.396484	21013.107422	81.816635
550.712280	1026.937988	24681.802734	20878.916016	83.923447
551.058044	1029.315552	24185.984375	20933.898438	85.956154
551.403748	1029.166992	23768.921875	21028.931641	87.950668
551.749512	1046.479492	23520.156250	21133.773438	89.381432
552.095154	1041.426880	23236.093750	21198.269531	90.818405
552.440735	1062.603149	23088.458984	21220.337891	91.518509
552.786316	1046.182251	22923.132813	21106.951172	91.698196
553.131897	1038.751953	22684.546875	20870.890625	91.621208
553.477417	1012.448792	22367.867188	20549.978516	91.487457
553.822815	1015.495300	22043.462891	20215.244141	91.305779
554.168213	1023.297119	21691.935547	19833.996094	91.010826
554.513672	1023.371399	21306.232422	19433.357422	90.766220
554.859009	1029.018433	20851.572266	19105.384766	91.190903
555.204285	1033.922363	20454.423828	18822.884766	91.598885
555.549500	1033.402222	20104.310547	18628.509766	92.261505
555.894714	1013.266113	19831.171875	18481.687500	92.828720
556.239990	1006.430359	19525.640625	18384.349609	93.837257
556.585022	1020.845032	19316.849609	18271.333984	94.285553
556.930115	1039.272095	19064.814453	18146.431641	94.905106
557.275146	1033.922363	18881.064453	17978.433594	94.942436
557.620178	1012.671814	18663.060547	17859.251953	95.445946
557.965149	1001.674988	18505.685547	17724.318359	95.536064
558.310059	997.216797	18362.951172	17627.429688	95.764526
558.654968	996.845215	18247.187500	17540.718750	95.904610
558.999756	994.467590	18181.207031	17511.220703	96.101723
559.344604	997.588318	18196.291016	17561.966797	96.311790
559.689331	990.678162	18159.882813	17586.041016	96.657730
560.033997	1001.600586	18125.480469	17624.306641	97.073257
560.378723	998.479980	18092.638672	17660.791016	97.473709
560.723389	1005.018555	18144.873047	17712.505859	97.477417
561.067932	984.139587	18172.291016	17761.470703	97.609863
561.412476	989.415039	18185.664063	17724.691406	97.319344
561.757019	996.102295	18163.892578	17665.398438	97.096344
562.101501	999.297302	18143.533203	17606.921875	96.870018
562.445862	1005.613037	18058.087891	17580.617188	97.199989
562.790222	995.507874	17994.855469	17535.070313	97.295280
563.134644	1007.916321	18004.664063	17522.662109	97.164154
563.478943	1012.746094	18010.683594	17536.037109	97.207626
563.823181	1016.684082	18038.472656	17644.220703	97.683838
564.167358	1006.801819	18090.335938	17823.884766	98.440308
564.511536	992.758606	18241.021484	18107.201172	99.224152
564.855774	986.740173	18426.853516	18454.937500	100.161034
565.199768	992.461426	18658.974609	18835.591797	100.999725
565.543823	988.374756	18924.085938	19110.140625	101.037346
565.887817	996.325195	19198.931641	19364.033203	100.907021
566.231812	1004.349915	19353.925781	19402.150391	100.262810
566.575745	1006.430420	19409.060547	19340.998047	99.630150
566.919617	1007.990723	19386.843750	19111.998047	98.504555
567.263428	997.439758	19299.462891	18800.669922	97.274658
567.607239	992.535706	19210.744141	18564.460938	96.452545
567.950989	995.062012	19075.439453	18336.052734	95.910561
568.294678	996.696716	18965.248047	18243.398438	95.982704
568.638367	997.365417	18788.556641	18140.191406	96.355698
568.981995	981.761719	18663.058594	18098.955078	96.809601
569.325623	986.294250	18554.056641	18144.054688	97.666168
569.669128	1001.229187	18529.833984	18239.460938	98.343430
570.012573	1004.498474	18531.542969	18416.671875	99.344604
570.356140	1008.436523	18645.375000	18637.203125	99.953667
570.699524	1002.863770	18768.347656	18891.244141	100.691772
571.042908	1007.024719	18982.564453	19223.376953	101.339668
571.386230	988.449036	19157.396484	19444.130859	101.578156
571.729492	1002.417969	19369.306641	19641.107422	101.479843
572.072815	1003.235291	19469.466797	19623.126953	100.832115
572.416016	1010.442627	19502.085938	19539.683594	100.203323
572.759094	997.365417	19477.046875	19319.302734	99.146393
573.102234	987.929016	19416.490234	19115.935547	98.369080
573.445374	989.266418	19342.187500	18923.417969	97.718239
573.788391	988.374817	19229.617188	18783.876953	97.556412
574.131409	1003.235352	19150.039063	18667.814453	97.342636
574.474365	994.244629	19111.697266	18623.455078	97.305130
574.817261	992.833008	19085.841797	18572.259766	97.161430
575.160156	989.192139	19095.353516	18526.490234	96.858177
575.502930	995.507874	19061.250000	18284.263672	95.699120
575.845703	987.483215	19081.681641	18067.226563	94.393478
576.188477	1011.037170	19040.146484	17734.201172	92.756462
576.531250	1008.882324	18970.970703	17434.314453	91.445000
576.873901	1013.043396	18777.337891	17062.429688	90.346321
577.216431	975.074646	18608.669922	16747.908203	89.447632
577.559082	970.170715	18445.353516	16445.494141	88.556000
577.901611	967.570068	18308.486328	16130.452148	87.439911
578.244080	970.542175	18119.759766	15790.071289	86.415199
578.586487	989.935120	17943.810547	15564.414063	85.965469
578.928955	1552.109497	18344.080078	16004.433594	86.066872
579.271301	1586.140259	18108.539063	15866.528320	86.430473
579.613647	1572.839966	17814.298828	15676.016602	86.834419
579.955872	1017.650085	16972.748047	14894.054688	86.971603
580.298157	993.873230	16680.960938	14755.406250	87.725227
580.640320	989.786560	16463.181641	14643.581055	88.240456
580.982483	981.464661	16236.483398	14555.679688	88.981964
581.324524	989.712219	16131.417969	14463.620117	88.985405
581.666626	989.043518	16020.409180	14347.706055	88.871918
582.008728	984.956848	15948.334961	14226.518555	88.493134
582.350647	972.102478	15846.391602	14147.757813	88.580070
582.692566	985.997131	15834.653320	14078.656250	88.174034
583.034424	993.501648	15775.656250	14045.592773	88.296272
583.376343	990.306641	15721.788086	13935.252930	87.872673
583.718201	980.944519	15629.428711	13952.565430	88.552650
584.059937	974.554504	15603.125977	13898.843750	88.349632
584.401611	967.421387	15564.339844	13880.491211	88.464363
584.743347	965.489563	15535.139648	13786.573242	87.998573
585.085022	966.009766	15468.637695	13704.245117	87.833977
585.426514	977.749573	15502.743164	13709.668945	87.655251
585.768127	974.851746	15551.708008	13719.254883	87.429024
586.109619	987.557434	15652.239258	13794.820313	87.334068
586.451172	980.870300	15746.456055	13804.405273	86.847450
586.792542	984.288147	15829.897461	13858.573242	86.721161
587.133850	979.904297	15853.895508	13894.981445	86.829933
587.475220	983.173523	15850.034180	13996.924805	87.535301
587.816589	977.377930	15796.238281	14057.257813	88.265083
588.157776	984.065247	15772.909180	14137.950195	88.944649
588.498962	987.706055	15706.333008	14219.980469	89.901558
588.840210	981.984680	15631.956055	14265.825195	90.674858
589.181335	991.718323	15565.157227	14352.165039	91.676689
589.522400	996.622375	15504.898438	14343.695313	91.996269
589.863403	1001.377747	15425.914063	14308.773438	92.255272
590.204407	998.628601	15317.209961	14167.151367	91.968071
590.545410	985.179749	15284.145508	14044.254883	91.328812
590.886353	998.628601	15265.570313	13937.109375	90.688538
591.227112	974.777344	15250.485352	13832.863281	90.069687
591.567932	976.932129	15224.480469	13763.464844	89.745499
591.908752	963.780579	15252.565430	13708.109375	89.191132
592.249512	974.480225	15396.711914	13754.473633	88.613144
592.590149	962.740295	15415.362305	13726.238281	88.312683
592.930786	976.932129	15464.921875	13811.166992	88.585335
593.271423	959.248108	15421.604492	13837.320313	89.045464
593.612000	969.873535	15437.504883	13988.823242	89.986740
593.952576	956.647644	15455.262695	14135.870117	90.899872
594.292969	965.861084	15469.456055	14311.745117	92.017769
594.633484	966.083984	15500.141602	14506.640625	93.164322
594.973877	962.814636	15464.773438	14673.672852	94.544868
595.314209	971.805237	15519.682617	14923.627930	95.902809
595.654480	973.217041	15638.270508	15167.934570	96.792809
595.994812	978.046692	15822.690430	15509.503906	97.890236
596.335022	969.130371	15968.472656	15777.663086	98.727890
596.675171	971.136536	16053.624023	15885.699219	98.886627
597.015320	968.090149	16117.300781	15761.687500	97.652596
597.355408	977.452332	16067.293945	15456.303711	95.950981
597.695496	970.839355	16009.413086	15056.405273	93.662910
598.035461	971.582336	15799.953125	14564.223633	91.666451
598.375366	965.341003	15598.073242	14117.145508	89.879349
598.715271	969.799133	15335.338867	13743.774414	88.920959
599.055176	988.820618	15108.492188	13436.903320	88.161278
599.395081	976.337708	14846.796875	13167.036133	87.889656
599.734802	971.953857	14569.425781	12967.682617	88.220284
600.074524	960.511230	14315.757813	12858.606445	89.089302
600.414246	967.867188	14090.395508	12805.182617	90.206055
600.753906	983.768066	13913.780273	12834.754883	91.654877
601.093506	967.272766	13710.413086	12856.227539	93.296898
601.433044	971.285156	13644.284180	12990.418945	94.840485
601.772583	954.789978	13612.333008	13111.680664	96.044632
602.112122	981.910461	13732.257813	13389.500000	97.311775
602.451538	978.566833	13855.601563	13735.229492	99.065216
602.790894	979.904297	14011.338867	14126.804688	100.886055
603.130310	961.848633	14240.338867	14532.274414	102.198563
603.469604	971.953918	14513.252930	14897.472656	102.837395
603.808838	968.387390	14832.754883	15259.625000	103.078903
604.148010	959.173828	15115.476563	15519.609375	102.854790
604.487305	959.842529	15304.206055	15647.707031	102.394676
604.826416	971.656738	15410.905273	15574.590820	101.133614
605.165527	981.390381	15399.463867	15312.824219	99.399094
605.504456	963.334778	15340.836914	14905.199219	96.970001
605.843445	952.189270	15216.082031	14449.129883	94.623123
606.182434	951.743591	15014.200195	14018.543945	92.919754
606.521423	961.700134	14788.766602	13641.756836	91.704605
606.860229	966.826965	14570.390625	13318.168945	90.794899
607.199036	968.758850	14418.442383	13085.824219	90.091827
607.537903	966.752686	14381.440430	13050.159180	90.075943
607.876648	974.628845	14462.059570	13191.555664	90.580086
608.215271	978.566895	14731.109375	13444.409180	90.643906
608.553955	977.600891	15195.128906	13737.458008	89.747368
608.892578	980.944519	16049.312500	14083.114258	86.951485
609.231140	978.641113	17279.619141	14461.166992	82.709915
609.569641	977.972412	18917.919922	14705.549805	76.519608
609.908081	968.535950	20817.394531	14942.796875	70.403343
610.246521	977.675232	22792.806641	15100.765625	64.739883
610.584961	982.579102	24579.337891	15218.534180	60.330132
610.923340	985.848450	25870.201172	15179.674805	57.039162
611.261597	993.873230	26535.507813	14985.817383	54.780926
611.599854	1001.303528	26681.068359	14743.221680	53.512630
611.938110	1001.897888	26461.576172	14393.403320	52.598881
612.276245	989.786621	25929.791016	14085.863281	52.510323
612.614319	979.458496	25026.937500	13739.242188	53.060795
612.952393	972.028137	23804.361328	13373.747070	54.316475
613.290466	966.901306	22530.515625	13021.403320	55.902046
613.628479	970.987976	21278.070313	12630.348633	57.415241
613.966370	981.167419	20053.189453	12343.390625	59.575352
614.304260	976.932129	18841.982422	11998.180664	61.691669
614.642151	968.684570	17635.380859	11749.266602	64.683380
614.979980	955.607239	16632.515625	11515.213867	67.357712
615.317749	956.498840	15741.700195	11351.820313	70.308960
615.655396	972.399658	15049.421875	11222.979492	72.817818
615.993164	975.223145	14440.066406	11095.625000	75.161674
616.330811	989.935059	13949.221680	11024.741211	77.433327
616.668396	971.730957	13443.368164	10921.608398	79.780045
617.005859	983.545105	13019.397461	10862.389648	82.078476
617.343445	982.430664	12626.929688	10774.191406	84.089157
617.680908	978.492615	12341.534180	10715.938477	85.694008
618.018311	984.139587	12115.132813	10689.932617	87.196106
618.355652	971.508118	11909.612305	10656.273438	88.541534
618.692993	995.507813	11746.442383	10623.059570	89.550835
619.030273	974.703125	11598.358398	10548.609375	90.118759
619.367554	968.610168	11501.764648	10464.944336	90.156601
619.704712	953.526855	11434.222656	10413.378906	90.259773
620.041870	961.997375	11362.668945	10379.495117	90.547020
620.379028	954.715637	11294.385742	10328.821289	90.661552
620.716064	938.220520	11232.416992	10285.948242	90.805801
621.053040	926.777832	11188.429688	10265.366211	91.004723
621.389954	932.499207	11159.004883	10269.156250	91.298607
621.726929	932.127625	11129.359375	10265.514648	91.528633
622.063843	929.824219	11127.575195	10233.639648	91.233994
622.400635	923.434265	11133.742188	10240.995117	91.256416
622.737427	934.653870	11157.222656	10242.555664	91.052475
623.074219	937.403076	11165.172852	10236.314453	90.918274
623.410889	953.823975	11173.122070	10258.530273	91.050346
623.747559	960.808594	11226.026367	10335.210938	91.321999
624.084167	970.839417	11287.028320	10464.275391	92.024643
624.420715	967.570068	11379.461914	10584.199219	92.361977
624.757324	973.217102	11480.440430	10703.233398	92.603119
625.093750	967.198547	11590.704102	10821.151367	92.756134
625.430176	968.387390	11712.040039	10968.715820	93.081268
625.766602	979.086975	11830.554688	11145.258789	93.684761
626.102905	975.297546	11971.284180	11353.307617	94.379982
626.439209	965.861084	12081.696289	11506.890625	94.828949
626.775452	941.266907	12166.401367	11542.629883	94.443085
627.111694	944.461914	12189.659180	11485.862305	93.741356
627.447876	941.118347	12178.215820	11393.429688	93.016113
627.783997	942.455750	12126.649414	11258.125000	92.234360
628.120056	943.644531	12113.870117	11118.956055	91.093163
628.456055	957.836426	12059.554688	10938.176758	89.899048
628.792053	947.879883	12006.651367	10777.088867	88.881561
629.128052	938.369141	11869.414063	10610.354492	88.481804
629.463928	942.158508	11820.894531	10496.893555	87.829460
629.799744	946.245117	11797.934570	10391.904297	87.043213
630.135559	954.195496	11839.618164	10309.651367	85.944809
630.471375	933.390686	11812.870117	10210.605469	85.272598
630.807068	958.802246	11742.429688	10165.207031	85.373917
631.142700	971.953918	11610.914063	10120.178711	85.987961
631.478333	981.315979	11457.999023	10025.815430	86.329796
631.813965	954.121277	11261.468750	9942.745117	87.205986
632.149475	932.053284	11024.739258	9832.552734	88.187622
632.484924	931.607483	10780.582031	9814.200195	90.187996
632.820435	939.706482	10557.971680	9787.451172	91.988991
633.155884	942.158447	10360.252930	9778.460938	93.822617
633.491150	977.526550	10265.960938	9817.172852	95.168312
633.826477	978.343933	10105.541992	9775.042969	96.378967
634.161804	1000.486145	9997.208008	9750.225586	97.254753
634.497009	964.746582	9793.619141	9599.688477	97.803436
634.832153	948.325684	9620.790039	9463.937500	98.191360
635.167297	923.954346	9476.198242	9338.291992	98.387482
635.502380	912.437439	9335.245117	9244.819336	98.926414
635.837463	926.629211	9248.459961	9156.472656	98.894630
636.172424	933.836609	9125.786133	9067.830078	99.292526
636.507324	951.297791	9036.102539	8981.192383	99.320824
636.842224	954.418457	8949.317383	8892.921875	99.294609
637.177124	959.471008	8845.590820	8796.549805	99.378136
637.511963	941.415344	8753.975586	8712.291992	99.466454
637.846741	934.579590	8667.262695	8654.706055	99.837616
638.181396	915.260925	8568.143555	8549.940430	99.762138
638.516113	933.613708	8496.145508	8484.999023	99.852608
638.850769	930.641602	8404.530273	8433.804688	100.391685
639.185303	938.666199	8363.514648	8420.801758	100.771561
639.519836	933.836609	8281.484375	8383.204102	101.384384
639.854370	926.703552	8208.073242	8321.458008	101.557190
640.188843	932.350525	8129.089355	8241.955078	101.568291
640.523254	935.322693	8083.467285	8177.386230	101.313896
640.857605	958.059265	8049.140137	8108.507813	100.837219
641.191895	948.994385	8002.180176	8023.950684	100.308662
641.526184	935.842773	7914.651855	7922.155762	100.107521
641.860413	922.319641	7869.921387	7872.373047	100.035286
642.194580	922.914063	7826.008301	7878.020996	100.753471
642.528748	925.811951	7801.710938	7891.840332	101.310799
642.862793	942.604309	7762.405762	7895.407715	101.950233
643.196838	943.050110	7743.681152	7859.295410	101.700050
643.530823	944.164612	7721.910156	7814.566406	101.367065
643.864746	929.304199	7692.932129	7766.714844	101.090874
644.198669	927.892395	7639.806152	7760.177246	101.793396
644.532532	931.979065	7621.007324	7746.356934	101.873955
644.866333	931.013184	7597.230469	7747.990723	102.261559
645.200073	943.718933	7591.138184	7729.043457	102.074570
645.533813	935.619934	7547.076172	7748.213379	103.042252
645.867554	925.737610	7541.429199	7767.458496	103.416565
646.201172	920.090637	7535.856934	7791.754395	103.867996
646.534729	960.288391	7592.475098	7849.488281	103.875244
646.868225	966.381287	7595.595703	7844.955566	103.761528
647.201782	953.749756	7569.886719	7834.404297	103.998070
647.535217	913.031799	7560.004395	7779.048828	103.295403
647.868591	926.926453	7578.134277	7786.999512	103.140259
648.201965	935.768494	7617.068848	7782.764160	102.479988
648.535278	933.019287	7607.558594	7748.139160	102.106232
648.868591	915.186584	7614.914551	7711.656250	101.443962
649.201782	912.214539	7643.074707	7682.009766	100.578453
649.534912	918.381653	7685.799316	7698.282715	100.184464
649.868103	907.979248	7701.031250	7693.526855	99.889534
650.201172	909.539551	7737.662109	7717.303223	99.701836
650.534180	910.356934	7754.306152	7722.950684	99.541855
650.867188	928.189636	7767.605957	7751.779785	99.768600
651.200134	922.765442	7749.550781	7757.426270	100.115364
651.533020	916.449707	7699.099121	7739.000000	100.588280
651.865845	936.288574	7672.350098	7711.507813	100.581314
652.198608	955.904480	7636.610840	7689.291504	100.788551
652.531433	959.991150	7598.567871	7651.471191	100.796906
652.864136	938.220459	7544.326660	7608.523438	100.971771
653.196777	3431.300049	10204.067383	10276.289063	101.066353
653.529358	3540.822266	10197.677734	10269.601563	101.080444
653.861938	3539.781982	10124.489258	10188.166016	100.967041
654.194519	1035.259888	7328.254395	7405.009277	101.219688
654.526978	931.904785	7246.298340	7349.207520	101.629753
654.859375	927.743713	7184.403809	7316.960449	102.118652
655.191833	931.607422	7149.927734	7289.988281	102.252388
655.524170	923.582764	7074.511230	7241.988770	102.722801
655.856445	935.322693	7059.130371	7246.967285	103.067322
656.188660	1014.083496	7141.532715	7327.808594	103.040024
656.520874	1027.458008	7161.370605	7348.019531	103.042900
656.853088	1017.650085	7181.135254	7407.238281	103.668427
657.185181	935.768555	7120.058594	7415.708984	104.780670
657.517212	921.948181	7194.212891	7546.927734	105.623405
657.849243	931.533203	7293.332520	7718.343750	106.680679
658.181274	937.997559	7403.968750	7931.072266	108.151962
658.513123	933.242188	7488.302246	8117.200684	109.594093
658.844971	919.570496	7596.784668	8272.493164	110.119614
659.176819	914.072021	7698.728027	8393.680664	110.242996
659.508667	912.883118	7780.683594	8467.761719	110.004341
659.840393	922.022461	7832.472656	8441.011719	108.806068
660.172058	922.468262	7839.382813	8305.557617	106.739632
660.503662	937.626038	7814.193848	8140.309082	104.742416
660.835266	941.415527	7738.033691	7981.523438	103.582512
661.166931	937.626038	7648.945313	7814.119629	102.461128
661.498413	932.796387	7548.190918	7648.053223	101.509544
661.829773	932.945007	7428.712402	7488.080078	100.913940
662.161194	944.536194	7315.548828	7352.700684	100.583138
662.492615	934.728271	7178.014160	7203.128906	100.402260
662.823975	949.068665	7078.076660	7085.878906	100.127304
663.155212	941.044006	6940.171387	6952.654785	100.208084
663.486450	940.300964	6841.126465	6847.070313	100.100731
663.817627	933.465088	6719.863281	6740.965332	100.364677
664.148743	932.870667	6631.443848	6670.080566	100.678009
664.479858	938.220459	6552.682129	6638.576660	101.529877
664.810913	915.855286	6479.271484	6611.529785	102.377289
665.141907	907.384827	6411.285156	6587.679199	103.204895
665.472778	899.360107	6342.777344	6546.664063	103.745567
665.803711	937.403137	6333.043457	6553.425781	104.084450
666.134583	941.861328	6303.396973	6552.607910	104.648125
666.465454	960.288391	6309.192871	6565.165527	104.785515
666.796143	922.765442	6251.979004	6524.596191	105.115524
667.126831	931.458984	6244.920410	6537.822266	105.512451
667.457458	925.811829	6213.713379	6554.763184	106.449623
667.788147	935.619812	6194.469238	6583.964355	107.406471
668.118774	939.409241	6202.716797	6598.230469	107.514549
668.449219	943.718811	6196.178223	6592.954590	107.554108
668.779663	953.749756	6213.416504	6584.558594	107.056374
669.110107	934.133850	6170.989746	6556.843750	107.368050
669.440552	924.251648	6182.209473	6553.500000	107.061493
669.770874	895.050598	6144.611816	6509.513184	106.951080
670.101135	903.669678	6129.231934	6470.801270	106.536507
670.431396	902.629395	6078.111328	6389.439453	106.015442
670.761597	918.010071	6032.191895	6330.443359	105.831848
671.091797	920.387695	6006.037109	6291.508301	105.613266
671.421875	914.369324	5950.384766	6255.917969	106.066963
671.751892	916.301208	5940.279297	6236.599121	105.898109
672.081909	911.545715	5913.232910	6211.261719	105.958565
672.411865	919.347473	5902.310547	6186.593262	105.705093
672.741821	910.579834	5853.865234	6153.677246	106.065048
673.071716	911.099915	5807.723145	6134.729980	106.678215
673.401550	913.477722	5772.652344	6104.042969	106.819893
673.731262	915.632385	5742.856934	6088.142090	107.152870
674.060974	907.904968	5683.266113	6030.854980	107.278801
674.390625	911.991638	5650.127441	6018.148926	107.767220
674.720276	915.186707	5625.533203	5981.889160	107.565384
675.049927	924.102966	5596.183594	5975.350098	108.115578
675.379395	917.489990	5563.713379	5964.501953	108.626106
675.708923	918.455994	5540.233887	5941.839844	108.689423
676.038330	919.347656	5554.425781	5922.224121	107.935104
676.367737	921.725281	5543.502441	5892.131348	107.543175
676.697083	938.369080	5553.459473	5934.707031	108.260887
677.026428	937.700256	5555.094238	5951.871094	108.593094
677.355652	920.907898	5559.181152	5974.904785	108.962898
677.684875	933.465149	5588.232910	6008.043457	109.018936
678.013977	921.650940	5569.509277	6031.300781	109.935577
678.343079	934.505371	5603.985840	6090.296875	110.414673
678.672180	906.790344	5590.759277	6095.423828	110.774292
679.001221	903.075195	5659.786621	6175.967285	110.851631
679.330139	910.728516	5711.575684	6272.932129	111.692863
679.659058	907.607727	5788.181641	6370.121094	111.923584
679.987976	909.465332	5854.683105	6432.238281	111.679062
680.316772	903.149597	5897.257813	6462.701660	111.322220
680.645630	897.948425	5912.416016	6480.906250	111.336998
680.974304	903.223877	5921.183594	6453.711426	110.612427
681.302979	894.679016	5907.660156	6408.386719	109.988602
681.631653	899.583008	5908.552246	6359.197754	108.996773
681.960266	907.310547	5892.874512	6313.130371	108.429451
682.288757	914.889465	5876.082520	6248.783691	107.512329
682.617249	917.118469	5831.128906	6162.444824	106.742271
682.945679	917.341370	5760.318359	6100.996094	107.034470
683.274109	935.471191	5714.251465	6035.164063	106.715363
683.602478	944.907715	5633.261230	5948.007324	106.713364
683.930725	936.808777	5558.809082	5828.677246	105.838776
684.259033	909.985535	5455.231445	5730.523438	106.056702
684.587280	903.521057	5373.795410	5637.718750	105.903961
684.915344	919.719055	5328.842285	5597.520996	106.093697
685.243469	935.619873	5285.523926	5545.583496	105.978516
685.571533	937.105896	5269.548340	5548.853027	106.446815
685.899536	939.186340	5245.697266	5510.141113	106.140556
686.227539	925.811829	5232.917480	5484.061035	105.830910
686.555420	918.307312	5244.062988	5466.748047	105.147888
686.883301	908.722229	5256.472168	5485.546875	105.268814
687.211121	907.459045	5282.403320	5510.661621	105.217400
687.538940	917.935791	5310.117676	5548.406738	105.425301
687.866638	905.898743	5316.508301	5571.960938	105.791779
688.194336	910.431213	5298.749512	5590.239746	106.642410
688.521973	890.072266	5254.242188	5553.088379	106.847725
688.849609	894.827637	5199.480957	5488.222656	106.707664
689.177063	905.230042	5163.519043	5419.492188	106.011177
689.504578	915.632385	5099.395996	5361.312988	106.260323
689.832031	915.409485	5038.244629	5316.805176	106.756531
690.159485	901.960693	4965.353516	5245.177734	106.886459
690.486816	899.508728	4909.106445	5178.974121	106.730545
690.814087	932.201904	4875.596191	5162.107422	107.265594
691.141296	947.656921	4816.673828	5131.939941	108.148491
691.468506	938.368958	4734.346191	5077.327637	109.035385
691.795715	900.251770	4645.777344	4979.917480	108.921051
692.122803	898.096985	4605.059570	4942.468262	109.102028
692.449829	909.688293	4589.976563	4918.617188	108.929749
692.776855	910.654236	4581.431641	4881.019531	108.161430
693.103821	890.072266	4555.500000	4821.577637	107.259117
693.430664	873.502747	4542.794434	4799.658203	107.000366
693.757568	879.298340	4516.416504	4773.727051	107.074570
694.084351	887.545959	4492.416504	4759.684082	107.414070
694.411133	906.567566	4461.209473	4737.021484	107.759209
694.737854	903.818298	4436.318359	4731.746094	108.363136
695.064575	901.514893	4428.070801	4736.575684	108.748047
695.391174	905.527283	4423.761230	4742.891602	109.070755
695.717773	908.499451	4408.751953	4771.869629	110.374039
696.044250	910.431213	4386.460938	4792.153809	111.671158
696.370789	904.561279	4399.166504	4841.788574	112.665871
696.697205	901.366394	4435.129395	4908.734863	113.402298
697.023621	905.007141	4512.850098	5020.040527	114.057991
697.349915	918.901794	4617.468262	5185.958496	115.370560
697.676208	914.889404	4723.943848	5375.504395	117.105576
698.002380	911.025696	4848.029785	5577.904785	118.538834
698.328674	895.422058	4975.904785	5752.962402	119.043282
698.654724	897.056824	5122.280762	5916.725098	118.802422
698.980896	906.121765	5234.998535	6022.532715	118.192574
699.306946	916.152527	5282.552246	6029.442871	117.105408
699.632935	925.960449	5274.750488	5948.081543	115.483185
699.958862	921.502258	5223.778320	5818.645996	113.826813
700.284729	910.134033	5136.918457	5638.610840	111.869362
700.610596	903.892578	5051.247559	5463.775879	109.946777
700.936340	897.651184	4931.174316	5247.703613	107.847458
701.262146	891.261169	4787.770020	5073.909668	107.343491
701.587830	893.341614	4661.158691	4924.858887	106.998749
701.913513	903.075256	4539.450684	4804.042480	107.276253
702.239075	908.573730	4435.872559	4702.470703	107.558136
702.564697	909.316711	4318.696777	4563.524902	107.181015
702.890137	894.604736	4215.564453	4480.974609	107.991974
703.215698	890.295227	4136.061035	4388.839355	107.787941
703.541016	883.682312	4070.526123	4326.795898	108.041489
703.866455	889.403564	4036.718018	4256.803223	106.992790
704.191711	903.000977	4024.829834	4221.137207	106.288216
704.517029	906.493164	4009.894775	4201.224609	106.165169
704.842163	920.759277	3993.622803	4191.119141	106.427109
705.167419	914.889404	3995.554688	4176.778809	105.882629
705.492493	914.889404	4013.907471	4181.311035	105.401825
705.817566	901.366394	4029.288086	4177.967773	104.753304
706.142578	905.973083	4065.250732	4189.855957	103.944107
706.467590	915.558105	4106.711426	4206.276855	103.120049
706.792480	919.570496	4155.603027	4206.351074	101.568214
707.117371	912.808899	4163.701660	4212.146973	101.490219
707.442200	928.932617	4205.905762	4221.509277	100.476158
707.766907	932.424805	4227.453613	4226.413086	99.968422
708.091675	932.573425	4260.592285	4219.279785	98.758644
708.416321	908.796631	4240.530762	4219.428223	99.366623
708.741028	905.452942	4252.790527	4242.165527	99.682587
709.065552	913.403381	4254.722656	4282.214355	100.822777
709.390137	912.065918	4248.035156	4289.941895	101.256210
709.714600	912.214539	4246.548828	4315.576660	102.070213
710.039063	914.369324	4231.911133	4331.031250	102.987755
710.363403	937.328857	4234.140625	4382.226074	104.491776
710.687744	936.437256	4231.613770	4424.280762	105.846939
711.012085	921.948242	4257.620117	4465.667969	106.237061
711.336304	911.620178	4299.452637	4498.435059	105.873444
711.660461	906.567566	4315.204590	4517.382324	105.931335
711.984619	919.421875	4327.019043	4522.435059	105.734718
712.308716	913.477722	4317.507813	4475.698730	104.647163
712.632751	926.777832	4291.873535	4407.562988	103.437927
712.956726	942.752930	4250.933105	4334.820801	102.535767
713.280701	951.223389	4189.410156	4279.316895	102.776451
713.604553	963.706238	4130.934082	4252.864746	103.849762
713.928467	957.910645	4055.591064	4226.115723	105.504913
714.252258	949.217102	3971.554688	4206.202637	107.763786
714.575989	931.979004	3896.360596	4172.543457	109.316711
714.899719	916.078308	3827.184814	4147.206543	110.993134
715.223267	910.134033	3788.027344	4139.479004	112.212112
715.546936	914.146423	3766.627686	4133.832031	112.873154
715.870422	911.917297	3759.271729	4139.182129	113.342575
716.193970	908.276550	3737.873047	4122.835449	113.604851
716.517395	905.304382	3715.210693	4122.463867	114.493477
716.840820	897.874023	3668.622803	4061.832764	114.191467
717.164124	904.338379	3626.567139	4005.288086	113.912163
717.487488	910.134033	3588.152344	3941.907959	113.209602
717.810730	920.759338	3555.310791	3886.477783	112.570145
718.133972	909.762512	3508.574463	3811.135010	111.642265
718.457092	895.496399	3445.194092	3728.436279	111.108856
718.780212	884.202393	3385.751953	3661.861328	111.037537
719.103210	886.357117	3351.869873	3614.233154	110.641327
719.426208	881.081726	3304.985107	3576.635742	111.207153
719.749207	911.843018	3307.139893	3594.839844	112.011032
720.072083	917.638672	3261.963623	3569.205811	113.105782
720.394958	923.805664	3235.289063	3549.069336	113.574844
720.717773	890.666687	3163.884033	3476.773193	113.764153
721.040527	888.957703	3147.983398	3456.191162	113.643394
721.363281	901.812073	3137.580811	3432.860107	113.207062
721.685913	930.121399	3126.138428	3436.278076	114.122826
722.008545	929.378418	3093.519531	3411.238281	114.681053
722.331055	915.409485	3054.659424	3380.848389	115.247818
722.653503	895.273499	3032.517334	3339.535889	114.365166
722.976013	899.731689	3029.098877	3329.504883	114.107758
723.298401	903.521179	3022.857666	3321.182861	114.076347
723.620789	903.966980	3005.173828	3318.210938	114.897964
723.943115	908.276550	3001.607178	3312.860596	114.868813
724.265381	908.573669	3000.269531	3316.130127	115.100693
724.587585	909.613953	3004.802002	3330.322266	115.536568
724.909790	908.945129	3002.275635	3343.919678	116.320595
725.231873	905.081482	3003.390381	3346.594482	116.356224
725.553894	927.595215	3020.405518	3364.204346	116.427612
725.875916	1492.964478	3609.923096	3959.517578	116.514008
726.197937	1521.422363	3642.764893	3999.789795	116.830139
726.519775	1499.874634	3645.662842	3978.539063	115.513016
726.841675	929.675720	3064.318359	3399.795166	115.715828
727.163513	901.291992	3044.702881	3392.216064	116.213089
727.485291	897.131042	3058.076904	3428.253174	117.130287
727.806946	907.533447	3087.203857	3471.125732	117.613762
728.128662	907.087585	3113.952393	3492.376221	117.147575
728.450256	921.725281	3127.327148	3518.605469	117.740204
728.771790	908.722351	3122.125732	3503.967529	117.251343
729.093323	914.146301	3121.679932	3493.194092	116.829376
729.414795	902.852356	3119.154053	3483.014404	116.417458
729.736145	902.109375	3114.844482	3471.571533	116.121544
730.057495	895.347839	3108.974609	3461.689209	115.933792
730.378845	896.536621	3102.212891	3448.983643	115.721741
730.700134	903.223816	3115.438721	3459.980469	115.574516
731.021301	900.548889	3131.710938	3484.649170	115.818581
731.342468	903.743958	3146.868896	3511.620361	116.260864
731.663574	898.096985	3150.063721	3527.224365	116.748055
731.984680	918.901672	3153.927734	3528.115967	116.742004
732.305664	912.363098	3154.150391	3521.726318	116.396553
732.626648	919.198975	3162.769531	3540.004639	116.814049
732.947571	903.223877	3163.661377	3553.973389	117.267097
733.268433	908.053528	3168.639404	3554.121826	117.052322
733.589233	903.595398	3158.831299	3526.629883	116.308655
733.909973	922.022461	3149.246826	3500.326904	115.763123
734.230713	943.570313	3145.605469	3480.710938	115.217987
734.551331	941.861328	3098.720703	3430.407959	115.378250
734.871948	921.576660	3040.987305	3373.640625	115.695557
735.192505	900.400391	2976.789795	3297.628906	115.451782
735.513062	898.096985	2934.585938	3262.632568	116.108444
735.833435	906.716125	2901.372314	3218.571045	115.902428
736.153931	896.685242	2858.722656	3184.391602	116.598511
736.474304	903.446777	2839.924072	3151.252686	116.077057
736.794617	910.282654	2837.769531	3151.772705	116.290810
737.114807	935.025452	2838.512451	3164.626953	117.132477
737.434998	932.201965	2839.180908	3153.927734	116.504997
737.755188	935.248352	2839.255127	3157.642578	116.721970
738.075256	924.177246	2828.704834	3159.500000	117.368881
738.395325	918.976074	2834.649170	3179.487549	118.000900
738.715271	922.096741	2853.150391	3199.549561	117.938347
739.035278	919.124695	2867.787842	3216.713623	117.905907
739.355164	925.663269	2864.964600	3216.490967	118.126442
739.675049	913.106140	2843.268311	3193.308350	118.135269
739.994873	923.954407	2850.698242	3189.147217	117.565849
740.314636	923.731445	2837.249268	3172.354736	117.512535
740.634277	931.681824	2814.735596	3144.342773	117.503868
740.953979	911.768738	2776.469971	3087.352539	116.671974
741.273499	913.626221	2771.640381	3064.913086	115.784203
741.593140	916.746887	2761.163330	3041.061768	115.175446
741.912598	924.028625	2743.479492	3022.262939	115.322395
742.232117	921.130859	2710.711914	2974.560547	114.743599
742.551453	902.406494	2669.548096	2929.607666	114.716400
742.870850	922.022461	2652.755615	2896.468750	114.081497
743.190063	921.205078	2619.170898	2875.292236	115.084007
743.509338	922.171082	2604.904785	2843.639404	114.187309
743.828552	901.291992	2577.338623	2827.218750	114.908897
744.147705	906.344543	2566.713135	2810.946045	114.709557
744.466797	911.174316	2549.400635	2804.036133	115.543365
744.785828	929.378418	2558.985840	2797.868896	114.658936
745.104858	930.418701	2553.264404	2796.457031	114.985565
745.423706	930.121521	2541.673340	2794.154053	115.666931
745.742615	929.824219	2517.525146	2781.151123	116.604256
746.061401	948.622864	2521.834473	2783.602783	116.639107
746.380249	945.873596	2510.391846	2773.274658	116.802795
746.698975	938.369080	2487.357910	2760.345947	117.623627
747.017639	920.239075	2451.915527	2743.553467	119.040436
747.336304	915.558105	2446.565674	2749.052002	119.757339
747.654907	921.799500	2457.339600	2757.076904	119.519989
747.973389	931.087402	2481.042236	2767.925049	118.509109
748.291931	943.050232	2478.144287	2767.999268	118.881905
748.610352	933.985168	2469.896729	2762.575195	119.055687
748.928711	933.687988	2459.865967	2752.395508	119.167458
749.247070	947.433899	2478.812988	2766.067383	118.757889
749.565308	947.062439	2465.141357	2763.763916	119.671082
749.883545	938.591980	2455.556396	2756.482422	119.837379
750.201782	924.845947	2440.398682	2739.021240	119.703873
750.519836	917.415710	2441.661865	2733.002686	119.113762
750.837952	910.728516	2437.203613	2730.402100	119.207550
751.155884	905.675842	2429.550537	2719.405273	119.020905
751.473877	902.406555	2417.290283	2704.396240	118.952339
751.791809	892.747253	2399.680664	2679.876221	118.593758
752.109619	894.084656	2377.241211	2675.120850	120.084167
752.427490	899.954590	2377.612549	2667.690430	119.630920
752.745300	923.805847	2390.169678	2701.944092	121.261734
753.062988	914.592224	2396.559814	2683.294189	119.348221
753.380615	906.864563	2400.795166	2678.241699	118.571579
753.698303	907.533386	2397.971680	2661.449463	117.677872
754.015808	914.963684	2392.399170	2672.371826	118.949905
754.333374	923.062683	2379.693359	2680.099365	120.623352
754.650757	915.038025	2369.216553	2673.931885	120.954468
754.968262	916.449707	2365.055664	2680.322266	121.763451
755.285583	928.858215	2375.606445	2676.755615	120.815590
755.602905	926.777832	2370.331055	2666.873291	120.542519
755.920105	925.366028	2371.148438	2652.384277	119.452156
756.237305	908.722229	2357.996826	2647.108643	119.948723
756.554443	904.932800	2355.396240	2653.944580	120.582962
756.871582	904.412659	2353.018311	2657.139648	120.994072
757.188599	900.251770	2347.965820	2656.842529	121.335480
757.505615	907.013367	2351.904053	2672.074463	122.158798
757.822510	919.941895	2369.588135	2693.250977	122.327019
758.139465	926.034729	2390.689941	2715.095947	122.148964
758.456238	922.542542	2410.603027	2724.532227	121.096535
758.773010	907.161865	2426.281006	2740.953125	120.714119
759.089783	909.911133	2443.742188	2760.271729	120.636536
759.406433	903.372375	2438.020752	2768.593750	121.540634
759.723145	903.298157	2428.064209	2772.457275	122.586617
760.039673	904.709961	2424.125977	2783.899658	123.678421
760.356201	900.103210	2419.593750	2778.252930	123.603912
760.672668	899.731689	2433.191162	2784.568604	122.914032
760.989136	893.713074	2430.813477	2787.094971	123.178802
761.305481	900.697571	2440.101318	2800.692383	123.424072
761.621826	909.390930	2446.491455	2803.144531	123.202972
761.938049	939.706543	2475.172119	2832.122314	123.247032
762.254333	942.307129	2507.865479	2873.063232	123.326996
762.570496	935.099792	2543.307861	2940.233154	124.681213
762.886597	899.805969	2583.877197	3031.031250	126.551964
763.202637	892.672852	2685.671875	3193.531250	128.324570
763.518677	902.555176	2831.305420	3410.643799	130.036987
763.834656	908.796570	2990.164307	3634.369141	130.951035
764.150574	902.926697	3104.218994	3772.200439	130.344971
764.466370	905.304382	3149.617920	3796.497314	128.823044
764.782288	896.090820	3131.710938	3712.535889	125.980484
765.097961	914.815125	3096.863037	3586.518311	122.440170
765.413696	898.468506	3001.755615	3413.392578	119.571129
765.729309	906.344543	2908.951416	3234.620361	116.262253
766.044861	899.805969	2793.262451	3085.346436	115.425964
766.360474	897.948425	2708.259766	2979.167236	114.964691
766.675903	896.462402	2618.427979	2897.063232	116.181236
766.991394	894.381836	2530.676514	2820.902588	117.736786
767.306763	908.945129	2475.172119	2778.773193	119.384232
767.622131	902.406555	2435.048828	2741.473389	119.993217
767.937378	902.629456	2386.009033	2703.727539	121.418556
768.252625	902.629456	2354.653076	2658.031250	120.893471
768.567810	904.709961	2303.235596	2604.607666	121.549271
768.882996	913.106140	2289.564209	2568.571045	120.269913
769.197998	897.948425	2251.149658	2525.698242	120.288826
769.513062	915.781067	2244.016602	2516.187500	120.491158
769.828064	907.756348	2216.153076	2485.797607	120.608772
770.142944	914.146301	2187.695068	2474.354980	122.508751
770.457825	902.778076	2158.717041	2451.544189	123.315399
770.772705	898.765808	2132.933838	2427.024170	123.829033
771.087402	898.171387	2121.639893	2403.098633	123.004982
771.402100	897.428284	2104.253174	2392.176025	123.857880
771.716736	904.635742	2095.634033	2391.581787	124.848717
772.031372	902.332275	2076.760986	2378.653076	125.705444
772.345947	898.840088	2054.990234	2357.476563	126.163239
772.660461	894.530457	2043.473267	2349.600586	126.644249
772.974854	907.904968	2028.612915	2348.040283	128.502274
773.289246	920.610779	2033.145386	2344.102295	127.950302
773.603638	917.044189	2013.900879	2318.764893	127.794334
773.917908	908.796570	2003.721558	2285.254395	125.712509
774.232178	900.474670	1989.455444	2257.316650	124.597435
774.546265	904.487061	1995.176758	2254.716064	123.795891
774.860474	906.493164	1997.851563	2255.681885	123.624718
775.174561	907.310547	1989.826782	2260.437256	124.998283
775.488586	917.861511	1987.746460	2243.050293	123.862724
775.802551	919.496155	1982.470825	2235.322998	123.787239
776.116516	913.477722	1967.758911	2220.611084	123.983360
776.430359	900.028870	1956.242065	2219.125244	124.889229
776.744202	913.106140	1966.644531	2231.756592	125.163971
777.057922	913.403320	1963.746704	2221.948486	124.582603
777.371704	909.465332	1949.332031	2211.546143	125.216125
777.685303	883.905090	1918.199097	2185.837402	125.876434
777.998962	883.682312	1912.700562	2179.373047	125.915222
778.312500	885.539856	1908.390991	2172.760254	125.846313
778.626038	888.140442	1891.672852	2165.775635	127.313805
778.939453	909.539612	1903.189819	2185.688965	128.430450
779.252869	932.647766	1925.777954	2215.484375	129.171051
779.566223	931.384583	1930.161743	2219.422119	128.961456
779.879578	916.078186	1922.285645	2194.827881	127.086098
780.192749	902.183594	1889.741089	2162.803711	127.650299
780.505920	909.019470	1897.394165	2157.751221	126.341934
780.819031	902.109314	1884.688477	2145.936768	126.588005
781.132141	969.056091	1950.966431	2208.053955	126.182373
781.445190	969.204651	1938.706665	2207.979492	127.774353
781.758118	988.597717	1945.468140	2218.307617	128.513733
782.071045	926.480652	1874.509155	2140.289795	128.035080
782.383911	922.022461	1867.376099	2121.788330	126.911858
782.696838	899.211609	1844.416504	2103.807129	127.442787
783.009583	890.369446	1833.122437	2097.342773	128.026474
783.322266	885.911316	1816.404297	2089.763916	129.377930
783.634888	890.518066	1802.732544	2072.897461	129.616379
783.947510	886.877258	1790.621094	2066.953125	130.576370
784.260132	888.809265	1786.386108	2053.578857	129.768219
784.572571	892.375793	1786.014526	2050.235107	129.566833
784.885010	889.775146	1784.528442	2039.386719	128.483643
785.197449	899.211609	1794.113403	2039.015259	127.366348
785.509766	904.264160	1793.222046	2034.185547	127.106293
785.822083	910.059753	1789.729614	2023.114380	126.530960
786.134277	912.734680	1787.054688	2011.374512	125.656494
786.446533	909.836853	1788.540894	2020.067993	126.348709
786.758606	926.257751	1795.376587	2039.535522	128.092712
787.070740	918.678894	1784.900024	2061.380615	131.918015
787.382690	919.050354	1778.286987	2068.885010	133.820496
787.694641	899.508789	1771.079468	2074.457764	134.808228
788.006653	899.731628	1794.856445	2089.243896	132.887863
788.318481	905.007141	1829.481445	2129.590088	132.462631
788.630310	905.155762	1864.998413	2170.010986	131.777359
788.942017	897.874084	1876.515259	2196.388428	132.685440
789.253784	899.583008	1889.889648	2214.518311	132.780624
789.565430	904.709961	1883.425293	2204.190186	132.774078
789.877014	904.635559	1860.168579	2176.252197	133.079300
790.188538	904.338379	1839.512573	2133.825439	131.471451
790.500061	899.954529	1813.209351	2094.073486	130.754181
790.811462	905.229980	1809.345703	2067.547607	128.558502
791.122925	906.418762	1802.732788	2050.755127	127.671371
791.434204	899.434387	1786.980469	2033.516724	127.777283
791.745483	900.920471	1763.352173	2011.523315	128.775742
792.056702	881.081726	1727.909790	1976.006470	129.297180
792.367920	894.902039	1721.222534	1963.895142	129.367859
792.678955	889.849426	1703.612915	1947.697266	129.994522
792.990112	903.446777	1703.315552	1947.548706	130.534149
793.301086	888.809143	1694.102051	1931.647827	129.498047
793.612122	905.081360	1703.092651	1936.626099	129.264420
793.922974	904.338379	1697.668457	1915.078247	127.404709
794.233826	915.037903	1696.331055	1929.344360	129.824051
794.544556	905.898743	1695.810913	1936.997559	130.533356
794.855286	893.490234	1682.139282	1940.935547	132.815140
795.166016	902.555176	1694.993652	1952.601196	132.508209
795.476624	900.400391	1690.684082	1957.579590	133.772110
795.787292	910.951355	1709.036743	1982.842407	134.307831
796.097778	893.341553	1709.111328	1981.727661	133.418289
796.408264	888.140381	1723.600220	2008.253906	134.071503
796.718689	882.716309	1731.624878	2031.882202	135.369812
797.029053	891.706970	1744.999390	2049.194580	135.649582
797.339355	894.976257	1747.079956	2022.891602	132.368317
797.649658	899.062988	1747.377319	2015.609863	131.619476
797.959839	888.214661	1724.863403	1993.987915	132.166962
798.270020	890.072266	1726.721069	1985.368774	130.914734
798.580078	898.914307	1727.538208	1982.173828	130.729935
798.890137	898.394226	1719.662109	1961.071777	129.394745
799.200195	893.638855	1695.885376	1956.019043	132.425644
799.510071	885.093933	1672.628540	1918.942017	131.276535
799.820007	892.524231	1667.724609	1909.357056	131.170319
800.129883	888.066101	1659.922729	1907.276489	132.046600
800.439575	888.066162	1653.904297	1900.143555	132.152908
800.749329	891.112610	1648.554565	1901.926880	133.451050
801.058960	897.205383	1640.678345	1883.054077	132.600479
801.368591	891.186829	1628.715698	1871.091187	132.863190
801.678162	890.815369	1624.406250	1861.803345	132.360962
801.987671	900.549011	1621.136719	1848.651733	131.573532
802.297119	911.917297	1626.932495	1845.382446	130.551788
802.606506	895.124817	1608.059448	1822.497070	130.078156
802.915894	883.607971	1597.657227	1806.373413	129.229950
803.225159	874.245850	1578.784180	1801.023560	131.543976
803.534424	889.998047	1587.552124	1808.156738	131.625443
803.843628	891.186829	1588.666504	1810.905884	131.863205
804.152771	896.833801	1590.821289	1810.311523	131.627411
804.461792	901.366394	1587.997681	1816.552856	133.286453
804.770874	900.549011	1587.997681	1835.723022	136.035461
805.079773	893.564453	1590.598267	1840.701172	135.881027
805.388733	882.196106	1590.746948	1834.608521	134.416946
805.697571	876.623535	1587.997681	1841.295776	135.606873
806.006470	876.400574	1606.870483	1855.636108	134.055557
806.315125	870.976563	1621.359497	1871.908569	133.389496
806.623901	879.224121	1632.876465	1867.673218	131.154510
806.932495	873.131348	1619.873535	1854.075806	131.363205
807.241150	895.942200	1609.545532	1847.611450	133.361099
807.549622	907.607727	1610.362915	1842.112915	132.977341
807.858154	913.180420	1596.765503	1831.487793	134.336960
808.166565	899.360107	1579.378540	1819.599243	135.325623
808.474915	885.316895	1569.273438	1808.008179	134.904953
808.783264	901.217712	1576.555176	1807.042114	134.129150
809.091492	895.942200	1564.443848	1792.776001	134.155807
809.399719	897.353943	1555.230347	1771.674194	132.900375
809.707825	893.341614	1544.605103	1749.457520	131.454620
810.015930	890.889648	1553.744263	1729.767212	126.555290
810.323975	893.936035	1554.858887	1741.135620	128.184341
810.632080	885.539856	1542.747437	1731.401978	128.705475
810.939880	881.601807	1525.732056	1721.965454	130.464859
811.247864	880.561584	1514.883789	1715.426880	131.615341
811.555664	879.298401	1510.128418	1709.334106	131.578354
811.863464	887.620300	1505.373047	1718.844849	134.556183
812.171143	881.378845	1490.364136	1699.377563	134.321594
812.478882	889.849365	1486.574585	1712.380737	137.840897
812.786438	904.487061	1500.469116	1722.708618	137.289627
813.094055	906.493225	1507.527954	1725.012085	136.184952
813.401489	891.335510	1490.512573	1698.263062	134.672638
813.708984	875.509033	1476.172241	1675.229126	133.139511
814.016357	892.747253	1492.444336	1684.665649	132.053070
814.323730	911.768738	1497.422729	1703.612671	135.206787
814.630981	918.307312	1483.973999	1689.792480	136.385117
814.938232	913.626282	1461.831665	1682.362305	140.227737
815.245361	890.146667	1461.163086	1661.334595	135.055298
815.552490	883.682312	1464.878296	1668.096191	134.965469
815.859619	874.468750	1463.020508	1659.699829	133.417511
816.166565	878.703918	1464.358032	1683.699707	137.452423
816.473572	875.285950	1466.141235	1693.804810	138.531189
816.780457	875.508850	1467.701660	1699.600586	139.159363
817.087341	881.155945	1475.949219	1691.798828	136.289856
817.394043	882.790710	1488.283569	1702.721191	135.415390
817.700806	880.635925	1496.754028	1707.773804	134.249893
818.007507	887.248779	1494.896484	1720.553711	137.136200
818.314209	891.781250	1487.094727	1721.073853	139.303513
818.620667	890.963867	1483.156616	1730.807617	141.819321
818.927246	881.676025	1500.989380	1745.147949	139.424072
819.233704	883.830872	1537.694946	1777.098267	136.613617
819.540161	886.802979	1568.010376	1806.076294	134.947647
819.846497	897.205383	1611.700317	1859.648438	134.702576
820.152832	897.651184	1653.681274	1925.480835	135.950882
820.458984	889.329285	1711.860474	2017.393188	137.145432
820.765259	881.676086	1761.643188	2112.649170	139.888535
821.071350	890.295227	1842.187134	2231.607910	140.910202
821.377502	893.638855	1956.242065	2401.760986	141.927109
821.683472	904.561340	2170.679688	2737.832031	144.794571
821.989441	894.158936	2561.511963	3369.777100	148.475952
822.295349	900.846191	3196.874268	4353.768066	150.386749
822.601196	898.691406	3998.081055	5573.447266	150.828278
822.907043	897.205383	4748.390137	6685.015625	150.286484
823.212769	885.762695	5229.128418	7327.140137	148.303818
823.518494	892.970154	5336.867676	7333.529785	144.930420
823.824097	886.877258	5079.557129	6756.123535	139.987946
824.129700	891.112549	4620.812500	5909.369629	134.548538
824.435242	879.224060	4096.531738	4998.344238	128.030029
824.740723	880.635803	3641.427734	4246.251953	121.907631
825.046082	882.419128	3261.963867	3656.065430	116.562057
825.351501	873.948547	2948.332031	3215.153076	112.862663
825.656799	871.347961	2704.247559	2905.831055	110.998062
825.962036	867.558533	2503.853027	2719.331055	113.168655
826.267212	886.282776	2389.203857	2664.049805	118.287453
826.572449	902.703674	2330.950684	2698.154541	125.710106
826.877502	905.898743	2376.126709	2838.140869	131.424667
827.182495	910.877136	2501.103760	3111.054932	138.356247
827.487488	894.827637	2675.864014	3417.182373	141.622864
827.792419	897.502625	2816.890625	3677.538818	144.839722
828.097290	869.862000	2858.500000	3711.421143	142.889709
828.402100	876.326355	2803.441406	3584.586182	140.534409
828.706848	884.871155	2678.315918	3301.641602	134.755783
829.011597	891.335449	2495.010986	2952.418701	128.522461
829.316223	886.728516	2297.440186	2621.400146	122.964294
829.620789	889.254883	2119.782227	2359.185791	119.455360
829.925354	908.870850	1990.347046	2192.747559	118.715210
830.229797	924.771667	1882.682251	2067.473389	119.291054
830.534302	946.616638	1810.162720	1979.275879	119.583565
830.838562	929.229797	1712.900513	1885.803101	122.063171
831.142944	921.205078	1643.056030	1815.364136	123.870316
831.447144	889.180664	1560.803101	1751.463745	128.388077
831.751404	888.214661	1537.100464	1722.040039	128.501099
832.055542	894.679016	1525.657837	1723.748901	131.394257
832.359619	888.586243	1525.360718	1722.931641	131.026825
832.663635	895.793640	1545.570923	1761.197266	133.184647
832.967651	888.734863	1568.456055	1800.280640	134.105835
833.271545	879.521301	1623.068726	1890.261230	135.934830
833.575439	869.564758	1695.216675	2033.145386	140.928711
833.879211	862.951843	1821.382690	2239.632568	143.639023
834.183044	870.159180	1963.077759	2454.515869	144.965668
834.486694	869.193176	2096.674072	2629.796143	143.432205
834.790344	896.462402	2172.760010	2710.191650	142.108643
835.093933	899.583008	2162.209229	2661.969482	139.581009
835.397522	899.954590	2079.435791	2509.797363	136.487366
835.700928	877.886658	1961.220215	2298.108643	131.097382
836.004395	903.595398	1873.394531	2142.370361	127.735207
836.307739	904.115540	1786.683228	1982.248047	122.158630
836.611023	906.344543	1710.597290	1866.112915	119.336662
836.914307	877.292175	1618.833374	1750.943726	117.815643
837.217529	897.725525	1557.459473	1707.773804	122.784081
837.520691	891.186829	1499.503296	1653.755737	125.357269
837.823730	890.072266	1450.834839	1602.486694	127.043861
838.126831	870.233459	1418.215820	1548.394409	123.755981
838.429749	880.115723	1397.336914	1531.081909	125.858376
838.732727	886.059998	1378.389771	1509.385376	126.607292
839.035522	889.775146	1352.755249	1490.066772	129.658188
839.338379	882.716370	1331.653320	1474.463257	131.810684
839.641113	880.710205	1336.483032	1482.636597	132.067200
839.943848	889.106384	1357.510620	1517.930298	134.248123
840.246460	887.545959	1384.036743	1558.573853	135.154144
840.549072	886.654297	1411.603027	1610.585815	137.905182
840.851563	881.973206	1437.163208	1640.307007	136.589966
841.154053	884.945374	1447.788452	1649.446167	135.828415
841.456482	884.053772	1428.989868	1627.601074	136.446701
841.758850	887.843262	1393.993286	1569.867798	134.747513
842.061157	879.595642	1364.718140	1507.379272	129.407242
842.363403	874.988831	1339.529419	1450.091797	123.800369
842.665588	861.837219	1307.653442	1400.977905	120.933395
842.967712	864.958008	1288.111938	1381.584839	122.089577
843.269775	872.016785	1269.536255	1356.916382	121.981346
843.571777	866.889832	1240.558228	1347.702637	128.673660
843.873840	876.772156	1233.573853	1327.269409	126.259842
844.175659	883.013489	1232.161987	1319.021973	124.877663
844.477600	912.288757	1274.886108	1341.758545	118.442619
844.779297	907.979248	1259.802612	1334.105347	121.119331
845.081116	905.973083	1250.589233	1323.480103	121.151321
845.382751	897.279602	1218.193115	1291.084106	122.713593
845.684387	898.542786	1206.601929	1271.839722	121.177032
845.985962	894.158936	1178.738281	1257.127808	127.545753
846.287537	884.722473	1160.311279	1243.827637	130.304703
846.588989	886.802979	1153.698364	1245.833740	134.521164
846.890381	891.632629	1164.175171	1253.932617	132.933365
847.191711	896.165100	1170.342163	1249.920532	129.024445
847.493042	896.313721	1169.599121	1250.663574	129.662933
847.794250	905.601563	1178.589722	1245.759399	124.605347
848.095459	908.796570	1181.338989	1250.960571	125.545227
848.396606	904.041199	1178.961304	1243.678833	123.540489
848.697693	894.679016	1162.391724	1233.722290	126.644447
848.998657	887.546082	1142.627319	1217.004272	129.158142
849.299622	890.072327	1145.153442	1220.719360	129.624268
849.600464	888.734863	1141.809937	1217.301392	129.829666
849.901367	883.310791	1134.231079	1213.512085	131.596100
850.202087	883.236389	1117.364258	1205.264404	137.543655
850.502808	880.933105	1120.262085	1205.041504	135.423798
850.803467	887.546082	1127.395142	1211.877319	135.223053
851.104065	899.508728	1156.819214	1230.898804	128.789963
851.404663	903.298157	1150.057617	1230.230103	132.490143
851.705139	893.341614	1145.376465	1218.936035	129.186264
852.005615	879.892822	1125.166138	1191.592773	127.082703
852.306030	872.165344	1127.395142	1179.555664	120.436691
852.606384	886.059875	1140.100952	1185.276978	117.782959
852.906616	895.793640	1142.478638	1192.855835	120.421669
853.206909	895.867859	1129.029907	1200.137573	130.497101
853.506958	894.679016	1112.831909	1183.196655	132.254791
853.807129	885.539795	1103.989746	1170.713745	130.544296
854.107178	885.242615	1114.838013	1166.924316	122.686127
854.407166	885.688416	1122.416870	1184.831177	126.365356
854.707092	882.790588	1120.039185	1183.047974	126.558128
855.007019	886.802979	1114.317871	1184.013916	130.633621
855.306763	887.174500	1116.101196	1177.475220	126.809464
855.606567	880.858704	1109.859741	1169.747681	126.151817
855.906250	876.549133	1112.460327	1161.648804	120.850418
856.205933	874.097168	1103.023804	1156.224609	123.239235
856.505493	883.385010	1100.200439	1156.521851	125.976662
856.805054	899.583008	1100.051758	1168.335938	134.062256
857.104492	891.335449	1095.444946	1174.131592	138.551193
857.403931	882.493408	1103.766968	1178.292603	133.680313
857.703308	863.843323	1092.472900	1159.048218	129.119293
858.002563	869.416077	1095.370728	1155.704590	126.701759
858.301819	879.224060	1096.411011	1152.955444	126.034912
858.601013	885.985596	1100.794800	1155.630249	125.527512
858.900208	888.734863	1097.302612	1144.261963	122.515152
859.199219	884.573914	1095.965210	1146.491089	123.901588
859.498291	884.573914	1102.503784	1150.057495	121.820648
859.797302	892.301453	1113.277710	1172.868530	126.967072
860.096191	912.660339	1128.881226	1187.803345	127.250893
860.395020	912.957520	1126.875122	1175.914917	122.924622
860.693787	900.103210	1111.048584	1151.097778	118.985573
860.992554	868.004395	1088.237671	1123.160034	115.856987
861.291260	879.149841	1091.729858	1135.940063	120.796974
861.589844	881.081726	1091.655640	1128.583984	117.537003
861.888428	901.589172	1099.605957	1142.701538	121.763603
862.186890	904.115479	1104.807129	1145.153442	120.103630
862.485413	909.539734	1110.454102	1159.939819	124.630257
862.783813	905.230042	1095.965210	1147.456909	126.996437
863.082153	892.895813	1080.658813	1139.134888	131.143555
863.380371	886.357117	1087.940430	1137.128784	124.401009
863.678589	880.561523	1097.376831	1151.469116	124.948555
863.976746	873.279846	1085.934204	1147.456909	128.930847
864.274902	879.149841	1081.773315	1148.274292	132.819977
864.572937	882.939209	1080.584473	1140.175293	130.150391
864.870911	897.056702	1108.893799	1151.097778	119.922844
865.168884	882.642029	1096.039429	1142.627319	121.831520
865.466736	881.824707	1084.002319	1137.649048	126.534454
865.764587	867.409973	1063.123413	1120.113525	129.119156
866.062317	882.641907	1068.101563	1128.063965	132.331772
866.360107	885.316895	1080.510132	1130.070190	125.390251
866.657715	894.381836	1078.429688	1138.986450	132.902725
866.955322	886.951599	1087.494629	1131.630493	122.008179
867.252808	880.412903	1078.726929	1127.618042	124.653381
867.550293	877.515137	1085.859985	1121.896851	117.296738
867.847717	878.183899	1075.308960	1116.398438	120.844368
868.145081	880.115723	1076.943726	1119.073364	121.404289
868.442383	883.756592	1077.835327	1124.200195	123.889717
868.739624	881.898987	1080.287231	1122.565552	121.310898
869.036804	890.443848	1086.231445	1128.584106	121.631943
869.333984	878.109558	1075.977661	1117.141357	120.803604
869.631042	870.679260	1062.751831	1105.624390	122.321022
869.928101	861.317139	1053.686890	1094.850464	121.398155
870.224976	874.097168	1054.727173	1100.497559	125.339302
870.521851	929.229797	1114.020630	1166.329956	128.307312
870.818726	927.966736	1123.011353	1173.983032	126.133347
871.115479	929.006897	1147.679810	1184.905396	117.023407
871.412231	887.843201	1115.729614	1141.066895	111.118378
871.708862	892.598633	1104.361450	1131.556152	112.842056
872.005493	884.053772	1080.138672	1118.478882	119.552864
872.302063	884.276672	1061.637207	1119.964966	132.886551
872.598572	876.029053	1073.154175	1119.221802	123.369736
872.895020	879.298340	1075.606079	1123.308472	124.299805
873.191406	879.224121	1091.135498	1128.509766	117.636742
873.487671	887.397400	1085.191284	1128.212524	121.750542
873.783997	898.245605	1095.222046	1137.574585	121.501320
874.080200	888.957825	1079.692749	1118.181641	120.179260
874.376343	883.162170	1075.903320	1115.432495	120.508942
874.672424	890.146667	1080.733032	1132.447876	127.134598
874.968445	898.542786	1092.324219	1148.720093	129.102829
875.264465	899.211487	1097.153931	1154.441406	128.941483
875.560364	887.248718	1088.832031	1139.357910	125.064514
875.856201	871.570862	1075.754761	1126.429199	124.818039
876.152039	874.765930	1075.606079	1126.800659	125.490211
876.447754	868.004395	1077.835327	1120.782227	120.467384
876.743469	897.576843	1096.559692	1146.788208	125.242638
877.039063	901.886414	1085.042847	1145.599365	133.062729
877.334595	898.914307	1075.457642	1128.138306	129.840073
877.630127	875.508972	1061.265747	1100.869263	121.320091
877.925537	867.261414	1083.036499	1103.766968	109.607445
878.221008	866.221191	1082.887939	1109.934082	112.482834
878.516296	862.803223	1083.482300	1112.311646	113.063927
878.811646	854.481262	1079.618530	1114.540771	115.511536
879.106812	866.295410	1106.887695	1147.605591	116.924026
879.401978	870.679382	1117.141479	1162.020386	118.209251
879.697083	886.059998	1134.231079	1186.986084	121.257515
879.992126	883.830872	1148.422852	1201.252197	119.966347
880.287109	890.963928	1188.323364	1249.028809	120.414841
880.582031	889.329285	1237.066040	1316.867188	122.948723
880.876892	875.137390	1318.056030	1427.058105	124.609955
881.171753	861.465759	1464.209473	1649.297485	130.707581
881.466492	862.506042	1715.649902	1995.993774	132.860107
881.761230	872.016785	2039.535522	2456.447998	135.709259
882.055786	880.338623	2371.965820	2905.162109	135.745941
882.350403	872.165344	2607.430908	3211.660889	134.820602
882.644958	864.363586	2696.445557	3266.273438	131.102753
882.939453	861.911560	2630.093262	3103.253174	126.759689
883.233826	868.524475	2483.939697	2794.822998	119.244789
883.528137	870.456360	2295.805420	2471.308838	112.313011
883.822449	878.481018	2140.438232	2170.976807	102.419937
884.116577	872.313965	1977.492554	1930.161987	95.717384
884.410828	876.251953	1850.955078	1745.593872	89.190430
884.704956	879.744202	1725.977905	1617.421509	87.171822
884.999023	875.954773	1611.923218	1512.877563	86.542130
885.292969	878.481140	1497.348511	1437.311646	90.298912
885.586914	867.855774	1392.209961	1368.358887	95.451340
885.880798	881.453186	1332.842285	1346.439575	103.012321
886.174622	883.533691	1294.204712	1317.238647	105.608856
886.468384	886.951599	1268.198853	1297.251343	107.620377
886.762085	873.651428	1229.710083	1262.403198	109.181946
887.055664	863.026062	1198.577148	1232.161987	110.008858
887.349304	860.425476	1175.840454	1204.670044	109.140213
887.642822	861.094177	1166.998535	1180.373047	104.372124
887.936340	870.530701	1151.543579	1163.803589	104.362793
888.229736	871.273682	1129.847046	1149.240112	107.500023
888.523071	874.022888	1115.878296	1139.432251	109.738861
888.816284	900.771790	1127.246704	1165.958252	117.093086
889.109619	905.898743	1139.878052	1159.494019	108.383636
889.402710	911.694397	1132.224976	1150.131714	108.119843
889.695862	880.784424	1100.720459	1103.618286	101.317574
889.988892	865.923889	1073.674194	1086.528687	106.187469
890.281921	846.828125	1057.922119	1073.748657	107.497391
>>>>>End Processed Spectral Data<<<<<
