Jaz Data File
++++++++++++++++++++++++++++++++++++
Date: Fri Jun 04 14:08:39 2021
User: jaz
Dark Spectrum Present: Yes
Reference Spectrum Present: Yes
Processed Spectrum Present: Yes
Spectrometers: JAZA3586
Integration Time (usec): 519000 (JAZA3586)
Spectra Averaged: 10 (JAZA3586)
Boxcar Smoothing: 1 (JAZA3586)
Correct for Electrical Dark: No (JAZA3586)
Strobe/Lamp Enabled: Yes (JAZA3586)
Correct for Detector Non-linearity: No (JAZA3586)
Correct for Stray Light: No (JAZA3586)
Number of Pixels in Processed Spectrum: 2048
>>>>>Begin Processed Spectral Data<<<<<
W	D	R	S	P
191.335022	0.000000	0.000000	0.000000	0.000000
191.713211	267.935577	267.712708	262.734406	2333.725830
192.091385	537.060059	543.450073	533.716431	-52.325825
192.469528	806.704590	817.404236	802.320801	-40.971348
192.847641	811.831543	822.010986	807.299072	-44.525723
193.225739	843.335876	843.707458	826.171936	-4619.152344
193.603790	875.583252	872.536865	849.874512	843.909302
193.981842	902.852356	903.000977	874.245789	-19248.048828
194.359863	902.703796	908.202148	886.208496	-300.004425
194.737854	915.038025	914.592224	906.641785	1883.406372
195.115829	908.276428	906.047363	905.601563	119.999451
195.493774	909.762512	901.737793	898.468567	140.739441
195.871704	903.000977	893.490234	883.979492	200.000000
196.249603	921.353699	915.558105	907.756348	234.615341
196.627457	928.115234	915.409485	904.189758	188.304321
197.005310	926.629211	920.090576	905.750183	319.317841
197.383133	919.570496	905.675842	890.963928	205.881836
197.760910	930.121399	927.075012	914.220703	521.952637
198.138687	927.669434	931.310242	917.192810	-287.755432
198.516449	922.096863	932.944885	906.641785	-142.469086
198.894180	908.870911	909.985413	878.406738	-2733.433838
199.271866	910.356934	900.325989	873.948547	362.960693
199.649536	907.161926	890.666687	878.406738	174.324158
200.027191	909.019531	902.778015	896.090820	207.140549
200.404816	893.936035	900.623230	879.224121	-220.001282
200.782410	896.982422	916.672668	889.775085	-36.603588
201.159988	890.072266	922.245361	892.970032	9.006799
201.537537	897.279602	942.455750	910.208313	28.618444
201.915070	892.524231	945.576416	901.291992	16.526672
202.292557	880.933044	940.746765	888.066101	11.925452
202.670029	883.607910	936.139954	893.787415	19.377705
203.047485	881.824707	928.189636	892.895813	23.878191
203.424911	885.465515	931.756104	893.638855	17.656591
203.802292	889.775085	937.031677	894.381836	9.748377
204.179688	888.140442	941.935608	898.096985	18.508249
204.557037	902.926697	940.078064	909.836853	18.600006
204.934357	898.617126	937.774658	908.796570	25.996132
205.311661	902.183594	935.842773	902.629395	1.324455
205.688934	904.115479	943.050110	897.131104	-17.938721
206.066177	896.759521	925.366150	881.304504	-54.026001
206.443390	892.078430	922.691223	881.081604	-35.922321
206.820587	870.233459	912.957520	868.301575	-4.521772
207.197769	882.790710	927.520813	884.499695	3.820658
207.574921	892.078430	931.384705	889.849365	-5.671016
207.952042	900.400391	933.390808	896.610901	-11.486638
208.329147	897.428223	944.907715	894.530457	-6.103195
208.706223	1063.123413	1120.187866	1055.767456	-12.890612
209.083267	1066.838501	1134.528198	1061.637329	-7.683846
209.460297	1066.615601	1132.224854	1064.832397	-2.717914
209.837280	889.700867	952.858093	897.651184	12.588136
210.214264	879.521301	940.969727	890.889648	18.500631
210.591217	868.598816	922.096741	882.121887	25.277750
210.968124	882.790710	940.523743	904.115540	36.936962
211.345016	894.753418	945.427734	918.455994	46.774338
211.721893	891.335449	951.594910	913.031921	36.005089
212.098724	887.991760	941.638367	904.041199	29.916969
212.475555	889.552185	947.879822	908.276428	32.101837
212.852356	897.799805	956.944763	913.626282	26.758793
213.229126	893.044434	957.390625	910.579834	27.251652
213.605865	879.149841	938.591980	887.100159	13.374885
213.982590	872.313965	927.520813	892.524231	36.608261
214.359283	868.970398	915.038025	886.208496	37.419113
214.735931	874.468750	921.130859	899.583008	53.821522
215.112579	886.431458	934.876770	899.731628	27.453989
215.489197	890.220886	951.223450	900.474670	16.808775
215.865799	887.471680	948.994385	897.205383	15.821320
216.242355	875.583252	942.752930	896.611023	31.305452
216.618896	880.933105	947.805603	905.601624	36.888885
216.995407	882.790588	955.458679	903.595398	28.629911
217.371902	880.561523	951.743469	895.719299	21.294411
217.748367	876.549133	942.901550	889.180664	19.037031
218.124802	879.744202	943.124451	886.505859	10.668399
218.501236	882.344727	942.678711	883.830872	2.463197
218.877609	876.400574	938.889343	886.728699	16.527969
219.253983	870.827881	939.112122	886.877258	23.503780
219.630295	878.703918	945.353516	896.313721	26.421469
220.006592	884.871094	950.703308	893.118652	12.528150
220.382889	887.917480	949.885986	895.347717	11.990344
220.759140	884.053711	948.845703	889.180664	7.912942
221.135391	889.032043	952.709473	886.654358	-3.733953
221.511581	879.224121	948.325500	885.762695	9.462292
221.887772	879.818542	952.560852	894.827637	20.633238
222.263931	885.242615	970.987976	910.356934	29.289419
222.640060	899.211487	989.043457	913.403320	15.798199
223.016159	896.982422	999.445862	910.431152	13.125394
223.392212	888.214661	991.718445	902.480896	13.783298
223.768265	878.778259	994.096008	900.028809	18.427822
224.144302	876.400635	991.346924	892.598633	14.091797
224.520294	868.524597	983.842468	888.511902	17.332357
224.896286	879.224121	996.250977	894.158997	12.761922
225.272217	891.261047	1019.581970	911.694519	15.923726
225.648148	909.390930	1053.984009	922.393982	8.992859
226.024048	899.211487	1054.801392	917.415710	11.700131
226.399902	890.815247	1059.185303	912.437317	12.841992
226.775772	870.233459	1063.569214	905.155762	18.063034
227.151581	876.252014	1096.856812	917.267090	18.592106
227.527374	873.651428	1114.615112	921.873840	20.012316
227.903137	880.933105	1156.670532	943.421692	22.662352
228.278870	884.425293	1201.697998	960.585632	24.004694
228.654572	880.041504	1274.217407	973.142761	23.619215
229.030273	879.669922	1355.281616	981.984680	21.512245
229.405930	871.570984	1439.317993	986.517273	20.246040
229.781555	878.926941	1512.432007	999.891785	19.094534
230.157181	874.988831	1530.041626	999.594543	19.022240
230.532761	879.149719	1493.187500	1000.486145	19.760416
230.908325	869.787598	1432.556641	996.919617	22.590443
231.283859	882.419128	1387.306274	992.758606	21.854286
231.659332	884.499573	1359.739868	986.219971	21.403994
232.034821	890.369568	1335.368530	973.142761	18.600761
232.410263	877.143616	1308.842407	964.003418	20.120464
232.785690	877.292236	1291.604248	961.774414	20.390955
233.161087	877.217957	1273.697266	956.944641	20.108662
233.536469	880.710205	1254.898682	956.053040	20.134996
233.911804	883.979492	1256.384644	954.567078	18.954514
234.287140	880.041504	1268.941895	958.653625	20.213947
234.662430	888.289063	1307.356323	970.913574	19.716290
235.037704	875.583313	1319.541992	976.040466	22.627590
235.412933	877.292236	1317.238647	971.285156	21.364630
235.788162	860.871399	1310.551392	949.068604	19.613327
236.163345	874.320129	1310.922974	950.926270	17.545956
236.538513	884.276672	1333.436646	970.839417	19.272141
236.913635	889.403564	1336.334473	994.467712	23.507917
237.288742	890.072266	1351.269409	997.291199	23.247961
237.663834	883.830872	1348.371582	989.935059	22.840666
238.038879	882.196228	1352.235229	981.315979	21.087559
238.413910	875.063171	1342.724487	976.412048	21.671427
238.788910	877.812317	1359.814087	977.972412	20.780025
239.163879	878.852600	1371.033813	983.768066	21.316431
239.538834	871.199402	1391.467163	992.758606	23.364738
239.913757	874.691589	1422.005493	1008.139343	24.382307
240.288651	875.583191	1468.816284	1024.114380	25.037577
240.663528	877.217957	1537.992188	1040.238159	24.671089
241.038361	864.883606	1596.245483	1049.302979	25.215885
241.413177	867.187012	1695.959595	1079.915771	25.667929
241.787979	864.586487	1799.686157	1107.704956	25.999205
242.162735	874.691589	1933.282593	1146.491089	25.675591
242.537476	870.010559	2040.575684	1151.840820	24.076426
242.912170	896.982422	2177.292725	1187.729004	22.709072
243.286865	902.703796	2232.945557	1198.131348	22.208563
243.661514	907.161926	2242.307373	1210.317017	22.705772
244.036148	900.920471	2153.664307	1189.140747	23.007118
244.410751	891.335449	2062.271973	1162.763306	23.180407
244.785339	886.802979	1965.901367	1147.308228	24.141010
245.159882	879.669922	1930.087524	1147.605591	25.507538
245.534378	892.449951	1957.653687	1173.314331	26.367199
245.908890	890.146545	2059.968750	1209.128296	27.267540
246.283356	883.310730	2216.747314	1236.545898	26.490587
246.657791	867.558594	2437.946533	1283.653809	26.496332
247.032196	875.508972	2692.582275	1339.975220	25.561228
247.406586	872.165344	2925.892578	1396.296753	25.520985
247.780960	873.279846	3091.513428	1415.764038	24.455683
248.155289	868.598877	3118.410889	1406.401978	23.904358
248.529602	866.444031	3021.817383	1369.324829	23.331495
248.903870	869.936218	2823.354492	1326.154907	23.354891
249.278122	867.261414	2606.167969	1271.616699	23.253424
249.652344	862.877502	2415.655762	1229.189941	23.590775
250.026550	862.877441	2276.263916	1208.459473	24.450640
250.400711	888.363281	2187.249268	1213.512085	25.032898
250.774857	894.456116	2120.154053	1199.320190	24.872690
251.148987	892.152771	2085.157471	1182.527710	24.339800
251.523071	865.923889	2081.813721	1164.323730	24.541683
251.897125	881.601746	2129.887451	1202.366699	25.696438
252.271164	876.920715	2195.273926	1217.375854	25.824272
252.645187	876.177673	2252.263916	1230.898804	25.777538
253.019165	858.419250	2267.793213	1207.716431	24.783852
253.393112	883.162109	2262.220703	1223.097046	24.649782
253.767044	885.539856	2178.407227	1202.292358	24.499998
254.140930	894.010315	2094.073975	1203.332520	25.775482
254.514801	878.926941	1991.015747	1174.428833	26.571787
254.888657	883.905212	1956.464844	1167.147217	26.408045
255.262466	876.326355	1927.041016	1152.286621	26.264055
255.636276	894.753357	1942.941772	1178.515503	27.071672
256.010010	910.282532	1968.873413	1209.202393	28.237526
256.383759	922.765442	2022.148438	1234.985474	28.399567
256.757446	900.474670	2070.965576	1235.282715	28.604069
257.131134	889.626465	2131.893555	1239.295044	28.147617
257.504791	877.515137	2215.632568	1256.533325	28.324734
257.878418	872.982727	2333.551270	1268.719116	27.094681
258.252014	875.508972	2494.342529	1316.049805	27.213474
258.625580	886.951660	2686.563477	1377.423828	27.254332
258.999115	879.967102	2915.416016	1466.141235	28.798271
259.372650	870.456360	3182.980225	1541.930054	29.036400
259.746124	864.809387	3481.454102	1601.892212	28.169006
260.119598	864.140625	3785.575439	1655.836060	27.099541
260.493042	865.775208	3991.319336	1681.247681	26.090576
260.866425	862.357239	4040.284912	1688.009277	25.980831
261.239838	869.341797	3866.639404	1637.409180	25.625330
261.613159	861.985840	3582.802734	1562.066040	25.730515
261.986511	864.289307	3283.214111	1475.354858	25.261866
262.359802	864.809387	3051.538330	1421.485352	25.457016
262.733063	865.924011	2896.989014	1391.467163	25.875252
263.106293	870.084961	2793.559326	1379.058594	26.461161
263.479523	884.573914	2749.126221	1371.182495	26.097879
263.852692	888.066162	2718.142090	1368.210327	26.236298
264.225861	871.125183	2683.591553	1359.145386	26.925753
264.598969	874.320129	2652.458740	1359.368286	27.278421
264.972076	871.645203	2641.833252	1361.151489	27.652786
265.345154	881.750305	2670.811279	1383.442383	28.042200
265.718201	867.112793	2715.021484	1399.194458	28.793720
266.091217	901.143372	2824.469482	1456.184692	28.858408
266.464203	903.372559	2931.019531	1481.076172	28.491331
266.837158	902.332214	3041.804688	1499.949097	27.932909
267.210114	871.199402	3120.639893	1484.196899	27.251110
267.583038	873.502747	3181.122314	1489.323730	26.686417
267.955902	870.604980	3213.147217	1499.206055	26.834141
268.328766	881.155945	3208.168701	1508.196655	26.946167
268.701569	877.292236	3200.143799	1510.500000	27.259932
269.074371	878.406738	3198.955078	1509.979858	27.216547
269.447144	868.598816	3230.385010	1517.038574	27.455482
269.819885	863.769226	3292.725342	1533.533813	27.574175
270.192596	864.958008	3395.708740	1580.047363	28.256018
270.565277	890.146667	3550.852783	1651.749512	28.624088
270.937927	892.747131	3735.123047	1711.191772	28.794384
271.310577	893.118652	3948.966553	1766.993164	28.596794
271.683136	870.307800	4153.447754	1782.968140	27.798399
272.055725	869.862000	4307.625977	1799.611938	27.045195
272.428284	869.638977	4343.291504	1777.320923	26.130476
272.800812	863.694824	4277.235840	1767.735962	26.483969
273.173279	868.301575	4140.890625	1744.404907	26.770954
273.545776	871.570862	4038.352783	1721.519531	26.839506
273.918152	886.654358	3939.901611	1697.668457	26.562346
274.290558	882.493408	3875.852783	1669.582031	26.294491
274.662964	883.756531	3799.544189	1660.294312	26.632179
275.035278	875.211731	3758.529053	1640.381226	26.537817
275.407593	880.190125	3768.559814	1652.492676	26.738356
275.779907	884.276672	3840.707764	1686.448853	27.133125
276.152161	878.852600	3895.394531	1709.854126	27.548151
276.524384	879.372620	3979.207764	1737.643433	27.687628
276.896606	874.914551	4027.950439	1726.572266	27.010721
277.268799	879.818542	4085.237549	1737.346313	26.752439
277.640930	872.611145	4090.439209	1732.293579	26.716232
278.013031	873.428467	4085.832764	1746.708374	27.184620
278.385162	866.889832	4072.904053	1747.451538	27.465933
278.757233	871.868164	4064.358643	1748.937500	27.472889
279.129272	867.855774	4085.906494	1743.661987	27.215425
279.501282	871.050842	4108.940430	1758.522461	27.408953
279.873230	869.490479	4170.463379	1781.407837	27.625715
280.245178	864.958008	4265.570801	1819.005005	28.055149
280.617126	872.016785	4425.172852	1869.010742	28.059391
280.988983	868.004395	4597.332520	1917.381836	28.138512
281.360870	893.193054	4778.631348	1993.021973	28.306431
281.732697	883.830872	4945.663574	2017.541870	27.911316
282.104492	887.100281	5074.355957	2043.547729	27.618267
282.476288	873.502747	5156.831543	2035.820190	27.135845
282.848053	878.555420	5181.648926	2046.296875	27.137253
283.219757	884.351013	5183.135254	2043.919312	26.974333
283.591461	881.601807	5136.992676	2040.873047	27.242416
283.963135	883.087891	5087.804688	2038.049438	27.468237
284.334747	880.710144	5098.132324	2054.841797	27.840029
284.706360	889.552063	5171.543457	2082.779541	27.866184
285.077942	902.034973	5327.802246	2136.203125	27.885973
285.449524	901.366272	5445.943848	2172.462891	27.969522
285.821014	886.654358	5542.166016	2180.636230	27.794622
286.192535	869.564758	5653.693848	2195.422607	27.713675
286.563995	868.598816	5747.167480	2197.280029	27.235060
286.935425	878.704041	5800.293457	2208.276855	27.015110
287.306824	877.440918	5718.857422	2175.137939	26.804077
287.678223	869.193298	5577.756348	2147.274414	27.143761
288.049561	881.601807	5462.587402	2136.871826	27.401747
288.420898	884.722473	5336.421387	2115.026855	27.636742
288.792145	893.861633	5298.526855	2123.274658	27.911613
289.163452	875.731934	5309.598145	2118.667725	28.032776
289.534668	876.846436	5454.265625	2169.045166	28.229855
289.905914	871.570862	5621.372559	2193.787842	27.837311
290.277039	885.837097	5826.002441	2258.059814	27.776855
290.648193	902.926697	6017.480469	2306.059326	27.434116
291.019318	907.459167	6136.587891	2337.266357	27.343122
291.390381	881.676086	6108.353027	2315.272705	27.428455
291.761475	862.580261	6010.421387	2276.041016	27.457348
292.132507	862.283142	5892.057129	2252.932861	27.648354
292.503510	872.016785	5806.534668	2243.718994	27.798098
292.874481	909.465332	5798.955566	2301.155518	28.462889
293.245422	912.734680	5834.175293	2338.901123	28.978640
293.616364	917.787292	5989.542480	2414.838623	29.517418
293.987213	881.676086	6126.482422	2446.045410	29.827021
294.358093	875.806152	6340.845703	2511.877686	29.937048
294.728943	862.357361	6537.450684	2549.103271	29.721905
295.099731	860.202576	6759.987793	2597.771729	29.451397
295.470490	860.128235	6917.806152	2653.870361	29.611053
295.841248	871.422180	7023.242188	2704.693115	29.800467
296.211975	869.787598	7114.931152	2743.999268	30.010706
296.582642	870.530579	7278.471191	2788.878174	29.937040
296.953308	864.363525	7447.732910	2811.243408	29.572699
297.323883	864.214905	7554.729004	2813.918701	29.141315
297.694519	867.632813	7561.192871	2764.953125	28.345459
298.065063	874.245789	7480.798340	2729.064697	28.075441
298.435608	874.394348	7270.520996	2655.059082	27.839737
298.806122	871.347900	6948.642090	2571.765869	27.979855
299.176575	877.366516	6616.136719	2469.450928	27.742607
299.547028	875.657532	6392.040527	2404.807617	27.720160
299.917450	867.484314	6259.707031	2370.331055	27.870634
300.287872	857.899231	6173.070313	2355.916504	28.183804
300.658234	855.149963	6097.652832	2342.541992	28.371794
301.028564	862.728821	6033.306152	2338.157959	28.535097
301.398865	858.345032	5968.812012	2320.399658	28.609024
301.769135	867.558594	5911.450684	2308.882568	28.575630
302.139374	873.874329	5877.642090	2289.341064	28.288021
302.509583	869.193176	5839.673828	2280.350342	28.390760
302.879791	869.861877	5772.207031	2264.003906	28.438269
303.249939	863.471863	5682.449219	2245.056641	28.669664
303.620087	875.508972	5592.691406	2229.453369	28.702394
303.990173	871.719482	5519.429199	2215.558594	28.914005
304.360260	880.561523	5475.664551	2234.431396	29.463320
304.730286	886.208496	5456.123047	2257.539551	30.007805
305.100281	897.354004	5459.986816	2270.319580	30.091520
305.470276	886.282776	5458.724121	2273.142822	30.330845
305.840179	874.022888	5460.581543	2257.985352	30.174311
306.210144	860.797058	5468.680176	2258.505615	30.332983
306.579987	881.750488	5496.767090	2263.632568	29.943167
306.949890	890.815369	5536.221191	2276.561279	29.830460
307.319702	900.326111	5617.062500	2316.238770	30.018906
307.689484	877.812317	5704.368652	2334.145752	30.173346
308.059265	875.508972	5839.971191	2380.139160	30.308018
308.429016	860.054016	5948.229980	2396.188477	30.190281
308.798737	863.917725	6082.568848	2416.250244	29.745855
309.168396	860.202576	6199.150391	2425.166504	29.312216
309.538055	872.462585	6285.712891	2424.720703	28.675158
309.907684	875.434631	6297.155762	2420.410889	28.496048
310.277313	876.846375	6322.566895	2405.253174	28.066198
310.646851	873.131287	6336.981934	2401.909912	27.979876
311.016388	887.323059	6370.492676	2400.275146	27.592657
311.385895	913.700500	6334.529785	2405.476318	27.519331
311.755371	910.505554	6279.322754	2368.919189	27.164522
312.124817	894.456238	6213.639160	2329.761719	26.983568
312.494232	875.880432	6138.296387	2281.985107	26.719757
312.863617	873.279846	6075.064453	2265.341309	26.761229
313.232971	876.697754	6022.087402	2258.282471	26.850925
313.602295	861.911560	6013.021973	2262.443604	27.188934
313.971619	867.409973	6070.234863	2287.929443	27.302853
314.340820	864.289246	6100.625000	2298.851807	27.396303
314.710083	878.852600	6168.463379	2324.932129	27.338110
315.079285	885.539856	6170.543457	2319.582275	27.134182
315.448486	904.041199	6187.484375	2339.198242	27.163288
315.817596	912.065918	6070.086426	2291.495850	26.743397
316.186707	907.904968	5901.642090	2249.440674	26.864361
316.555786	890.072266	5695.525879	2188.140869	27.012405
316.924866	878.481018	5517.720215	2157.230713	27.563782
317.293884	881.304504	5430.042969	2144.376465	27.767525
317.662872	889.552185	5398.835449	2151.212158	27.979168
318.031830	875.583252	5429.448242	2170.753906	28.441128
318.400757	878.852539	5474.996094	2201.292725	28.772821
318.769684	867.112793	5520.470215	2210.357422	28.866138
319.138550	864.586426	5529.832031	2216.450195	28.977333
319.507416	859.905334	5513.335938	2209.985840	29.012587
319.876190	855.521484	5490.599609	2204.264648	29.098606
320.244995	887.025879	5484.209473	2211.620605	28.813179
320.613770	887.694580	5437.770508	2195.794189	28.748960
320.982483	898.171204	5387.839355	2173.651855	28.409245
321.351166	876.623474	5320.148926	2129.441650	28.194239
321.719818	873.651367	5312.198730	2133.677002	28.388243
322.088440	869.490417	5362.204590	2158.048584	28.681061
322.457062	872.908386	5475.962402	2212.660889	29.105728
322.825623	881.378906	5633.781250	2250.852295	28.816444
323.194183	875.806152	5803.414063	2292.015869	28.740309
323.562653	875.657532	5965.988281	2324.560547	28.463831
323.931183	868.747498	6092.674316	2343.433594	28.229454
324.299591	867.335632	6180.128906	2339.124023	27.702721
324.668060	868.004333	6210.742188	2306.950928	26.932756
325.036407	870.679260	6192.463379	2272.177246	26.335115
325.404755	875.806152	6122.989746	2242.976563	26.055319
325.773102	866.146790	6025.802246	2206.270752	25.973131
326.141388	869.118958	5919.103516	2181.156494	25.981024
326.509674	868.153015	5820.949707	2142.667725	25.733231
326.877899	876.623535	5758.238281	2121.788330	25.507233
327.246124	868.004395	5707.488770	2096.748291	25.389975
327.614288	882.790588	5660.529785	2091.250000	25.293541
327.982422	880.338623	5608.146484	2087.089111	25.524527
328.350525	895.867981	5576.122559	2107.150635	25.880703
328.718628	887.471680	5558.661621	2104.996094	26.064545
329.086700	895.273438	5575.602051	2113.689453	26.032701
329.454712	885.911316	5612.827637	2117.627441	26.057495
329.822693	883.979492	5669.148926	2147.794189	26.411076
330.190674	888.140381	5722.349609	2180.487793	26.733379
330.558563	894.901917	5755.786621	2194.828369	26.742590
330.926483	899.360107	5786.695801	2213.700928	26.892786
331.294312	882.121887	5839.524902	2233.391113	27.257605
331.662231	876.995056	5957.220703	2286.814697	27.751122
332.029999	870.679260	6074.990723	2330.207520	28.044600
332.397766	882.047546	6194.023438	2372.337158	28.055277
332.765503	892.970154	6272.041016	2389.129639	27.814459
333.133240	889.106384	6351.248047	2409.042725	27.826746
333.500916	882.344788	6409.056152	2429.847412	28.000425
333.868561	858.047791	6433.575684	2420.708252	28.027130
334.236176	852.920898	6422.281250	2411.940674	27.992798
334.603790	851.657776	6357.341309	2389.575684	27.933279
334.971344	857.527771	6314.468262	2394.256592	28.160995
335.338867	864.140686	6261.712891	2387.866455	28.229837
335.706360	856.933289	6253.911621	2373.302979	28.096640
336.073853	855.595886	6221.812500	2347.000000	27.792467
336.441284	858.939453	6228.500000	2348.634521	27.743334
336.808655	869.639099	6239.273926	2365.575928	27.859190
337.176086	868.375916	6253.168457	2386.677734	28.196106
337.543396	872.016663	6258.964355	2383.854248	28.064829
337.910706	865.923889	6237.268066	2368.622070	27.976204
338.277954	879.447021	6238.828125	2357.625244	27.581139
338.645264	876.029114	6211.410156	2331.396240	27.277662
339.012421	879.075500	6177.305176	2302.046875	26.857491
339.379669	878.183899	6144.760254	2258.282471	26.204855
339.746796	897.205383	6150.630859	2246.245361	25.679247
340.113953	903.966980	6184.587402	2233.093994	25.169901
340.481018	895.199219	6178.494141	2228.784424	25.241545
340.848114	875.731873	6202.196777	2232.648193	25.474987
341.215118	869.193176	6241.502441	2246.320068	25.633801
341.582153	878.035217	6353.402832	2276.189697	25.535355
341.949066	884.053772	6456.312500	2297.514404	25.366028
342.316010	886.357117	6576.385254	2328.127197	25.338539
342.682922	872.016785	6684.941895	2358.739746	25.576157
343.049835	861.391418	6828.271484	2409.488770	25.944839
343.416656	883.459290	7051.550781	2498.131836	26.177832
343.783478	889.106262	7325.282715	2576.000977	26.209579
344.150269	896.759521	7638.616699	2668.210693	26.275417
344.516998	885.911377	7885.747559	2710.489014	26.066006
344.883728	897.056824	8041.412109	2744.445313	25.858013
345.250427	894.381897	8053.671875	2723.640869	25.550844
345.617065	883.979492	7958.490234	2694.142578	25.587114
345.983704	874.988953	7813.525391	2654.761963	25.650553
346.350281	874.765930	7646.344238	2612.260742	25.658640
346.716827	872.611145	7472.921875	2563.518311	25.618601
347.083405	868.970276	7304.923828	2531.642334	25.834122
347.449860	923.211243	7241.691895	2576.149658	26.160379
347.816376	947.359619	7170.955566	2579.270508	26.221352
348.182770	948.028320	7076.368652	2578.898682	26.611942
348.549194	893.490173	6955.402832	2532.608154	27.039616
348.915558	876.846375	6970.635254	2556.162354	27.557829
349.281921	874.765869	7038.399902	2587.815186	27.792847
349.648193	874.245789	7117.011719	2609.437256	27.795233
350.014526	870.233398	7159.364746	2637.226318	28.095978
350.380737	871.496582	7228.243652	2657.139648	28.090517
350.746948	879.521301	7329.592285	2696.371338	28.167910
351.113159	875.063171	7374.024902	2720.742676	28.399605
351.479309	873.428528	7434.210449	2735.900391	28.387957
351.845428	864.512207	7469.800781	2754.773438	28.617390
352.211517	855.447266	7576.053223	2782.042236	28.666983
352.577576	861.465820	7675.099121	2826.475586	28.839382
352.943604	868.004395	7801.710938	2855.527588	28.664658
353.309601	898.022766	7962.354004	2914.969971	28.551144
353.675537	892.450012	8155.540527	2960.740479	28.476728
354.041473	880.487305	8354.671875	3001.978516	28.384251
354.407379	862.506042	8504.837891	3009.780029	28.097103
354.773254	865.032288	8690.743164	3051.166992	27.935286
355.139038	873.205566	8868.549805	3097.308594	27.817476
355.504913	891.781250	9124.151367	3176.366943	27.751251
355.870636	883.236511	9369.499023	3226.075439	27.607428
356.236389	885.985657	9625.842773	3280.390625	27.396385
356.602081	871.570984	9895.785156	3343.993896	27.397654
356.967804	879.149841	10151.757813	3414.878662	27.346445
357.333405	872.016785	10411.965820	3466.518799	27.196182
357.699036	864.363586	10613.846680	3445.639893	26.476032
358.064606	859.608215	10764.161133	3420.376953	25.854462
358.430176	860.574219	10805.622070	3378.024658	25.313608
358.795654	861.465820	10811.714844	3351.944336	25.029308
359.161163	864.066406	10804.209961	3347.262939	24.981495
359.526581	861.317200	10926.512695	3393.999756	25.162777
359.892029	884.202454	11207.153320	3520.091064	25.534254
360.257416	884.276672	11614.852539	3656.585205	25.835598
360.622772	885.316895	12126.055664	3796.348877	25.897160
360.988098	869.267517	12628.937500	3905.202393	25.816496
361.353394	874.617371	13132.262695	3992.359375	25.435080
361.718658	888.437683	13428.953125	4037.981201	25.114944
362.083893	884.350891	13483.863281	4004.396484	24.763226
362.449097	889.997864	13245.054688	3874.738281	24.158049
362.814209	881.527405	12775.833008	3688.832764	23.602097
363.179382	885.242615	12116.840820	3480.488037	23.106642
363.544434	878.183777	11394.323242	3331.733643	23.331278
363.909546	873.576965	10738.303711	3217.084961	23.756443
364.274536	877.143555	10264.326172	3161.358154	24.333336
364.639587	883.905090	9930.186523	3111.946533	24.629364
365.004517	886.134277	9710.622070	3088.169922	24.953691
365.369507	883.830872	9533.187500	3065.953125	25.228725
365.734344	871.199402	9430.129883	3078.362061	25.787830
366.099274	869.638977	9366.750000	3096.268799	26.204552
366.464081	870.827881	9306.861328	3128.664795	26.764202
366.828918	878.332458	9241.103516	3123.537842	26.847622
367.193665	885.094055	9161.600586	3114.992920	26.942513
367.558411	898.840027	9105.575195	3113.432861	26.985064
367.923126	894.902039	9018.567383	3110.089111	27.268318
368.287781	905.675964	8944.487305	3100.207031	27.299196
368.652435	884.871094	8833.033203	3069.891357	27.490887
369.017059	896.908203	8784.884766	3081.630859	27.696871
369.381653	897.131104	8744.910156	3110.311768	28.201363
369.746185	901.440735	8759.844727	3126.807373	28.318304
370.110687	895.793701	8778.049805	3150.658447	28.606846
370.475220	881.601868	8824.786133	3173.172119	28.849518
370.839661	890.889648	8931.038086	3220.057373	28.969213
371.204041	888.809265	9029.118164	3239.153076	28.872906
371.568451	885.614075	9089.303711	3245.468506	28.765770
371.932770	870.307800	9095.841797	3229.418945	28.680340
372.297150	878.258118	9089.823242	3211.735107	28.416958
372.661377	878.332458	9092.646484	3191.375977	28.158691
373.025696	885.985596	9079.867188	3178.001709	27.972286
373.389862	872.388184	9067.979492	3172.948975	28.070709
373.754059	888.734863	9105.129883	3184.094482	27.936337
374.118225	876.772156	9172.373047	3191.598877	27.904268
374.482361	877.069336	9312.136719	3210.694580	27.665756
374.846436	855.224304	9467.281250	3247.474609	27.777920
375.210510	862.283020	9706.312500	3310.186279	27.678598
375.574524	876.772156	9971.499023	3387.015381	27.601084
375.938538	889.552246	10282.530273	3454.853516	27.310839
376.302460	891.632629	10574.094727	3534.357422	27.293936
376.666412	894.604797	10851.763672	3606.654297	27.237183
377.030304	894.827637	11057.062500	3633.254639	26.947096
377.394196	894.307617	11155.067383	3594.022705	26.311064
377.757996	891.409668	11174.980469	3519.571045	25.556896
378.121796	885.762756	11032.468750	3420.897217	24.984802
378.485565	887.100159	10840.543945	3329.504883	24.538290
378.849304	864.289246	10520.670898	3218.273682	24.377499
379.212982	863.992004	10268.264648	3142.336670	24.226698
379.576630	870.753601	10003.152344	3100.132080	24.411751
379.940277	889.997986	9860.713867	3096.194336	24.593313
380.303864	892.227051	9723.700195	3083.414307	24.811119
380.667450	881.230286	9692.567383	3082.596924	24.983345
381.030945	873.577087	9647.614258	3072.343018	25.059910
381.394501	891.261169	9685.954102	3088.169678	24.979933
381.757935	915.483887	9708.913086	3118.930908	25.057880
382.121399	921.651062	9756.690430	3136.169189	25.065176
382.484741	914.072083	9878.621094	3192.193359	25.412560
382.848145	887.545959	9972.316406	3225.778564	25.737938
383.211487	884.796814	10091.944336	3291.387695	26.138288
383.574768	872.611145	10217.069336	3343.845459	26.445990
383.938019	870.604980	10319.384766	3396.005859	26.727272
384.301270	871.050781	10432.176758	3445.045654	26.921461
384.664459	870.902161	10453.278320	3504.710938	27.485968
385.027649	879.372742	10492.956055	3558.951904	27.872845
385.390778	885.391174	10560.051758	3658.219971	28.660736
385.753876	897.131042	10638.886719	3764.696045	29.435812
386.116943	894.010254	10727.009766	3896.880859	30.538702
386.479980	889.775085	10773.894531	3996.223389	31.428680
386.842987	888.586182	10858.599609	4120.160156	32.412933
387.205994	897.651184	10941.000977	4249.075195	33.369583
387.568909	889.032043	10989.149414	4388.987793	34.652626
387.931793	882.493408	10942.562500	4478.373535	35.744087
388.294678	873.056946	10885.720703	4569.246094	36.915142
388.657471	876.846375	10863.355469	4688.056152	38.163586
389.020294	895.496338	10848.270508	4854.865234	39.781559
389.383057	906.418884	10930.523438	5082.157715	41.656975
389.745819	907.013367	10990.858398	5290.056641	43.465996
390.108521	896.388000	11169.333008	5522.995605	45.036816
390.471191	889.626465	11355.015625	5769.383301	46.627575
390.833801	885.911316	11613.738281	6060.278809	48.233139
391.196442	879.744202	11859.458008	6325.464844	49.598019
391.558960	872.016785	12046.700195	6523.333496	50.572502
391.921509	872.388245	12167.071289	6650.464844	51.157494
392.284027	871.050781	12237.213867	6761.919434	51.828121
392.646484	870.604980	12259.577148	6861.558594	52.603107
393.008911	865.329407	12185.497070	6950.871094	53.758404
393.371307	866.295410	12127.096680	7084.095703	55.216324
393.733673	873.279846	12046.848633	7198.521973	56.608971
394.096008	873.131165	12016.979492	7310.272949	57.764080
394.458344	875.583252	11963.629883	7357.975098	58.462879
394.820587	867.855774	11872.163086	7339.845215	58.813236
395.182831	870.010559	11755.953125	7290.434082	58.979031
395.545013	862.134460	11534.160156	7191.240234	59.305573
395.907196	871.942383	11310.805664	7141.011719	60.055096
396.269287	881.527527	11072.516602	7095.092285	60.971165
396.631409	885.762695	10897.534180	7110.250488	62.171692
396.993469	891.781189	10757.473633	7119.389160	63.123882
397.355530	895.273438	10666.601563	7196.664063	64.488579
397.717499	895.422119	10637.325195	7263.685547	65.369812
398.079468	883.459412	10630.043945	7345.417969	66.299721
398.441376	872.313965	10675.741211	7380.117188	66.382935
398.803284	865.255188	10662.812500	7410.804688	66.807968
399.165131	875.434753	10679.381836	7461.479004	67.177475
399.526978	887.174500	10650.922852	7505.615234	67.785866
399.888763	890.666748	10653.375000	7544.475098	68.155357
400.250519	882.642029	10643.790039	7568.623535	68.495850
400.612244	898.840088	10680.496094	7675.990723	69.284286
400.973938	913.700623	10676.781250	7756.980957	70.093452
401.335602	919.496155	10722.625977	7859.146973	70.790154
401.697205	922.394043	10845.522461	7963.988281	70.961433
402.058807	916.078308	11041.383789	8116.383301	71.111977
402.420349	917.787292	11331.387695	8368.121094	71.544266
402.781860	894.679138	11629.043945	8592.961914	71.716232
403.143341	894.679016	12026.934570	8838.309570	71.356880
403.504822	890.815369	12411.006836	9033.055664	70.677994
403.866241	895.645020	12829.405273	9282.268555	70.276451
404.227631	891.409729	13128.770508	9457.993164	70.003517
404.588959	897.056824	13401.164063	9576.283203	69.411003
404.950287	894.233215	13445.151367	9583.044922	69.228493
405.311554	893.193054	13343.653320	9552.432617	69.549553
405.672821	893.415955	13046.963867	9488.754883	70.722878
406.034027	887.174561	12674.409180	9380.792969	72.057770
406.395203	890.443848	12276.295898	9263.839844	73.542122
406.756348	882.716309	11996.100586	9175.495117	74.619743
407.117493	887.917480	11823.644531	9142.800781	75.485451
407.478516	883.013489	11781.143555	9206.106445	76.371750
407.839600	882.790588	11769.476563	9288.954102	77.215080
408.200592	891.186829	11850.020508	9423.293945	77.855980
408.561554	898.319824	11867.629883	9554.809570	78.915535
408.922485	898.245605	11914.663086	9711.216797	79.998512
409.283417	893.936035	11925.437500	9855.215820	81.233536
409.644257	897.502625	12064.309570	10030.199219	81.784317
410.005096	907.384827	12211.057617	10184.971680	82.075859
410.365906	907.607727	12309.731445	10280.079102	82.199348
410.726715	900.920471	12379.352539	10304.895508	81.927345
411.087433	894.530457	12354.758789	10323.916992	82.279221
411.448120	892.524231	12340.789063	10338.554688	82.510590
411.808807	892.970032	12269.385742	10351.780273	83.144028
412.169434	890.815247	12156.668945	10314.406250	83.647377
412.530029	911.620056	12150.204102	10391.458008	84.350822
412.890564	914.220703	12154.440430	10502.912109	85.306976
413.251099	925.886230	12261.137695	10668.162109	85.946701
413.611572	912.140198	12326.821289	10814.241211	86.748817
413.972076	914.815186	12456.182617	10992.046875	87.314018
414.332489	906.418945	12558.051758	11170.375000	88.090279
414.692871	910.877014	12739.424805	11385.257813	88.551704
415.053223	908.870789	12910.171875	11590.481445	89.003769
415.413574	912.957458	13178.331055	11869.859375	89.331985
415.773834	905.973083	13392.397461	12157.708008	90.111748
416.134094	910.208313	13634.028320	12468.218750	90.837585
416.494263	903.372498	13864.441406	12758.297852	91.465645
416.854462	902.257996	14230.010742	13104.473633	91.554939
417.214630	903.892578	14634.143555	13501.844727	91.753258
417.574738	908.127869	15043.403320	13918.088867	92.038963
417.934784	912.363098	15484.389648	14383.000000	92.441757
418.294861	918.381653	16039.133789	14935.812500	92.703262
418.654846	915.929626	16637.865234	15541.456055	93.026245
419.014832	915.632385	17287.716797	16162.328125	93.126175
419.374756	896.536621	17923.154297	16789.591797	93.342407
419.734680	925.217468	18688.396484	17495.466797	93.284256
420.094543	923.954346	19320.787109	18102.966797	93.380272
420.454376	931.756165	19865.650391	18553.833984	93.071594
420.814148	908.573730	20286.947266	18868.876953	92.682205
421.173920	902.183655	20719.759766	19124.332031	91.949432
421.533691	907.979309	21067.791016	19285.271484	91.158058
421.893341	900.474670	21244.113281	19321.753906	90.550560
422.253021	898.914307	21294.937500	19258.298828	90.014534
422.612640	894.233215	21225.240234	19153.681641	89.810844
422.972260	902.406555	21151.458984	19095.576172	89.847015
423.331757	902.480896	21096.177734	19145.136719	90.338364
423.691315	923.582825	21238.541016	19310.681641	90.510147
424.050781	937.105957	21387.740234	19418.570313	90.371109
424.410248	939.557922	21410.996094	19286.904297	89.624123
424.769653	913.849121	21297.982422	19042.822266	88.936691
425.128998	901.440613	21117.353516	18686.242188	87.974266
425.488373	899.731628	20800.007813	18260.416016	87.238411
425.847656	903.669678	20399.591797	17807.392578	86.703888
426.206940	908.425049	19983.791016	17385.945313	86.381149
426.566193	918.604492	19543.693359	16980.847656	86.239815
426.925385	912.808899	19094.757813	16548.775391	85.997200
427.284576	900.474670	18525.078125	16026.204102	85.821671
427.643677	900.400391	18070.125000	15645.106445	85.876198
428.002777	904.264160	17658.412109	15353.617188	86.243439
428.361847	915.335205	17281.400391	15144.231445	86.941460
428.720856	912.288818	16921.330078	14868.420898	87.176567
429.079865	910.728516	16688.392578	14677.463867	87.254585
429.438812	902.555176	16534.212891	14542.530273	87.258652
429.797760	899.360168	16456.937500	14511.989258	87.498383
430.156616	906.641785	16248.444336	14355.136719	87.659157
430.515503	909.465332	16108.831055	14271.546875	87.912109
430.874268	905.304382	16025.536133	14185.355469	87.829681
431.233093	892.970154	16041.213867	14266.418945	88.283821
431.591827	891.558350	16121.757813	14380.918945	88.569824
431.950562	892.672913	16197.621094	14567.122070	89.346588
432.309204	901.514893	16333.596680	14673.375000	89.241753
432.667877	900.920410	16519.576172	14832.754883	89.199951
433.026459	907.904968	16850.371094	14981.879883	88.279785
433.385010	907.459167	17288.087891	15169.569336	87.066925
433.743561	904.709900	17903.833984	15331.920898	84.870316
434.102051	907.756287	18540.236328	15490.706055	82.705040
434.460510	921.948181	19289.134766	15695.707031	80.435608
434.818939	925.068909	19888.458984	15807.234375	78.478394
435.177338	918.827454	20424.332031	15917.054688	76.892288
435.535675	904.487000	20674.435547	15935.333008	76.028755
435.894012	917.192810	20674.210938	15945.959961	76.068001
436.252289	921.725281	20530.509766	15991.358398	76.851433
436.610535	933.465088	20071.986328	15980.434570	78.621384
436.968719	954.938538	19647.570313	16142.637695	81.249664
437.326935	952.412292	19065.333984	16256.023438	84.490021
437.685028	951.149170	18609.708984	16441.408203	87.720963
438.043152	926.332031	18259.001953	16559.849609	90.196823
438.401215	922.245361	18214.791016	16813.666016	91.897522
438.759277	911.025635	18396.535156	17125.884766	92.733124
439.117249	920.239075	18862.414063	17633.818359	93.152473
439.475250	937.031555	19266.992188	18106.087891	93.666626
439.833130	949.142883	19799.224609	18667.519531	93.996284
440.191071	940.672363	20079.865234	18909.968750	93.887428
440.548889	928.263855	20326.029297	19108.283203	93.722237
440.906708	913.180420	20455.244141	19103.154297	93.081131
441.264496	912.957520	20468.244141	19055.082031	92.773506
441.622223	913.403320	20397.138672	18874.228516	92.183685
441.979950	919.942078	20172.445313	18606.888672	91.868294
442.337616	918.604492	19997.982422	18376.251953	91.500084
442.695251	921.799561	19745.205078	18156.910156	91.562126
443.052887	911.620117	19511.152344	18019.673828	91.981110
443.410461	898.840027	19380.156250	18017.072266	92.624527
443.768005	902.406555	19383.869141	18114.408203	93.131165
444.125458	912.511719	19468.873047	18330.109375	93.863220
444.482941	921.502380	19695.718750	18694.195313	94.665428
444.840393	919.124695	20027.333984	19167.279297	95.499031
445.197754	919.050476	20500.716797	19667.259766	95.743690
445.555084	911.248718	20844.960938	20050.589844	96.014938
445.912415	902.257996	21234.531250	20373.509766	95.765251
446.269714	903.743958	21425.710938	20567.884766	95.819962
446.626953	912.214539	21576.396484	20622.794922	95.385246
446.984161	918.158691	21637.546875	20568.703125	94.841339
447.341309	935.545593	21711.105469	20439.490234	93.879272
447.698456	948.028503	21722.175781	20285.013672	93.081970
448.055542	951.817871	21632.271484	20073.029297	92.460312
448.412598	939.186340	21347.837891	19730.271484	92.074112
448.769653	929.452820	20964.068359	19288.837891	91.638321
449.126617	927.595154	20485.111328	18796.656250	91.366722
449.483582	952.635193	20146.365234	18489.416016	91.367241
449.840515	957.464844	19761.849609	18149.628906	91.426361
450.197388	950.331787	19485.666016	17927.091797	91.591331
450.554230	936.288574	19258.744141	17715.402344	91.576775
450.911041	927.446533	19143.501953	17645.333984	91.775566
451.267822	932.647766	19067.861328	17628.099609	92.060959
451.624573	908.350769	18967.107422	17563.900391	92.229767
451.981262	903.744080	18917.769531	17527.492188	92.282249
452.337921	901.143372	18750.439453	17326.947266	92.024940
452.694580	902.034973	18542.988281	17061.167969	91.600113
453.051147	907.384827	18354.853516	16821.392578	91.210983
453.407715	906.493164	18099.324219	16490.449219	90.642174
453.764221	940.895325	18026.283203	16345.039063	90.159752
454.120728	952.337891	17693.558594	15957.325195	89.628990
454.477142	951.892151	17579.132813	15839.333008	89.536446
454.833557	933.910889	17370.935547	15596.290039	89.203362
455.189911	926.777832	17297.451172	15576.301758	89.486382
455.546265	931.533203	17217.203125	15572.067383	89.898262
455.902557	932.721985	17154.044922	15617.614258	90.528328
456.258820	932.499207	17269.216797	15759.161133	90.756676
456.615051	933.539368	17420.867188	15905.538086	90.809128
456.971252	941.638367	17543.615234	16101.993164	91.316566
457.327393	941.489746	17837.259766	16473.433594	91.928001
457.683502	941.118225	18237.677734	16965.318359	92.643867
458.039612	941.118225	18950.537109	17761.322266	93.396706
458.395630	955.087158	19710.060547	18564.978516	93.894516
458.751648	949.440125	20425.445313	19289.876953	94.169395
459.107605	941.192566	21238.763672	20014.626953	93.969048
459.463562	927.595154	21821.818359	20437.335938	93.373848
459.819458	939.186340	22206.111328	20585.123047	92.377892
460.175323	923.211243	22259.091797	20315.404297	90.890053
460.531158	925.960449	22190.583984	19851.087891	88.998177
460.886932	922.468262	21923.539063	19301.988281	87.517059
461.242676	937.923157	21496.519531	18667.888672	86.241127
461.598419	941.341125	20892.291016	18087.435547	85.941246
461.954102	938.666260	20226.240234	17511.369141	85.924248
462.309723	940.598206	19524.376953	16980.400391	86.310760
462.665344	928.635437	18929.138672	16554.423828	86.807503
463.020905	925.514709	18542.837891	16286.932617	87.194962
463.376373	926.183411	18295.781250	16195.245117	87.906822
463.731873	941.638428	18105.863281	16130.749023	88.492844
464.087341	943.050110	17988.392578	16089.437500	88.859398
464.442749	945.204895	17941.580078	16126.663086	89.321739
464.798126	934.728210	17902.570313	16223.256836	90.102966
465.153503	933.316406	18011.275391	16411.986328	90.635361
465.508820	914.592102	18112.773438	16565.642578	91.004105
465.864105	914.740723	18277.726563	16719.302734	91.024445
466.219330	926.926453	18489.044922	16994.517578	91.490044
466.574524	936.139954	18612.607422	17147.878906	91.713684
466.929657	936.957336	18649.908203	17121.873047	91.373344
467.284790	945.353516	18634.677734	17022.900391	90.888420
467.639893	946.096497	18576.421875	16841.380859	90.158768
467.994934	940.152283	18541.351563	16749.839844	89.821648
468.349945	924.994568	18362.802734	16566.906250	89.701134
468.704926	925.143127	18189.750000	16447.353516	89.907692
469.059875	949.217285	17958.744141	16289.459961	90.186172
469.414764	950.183167	17770.312500	16180.831055	90.550125
469.769653	943.718933	17661.013672	16118.637695	90.773773
470.124451	930.047119	17672.607422	16201.708008	91.214607
470.479248	926.554871	17636.865234	16224.964844	91.550720
470.834015	929.601257	17594.958984	16283.738281	92.132057
471.188721	926.777771	17700.541016	16478.189453	92.712715
471.543365	940.449402	17876.861328	16727.921875	93.216156
471.898010	947.879700	18078.074219	16979.658203	93.587830
472.252625	953.303894	18278.693359	17220.250000	93.890800
472.607178	949.737305	18526.492188	17507.726563	94.203903
472.961700	950.703308	18696.201172	17680.851563	94.278267
473.316193	958.876648	18867.169922	17847.216797	94.304573
473.670654	956.350281	18909.892578	17842.683594	94.055717
474.025055	965.861023	19039.998047	17965.283203	94.053856
474.379456	948.028381	19082.945313	17989.359375	93.969719
474.733795	953.155273	19212.603516	18131.646484	94.080009
475.088104	930.195801	19365.814453	18346.232422	94.469498
475.442383	942.901550	19543.025391	18611.195313	94.990196
475.796570	934.431091	19770.021484	18921.931641	95.497406
476.150787	956.276062	20110.328125	19316.031250	95.853111
476.504944	957.241943	20474.560547	19673.281250	95.894524
476.859070	972.919739	20825.642578	20053.337891	96.109833
477.213135	963.632019	21106.505859	20316.667969	96.078819
477.567200	955.755920	21456.992188	20645.085938	96.039719
477.921173	943.347351	21807.330078	20946.679688	95.874947
478.275146	947.211121	22191.771484	21250.798828	95.570763
478.629089	960.659912	22435.335938	21502.166016	95.654556
478.983002	972.474060	22835.009766	21907.041016	95.755440
479.336823	975.371826	23241.966797	22406.431641	96.247581
479.690643	968.684570	23788.833984	23008.953125	96.582497
480.044403	959.099548	24388.828125	23695.732422	97.041809
480.398163	967.718689	25331.728516	24696.218750	97.391602
480.751862	968.090149	26542.271484	26009.000000	97.914803
481.105499	964.300781	28217.201172	27812.474609	98.514923
481.459137	952.783875	30512.634766	30399.695313	99.617928
481.812744	952.338074	33480.953125	33885.089844	101.242401
482.166290	966.306946	37165.105469	38182.464844	102.810478
482.519806	971.805359	41348.277344	42887.234375	103.811516
482.873291	975.817688	45704.343750	47392.875000	103.775063
483.226715	983.916687	49577.375000	50953.167969	102.831230
483.580139	982.727722	51805.863281	52458.910156	101.284943
483.933502	990.975403	53572.261719	53082.605469	99.068764
484.286804	998.182800	54244.105469	52358.230469	96.458176
484.640106	1001.154968	54707.160156	51217.312500	93.501938
484.993347	991.346924	53968.886719	48934.582031	90.497284
485.346558	971.953918	52692.667969	46538.765625	88.101669
485.699738	961.031433	51301.718750	44746.734375	86.978752
486.052887	954.715637	49860.988281	43690.816406	87.383682
486.405975	956.350342	49189.738281	43819.363281	88.865852
486.759064	967.495789	48847.425781	44335.542969	90.576675
487.112061	977.823792	48889.109375	44948.917969	91.776070
487.464996	975.000305	48909.019531	45021.433594	91.889717
487.817963	970.987976	48801.281250	44485.261719	90.976387
488.170868	960.734192	48229.378906	43204.503906	89.369537
488.523743	963.483337	47287.667969	41529.277344	87.569366
488.876587	966.158386	46072.515625	39678.468750	85.824509
489.229401	995.136414	44796.144531	38213.964844	84.972542
489.582153	992.758728	43494.808594	37165.777344	85.108879
489.934845	1003.904114	42614.246094	36903.261719	86.275085
490.287537	981.241760	42352.105469	37353.832031	87.918373
490.640198	995.582214	42608.078125	38260.179688	89.551460
490.992798	977.526611	42845.625000	39009.222656	90.836929
491.345337	975.966248	43082.949219	39297.968750	91.011040
491.697876	971.285156	42834.925781	38710.378906	90.147667
492.050354	1006.430359	42356.265625	37494.414063	88.242149
492.402832	1031.098999	41231.394531	35531.414063	85.821053
492.755219	1038.900757	39721.339844	33344.687500	83.515388
493.107605	1010.071228	37657.214844	30924.794922	81.629074
493.459930	992.833008	35556.230469	28847.289063	80.589462
493.812225	991.792786	33409.847656	27003.539063	80.238457
494.164490	992.387146	31668.193359	25769.521484	80.770935
494.516724	986.294250	30203.015625	24945.205078	82.004105
494.868896	975.223145	29236.859375	24584.912109	83.539711
495.221039	983.768005	28675.275391	24517.742188	84.986252
495.573120	987.706055	28307.552734	24503.625000	86.076317
495.925201	1032.659180	28227.376953	24699.412109	87.027023
496.277222	1048.411499	28216.906250	24894.306641	87.770393
496.629211	1049.228638	28296.708984	25078.726563	88.189796
496.981140	996.473816	28263.642578	25013.562500	88.080612
497.333069	979.830017	28122.912109	24811.164063	87.798927
497.684967	971.062256	28000.609375	24567.599609	87.299049
498.036804	966.306885	27724.427734	24252.406250	87.024422
498.388580	964.449280	27371.859375	23869.822266	86.738434
498.740326	976.040527	26895.501953	23417.023438	86.579666
499.092072	983.916687	26379.322266	22945.125000	86.477089
499.443756	977.229431	25896.578125	22515.431641	86.431641
499.795410	978.195313	25418.960938	22141.466797	86.590050
500.147003	991.569824	25087.273438	21899.462891	86.770210
500.498566	1003.606873	24694.062500	21633.978516	87.083054
500.850098	995.433594	24365.943359	21387.814453	87.256897
501.201599	987.557556	23998.291016	21181.474609	87.758682
501.553009	983.247864	23745.960938	21014.888672	88.001991
501.904449	991.198242	23545.193359	20942.222656	88.458931
502.255859	1005.984436	23477.208984	20970.234375	88.843620
502.607178	1009.328125	23469.181641	21062.890625	89.286255
502.958405	997.142395	23490.431641	21160.150391	89.640106
503.309692	976.634949	23472.228516	21159.408203	89.718788
503.660919	966.455383	23490.283203	21248.201172	90.045731
504.012115	989.266357	23511.533203	21314.404297	90.244637
504.363251	995.730774	23541.552734	21379.642578	90.411041
504.714294	998.702820	23527.955078	21356.681641	90.362427
505.065369	1002.566650	23518.296875	21369.537109	90.456627
505.416443	1011.111389	23418.431641	21307.939453	90.581238
505.767395	1017.947266	23320.578125	21303.109375	90.954124
506.118317	1005.241516	23177.099609	21160.671875	90.905464
506.469238	998.702820	23191.585938	21251.544922	91.258270
506.820160	992.387146	23208.009766	21325.625000	91.526749
507.170929	1007.247620	23352.380859	21622.166016	92.256859
507.521729	1010.739990	23521.789063	21864.095703	92.636093
507.872498	1010.962891	23726.791016	22160.193359	93.103500
508.223236	989.340820	23965.080078	22436.970703	93.349030
508.573883	983.619446	24198.318359	22710.107422	93.589363
508.924500	992.758606	24456.146484	22975.443359	93.689301
509.275116	993.650330	24585.806641	23140.023438	93.871765
509.625702	1000.634705	24768.146484	23364.119141	94.092659
509.976196	997.513977	24966.900391	23540.140625	94.047577
510.326660	1013.117676	25212.322266	23784.375000	94.099197
510.677124	1009.699707	25414.724609	23950.812500	94.001595
511.027557	1030.950317	25584.583984	24196.162109	94.345352
511.377869	1028.349609	25753.619141	24400.046875	94.525551
511.728180	1028.423950	25832.382813	24496.865234	94.615707
512.078430	1012.820374	25876.888672	24501.916016	94.470039
512.428650	998.479980	25908.318359	24455.552734	94.167908
512.778931	1010.739929	25928.750000	24453.619141	94.080063
513.129028	1009.773987	25904.900391	24378.500000	93.868675
513.479126	1014.306396	25777.843750	24272.990234	93.923111
513.829285	998.851501	25622.179688	24130.697266	93.942810
514.179382	989.266418	25435.232422	24002.677734	94.139915
514.529297	993.055847	25363.234375	24000.373047	94.407669
514.879272	994.913391	25352.833984	24067.095703	94.721481
515.229187	1003.086731	25358.328125	24154.625000	95.057724
515.579163	990.752441	25528.630859	24384.666016	95.337967
515.928955	986.963074	25747.898438	24766.953125	96.038338
516.278748	983.545105	26243.197266	25369.031250	96.539276
516.628540	995.879395	26763.244141	26046.447266	97.218201
516.978333	1002.640869	27471.724609	26830.935547	97.579102
517.327942	995.284912	28162.884766	27708.750000	98.328392
517.677612	993.130127	28898.484375	28528.234375	98.673195
518.027222	984.139465	29540.906250	29150.962891	98.634499
518.376831	985.848450	30075.291016	29535.552734	98.144554
518.726379	986.517273	30347.236328	29578.947266	97.383278
519.075867	991.718445	30251.609375	29207.804688	96.432640
519.425293	1016.238281	30116.529297	28700.392578	95.133598
519.774658	1018.467346	29773.177734	28044.298828	93.987495
520.124084	1028.201050	29425.064453	27501.591797	93.226463
520.473389	1013.191895	28886.000000	26858.500000	92.725883
520.822693	1012.894714	28420.791016	26414.841797	92.681129
521.171997	1018.913269	28042.587891	26051.945313	92.633705
521.521240	1033.773804	27713.353516	25912.181641	93.248878
521.870361	1034.368286	27502.333984	25806.226563	93.591850
522.219482	1025.229004	27406.111328	25889.296875	94.250328
522.568604	1005.613037	27453.591797	26030.619141	94.619728
522.917664	1008.287903	27629.689453	26313.640625	95.056427
523.266724	1013.340515	27984.560547	26782.119141	95.541763
523.615662	1023.817200	28552.976563	27456.787109	96.018082
523.964600	1031.247437	29271.929688	28368.181641	96.799835
524.313538	1035.334106	30194.101563	29419.046875	97.341949
524.662354	1029.984253	31224.234375	30621.783203	98.004745
525.011169	1048.188354	32392.273438	31856.398438	98.290344
525.359985	1032.139038	33588.472656	33041.972656	98.321373
525.708740	1026.417603	34838.093750	34236.687500	98.221306
526.057434	1016.089661	36262.179688	35561.128906	98.010986
526.406067	1026.269165	37950.933594	37253.003906	98.109856
526.754700	1029.687134	39988.386719	39364.246094	98.397942
527.103333	1016.238281	42483.546875	42143.910156	99.180954
527.451782	1014.529358	45212.687500	45146.925781	99.851212
527.800293	1014.157898	47962.628906	48075.199219	100.239777
528.148743	1016.089661	50085.683594	50082.707031	99.993935
528.497131	1000.188904	51566.683594	51029.394531	98.937462
528.845642	1005.167175	52087.324219	50664.125000	97.213898
529.193909	998.331299	51922.296875	49258.171875	94.768425
529.542175	1009.625305	50947.515625	46908.199219	91.911316
529.890503	1009.179504	49310.847656	43925.761719	88.851135
530.238770	1012.374512	47035.480469	40729.332031	86.297867
530.586914	1018.838867	44790.269531	38188.253906	84.917068
530.934998	1029.092651	42612.386719	36286.996094	84.788628
531.283142	1031.544556	41152.042969	35449.753906	85.787094
531.631226	1026.417847	39924.187500	35112.269531	87.629318
531.979248	1014.083557	39587.449219	35604.527344	89.674423
532.327148	1009.996887	39665.988281	36375.566406	91.487938
532.675110	1006.950500	40039.730469	37148.910156	92.593864
533.023071	1006.727722	40295.703125	37512.769531	92.916756
533.370850	1010.517090	40429.449219	37382.296875	92.269829
533.718689	1016.238342	40400.988281	36781.039063	90.808754
534.066467	1018.913269	40013.574219	35780.472656	89.144409
534.414246	1013.860657	39126.550781	34420.292969	87.651733
534.761963	1020.473572	38154.968750	33195.113281	86.643539
535.109619	1033.773804	37366.468750	32290.923828	86.030365
535.457153	1043.433105	36677.312500	31764.041016	86.211800
535.804749	1036.077148	36101.687500	31426.484375	86.667267
536.152344	1026.194824	35585.207031	31164.195313	87.207352
536.499817	1027.532227	35115.542969	30808.359375	87.364517
536.847229	1030.355835	34740.832031	30433.724609	87.223236
537.194641	1027.903931	34328.601563	29850.302734	86.551933
537.542114	1032.510620	34084.292969	29288.572266	85.490288
537.889404	1029.538574	33726.453125	28673.421875	84.545845
538.236694	1035.779907	33508.597656	28233.845703	83.756409
538.583984	1024.783081	33514.988281	28121.869141	83.400787
538.931213	1031.619019	34040.378906	28537.224609	83.328194
539.278381	1028.646851	35143.550781	29554.947266	83.618301
539.625488	1036.745972	36835.574219	31092.568359	83.957558
539.972595	1048.708618	39148.914063	33144.066406	84.239326
540.319641	1049.451660	41812.144531	35383.550781	84.229225
540.666687	1060.597046	44521.593750	37513.812500	83.875702
541.013611	1048.114258	46912.285156	39056.855469	82.872406
541.360596	1051.829346	48464.394531	39843.941406	81.818207
541.707458	1039.272095	49598.406250	39965.355469	80.162224
542.054260	1051.755005	49859.730469	39334.894531	78.436241
542.401062	1049.526001	49854.152344	38337.156250	76.401833
542.747864	1062.380249	49037.343750	36849.019531	74.594406
543.094666	1058.442261	48003.199219	35275.734375	72.888420
543.441284	1064.535156	46571.609375	33576.210938	71.443123
543.787903	1049.748901	45407.281250	32159.257813	70.133545
544.134460	1042.690063	44538.832031	30954.587891	68.769089
544.481079	1043.210205	44140.421875	30220.625000	67.701401
544.827637	1058.590942	43941.218750	29665.437500	66.709633
545.174072	1057.996460	43890.019531	29378.181641	66.119186
545.520508	1059.185303	43827.015625	29156.537109	65.697395
545.866943	1048.114136	43647.277344	29047.085938	65.726578
546.213318	1054.578491	43225.238281	28888.302734	66.002579
546.559631	1064.015015	42554.878906	28558.398438	66.266113
546.905823	1068.101685	41401.625000	28007.740234	66.792175
547.252136	1059.705444	39895.582031	27211.365234	67.338921
547.598389	1048.039917	37882.945313	26228.117188	68.359283
547.944458	1049.823120	35919.644531	25148.275391	69.109772
548.290588	1063.940552	33873.421875	24069.250000	70.117867
548.636658	1050.120483	32114.974609	23073.296875	70.894188
548.982727	1034.442505	30315.437500	22209.080078	72.315292
549.328735	1022.702637	28804.640625	21500.011719	73.707275
549.674622	1033.773804	27447.650391	20893.552734	75.186913
550.020569	1037.934692	26403.546875	20450.412109	76.530685
550.366455	1038.380493	25452.396484	20108.841797	78.112755
550.712280	1026.937988	24681.802734	19912.533203	79.838104
551.058044	1029.315552	24185.984375	19876.423828	81.389549
551.403748	1029.166992	23768.921875	19887.048828	82.929146
551.749512	1046.479492	23520.156250	20036.841797	84.500481
552.095154	1041.426880	23236.093750	20065.896484	85.716400
552.440735	1062.603149	23088.458984	20180.248047	86.796379
552.786316	1046.182251	22923.132813	20167.619141	87.404488
553.131897	1038.751953	22684.546875	20056.013672	87.856613
553.477417	1012.448792	22367.867188	19808.511719	88.015427
553.822815	1015.495300	22043.462891	19477.789063	87.798752
554.168213	1023.297119	21691.935547	19205.619141	87.970581
554.513672	1023.371399	21306.232422	18908.408203	88.178078
554.859009	1029.018433	20851.572266	18635.197266	88.818924
555.204285	1033.922363	20454.423828	18395.644531	89.398941
555.549500	1033.402222	20104.310547	18177.861328	89.898491
555.894714	1013.266113	19831.171875	17969.888672	90.108978
556.239990	1006.430359	19525.640625	17793.345703	90.645958
556.585022	1020.845032	19316.849609	17718.822266	91.265701
556.930115	1039.272095	19064.814453	17628.691406	92.032845
557.275146	1033.922363	18881.064453	17521.101563	92.379944
557.620178	1012.671814	18663.060547	17390.550781	92.790474
557.965149	1001.674988	18505.685547	17326.205078	93.261658
558.310059	997.216797	18362.951172	17259.482422	93.645714
558.654968	996.845215	18247.187500	17171.359375	93.763435
558.999756	994.467590	18181.207031	17155.607422	94.032608
559.344604	997.588318	18196.291016	17219.431641	94.320160
559.689331	990.678162	18159.882813	17264.236328	94.783417
560.033997	1001.600586	18125.480469	17278.800781	95.055565
560.378723	998.479980	18092.638672	17313.576172	95.442520
560.723389	1005.018555	18144.873047	17371.904297	95.490219
561.067932	984.139587	18172.291016	17467.380859	95.898857
561.412476	989.415039	18185.664063	17470.947266	95.843750
561.757019	996.102295	18163.892578	17495.392578	96.106079
562.101501	999.297302	18143.533203	17463.587891	96.033974
562.445862	1005.613037	18058.087891	17374.724609	95.992584
562.790222	995.507874	17994.855469	17283.480469	95.815277
563.134644	1007.916321	18004.664063	17230.353516	95.444359
563.478943	1012.746094	18010.683594	17244.173828	95.490570
563.823181	1016.684082	18038.472656	17305.548828	95.694199
564.167358	1006.801819	18090.335938	17419.455078	96.072937
564.511536	992.758606	18241.021484	17648.160156	96.562775
564.855774	986.740173	18426.853516	17906.734375	97.017685
565.199768	992.461426	18658.974609	18202.607422	97.416771
565.543823	988.374756	18924.085938	18484.138672	97.547089
565.887817	996.325195	19198.931641	18781.126953	97.704697
566.231812	1004.349915	19353.925781	18939.021484	97.738892
566.575745	1006.430420	19409.060547	18938.351563	97.442162
566.919617	1007.990723	19386.843750	18782.093750	96.709534
567.263428	997.439758	19299.462891	18525.970703	95.773735
567.607239	992.535706	19210.744141	18273.714844	94.856636
567.950989	995.062012	19075.439453	18022.794922	94.177971
568.294678	996.696716	18965.248047	17872.703125	93.919685
568.638367	997.365417	18788.556641	17729.000000	94.044487
568.981995	981.761719	18663.058594	17679.439453	94.436951
569.325623	986.294250	18554.056641	17658.931641	94.904732
569.669128	1001.229187	18529.833984	17730.710938	95.441032
570.012573	1004.498474	18531.542969	17786.511719	95.749245
570.356140	1008.436523	18645.375000	17978.138672	96.216835
570.699524	1002.863770	18768.347656	18178.013672	96.677071
571.042908	1007.024719	18982.564453	18441.265625	96.988693
571.386230	988.449036	19157.396484	18609.189453	96.982727
571.729492	1002.417969	19369.306641	18792.123047	96.857475
572.072815	1003.235291	19469.466797	18834.847656	96.563354
572.416016	1010.442627	19502.085938	18778.380859	96.086311
572.759094	997.365417	19477.046875	18623.009766	95.378510
573.102234	987.929016	19416.490234	18432.423828	94.660103
573.445374	989.266418	19342.187500	18255.287109	94.077782
573.788391	988.374817	19229.617188	18096.724609	93.789391
574.131409	1003.235352	19150.039063	17959.337891	93.438499
574.474365	994.244629	19111.697266	17809.025391	92.809853
574.817261	992.833008	19085.841797	17681.523438	92.238350
575.160156	989.192139	19095.353516	17553.126953	91.482307
575.502930	995.507874	19061.250000	17354.068359	90.550171
575.845703	987.483215	19081.681641	17138.589844	89.261238
576.188477	1011.037170	19040.146484	16934.556641	88.321167
576.531250	1008.882324	18970.970703	16690.250000	87.302589
576.873901	1013.043396	18777.337891	16350.461914	86.338463
577.216431	975.074646	18608.669922	15981.918945	85.103714
577.559082	970.170715	18445.353516	15662.195313	84.073647
577.901611	967.570068	18308.486328	15368.105469	83.043678
578.244080	970.542175	18119.759766	15070.523438	82.219391
578.586487	989.935120	17943.810547	14894.723633	82.015396
578.928955	1552.109497	18344.080078	15305.321289	81.903503
579.271301	1586.140259	18108.539063	15144.307617	82.059319
579.613647	1572.839966	17814.298828	14890.339844	81.996941
579.955872	1017.650085	16972.748047	14095.300781	81.965340
580.298157	993.873230	16680.960938	13899.737305	82.270622
580.640320	989.786560	16463.181641	13733.223633	82.357086
580.982483	981.464661	16236.483398	13625.558594	82.884811
581.324524	989.712219	16131.417969	13564.852539	83.049698
581.666626	989.043518	16020.409180	13488.618164	83.156616
582.008728	984.956848	15948.334961	13380.359375	82.838264
582.350647	972.102478	15846.391602	13272.323242	82.694511
582.692566	985.997131	15834.653320	13247.284180	82.575066
583.034424	993.501648	15775.656250	13179.519531	82.437355
583.376343	990.306641	15721.788086	13118.368164	82.327507
583.718201	980.944519	15629.428711	13058.851563	82.451584
584.059937	974.554504	15603.125977	13011.075195	82.280899
584.401611	967.421387	15564.339844	12958.394531	82.147293
584.743347	965.489563	15535.139648	12887.286133	81.826241
585.085022	966.009766	15468.637695	12815.436523	81.705376
585.426514	977.749573	15502.743164	12804.737305	81.425079
585.768127	974.851746	15551.708008	12798.570313	81.112953
586.109619	987.557434	15652.239258	12824.426758	80.716850
586.451172	980.870300	15746.456055	12817.368164	80.162735
586.792542	984.288147	15829.897461	12868.933594	80.054955
587.133850	979.904297	15853.895508	12888.921875	80.066055
587.475220	983.173523	15850.034180	12913.070313	80.244896
587.816589	977.377930	15796.238281	12888.625000	80.378967
588.157776	984.065247	15772.909180	12927.411133	80.759155
588.498962	987.706055	15706.333008	12954.085938	81.300926
588.840210	981.984680	15631.956055	12971.620117	81.840675
589.181335	991.718323	15565.157227	13043.768555	82.698738
589.522400	996.622375	15504.898438	13078.765625	83.277596
589.863403	1001.377747	15425.914063	13088.276367	83.794022
590.204407	998.628601	15317.209961	13010.034180	83.886841
590.545410	985.179749	15284.145508	12943.459961	83.630386
590.886353	998.628601	15265.570313	12886.246094	83.322815
591.227112	974.777344	15250.485352	12802.210938	82.850067
591.567932	976.932129	15224.480469	12758.742188	82.693596
591.908752	963.780579	15252.565430	12696.848633	82.113831
592.249512	974.480225	15396.711914	12753.691406	81.673981
592.590149	962.740295	15415.362305	12730.359375	81.422035
592.930786	976.932129	15464.921875	12776.129883	81.441231
593.271423	959.248108	15421.604492	12781.628906	81.745880
593.612000	969.873535	15437.504883	12881.120117	82.330315
593.952576	956.647644	15455.262695	13005.206055	83.101440
594.292969	965.861084	15469.456055	13098.456055	83.652328
594.633484	966.083984	15500.141602	13221.796875	84.324097
594.973877	962.814636	15464.773438	13375.010742	85.589790
595.314209	971.805237	15519.682617	13594.203125	86.764534
595.654480	973.217041	15638.270508	13839.996094	87.737686
595.994812	978.046692	15822.690430	14098.272461	88.383568
596.335022	969.130371	15968.472656	14334.554688	89.106735
596.675171	971.136536	16053.624023	14509.092773	89.759438
597.015320	968.090149	16117.300781	14533.018555	89.542145
597.355408	977.452332	16067.293945	14422.901367	89.102654
597.695496	970.839355	16009.413086	14198.209961	87.956284
598.035461	971.582336	15799.953125	13865.854492	86.956772
598.375366	965.341003	15598.073242	13511.356445	85.739388
598.715271	969.799133	15335.338867	13161.463867	84.867432
599.055176	988.820618	15108.492188	12859.497070	84.071899
599.395081	976.337708	14846.796875	12587.921875	83.714493
599.734802	971.953857	14569.425781	12349.335938	83.672775
600.074524	960.511230	14315.757813	12196.717773	84.133286
600.414246	967.867188	14090.395508	12092.768555	84.777115
600.753906	983.768066	13913.780273	12065.200195	85.703186
601.093506	967.272766	13710.413086	12044.471680	86.926758
601.433044	971.285156	13644.284180	12141.213867	88.139587
601.772583	954.789978	13612.333008	12262.995117	89.339653
602.112122	981.910461	13732.257813	12512.950195	90.437065
602.451538	978.566833	13855.601563	12787.573242	91.705948
602.790894	979.904297	14011.338867	13077.577148	92.834541
603.130310	961.848633	14240.338867	13403.914063	93.700905
603.469604	971.953918	14513.252930	13761.012695	94.444847
603.808838	968.387390	14832.754883	14145.827148	95.045372
604.148010	959.173828	15115.476563	14432.709961	95.176941
604.487305	959.842529	15304.206055	14592.237305	95.036598
604.826416	971.656738	15410.905273	14631.914063	94.605049
605.165527	981.390381	15399.463867	14513.328125	93.853996
605.504456	963.334778	15340.836914	14276.823242	92.599457
605.843445	952.189270	15216.082031	13915.636719	90.882957
606.182434	951.743591	15014.200195	13560.543945	89.662857
606.521423	961.700134	14788.766602	13247.729492	88.854927
606.860229	966.826965	14570.390625	13013.155273	88.552742
607.199036	968.758850	14418.442383	12814.098633	88.071510
607.537903	966.752686	14381.440430	12691.499023	87.402306
607.876648	974.628845	14462.059570	12691.350586	86.871414
608.215271	978.566895	14731.109375	12862.542969	86.412941
608.553955	977.600891	15195.128906	13163.246094	85.708611
608.892578	980.944519	16049.312500	13536.394531	83.323227
609.231140	978.641113	17279.619141	13933.246094	79.471336
609.569641	977.972412	18917.919922	14298.444336	74.250336
609.908081	968.535950	20817.394531	14654.206055	68.949402
610.246521	977.675232	22792.806641	14934.773438	63.978981
610.584961	982.579102	24579.337891	15098.758789	59.822540
610.923340	985.848450	25870.201172	15117.557617	56.789536
611.261597	993.873230	26535.507813	14983.960938	54.773659
611.599854	1001.303528	26681.068359	14746.340820	53.524776
611.938110	1001.897888	26461.576172	14410.270508	52.665134
612.276245	989.786621	25929.791016	14035.116211	52.306850
612.614319	979.458496	25026.937500	13645.769531	52.672092
612.952393	972.028137	23804.361328	13196.386719	53.539680
613.290466	966.901306	22530.515625	12826.878906	54.999950
613.628479	970.987976	21278.070313	12449.718750	56.525749
613.966370	981.167419	20053.189453	12189.807617	58.770073
614.304260	976.932129	18841.982422	11873.723633	60.995018
614.642151	968.684570	17635.380859	11602.444336	63.802448
614.979980	955.607239	16632.515625	11374.557617	66.460495
615.317749	956.498840	15741.700195	11201.061523	69.289299
615.655396	972.399658	15049.421875	11068.281250	71.718872
615.993164	975.223145	14440.066406	10936.543945	73.980217
616.330811	989.935059	13949.221680	10844.854492	76.045235
616.668396	971.730957	13443.368164	10756.358398	78.455032
617.005859	983.545105	13019.397461	10682.799805	80.586357
617.343445	982.430664	12626.929688	10638.738281	82.925919
617.680908	978.492615	12341.534180	10599.506836	84.669357
618.018311	984.139587	12115.132813	10595.865234	86.351013
618.355652	971.508118	11909.612305	10549.872070	87.568779
618.692993	995.507813	11746.442383	10520.374023	88.595703
619.030273	974.703125	11598.358398	10441.092773	89.106712
619.367554	968.610168	11501.764648	10374.590820	89.298798
619.704712	953.526855	11434.222656	10317.452148	89.344513
620.041870	961.997375	11362.668945	10268.561523	89.480415
620.379028	954.715637	11294.385742	10203.696289	89.451408
620.716064	938.220520	11232.416992	10169.813477	89.677643
621.053040	926.777832	11188.429688	10147.968750	89.860687
621.389954	932.499207	11159.004883	10125.083008	89.889786
621.726929	932.127625	11129.359375	10085.034180	89.758736
622.063843	929.824219	11127.575195	10067.276367	89.602623
622.400635	923.434265	11133.742188	10058.582031	89.469856
622.737427	934.653870	11157.222656	10043.424805	89.104523
623.074219	937.403076	11165.172852	10017.938477	88.783142
623.410889	953.823975	11173.122070	10041.269531	88.924362
623.747559	960.808594	11226.026367	10076.489258	88.801628
624.084167	970.839417	11287.028320	10142.024414	88.900902
624.420715	967.570068	11379.461914	10220.637695	88.870186
624.757324	973.217102	11480.440430	10330.382813	89.054604
625.093750	967.198547	11590.704102	10468.139648	89.433205
625.430176	968.387390	11712.040039	10595.418945	89.606689
625.766602	979.086975	11830.554688	10739.417969	89.944801
626.102905	975.297546	11971.284180	10857.559570	89.871536
626.439209	965.861084	12081.696289	10996.581055	90.238113
626.775452	941.266907	12166.401367	11083.959961	90.356987
627.111694	944.461914	12189.659180	11084.331055	90.170662
627.447876	941.118347	12178.215820	11016.641602	89.663040
627.783997	942.455750	12126.649414	10888.542969	88.929855
628.120056	943.644531	12113.870117	10790.760742	88.155037
628.456055	957.836426	12059.554688	10657.090820	87.367134
628.792053	947.879883	12006.651367	10510.120117	86.467476
629.128052	938.369141	11869.414063	10357.502930	86.168648
629.463928	942.158508	11820.894531	10222.866211	85.310532
629.799744	946.245117	11797.934570	10121.293945	84.549500
630.135559	954.195496	11839.618164	10037.480469	83.444489
630.471375	933.390686	11812.870117	9951.289063	82.889061
630.807068	958.802246	11742.429688	9879.363281	82.723190
631.142700	971.953918	11610.914063	9776.007813	82.752953
631.478333	981.315979	11457.999023	9626.882813	82.521988
631.813965	954.121277	11261.468750	9478.054688	82.697639
632.149475	932.053284	11024.739258	9346.093750	83.367699
632.484924	931.607483	10780.582031	9285.759766	84.822563
632.820435	939.706482	10557.971680	9217.549805	86.063789
633.155884	942.158447	10360.252930	9192.584961	87.601868
633.491150	977.526550	10265.960938	9216.733398	88.703934
633.826477	978.343933	10105.541992	9240.287109	90.520035
634.161804	1000.486145	9997.208008	9198.900391	91.126686
634.497009	964.746582	9793.619141	9059.359375	91.683418
634.832153	948.325684	9620.790039	8931.410156	92.050926
635.167297	923.954346	9476.198242	8831.993164	92.467415
635.502380	912.437439	9335.245117	8744.092773	92.981529
635.837463	926.629211	9248.459961	8642.446289	92.717781
636.172424	933.836609	9125.786133	8533.816406	92.773766
636.507324	951.297791	9036.102539	8454.981445	92.812180
636.842224	954.418457	8949.317383	8382.684570	92.912567
637.177124	959.471008	8845.590820	8317.297852	93.300980
637.511963	941.415344	8753.975586	8225.087891	93.230293
637.846741	934.579590	8667.262695	8126.042969	93.000877
638.181396	915.260925	8568.143555	8002.254395	92.605545
638.516113	933.613708	8496.145508	7922.601563	92.415977
638.850769	930.641602	8404.530273	7847.853516	92.551712
639.185303	938.666199	8363.514648	7791.755371	92.299385
639.519836	933.836609	8281.484375	7749.476563	92.759483
639.854370	926.703552	8208.073242	7691.892090	92.910934
640.188843	932.350525	8129.089355	7642.257813	93.235390
640.523254	935.322693	8083.467285	7562.679688	92.714363
640.857605	958.059265	8049.140137	7509.032715	92.383286
641.191895	948.994385	8002.180176	7442.234375	92.061104
641.526184	935.842773	7914.651855	7382.197754	92.370415
641.860413	922.319641	7869.921387	7333.010254	92.271996
642.194580	922.914063	7826.008301	7277.729004	92.057487
642.528748	925.811951	7801.710938	7233.815918	91.740791
642.862793	942.604309	7762.405762	7215.091309	91.974625
643.196838	943.050110	7743.681152	7212.564941	92.190193
643.530823	944.164612	7721.910156	7192.281250	92.185768
643.864746	929.304199	7692.932129	7137.445313	91.787148
644.198669	927.892395	7639.806152	7108.837891	92.089165
644.532532	931.979065	7621.007324	7072.355469	91.797737
644.866333	931.013184	7597.230469	7047.463379	91.752937
645.200073	943.718933	7591.138184	7022.646973	91.447945
645.533813	935.619934	7547.076172	7018.486328	92.004944
645.867554	925.737610	7541.429199	7015.811035	92.054977
646.201172	920.090637	7535.856934	7010.238770	92.055069
646.534729	960.288391	7592.475098	7071.315918	92.141968
646.868225	966.381287	7595.595703	7091.377441	92.393997
647.201782	953.749756	7569.886719	7108.912598	93.032585
647.535217	913.031799	7560.004395	7081.643066	92.803322
647.868591	926.926453	7578.134277	7095.613281	92.745361
648.201965	935.768494	7617.068848	7093.681152	92.166382
648.535278	933.019287	7607.558594	7058.312500	91.771027
648.868591	915.186584	7614.914551	7032.083496	91.300674
649.201782	912.214539	7643.074707	7006.820801	90.547211
649.534912	918.381653	7685.799316	7023.390625	90.211792
649.868103	907.979248	7701.031250	7020.417969	89.980743
650.201172	909.539551	7737.662109	7047.464844	89.891846
650.534180	910.356934	7754.306152	7047.984863	89.679626
650.867188	928.189636	7767.605957	7053.408691	89.557632
651.200134	922.765442	7749.550781	7044.714844	89.675430
651.533020	916.449707	7699.099121	7021.383301	90.008095
651.865845	936.288574	7672.350098	7007.638184	90.132042
652.198608	955.904480	7636.610840	6978.065918	90.142586
652.531433	959.991150	7598.567871	6929.323730	89.918861
652.864136	938.220459	7544.326660	6885.484375	90.026764
653.196777	3431.300049	10204.067383	9596.938477	91.035736
653.529358	3540.822266	10197.677734	9643.898438	91.681068
653.861938	3539.781982	10124.489258	9597.163086	91.991653
654.194519	1035.259888	7328.254395	6795.875488	91.540131
654.526978	931.904785	7246.298340	6704.408691	91.418182
654.859375	927.743713	7184.403809	6661.981934	91.650146
655.191833	931.607422	7149.927734	6637.833984	91.764755
655.524170	923.582764	7074.511230	6606.700684	92.394470
655.856445	935.322693	7059.130371	6612.199219	92.701744
656.188660	1014.083496	7141.532715	6721.869629	93.151100
656.520874	1027.458008	7161.370605	6740.148438	93.132896
656.853088	1017.650085	7181.135254	6792.680176	93.697479
657.185181	935.768555	7120.058594	6781.757813	94.529678
657.517212	921.948181	7194.212891	6897.373047	95.267418
657.849243	931.533203	7293.332520	6999.093750	95.374916
658.181274	937.997559	7403.968750	7132.466797	95.801064
658.513123	933.242188	7488.302246	7257.146973	96.473633
658.844971	919.570496	7596.784668	7418.978027	97.337112
659.176819	914.072021	7698.728027	7527.608887	97.477852
659.508667	912.883118	7780.683594	7598.864746	97.352592
659.840393	922.022461	7832.472656	7602.654297	96.674339
660.172058	922.468262	7839.382813	7577.466309	96.213394
660.503662	937.626038	7814.193848	7516.018066	95.663887
660.835266	941.415527	7738.033691	7421.058594	95.336281
661.166931	937.626038	7648.945313	7256.552734	94.153275
661.498413	932.796387	7548.190918	7110.919434	93.390091
661.829773	932.945007	7428.712402	6974.795410	93.012108
662.161194	944.536194	7315.548828	6872.480957	93.045563
662.492615	934.728271	7178.014160	6740.222656	92.987793
662.823975	949.068665	7078.076660	6629.065918	92.674004
663.155212	941.044006	6940.171387	6509.364746	92.818848
663.486450	940.300964	6841.126465	6424.287109	92.935913
663.817627	933.465088	6719.863281	6347.681641	93.567993
664.148743	932.870667	6631.443848	6295.224121	94.099930
664.479858	938.220459	6552.682129	6249.750488	94.604439
664.810913	915.855286	6479.271484	6200.785156	94.994331
665.141907	907.384827	6411.285156	6155.162598	95.346527
665.472778	899.360107	6342.777344	6128.562500	96.064697
665.803711	937.403137	6333.043457	6144.314941	96.502205
666.134583	941.861328	6303.396973	6121.801270	96.612991
666.465454	960.288391	6309.192871	6127.299316	96.599426
666.796143	922.765442	6251.979004	6077.665527	96.729095
667.126831	931.458984	6244.920410	6120.017578	97.649315
667.457458	925.811829	6213.713379	6115.560059	98.143814
667.788147	935.619812	6194.469238	6155.609375	99.261055
668.118774	939.409241	6202.716797	6169.578125	99.370384
668.449219	943.718811	6196.178223	6183.026855	99.749619
668.779663	953.749756	6213.416504	6174.704590	99.263985
669.110107	934.133850	6170.989746	6135.621094	99.324623
669.440552	924.251648	6182.209473	6116.228027	98.745110
669.770874	895.050598	6144.611816	6085.541504	98.874756
670.101135	903.669678	6129.231934	6082.346191	99.102760
670.431396	902.629395	6078.111328	6055.300293	99.559250
670.761597	918.010071	6032.191895	6030.111328	99.959320
671.091797	920.387695	6006.037109	6005.591797	99.991241
671.421875	914.369324	5950.384766	5991.251465	100.811485
671.751892	916.301208	5940.279297	5989.839844	100.986481
672.081909	911.545715	5913.232910	5963.164551	100.998299
672.411865	919.347473	5902.310547	5918.211426	100.319107
672.741821	910.579834	5853.865234	5858.546875	100.094704
673.071716	911.099915	5807.723145	5834.026855	100.537178
673.401550	913.477722	5772.652344	5791.228027	100.382278
673.731262	915.632385	5742.856934	5763.810547	100.434074
674.060974	907.904968	5683.266113	5713.656250	100.636391
674.390625	911.991638	5650.127441	5725.544922	101.591713
674.720276	915.186707	5625.533203	5724.652832	102.104294
675.049927	924.102966	5596.183594	5726.213379	102.783127
675.379395	917.489990	5563.713379	5713.879395	103.232002
675.708923	918.455994	5540.233887	5679.699219	103.017570
676.038330	919.347656	5554.425781	5660.306641	102.284340
676.367737	921.725281	5543.502441	5628.356934	101.835968
676.697083	938.369080	5553.459473	5655.625488	102.213737
677.026428	937.700256	5555.094238	5663.205078	102.341385
677.355652	920.907898	5559.181152	5663.947754	102.258743
677.684875	933.465149	5588.232910	5678.213379	101.933083
678.013977	921.650940	5569.509277	5705.779785	102.931900
678.343079	934.505371	5603.985840	5777.928223	103.725090
678.672180	906.790344	5590.759277	5817.382813	104.838280
679.001221	903.075195	5659.786621	5884.329590	104.720551
679.330139	910.728516	5711.575684	5976.019531	105.508278
679.659058	907.607727	5788.181641	6040.142578	105.162529
679.987976	909.465332	5854.683105	6091.263184	104.784019
680.316772	903.149597	5897.257813	6089.999512	103.859383
680.645630	897.948425	5912.416016	6094.160645	103.624405
680.974304	903.223877	5921.183594	6085.318848	103.270943
681.302979	894.679016	5907.660156	6085.244141	103.542480
681.631653	899.583008	5908.552246	6088.884766	103.600189
681.960266	907.310547	5892.874512	6102.036621	104.195358
682.288757	914.889465	5876.082520	6089.182129	104.295334
682.617249	917.118469	5831.128906	6052.625000	104.507439
682.945679	917.341370	5760.318359	5978.768066	104.510651
683.274109	935.471191	5714.251465	5911.228027	104.121902
683.602478	944.907715	5633.261230	5800.962402	103.576973
683.930725	936.808777	5558.809082	5677.471191	102.567329
684.259033	909.985535	5455.231445	5563.936035	102.391609
684.587280	903.521057	5373.795410	5484.432129	102.474945
684.915344	919.719055	5328.842285	5431.826172	102.335701
685.243469	935.619873	5285.523926	5409.386719	102.847473
685.571533	937.105896	5269.548340	5419.789063	103.467804
685.899536	939.186340	5245.697266	5434.500488	104.384132
686.227539	925.811829	5232.917480	5394.228516	103.745232
686.555420	918.307312	5244.062988	5367.925781	102.863380
686.883301	908.722229	5256.472168	5366.365723	102.527596
687.211121	907.459045	5282.403320	5378.253906	102.190895
687.538940	917.935791	5310.117676	5399.430176	102.033440
687.866638	905.898743	5316.508301	5382.711914	101.501007
688.194336	910.431213	5298.749512	5376.842285	101.779564
688.521973	890.072266	5254.242188	5330.700195	101.751945
688.849609	894.827637	5199.480957	5298.898438	102.309532
689.177063	905.230042	5163.519043	5271.852539	102.544060
689.504578	915.632385	5099.395996	5233.289063	103.200302
689.832031	915.409485	5038.244629	5172.360840	103.253006
690.159485	901.960693	4965.353516	5080.077148	102.823341
690.486816	899.508728	4909.106445	5020.783691	102.785248
690.814087	932.201904	4875.596191	4989.576660	102.890419
691.141296	947.656921	4816.673828	4944.474609	103.303185
691.468506	938.368958	4734.346191	4872.326660	103.634911
691.795715	900.251770	4645.777344	4783.535156	103.677933
692.122803	898.096985	4605.059570	4741.628418	103.684120
692.449829	909.688293	4589.976563	4715.102051	103.399879
692.776855	910.654236	4581.431641	4680.328613	102.694168
693.103821	890.072266	4555.500000	4627.945313	101.976448
693.430664	873.502747	4542.794434	4591.908203	101.338509
693.757568	879.298340	4516.416504	4583.289063	101.838615
694.084351	887.545959	4492.416504	4575.115723	102.294098
694.411133	906.567566	4461.209473	4544.131348	102.332779
694.737854	903.818298	4436.318359	4495.760254	101.682716
695.064575	901.514893	4428.070801	4461.433105	100.946030
695.391174	905.527283	4423.761230	4461.209473	101.064407
695.717773	908.499451	4408.751953	4460.095215	101.466843
696.044250	910.431213	4386.460938	4477.779297	102.627090
696.370789	904.561279	4399.166504	4507.574707	103.102158
696.697205	901.366394	4435.129395	4592.948730	104.466042
697.023621	905.007141	4512.850098	4703.585449	105.286690
697.349915	918.901794	4617.468262	4833.689453	105.846085
697.676208	914.889404	4723.943848	4973.452637	106.550415
698.002380	911.025696	4848.029785	5100.435547	106.411110
698.328674	895.422058	4975.904785	5241.017090	106.497086
698.654724	897.056824	5122.280762	5361.610352	105.664307
698.980896	906.121765	5234.998535	5460.209473	105.202522
699.306946	916.152527	5282.552246	5498.549316	104.946800
699.632935	925.960449	5274.750488	5474.921875	104.602921
699.958862	921.502258	5223.778320	5398.984375	104.072403
700.284729	910.134033	5136.918457	5286.341309	103.535141
700.610596	903.892578	5051.247559	5149.401367	102.366661
700.936340	897.651184	4931.174316	5016.102539	102.105553
701.262146	891.261169	4787.770020	4847.955566	101.544601
701.587830	893.341614	4661.158691	4703.139160	101.114189
701.913513	903.075256	4539.450684	4552.453125	100.357567
702.239075	908.573730	4435.872559	4435.129395	99.978928
702.564697	909.316711	4318.696777	4320.852051	100.063217
702.890137	894.604736	4215.564453	4222.177734	100.199135
703.215698	890.295227	4136.061035	4138.141602	100.064102
703.541016	883.682312	4070.526123	4071.492188	100.030312
703.866455	889.403564	4036.718018	4004.322266	98.970688
704.191711	903.000977	4024.829834	3973.040283	98.341049
704.517029	906.493164	4009.894775	3944.805420	97.902641
704.842163	920.759277	3993.622803	3946.737549	98.474213
705.167419	914.889404	3995.554688	3919.691406	97.537437
705.492493	914.889404	4013.907471	3912.112549	96.715256
705.817566	901.366394	4029.288086	3879.196289	95.201546
706.142578	905.973083	4065.250732	3875.332764	93.988564
706.467590	915.558105	4106.711426	3876.967529	92.800598
706.792480	919.570496	4155.603027	3880.608154	91.502098
707.117371	912.808899	4163.701660	3888.335693	91.529526
707.442200	928.932617	4205.905762	3889.896240	90.356667
707.766907	932.424805	4227.453613	3900.075439	90.064484
708.091675	932.573425	4260.592285	3912.335205	89.535606
708.416321	908.796631	4240.530762	3907.728516	90.011139
708.741028	905.452942	4252.790527	3916.868164	89.964493
709.065552	913.403381	4254.722656	3908.249023	89.630630
709.390137	912.065918	4248.035156	3921.251953	90.204247
709.714600	912.214539	4246.548828	3933.139893	90.600555
710.039063	914.369324	4231.911133	3944.805664	91.345840
710.363403	937.328857	4234.140625	3980.173828	92.296593
710.687744	936.437256	4231.613770	4006.254150	93.160927
711.012085	921.948242	4257.620117	4051.727295	93.827545
711.336304	911.620178	4299.452637	4070.674561	93.247070
711.660461	906.567566	4315.204590	4067.331055	92.728073
711.984619	919.421875	4327.019043	4064.433350	92.294113
712.308716	913.477722	4317.507813	4030.179443	91.559174
712.632751	926.777832	4291.873535	4029.362061	92.198990
712.956726	942.752930	4250.933105	4012.718018	92.799210
713.280701	951.223389	4189.410156	3992.582275	93.921661
713.604553	963.706238	4130.934082	3940.347656	93.982544
713.928467	957.910645	4055.591064	3867.085205	93.914612
714.252258	949.217102	3971.554688	3790.256104	94.001381
714.575989	931.979004	3896.360596	3729.996338	94.387894
714.899719	916.078308	3827.184814	3683.260010	95.056007
715.223267	910.134033	3788.027344	3662.975586	95.654747
715.546936	914.146423	3766.627686	3659.409180	96.241219
715.870422	911.917297	3759.271729	3653.316406	96.278816
716.193970	908.276550	3737.873047	3647.743408	96.814751
716.517395	905.304382	3715.210693	3647.817627	97.601593
716.840820	897.874023	3668.622803	3633.254150	98.723495
717.164124	904.338379	3626.567139	3598.034424	98.951859
717.487488	910.134033	3588.152344	3547.509033	98.482338
717.810730	920.759338	3555.310791	3495.719971	97.738106
718.133972	909.762512	3508.574463	3425.504150	96.803528
718.457092	895.496399	3445.194092	3354.098877	96.427216
718.780212	884.202393	3385.751953	3289.678467	96.159439
719.103210	886.357117	3351.869873	3237.444092	95.358948
719.426208	881.081726	3304.985107	3203.041748	95.794250
719.749207	911.843018	3307.139893	3196.131592	95.365570
720.072083	917.638672	3261.963623	3188.180908	96.852707
720.394958	923.805664	3235.289063	3160.689209	96.772644
720.717773	890.666687	3163.884033	3109.420166	97.604103
721.040527	888.957703	3147.983398	3087.352295	97.316048
721.363281	901.812073	3137.580811	3084.826172	97.640427
721.685913	930.121399	3126.138428	3084.231689	98.091690
722.008545	929.378418	3093.519531	3071.377197	98.976852
722.331055	915.409485	3054.659424	3027.761719	98.742661
722.653503	895.273499	3032.517334	2986.449219	97.844505
722.976013	899.731689	3029.098877	2951.750000	96.367516
723.298401	903.521179	3022.857666	2940.753174	96.125931
723.620789	903.966980	3005.173828	2949.297852	97.340767
723.943115	908.276550	3001.607178	2956.356445	97.838341
724.265381	908.573669	3000.269531	2975.229492	98.802887
724.587585	909.613953	3004.802002	2982.362549	98.929001
724.909790	908.945129	3002.275635	2988.455322	99.339790
725.231873	905.081482	3003.390381	2980.802002	98.923492
725.553894	927.595215	3020.405518	3004.356201	99.233124
725.875916	1492.964478	3609.923096	3639.570313	101.400475
726.197937	1521.422363	3642.764893	3669.365479	101.253952
726.519775	1499.874634	3645.662842	3634.146240	99.463295
726.841675	929.675720	3064.318359	3011.637939	97.532120
727.163513	901.291992	3044.702881	3000.343750	97.930443
727.485291	897.131042	3058.076904	3034.077148	98.889389
727.806946	907.533447	3087.203857	3069.891357	99.205727
728.128662	907.087585	3113.952393	3093.891357	99.090973
728.450256	921.725281	3127.327148	3123.017578	99.804611
728.771790	908.722351	3122.125732	3121.977539	99.993301
729.093323	914.146301	3121.679932	3136.466553	100.669823
729.414795	902.852356	3119.154053	3121.011475	100.083809
729.736145	902.109375	3114.844482	3111.649170	99.855591
730.057495	895.347839	3108.974609	3086.683594	98.993011
730.378845	896.536621	3102.212891	3073.829346	98.713158
730.700134	903.223816	3115.438721	3074.423828	98.145981
731.021301	900.548889	3131.710938	3077.544189	97.572266
731.342468	903.743958	3146.868896	3093.296631	97.611710
731.663574	898.096985	3150.063721	3104.293213	97.967529
731.984680	918.901672	3153.927734	3123.463623	98.636971
732.305664	912.363098	3154.150391	3117.964844	98.385864
732.626648	919.198975	3162.769531	3122.571533	98.208305
732.947571	903.223877	3163.661377	3128.590576	98.448494
733.268433	908.053528	3168.639404	3134.460205	98.488037
733.589233	903.595398	3158.831299	3132.751221	98.843575
733.909973	922.022461	3149.246826	3132.900146	99.266052
734.230713	943.570313	3145.605469	3138.695557	99.686203
734.551331	941.861328	3098.720703	3091.364502	99.658936
734.871948	921.576660	3040.987305	3013.644531	98.709885
735.192505	900.400391	2976.789795	2940.976318	98.275208
735.513062	898.096985	2934.585938	2896.914795	98.150192
735.833435	906.716125	2901.372314	2877.670166	98.811714
736.153931	896.685242	2858.722656	2835.763428	98.829826
736.474304	903.446777	2839.924072	2824.023682	99.178902
736.794617	910.282654	2837.769531	2821.348633	99.148064
737.114807	935.025452	2838.512451	2837.546875	99.949272
737.434998	932.201965	2839.180908	2841.856201	100.140289
737.755188	935.248352	2839.255127	2845.868408	100.347336
738.075256	924.177246	2828.704834	2864.147217	101.860954
738.395325	918.976074	2834.649170	2870.834229	101.888893
738.715271	922.096741	2853.150391	2892.381836	102.031609
739.035278	919.124695	2867.787842	2899.292236	101.616722
739.355164	925.663269	2864.964600	2894.908203	101.544044
739.675049	913.106140	2843.268311	2860.357422	100.885368
739.994873	923.954407	2850.698242	2842.747803	99.587364
740.314636	923.731445	2837.249268	2824.246338	99.320473
740.634277	931.681824	2814.735596	2804.927734	99.479149
740.953979	911.768738	2776.469971	2775.057861	99.924271
741.273499	913.626221	2771.640381	2778.550049	100.371887
741.593140	916.746887	2761.163330	2775.578369	100.781548
741.912598	924.028625	2743.479492	2769.559814	101.433418
742.232117	921.130859	2710.711914	2730.625000	101.112724
742.551453	902.406494	2669.548096	2704.916260	102.001434
742.870850	922.022461	2652.755615	2700.086670	102.734741
743.190063	921.205078	2619.170898	2683.963135	103.815872
743.509338	922.171082	2604.904785	2647.554688	102.534561
743.828552	901.291992	2577.338623	2600.595459	101.387604
744.147705	906.344543	2566.713135	2573.474854	100.407242
744.466797	911.174316	2549.400635	2563.964111	100.888977
744.785828	929.378418	2558.985840	2551.704102	99.553162
745.104858	930.418701	2553.264404	2543.827881	99.418518
745.423706	930.121521	2541.673340	2548.509033	100.424171
745.742615	929.824219	2517.525146	2555.344971	102.382050
746.061401	948.622864	2521.834473	2577.635742	103.546967
746.380249	945.873596	2510.391846	2572.880371	103.994110
746.698975	938.369080	2487.357910	2554.899170	104.360344
747.017639	920.239075	2451.915527	2538.701172	105.666054
747.336304	915.558105	2446.565674	2536.769287	105.891785
747.654907	921.799500	2457.339600	2545.908447	105.767929
747.973389	931.087402	2481.042236	2539.889893	103.796730
748.291931	943.050232	2478.144287	2520.645508	102.768639
748.610352	933.985168	2469.896729	2495.679688	101.678673
748.928711	933.687988	2459.865967	2486.911865	101.772133
749.247070	947.433899	2478.812988	2490.181396	100.742363
749.565308	947.062439	2465.141357	2510.688965	103.000343
749.883545	938.591980	2455.556396	2533.722900	105.152824
750.201782	924.845947	2440.398682	2559.282959	107.844284
750.519836	917.415710	2441.661865	2556.608154	107.541191
750.837952	910.728516	2437.203613	2537.957764	106.600449
751.155884	905.675842	2429.550537	2527.406982	106.421555
751.473877	902.406555	2417.290283	2528.892822	107.367073
751.791809	892.747253	2399.680664	2519.753906	107.968056
752.109619	894.084656	2377.241211	2504.075928	108.551674
752.427490	899.954590	2377.612549	2476.806885	106.712944
752.745300	923.805847	2390.169678	2475.172119	105.796822
753.062988	914.592224	2396.559814	2458.677002	104.191536
753.380615	906.864563	2400.795166	2451.321045	103.382080
753.698303	907.533386	2397.971680	2451.692627	103.604370
754.015808	914.963684	2392.399170	2459.643066	104.551392
754.333374	923.062683	2379.693359	2466.181396	105.937538
754.650757	915.038025	2369.216553	2469.896729	106.923508
754.968262	916.449707	2365.055664	2482.230713	108.088814
755.285583	928.858215	2375.606445	2503.035889	108.807991
755.602905	926.777832	2370.331055	2498.726074	108.894371
755.920105	925.366028	2371.148438	2490.478516	108.253670
756.237305	908.722229	2357.996826	2468.039063	107.592918
756.554443	904.932800	2355.396240	2458.156982	107.084686
756.871582	904.412659	2353.018311	2445.376709	106.375679
757.188599	900.251770	2347.965820	2450.726807	107.098152
757.505615	907.013367	2351.904053	2462.466553	107.651962
757.822510	919.941895	2369.588135	2479.481689	107.580719
758.139465	926.034729	2390.689941	2494.639404	107.097198
758.456238	922.542542	2410.603027	2517.896484	107.210289
758.773010	907.161865	2426.281006	2546.800049	107.933479
759.089783	909.911133	2443.742188	2580.310547	108.903740
759.406433	903.372375	2438.020752	2587.146240	109.717239
759.723145	903.298157	2428.064209	2598.068848	111.149551
760.039673	904.709961	2424.125977	2601.263916	111.658295
760.356201	900.103210	2419.593750	2600.892334	111.931541
760.672668	899.731689	2433.191162	2606.539307	111.304382
760.989136	893.713074	2430.813477	2606.390869	111.422638
761.305481	900.697571	2440.101318	2611.814697	111.154541
761.621826	909.390930	2446.491455	2618.799316	111.209930
761.938049	939.706543	2475.172119	2643.022217	110.931541
762.254333	942.307129	2507.865479	2661.077881	109.786438
762.570496	935.099792	2543.307861	2695.777100	109.480690
762.886597	899.805969	2583.877197	2757.671143	110.319870
763.202637	892.672852	2685.671875	2907.762451	112.386543
763.518677	902.555176	2831.305420	3107.636719	114.326958
763.834656	908.796570	2990.164307	3314.941406	115.604027
764.150574	902.926697	3104.218994	3453.887451	115.884689
764.466370	905.304382	3149.617920	3524.475342	116.702545
764.782288	896.090820	3131.710938	3491.930908	116.112755
765.097961	914.815125	3096.863037	3435.609375	115.524239
765.413696	898.468506	3001.755615	3278.458984	113.155762
765.729309	906.344543	2908.951416	3128.813232	110.978783
766.044861	899.805969	2793.262451	2962.003174	108.911781
766.360474	897.948425	2708.259766	2836.506104	107.084213
766.675903	896.462402	2618.427979	2739.392578	107.024796
766.991394	894.381836	2530.676514	2649.263672	107.247299
767.306763	908.945129	2475.172119	2602.229980	108.112350
767.622131	902.406555	2435.048828	2547.245850	107.320496
767.937378	902.629456	2386.009033	2506.676758	108.134651
768.252625	902.629456	2354.653076	2480.001709	108.632683
768.567810	904.709961	2303.235596	2441.884521	109.913933
768.882996	913.106140	2289.564209	2439.135498	110.866386
769.197998	897.948425	2251.149658	2392.547607	110.449142
769.513062	915.781067	2244.016602	2389.575439	110.958809
769.828064	907.756348	2216.153076	2334.814453	109.069221
770.142944	914.146301	2187.695068	2318.616455	110.280045
770.457825	902.778076	2158.717041	2285.328613	110.081032
770.772705	898.765808	2132.933838	2260.511475	110.337135
771.087402	898.171387	2121.639893	2233.391113	109.133965
771.402100	897.428284	2104.253174	2206.270508	108.453369
771.716736	904.635742	2095.634033	2200.029297	108.765358
772.031372	902.332275	2076.760986	2170.159668	107.952690
772.345947	898.840088	2054.990234	2147.423096	107.994881
772.660461	894.530457	2043.473267	2131.745117	107.682861
772.974854	907.904968	2028.612915	2141.478760	110.070930
773.289246	920.610779	2033.145386	2140.141357	109.617302
773.603638	917.044189	2013.900879	2135.757568	111.109627
773.917908	908.796570	2003.721558	2119.336426	110.559151
774.232178	900.474670	1989.455444	2107.076416	110.801025
774.546265	904.487061	1995.176758	2094.667969	109.121864
774.860474	906.493164	1997.851563	2091.993164	108.626091
775.174561	907.310547	1989.826782	2100.315186	110.206627
775.488586	917.861511	1987.746460	2102.172607	110.695168
775.802551	919.496155	1982.470825	2084.042725	109.555450
776.116516	913.477722	1967.758911	2059.374268	108.689827
776.430359	900.028870	1956.242065	2022.743164	106.296196
776.744202	913.106140	1966.644531	2022.743164	105.324783
777.057922	913.403320	1963.746704	2013.009399	104.690155
777.371704	909.465332	1949.332031	2013.158081	106.137909
777.685303	883.905090	1918.199097	1997.182983	107.636505
777.998962	883.682312	1912.700562	1986.334595	107.155754
778.312500	885.539856	1908.390991	1986.706055	107.656555
778.626038	888.140442	1891.672852	1979.424316	108.744263
778.939453	909.539612	1903.189819	2016.278687	111.381149
779.252869	932.647766	1925.777954	2051.795166	112.688896
779.566223	931.384583	1930.161743	2049.046387	111.903023
779.879578	916.078186	1922.285645	2015.684204	109.282234
780.192749	902.183594	1889.741089	1984.477173	109.592972
780.505920	909.019470	1897.394165	1993.765015	109.750443
780.819031	902.109314	1884.688477	1973.777344	109.066833
781.132141	969.056091	1950.966431	2023.337402	107.370422
781.445190	969.204651	1938.706665	2012.192017	107.579697
781.758118	988.597717	1945.468140	2023.114624	108.114624
782.071045	926.480652	1874.509155	1951.932495	108.166779
782.383911	922.022461	1867.376099	1936.774780	107.341026
782.696838	899.211609	1844.416504	1905.047485	106.414589
783.009583	890.369446	1833.122437	1897.097046	106.785934
783.322266	885.911316	1816.404297	1888.254883	107.721779
783.634888	890.518066	1802.732544	1898.731567	110.523735
783.947510	886.877258	1790.621094	1890.409790	111.041702
784.260132	888.809265	1786.386108	1880.230347	110.455284
784.572571	892.375793	1786.014526	1862.323364	108.539116
784.885010	889.775146	1784.528442	1844.564941	106.709839
785.197449	899.211609	1794.113403	1842.633179	105.421799
785.509766	904.264160	1793.222046	1842.038696	105.491447
785.822083	910.059753	1789.729614	1829.407349	104.510529
786.134277	912.734680	1787.054688	1810.980347	102.736488
786.446533	909.836853	1788.540894	1803.104126	101.657356
786.758606	926.257751	1795.376587	1823.463257	103.231628
787.070740	918.678894	1784.900024	1837.283569	106.047363
787.382690	919.050354	1778.286987	1842.113159	107.428238
787.694641	899.508789	1771.079468	1846.274048	108.627480
788.006653	899.731628	1794.856445	1870.199585	108.417053
788.318481	905.007141	1829.481445	1924.217407	110.247551
788.630310	905.155762	1864.998413	1963.003540	110.210541
788.942017	897.874084	1876.515259	1990.421265	111.639191
789.253784	899.583008	1889.889648	1993.244751	110.436676
789.565430	904.709961	1883.425293	1980.464844	109.914993
789.877014	904.635559	1860.168579	1947.177124	109.105751
790.188538	904.338379	1839.512573	1910.843140	107.627518
790.500061	899.954529	1813.209351	1878.669922	107.167831
790.811462	905.229980	1809.345703	1852.961304	104.824120
791.122925	906.418762	1802.732788	1837.729126	103.904472
791.434204	899.434387	1786.980469	1812.020508	102.821266
791.745483	900.920471	1763.352173	1801.543823	104.428368
792.056702	881.081726	1727.909790	1765.358398	104.422218
792.367920	894.902039	1721.222534	1762.906250	105.044495
792.678955	889.849426	1703.612915	1739.277954	104.382729
792.990112	903.446777	1703.315552	1751.166382	105.982338
793.301086	888.809143	1694.102051	1738.163452	105.471474
793.612122	905.081360	1703.092651	1745.742310	105.344490
793.922974	904.338379	1697.668457	1733.705444	104.542496
794.233826	915.037903	1696.331055	1737.717773	105.297211
794.544556	905.898743	1695.810913	1740.244019	105.625069
794.855286	893.490234	1682.139282	1720.776733	104.899193
795.166016	902.555176	1694.993652	1727.241089	104.069389
795.476624	900.400391	1690.684082	1726.795288	104.569397
795.787292	910.951355	1709.036743	1753.024048	105.511604
796.097778	893.341553	1709.111328	1751.017944	105.137062
796.408264	888.140381	1723.600220	1771.079590	105.683022
796.718689	882.716309	1731.624878	1783.934082	106.161934
797.029053	891.706970	1744.999390	1799.091797	106.339256
797.339355	894.976257	1747.079956	1783.562500	104.281471
797.649658	899.062988	1747.377319	1779.029907	103.731232
797.959839	888.214661	1724.863403	1752.726685	103.330345
798.270020	890.072266	1726.721069	1739.723755	101.554138
798.580078	898.914307	1727.538208	1737.197632	101.165718
798.890137	898.394226	1719.662109	1733.185181	101.646606
799.200195	893.638855	1695.885376	1713.940796	102.250610
799.510071	885.093933	1672.628540	1699.228882	103.377670
799.820007	892.524231	1667.724609	1685.557251	102.300392
800.129883	888.066101	1659.922729	1680.133179	102.618423
800.439575	888.066162	1653.904297	1658.659546	100.620918
800.749329	891.112610	1648.554565	1658.288086	101.285049
801.058960	897.205383	1640.678345	1653.829956	101.768944
801.368591	891.186829	1628.715698	1648.182983	102.639526
801.678162	890.815369	1624.406250	1631.316284	100.941948
801.987671	900.549011	1621.136719	1624.331665	100.443382
802.297119	911.917297	1626.932495	1621.731079	99.272545
802.606506	895.124817	1608.059448	1605.087402	99.583122
802.915894	883.607971	1597.657227	1594.016235	99.490089
803.225159	874.245850	1578.784180	1570.165039	98.776627
803.534424	889.998047	1587.552124	1580.047363	98.924133
803.843628	891.186829	1588.666504	1579.452759	98.678993
804.152771	896.833801	1590.821289	1609.471191	102.687355
804.461792	901.366394	1587.997681	1622.176880	104.977806
804.770874	900.549011	1587.997681	1630.944702	106.247307
805.079773	893.564453	1590.598267	1612.517578	103.144653
805.388733	882.196106	1590.746948	1615.935669	103.554962
805.697571	876.623535	1587.997681	1629.310059	105.807404
806.006470	876.400574	1606.870483	1641.495728	104.740135
806.315125	870.976563	1621.359497	1631.093384	101.297188
806.623901	879.224121	1632.876465	1621.433960	98.481728
806.932495	873.131348	1619.873535	1610.660156	98.766190
807.241150	895.942200	1609.545532	1617.570313	101.124542
807.549622	907.607727	1610.362915	1615.415527	100.718971
807.858154	913.180420	1596.765503	1613.111938	102.391281
808.166565	899.360107	1579.378540	1591.341431	101.759201
808.474915	885.316895	1569.273438	1576.703735	101.086372
808.783264	901.217712	1576.555176	1571.354004	99.229843
809.091492	895.942200	1564.443848	1557.607910	98.977425
809.399719	897.353943	1555.230347	1553.001343	99.661179
809.707825	893.341614	1544.605103	1543.341797	99.806023
810.015930	890.889648	1553.744263	1555.304565	100.235390
810.323975	893.936035	1554.858887	1553.446899	99.786362
810.632080	885.539856	1542.747437	1539.701172	99.536484
810.939880	881.601807	1525.732056	1513.620728	98.119736
811.247864	880.561584	1514.883789	1509.311157	99.121483
811.555664	879.298401	1510.128418	1501.658081	98.657272
811.863464	887.620300	1505.373047	1496.828491	98.616829
812.171143	881.378845	1490.364136	1472.531372	97.071724
812.478882	889.849365	1486.574585	1476.246460	98.269196
812.786438	904.487061	1500.469116	1491.998657	98.578743
813.094055	906.493225	1507.527954	1489.398071	96.983559
813.401489	891.335510	1490.512573	1482.265015	98.623520
813.708984	875.509033	1476.172241	1450.983398	95.806496
814.016357	892.747253	1492.444336	1479.292969	97.806999
814.323730	911.768738	1497.422729	1488.432129	98.464859
814.630981	918.307312	1483.973999	1496.902710	102.285568
814.938232	913.626282	1461.831665	1486.648804	104.526978
815.245361	890.146667	1461.163086	1471.416870	101.795708
815.552490	883.682312	1464.878296	1471.193848	101.086647
815.859619	874.468750	1463.020508	1460.940063	99.646515
816.166565	878.703918	1464.358032	1457.447876	98.820099
816.473572	875.285950	1466.141235	1461.980469	99.295807
816.780457	875.508850	1467.701660	1456.556274	98.117943
817.087341	881.155945	1475.949219	1463.837891	97.963776
817.394043	882.790710	1488.283569	1466.290039	96.367668
817.700806	880.635925	1496.754028	1469.410645	95.561989
818.007507	887.248779	1494.896484	1476.989624	97.053085
818.314209	891.781250	1487.094727	1487.540527	100.074883
818.620667	890.963867	1483.156616	1500.320679	102.898392
818.927246	881.676025	1500.989380	1511.688843	101.727631
819.233704	883.830872	1537.694946	1534.351196	99.488617
819.540161	886.802979	1568.010376	1557.905151	98.516571
819.846497	897.205383	1611.700317	1604.567261	99.001663
820.152832	897.651184	1653.681274	1652.195313	99.803452
820.458984	889.329285	1711.860474	1715.055298	100.388412
820.765259	881.676086	1761.643188	1779.178711	101.992744
821.071350	890.295227	1842.187134	1862.174805	102.099785
821.377502	893.638855	1956.242065	1977.789673	102.027817
821.683472	904.561340	2170.679688	2198.394531	102.188965
821.989441	894.158936	2561.511963	2626.823975	103.917107
822.295349	900.846191	3196.874268	3299.412354	104.465889
822.601196	898.691406	3998.081055	4178.636230	105.825508
822.907043	897.205383	4748.390137	4983.929199	106.116013
823.212769	885.762695	5229.128418	5528.048340	106.882217
823.518494	892.970154	5336.867676	5608.072266	106.102852
823.824097	886.877258	5079.557129	5286.563965	104.937340
824.129700	891.112549	4620.812500	4731.597168	102.970337
824.435242	879.224060	4096.531738	4110.649414	100.438805
824.740723	880.635803	3641.427734	3586.740967	98.019165
825.046082	882.419128	3261.963867	3145.605469	95.110054
825.351501	873.948547	2948.332031	2807.379639	93.205093
825.656799	871.347961	2704.247559	2561.660400	92.220680
825.962036	867.558533	2503.853027	2383.259766	92.630096
826.267212	886.282776	2389.203857	2299.000244	93.998116
826.572449	902.703674	2330.950684	2269.056396	95.666412
826.877502	905.898743	2376.126709	2344.399414	97.842018
827.182495	910.877136	2501.103760	2515.593018	100.911140
827.487488	894.827637	2675.864014	2731.293701	103.112213
827.792419	897.502625	2816.890625	2917.050781	105.218338
828.097290	869.862000	2858.500000	2962.821045	105.245857
828.402100	876.326355	2803.441406	2907.093994	105.378639
828.706848	884.871155	2678.315918	2741.993408	103.550568
829.011597	891.335449	2495.010986	2518.564941	101.468750
829.316223	886.728516	2297.440186	2269.650879	98.030121
829.620789	889.254883	2119.782227	2073.417236	96.232101
829.925354	908.870850	1990.347046	1932.242188	94.627266
830.229797	924.771667	1882.682251	1828.961426	94.391876
830.534302	946.616638	1810.162720	1759.414063	94.123222
830.838562	929.229797	1712.900513	1674.114624	95.050743
831.142944	921.205078	1643.056030	1621.879761	97.066391
831.447144	889.180664	1560.803101	1537.991821	96.603554
831.751404	888.214661	1537.100464	1519.044800	97.217438
832.055542	894.679016	1525.657837	1497.645630	95.560516
832.359619	888.586243	1525.360718	1499.949097	96.009323
832.663635	895.793640	1545.570923	1517.781738	95.723274
832.967651	888.734863	1568.456055	1544.827759	96.523827
833.271545	879.521301	1623.068726	1610.362793	98.291176
833.575439	869.564758	1695.216675	1699.897583	100.566933
833.879211	862.951843	1821.382690	1849.171875	102.899445
834.183044	870.159180	1963.077759	1997.480103	103.147751
834.486694	869.193176	2096.674072	2116.735840	101.634384
834.790344	896.462402	2172.760010	2194.307861	101.688309
835.093933	899.583008	2162.209229	2187.249268	101.983170
835.397522	899.954590	2079.435791	2116.438721	103.137222
835.700928	877.886658	1961.220215	1966.718628	100.507561
836.004395	903.595398	1873.394531	1872.205566	99.877403
836.307739	904.115540	1786.683228	1765.284058	97.575348
836.611023	906.344543	1710.597290	1691.650024	97.644119
836.914307	877.292175	1618.833374	1588.740723	95.941879
837.217529	897.725525	1557.459473	1541.261353	97.544746
837.520691	891.186829	1499.503296	1487.763306	98.070084
837.823730	890.072266	1450.834839	1437.014648	97.535461
838.126831	870.233459	1418.215820	1393.101685	95.416985
838.429749	880.115723	1397.336914	1371.033813	94.914536
838.732727	886.059998	1378.389771	1361.002930	96.468460
839.035522	889.775146	1352.755249	1347.628540	98.892670
839.338379	882.716370	1331.653320	1335.665771	100.893768
839.641113	880.710205	1336.483032	1337.969116	100.326057
839.943848	889.106384	1357.510620	1356.247681	99.730377
840.246460	887.545959	1384.036743	1382.996582	99.790497
840.549072	886.654297	1411.603027	1420.965332	101.783470
840.851563	881.973206	1437.163208	1447.416992	101.846893
841.154053	884.945374	1447.788452	1455.367554	101.346573
841.456482	884.053772	1428.989868	1437.534790	101.568062
841.758850	887.843262	1393.993286	1408.482422	102.862617
842.061157	879.595642	1364.718140	1366.204224	100.306335
842.363403	874.988831	1339.529419	1330.316040	98.016670
842.665588	861.837219	1307.653442	1284.248291	94.750046
842.967712	864.958008	1288.111938	1265.895508	94.749802
843.269775	872.016785	1269.536255	1249.623169	94.990662
843.571777	866.889832	1240.558228	1233.350830	98.071175
843.873840	876.772156	1233.573853	1237.957520	101.228600
844.175659	883.013489	1232.161987	1223.245728	97.446281
844.477600	912.288757	1274.886108	1244.273315	91.557358
844.779297	907.979248	1259.802612	1225.474731	90.242867
845.081116	905.973083	1250.589233	1224.211548	92.345779
845.382751	897.279602	1218.193115	1205.264282	95.971237
845.684387	898.542786	1206.601929	1187.654663	93.849472
845.985962	894.158936	1178.738281	1168.856079	96.527435
846.287537	884.722473	1160.311279	1154.738647	97.977921
846.588989	886.802979	1153.698364	1149.388916	98.385345
846.890381	891.632629	1164.175171	1152.212402	95.610680
847.191711	896.165100	1170.342163	1146.268066	91.219505
847.493042	896.313721	1169.599121	1150.503296	93.012497
847.794250	905.601563	1178.589722	1151.023315	89.901978
848.095459	908.796570	1181.338989	1151.171997	88.931267
848.396606	904.041199	1178.961304	1142.998657	86.918877
848.697693	894.679016	1162.391724	1140.398193	91.784653
848.998657	887.546082	1142.627319	1143.964722	100.524307
849.299622	890.072327	1145.153442	1151.989380	102.679909
849.600464	888.734863	1141.809937	1143.890259	100.822021
849.901367	883.310791	1134.231079	1134.008057	99.911118
850.202087	883.236389	1117.364258	1127.618042	104.379562
850.502808	880.933105	1120.262085	1129.698486	103.942856
850.803467	887.546082	1127.395142	1131.036011	101.517982
851.104065	899.508728	1156.819214	1150.503296	97.545410
851.404663	903.298157	1150.057617	1149.165894	99.638626
851.705139	893.341614	1145.376465	1145.227783	99.941010
852.005615	879.892822	1125.166138	1123.680054	99.394112
852.306030	872.165344	1127.395142	1114.763550	95.050896
852.606384	886.059875	1140.100952	1113.351929	89.470589
852.906616	895.793640	1142.478638	1117.810181	90.000015
853.206909	895.867859	1129.029907	1116.101196	94.455055
853.506958	894.679016	1112.831909	1105.921753	96.832428
853.807129	885.539795	1103.989746	1091.804199	94.421814
854.107178	885.242615	1114.838013	1097.748413	92.556648
854.407166	885.688416	1122.416870	1106.441772	93.251724
854.707092	882.790588	1120.039185	1110.974121	96.179085
855.007019	886.802979	1114.317871	1109.413940	97.844566
855.306763	887.174500	1116.101196	1107.036255	96.040245
855.606567	880.858704	1109.859741	1101.612183	96.398460
855.906250	876.549133	1112.460327	1099.383057	94.456696
856.205933	874.097168	1103.023804	1095.593628	96.754341
856.505493	883.385010	1100.200439	1089.054932	94.859451
856.805054	899.583008	1100.051758	1097.451172	98.702751
857.104492	891.335449	1095.444946	1101.389282	102.912331
857.403931	882.493408	1103.766968	1113.129028	104.230988
857.703308	863.843323	1092.472900	1102.429443	104.354881
858.002563	869.416077	1095.370728	1096.188110	100.361748
858.301819	879.224060	1096.411011	1098.119995	100.786873
858.601013	885.985596	1100.794800	1094.553345	97.094421
858.900208	888.734863	1097.302612	1089.500854	96.259369
859.199219	884.573914	1095.965210	1077.166626	91.107208
859.498291	884.573914	1102.503784	1086.603027	92.703728
859.797302	892.301453	1113.277710	1098.714355	93.409538
860.096191	912.660339	1128.881226	1116.324097	94.192451
860.395020	912.957520	1126.875122	1106.590332	90.517471
860.693787	900.103210	1111.048584	1099.308716	94.434639
860.992554	868.004395	1088.237671	1075.086060	94.028328
861.291260	879.149841	1091.729858	1078.206787	93.638596
861.589844	881.081726	1091.655640	1073.897095	91.566597
861.888428	901.589172	1099.605957	1094.033325	97.185776
862.186890	904.115479	1104.807129	1106.070313	100.629417
862.485413	909.539734	1110.454102	1111.568726	100.554779
862.783813	905.230042	1095.965210	1099.754639	101.986748
863.082153	892.895813	1080.658813	1092.547241	106.331612
863.380371	886.357117	1087.940430	1090.615356	101.326958
863.678589	880.561523	1097.376831	1091.729858	97.395493
863.976746	873.279846	1085.934204	1083.928101	99.056633
864.274902	879.149841	1081.773315	1086.305786	102.236893
864.572937	882.939209	1080.584473	1082.144897	100.789505
864.870911	897.056702	1108.893799	1095.296509	93.581253
865.168884	882.642029	1096.039429	1092.027222	98.119843
865.466736	881.824707	1084.002319	1087.271606	101.617035
865.764587	867.409973	1063.123413	1067.878662	102.429703
866.062317	882.641907	1068.101563	1073.599976	102.964752
866.360107	885.316895	1080.510132	1074.343018	96.840508
866.657715	894.381836	1078.429688	1080.733032	101.251495
866.955322	886.951599	1087.494629	1082.739258	97.628754
867.252808	880.412903	1078.726929	1085.488403	103.409477
867.550293	877.515137	1085.859985	1089.129272	101.569168
867.847717	878.183899	1075.308960	1075.531860	100.113075
868.145081	880.115723	1076.943726	1077.463745	100.264198
868.442383	883.756592	1077.835327	1073.674316	97.856018
868.739624	881.898987	1080.287231	1079.692871	99.700409
869.036804	890.443848	1086.231445	1083.110718	98.406067
869.333984	878.109558	1075.977661	1069.587524	96.770508
869.631042	870.679260	1062.751831	1061.414307	99.303635
869.928101	861.317139	1053.686890	1051.086304	98.648132
870.224976	874.097168	1054.727173	1059.036621	102.385788
870.521851	929.229797	1114.020630	1108.002075	96.743042
870.818726	927.966736	1123.011353	1110.008423	93.333359
871.115479	929.006897	1147.679810	1125.909058	90.044151
871.412231	887.843201	1115.729614	1097.674072	92.076958
871.708862	892.598633	1104.361450	1096.411011	96.245590
872.005493	884.053772	1080.138672	1083.036377	101.477783
872.302063	884.276672	1061.637207	1073.377075	106.619209
872.598572	876.029053	1073.154175	1081.401733	104.183922
872.895020	879.298340	1075.606079	1081.401733	102.952332
873.191406	879.224121	1091.135498	1082.442017	95.897583
873.487671	887.397400	1085.191284	1085.562744	100.187805
873.783997	898.245605	1095.222046	1102.949585	103.923080
874.080200	888.957825	1079.692749	1097.897095	109.544319
874.376343	883.162170	1075.903320	1092.324341	108.519730
874.672424	890.146667	1080.733032	1097.451172	108.771950
874.968445	898.542786	1092.324219	1107.110596	107.630440
875.264465	899.211487	1097.153931	1118.776001	110.923416
875.560364	887.248718	1088.832031	1115.432495	113.195770
875.856201	871.570862	1075.754761	1097.822754	110.807899
876.152039	874.765930	1075.606079	1085.191284	104.772552
876.447754	868.004395	1077.835327	1070.702148	96.600510
876.743469	897.576843	1096.559692	1087.940308	95.668274
877.039063	901.886414	1085.042847	1085.265503	100.121567
877.334595	898.914307	1075.457642	1082.739136	104.124481
877.630127	875.508972	1061.265747	1074.937378	107.359962
877.925537	867.261414	1083.036499	1079.172729	98.209351
878.221008	866.221191	1082.887939	1082.144897	99.657059
878.516296	862.803223	1083.482300	1086.454468	101.346825
878.811646	854.481262	1079.618530	1089.426514	104.356445
879.106812	866.295410	1106.887695	1112.906128	102.501511
879.401978	870.679382	1117.141479	1113.574829	98.552864
879.697083	886.059998	1134.231079	1133.339233	99.640633
879.992126	883.830872	1148.422852	1146.267944	99.185570
880.287109	890.963928	1188.323364	1183.939575	98.525764
880.582031	889.329285	1237.066040	1235.431396	99.529922
880.876892	875.137390	1318.056030	1323.480103	101.224617
881.171753	861.465759	1464.209473	1518.450562	108.999031
881.466492	862.506042	1715.649902	1824.726196	112.785217
881.761230	872.016785	2039.535522	2238.889648	117.075012
882.055786	880.338623	2371.965820	2641.833252	118.092148
882.350403	872.165344	2607.430908	2926.041260	118.360901
882.644958	864.363586	2696.445557	3002.349854	116.697083
882.939453	861.911560	2630.093262	2898.623779	115.186821
883.233826	868.524475	2483.939697	2689.164063	112.704124
883.528137	870.456360	2295.805420	2438.689453	110.024490
883.822449	878.481018	2140.438232	2202.629883	104.928192
884.116577	872.313965	1977.492554	1985.145630	100.692474
884.410828	876.251953	1850.955078	1807.116577	95.502373
884.704956	879.744202	1725.977905	1665.198242	92.817627
884.999023	875.954773	1611.923218	1553.446899	92.054504
885.292969	878.481140	1497.348511	1458.042358	93.648697
885.586914	867.855774	1392.209961	1377.200806	97.137589
885.880798	881.453186	1332.842285	1326.154907	98.518486
886.174622	883.533691	1294.204712	1297.771362	100.868492
886.468384	886.951599	1268.198853	1270.502197	100.604164
886.762085	873.651428	1229.710083	1243.901855	103.985794
887.055664	863.026062	1198.577148	1211.283081	103.786583
887.349304	860.425476	1175.840454	1184.979858	102.897583
887.642822	861.094177	1166.998535	1163.877808	98.979836
887.936340	870.530701	1151.543579	1148.274292	98.836609
888.229736	871.273682	1129.847046	1135.865723	102.327644
888.523071	874.022888	1115.878296	1120.262085	101.812569
888.816284	900.771790	1127.246704	1136.682983	104.166588
889.109619	905.898743	1139.878052	1135.494141	98.126366
889.402710	911.694397	1132.224976	1126.206421	97.270874
889.695862	880.784424	1100.720459	1087.123169	93.817619
889.988892	865.923889	1073.674194	1067.061401	96.816948
890.281921	846.828125	1057.922119	1059.259521	100.633560
>>>>>End Processed Spectral Data<<<<<
