Jaz Data File
++++++++++++++++++++++++++++++++++++
Date: Fri Jun 04 11:48:45 2021
User: jaz
Dark Spectrum Present: Yes
Reference Spectrum Present: Yes
Processed Spectrum Present: Yes
Spectrometers: JAZA3586
Integration Time (usec): 40000 (JAZA3586)
Spectra Averaged: 10 (JAZA3586)
Boxcar Smoothing: 1 (JAZA3586)
Correct for Electrical Dark: No (JAZA3586)
Strobe/Lamp Enabled: Yes (JAZA3586)
Correct for Detector Non-linearity: No (JAZA3586)
Correct for Stray Light: No (JAZA3586)
Number of Pixels in Processed Spectrum: 2048
>>>>>Begin Processed Spectral Data<<<<<
W	D	R	S	P
191.335022	0.000000	0.000000	0.000000	0.000000
191.713211	383.699249	385.259644	381.841705	-119.043243
192.091385	766.209656	765.392395	763.163269	372.755798
192.469528	1150.726196	1154.069946	1143.370239	-219.991241
192.847641	1155.853149	1160.014038	1146.565186	-223.220673
193.225739	1163.877808	1177.029419	1163.209106	-5.084557
193.603790	1172.719727	1178.218262	1174.057373	24.327324
193.981842	1184.534058	1180.224365	1169.673462	344.818024
194.359863	1191.146973	1181.264648	1166.329956	251.125305
194.737854	1193.598999	1187.060181	1171.159546	343.172913
195.115829	1192.855957	1188.546265	1185.574219	168.961899
195.493774	1186.094360	1186.094360	1180.818848	0.000000
195.871704	1180.595825	1186.094360	1186.317261	104.053818
196.249603	1184.979858	1194.639160	1188.620605	37.691616
196.627457	1194.861938	1196.719604	1196.050903	64.003151
197.005310	1200.954956	1200.731934	1188.546387	5563.820313
197.383133	1193.004517	1199.914673	1190.775391	-32.258690
197.760910	1190.403931	1203.629761	1187.357422	-23.034538
198.138687	1194.193359	1204.744263	1186.465698	-73.241699
198.516449	1199.023071	1197.388306	1178.515381	1254.472778
198.894180	1197.611206	1189.215088	1178.738403	224.780106
199.271866	1198.057007	1184.385498	1176.955078	154.349670
199.649536	1192.632935	1188.546387	1181.264648	278.188019
200.027191	1191.221069	1192.781616	1178.515503	-814.173950
200.404816	1191.964233	1188.917847	1182.081909	324.394928
200.782410	1188.843628	1194.267578	1177.846680	-202.747955
201.159988	1185.945801	1204.595703	1180.521606	-29.084305
201.537537	1180.075806	1226.812134	1186.985840	14.785146
201.915070	1179.704224	1230.155762	1186.465820	13.402162
202.292557	1181.190308	1230.007202	1181.413208	0.456605
202.670029	1175.989136	1212.248901	1176.212036	0.614732
203.047485	1171.233765	1209.796997	1178.143799	17.918711
203.424911	1169.599243	1206.676147	1180.967407	30.661039
203.802292	1173.165649	1217.524414	1176.286255	7.034924
204.179688	1182.453491	1212.100220	1169.896362	-42.355865
204.557037	1185.648560	1207.790649	1170.490723	-68.457123
204.934357	1185.574219	1207.344849	1169.822021	-72.355263
205.311661	1177.326660	1210.762817	1171.159424	-18.444813
205.688934	1174.725952	1215.146606	1166.998535	-19.117496
206.066177	1177.252319	1201.029175	1170.862183	-26.875450
206.443390	1180.001465	1204.892944	1177.846680	-8.656718
206.820587	1182.304932	1206.973389	1181.784790	-2.108529
207.197769	1183.122192	1214.403687	1174.725952	-26.840918
207.574921	1182.973633	1211.282959	1165.586792	-61.417358
207.952042	1181.487427	1207.419312	1159.196655	-85.958931
208.329147	1178.961304	1210.762817	1162.688843	-51.168827
208.706223	1188.843384	1225.177490	1171.456665	-47.852337
209.083267	1187.431763	1224.360229	1170.267822	-46.478886
209.460297	1178.961304	1223.765869	1166.849976	-27.031460
209.837280	1169.822144	1209.945679	1164.546509	-13.148479
210.214264	1168.558960	1208.162231	1168.484497	-0.188022
210.591217	1167.964478	1212.248901	1175.543335	17.114048
210.968124	1163.357788	1212.843262	1170.490845	14.414446
211.345016	1163.952148	1217.004272	1172.274048	15.686270
211.721893	1156.373291	1216.558472	1170.044922	22.715942
212.098724	1153.549683	1214.849487	1179.407104	42.181900
212.475555	1153.178223	1217.227173	1172.422607	30.046370
212.852356	1168.707520	1210.911377	1162.317383	-15.141120
213.229126	1169.376221	1210.391235	1149.834595	-47.645054
213.605865	1171.085083	1205.933105	1154.812866	-46.694805
213.982590	1163.580566	1205.264526	1158.825317	-11.407863
214.359283	1166.701294	1204.075562	1165.809692	-2.385603
214.735931	1167.370117	1203.703979	1159.419800	-21.881289
215.112579	1173.016968	1207.567871	1164.695190	-24.085556
215.489197	1171.976807	1206.156128	1158.602417	-39.130062
215.865799	1169.896362	1202.440918	1164.992310	-15.068734
216.242355	1169.079102	1209.351074	1159.865356	-22.878803
216.618896	1170.044922	1218.787598	1157.784912	-25.152517
216.995407	1166.032593	1227.555298	1157.116333	-14.492633
217.371902	1160.980103	1223.097046	1157.041992	-6.339833
217.748367	1163.134766	1215.295288	1161.648682	-2.849059
218.124802	1166.701416	1221.016602	1164.249268	-4.514665
218.501236	1165.289673	1212.694702	1170.862305	11.755360
218.877609	1168.113159	1216.781372	1169.004639	1.831749
219.253983	1169.227661	1202.440918	1162.168823	-21.253073
219.630295	1176.286499	1212.546143	1156.967651	-53.279198
220.006592	1176.880859	1215.443848	1164.026489	-33.333439
220.382889	1178.366821	1219.827759	1167.890137	-25.268808
220.759140	1175.840576	1210.688599	1170.639404	-14.925300
221.135391	1171.902710	1208.013672	1169.673462	-6.173328
221.511581	1165.958374	1219.233398	1170.267700	8.088830
221.887772	1168.187500	1226.737915	1165.438110	-4.695765
222.263931	1166.032593	1223.171387	1164.397949	-2.860830
222.640060	1173.537109	1216.484253	1166.924194	-15.397799
223.016159	1167.221558	1215.146606	1170.564941	6.976276
223.392212	1174.354492	1222.502563	1167.741577	-13.734538
223.768265	1177.178101	1217.227051	1171.382324	-14.471731
224.144302	1183.568115	1225.103271	1169.153320	-34.705044
224.520294	1173.462891	1223.840210	1168.261719	-10.324431
224.896286	1162.540283	1232.162109	1160.608521	-2.774651
225.272217	1159.493896	1225.549072	1156.150391	-5.061687
225.648148	1169.450562	1230.007324	1154.961548	-23.926334
226.024048	1169.822144	1228.967041	1157.190552	-21.357027
226.399902	1167.592896	1239.220825	1160.831421	-9.439718
226.775772	1159.568237	1235.654175	1159.196777	-0.488211
227.151581	1165.883911	1249.548950	1159.271118	-7.903891
227.527374	1166.329956	1250.069092	1160.831421	-6.566267
227.903137	1171.679565	1254.750122	1165.884033	-6.976638
228.278870	1167.370117	1259.208130	1161.351563	-6.553446
228.654572	1173.314331	1262.848999	1165.884033	-8.298794
229.030273	1171.010864	1275.480469	1160.385620	-10.170656
229.405930	1170.193481	1276.446411	1167.890137	-2.167794
229.781555	1172.794067	1289.895142	1172.794067	0.000000
230.157181	1173.685669	1294.056152	1175.543335	1.543290
230.532761	1168.038818	1294.056152	1175.766235	6.132027
230.908325	1158.676636	1288.334839	1173.388550	11.346690
231.283859	1158.899536	1286.180054	1178.515503	15.411602
231.659332	1166.181274	1290.043823	1175.097534	7.198512
232.034821	1169.376221	1285.882813	1172.051147	2.295944
232.410263	1171.902466	1278.824097	1169.078979	-2.640706
232.785690	1167.667236	1273.251465	1172.496948	4.574274
233.161087	1169.598999	1279.938599	1166.998535	-2.356782
233.536469	1167.741577	1279.418579	1166.255493	-1.330698
233.911804	1165.363892	1277.115234	1159.345215	-5.385776
234.287140	1167.667236	1277.040894	1159.791138	-7.201093
234.662430	1173.091431	1286.774536	1160.757080	-10.849766
235.037704	1181.338989	1299.183105	1161.425903	-16.897820
235.412933	1181.264648	1301.040649	1165.809814	-12.903114
235.788162	1165.735474	1298.588745	1164.620850	-0.838989
236.163345	1156.224731	1290.564087	1171.902466	11.670247
236.538513	1152.212280	1294.204834	1169.970703	12.506587
236.913635	1155.853149	1301.858032	1173.091309	11.806563
237.288742	1162.614746	1301.932251	1168.410278	4.159945
237.663834	1159.791138	1301.635132	1168.038696	5.814528
238.038879	1169.747681	1302.452515	1167.667358	-1.567631
238.413910	1169.970703	1307.505005	1169.153320	-0.594312
238.788910	1169.747681	1315.083862	1173.463013	2.556371
239.163879	1164.472290	1323.628662	1176.137817	7.329601
239.538834	1162.391846	1337.969116	1174.131714	6.686440
239.913757	1165.512573	1340.123901	1168.930542	1.957473
240.288651	1170.119263	1348.668579	1169.450562	-0.374519
240.663528	1174.874634	1364.346558	1173.314331	-0.823501
241.038361	1180.521606	1400.531860	1174.948853	-2.532952
241.413177	1178.664063	1438.649292	1174.800293	-1.486150
241.787979	1176.806641	1472.011230	1182.230591	1.837353
242.162735	1175.246216	1500.766479	1190.552490	4.702096
242.537476	1175.246216	1516.369995	1198.502930	6.817676
242.912170	1173.388550	1528.109863	1200.137573	7.540856
243.286865	1166.032593	1518.004517	1197.016846	8.803047
243.661514	1168.187378	1513.100586	1187.803223	5.687183
244.036148	1168.187378	1497.571289	1176.880737	2.639279
244.410751	1172.199707	1489.695313	1175.469116	1.029749
244.785339	1165.883911	1481.521851	1175.320435	2.989667
245.159882	1165.586792	1497.868530	1180.967407	4.628788
245.534378	1161.202881	1527.143921	1184.311035	6.314721
245.908890	1160.979980	1575.589233	1187.654663	6.433692
246.283356	1163.729370	1636.814819	1192.930176	6.172417
246.657791	1163.803589	1706.510620	1197.313965	6.174672
247.032196	1163.580688	1770.411133	1201.995117	6.330340
247.406586	1164.695190	1815.067017	1206.453247	6.420643
247.780960	1168.484619	1828.887207	1203.704102	5.333032
248.155289	1168.261719	1810.311523	1205.190063	5.751632
248.529602	1166.552612	1761.197388	1195.456543	4.860705
248.903870	1161.277222	1706.436401	1200.954956	7.278193
249.278122	1160.979980	1662.226196	1200.954834	7.975093
249.652344	1155.927368	1627.898315	1199.840210	9.304141
250.026550	1164.249268	1600.926392	1194.861938	7.010367
250.400711	1164.620850	1582.425171	1191.444092	6.420049
250.774857	1174.057251	1583.613892	1196.422485	5.460840
251.148987	1168.930298	1596.245483	1192.187134	5.442548
251.523071	1168.113159	1620.468140	1188.546387	4.517078
251.897125	1163.803589	1637.260620	1182.379272	3.923415
252.271164	1168.187378	1657.842407	1187.580444	3.960557
252.645187	1174.131470	1654.573120	1192.038574	3.727217
253.019165	1177.475220	1654.647461	1190.255249	2.678284
253.393112	1178.515503	1638.449341	1185.722778	1.567024
253.767044	1178.515503	1613.632202	1187.060303	1.963795
254.140930	1171.828247	1584.951294	1192.930298	5.107934
254.514801	1163.506348	1572.542603	1198.131470	8.465050
254.888657	1158.305176	1578.041138	1191.964233	8.019103
255.262466	1161.128662	1593.124634	1190.552612	6.811163
255.636276	1172.199707	1599.960571	1185.202637	3.039766
256.010010	1175.766235	1613.929565	1187.803345	2.747174
256.383759	1177.326538	1631.762207	1190.552612	2.910439
256.757446	1170.490723	1667.055786	1198.205688	5.581336
257.131134	1172.125366	1707.179321	1194.639160	4.207761
257.504791	1165.883911	1747.674316	1195.159302	5.031948
257.878418	1167.295776	1800.354980	1192.855835	4.037546
258.252014	1167.072876	1870.570923	1198.651489	4.488799
258.625580	1169.599121	1976.526733	1199.097290	3.655615
258.999115	1173.091431	2103.510010	1200.508911	2.946790
259.372650	1171.902466	2242.010498	1207.121948	3.291208
259.746124	1174.131714	2349.823486	1216.855591	3.633935
260.119598	1175.914917	2406.367920	1223.319946	3.852648
260.493042	1173.388550	2409.562988	1221.313843	3.876904
260.866425	1174.428711	2355.916260	1221.536743	3.987180
261.239838	1168.633179	2268.907959	1222.279907	4.875757
261.613159	1163.803589	2167.633301	1220.050659	5.603248
261.986511	1163.060547	2085.826172	1213.586304	5.475470
262.359802	1165.883911	2037.083374	1209.648315	5.023466
262.733063	1166.478394	2002.978394	1207.493408	4.903170
263.106293	1165.512573	1986.706055	1204.149780	4.705007
263.479523	1158.973877	1971.102417	1197.834106	4.784985
263.852692	1162.614746	1967.461792	1200.360474	4.689801
264.225861	1156.224609	1959.213989	1203.927002	5.940601
264.598969	1162.020386	1958.545288	1207.642212	5.727608
264.972076	1167.221313	1976.600952	1206.676270	4.874716
265.345154	1176.434937	2015.312622	1206.156128	3.542971
265.718201	1177.623901	2060.711670	1210.317017	3.702137
266.091217	1179.630005	2110.791748	1217.227051	4.037649
266.464203	1184.459595	2160.946045	1220.496460	3.690462
266.837158	1180.893066	2207.533936	1221.982544	4.002322
267.210114	1179.184204	2238.740967	1217.227173	3.590461
267.583038	1173.834351	2248.028809	1220.273560	4.323166
267.955902	1178.961304	2261.180420	1221.016602	3.886024
268.328766	1169.896362	2265.935791	1229.635742	5.450477
268.701569	1164.769409	2285.700195	1224.657349	5.342697
269.074371	1159.716797	2302.641357	1222.651245	5.506439
269.447144	1171.307983	2326.418213	1218.713135	4.103951
269.819885	1178.292480	2376.052490	1225.326172	3.926804
270.192596	1181.190308	2465.661377	1232.756348	4.014574
270.565277	1174.725952	2581.648193	1241.821411	4.768953
270.937927	1177.103638	2701.498291	1240.706909	4.172362
271.310577	1177.029419	2780.630615	1243.530396	4.146977
271.683136	1181.041626	2834.797119	1244.124878	3.814545
272.055725	1171.605347	2859.762939	1254.081421	4.885567
272.428284	1170.490723	2848.617432	1255.938965	5.091883
272.800812	1165.140991	2819.936768	1258.093750	5.617174
273.173279	1166.998535	2747.640381	1260.025513	5.885393
273.545776	1162.614624	2709.300049	1259.208130	6.245194
273.918152	1168.781738	2664.718506	1252.372437	5.587850
274.290558	1164.769409	2662.266602	1238.552002	4.927061
274.662964	1163.283325	2652.532715	1234.539673	4.784716
275.035278	1161.277222	2674.303467	1240.781006	5.254620
275.407593	1168.335938	2687.752441	1244.793335	5.032023
275.779907	1176.806519	2724.755127	1252.743774	4.905670
276.152161	1177.252319	2765.770264	1253.412598	4.794424
276.524384	1181.413208	2811.540771	1261.140137	4.890840
276.896606	1173.091309	2844.531250	1254.898682	4.894425
277.268799	1170.416504	2855.007813	1251.257813	4.798868
277.640930	1163.060547	2867.490479	1253.709839	5.318452
278.013031	1170.267944	2871.057373	1258.242310	5.172561
278.385162	1177.846680	2892.381836	1262.626099	4.944746
278.757233	1188.620605	2898.846436	1256.087402	3.944906
279.129272	1188.174805	2925.520752	1251.926392	3.669482
279.501282	1173.834351	2943.799561	1253.709839	4.512828
279.873230	1165.215210	3005.396484	1262.180298	5.269322
280.245178	1166.701294	3088.912842	1263.814941	5.052183
280.617126	1168.558960	3204.676025	1267.232788	4.846177
280.988983	1172.942749	3308.551758	1262.551758	4.195947
281.360870	1172.571167	3404.996338	1273.102661	4.503241
281.732697	1176.063477	3466.370850	1279.938599	4.535423
282.104492	1173.685669	3499.583984	1286.105713	4.833403
282.476288	1169.004761	3511.175049	1279.641479	4.723683
282.848053	1175.023193	3506.791016	1277.412476	4.391058
283.219757	1173.016968	3510.877930	1272.359863	4.249308
283.591461	1173.611450	3487.769775	1275.480591	4.401996
283.963135	1168.336060	3508.722900	1272.954224	4.470123
284.334747	1166.849976	3569.651367	1287.889038	5.037415
284.706360	1167.890259	3659.260498	1294.576294	5.084995
285.077942	1172.422607	3750.504150	1299.331665	4.922616
285.449524	1177.549561	3834.094482	1294.947754	4.419206
285.821014	1179.407104	3860.323486	1294.056152	4.276487
286.192535	1173.537231	3893.759766	1299.554565	4.632611
286.563995	1167.518677	3876.150391	1300.223267	4.899322
286.935425	1163.654907	3864.558838	1299.554565	5.031636
287.306824	1167.592896	3792.113525	1290.118164	4.668482
287.678223	1173.983032	3713.872803	1286.700195	4.437876
288.049561	1180.521606	3666.393555	1281.424683	4.059062
288.420898	1173.165649	3650.344482	1285.808594	4.547227
288.792145	1171.159546	3690.690674	1287.814819	4.630039
289.163452	1166.924194	3781.785889	1292.644409	4.807910
289.534668	1174.205811	3891.233643	1297.102539	4.523205
289.905914	1167.815918	4000.755615	1300.074707	4.668606
290.277039	1171.233765	4079.516357	1301.337769	4.473568
290.648193	1176.732178	4127.144531	1300.074585	4.180514
291.019318	1181.710449	4131.603027	1306.836182	4.241705
291.390381	1175.394653	4094.154297	1308.099365	4.546613
291.761475	1169.376099	4036.569580	1304.681396	4.719085
292.132507	1168.558838	3992.433594	1295.319214	4.488881
292.503510	1171.902466	3973.486328	1292.421509	4.301818
292.874481	1167.147095	4019.182861	1293.610229	4.434136
293.245422	1170.490723	4092.593750	1296.730957	4.320184
293.616364	1173.016968	4219.279785	1314.117798	4.631932
293.987213	1176.880859	4340.690430	1325.486206	4.697038
294.358093	1170.490723	4442.262207	1338.043335	5.121159
294.728943	1168.187378	4547.623535	1331.578979	4.834878
295.099731	1162.094604	4641.765625	1332.619263	4.900597
295.470490	1170.119263	4767.113770	1333.956665	4.554842
295.841248	1162.391724	4860.363770	1338.637817	4.766020
296.211975	1168.261719	4963.718750	1342.427246	4.588789
296.582642	1167.593018	5049.390137	1347.108276	4.624540
296.953308	1180.967529	5088.250000	1355.207397	4.459362
297.323883	1175.097534	5076.881836	1355.355957	4.619897
297.694519	1164.100708	4989.798828	1351.640747	4.902112
298.065063	1152.880981	4884.734863	1336.557251	4.921850
298.435608	1155.035767	4732.785645	1330.538818	4.905403
298.806122	1164.918091	4571.475098	1313.895020	4.373240
299.176575	1170.713745	4409.940918	1312.557495	4.378938
299.547028	1168.187378	4311.712402	1308.916748	4.476801
299.917450	1168.856079	4277.162109	1315.455322	4.716371
300.287872	1163.357666	4286.301270	1317.312988	4.929814
300.658234	1171.159546	4277.533691	1313.969360	4.597315
301.028564	1169.747681	4250.487793	1309.288208	4.529448
301.398865	1174.354370	4208.580566	1306.910522	4.368697
301.769135	1170.342163	4164.370117	1306.241821	4.539024
302.139374	1167.370117	4113.992676	1313.226318	4.949945
302.509583	1163.803467	4074.835205	1310.402832	5.035994
302.879791	1162.465942	4040.061523	1307.727905	5.048032
303.249939	1168.633179	4004.768311	1296.136597	4.495675
303.620087	1177.103638	3962.638672	1293.387451	4.174559
303.990173	1181.636108	3946.960938	1287.814819	3.839647
304.360260	1181.338989	3939.604736	1287.591797	3.852160
304.730286	1180.670288	3938.118408	1291.604126	4.023061
305.100281	1182.081909	3930.836670	1300.594727	4.311509
305.470276	1174.354492	3935.443604	1301.560669	4.607101
305.840179	1164.843750	3955.208008	1293.610352	4.614688
306.210144	1159.345337	3985.375000	1293.015869	4.729976
306.579987	1168.856079	4013.758545	1294.427734	4.413918
306.949890	1173.685791	4058.563232	1304.012695	4.517589
307.319702	1172.942749	4135.986328	1305.127319	4.461108
307.689484	1167.444336	4244.022461	1312.334595	4.709461
308.059265	1169.153320	4352.653320	1316.867065	4.639979
308.429016	1171.605347	4428.813965	1323.182739	4.653598
308.798737	1170.044922	4499.550293	1327.046753	4.715470
309.168396	1164.026367	4535.215332	1336.928833	5.128828
309.538055	1163.952026	4554.236816	1339.529419	5.178839
309.907684	1169.970703	4546.063965	1340.049561	5.037742
310.277313	1170.044922	4559.363770	1331.207642	4.755018
310.646851	1171.679565	4556.911621	1331.133301	4.710275
311.016388	1164.695190	4552.676270	1328.012573	4.820493
311.385895	1174.280151	4495.537598	1328.161133	4.633214
311.755371	1176.732178	4448.355469	1328.606934	4.642183
312.124817	1177.103638	4386.535645	1335.739868	4.942813
312.494232	1167.890015	4343.736816	1339.157959	5.392828
312.863617	1162.465942	4318.771484	1342.724487	5.711061
313.232971	1164.769409	4339.650391	1343.764648	5.637857
313.602295	1168.410278	4408.529297	1351.417847	5.648174
313.971619	1167.890015	4480.825684	1350.823486	5.521794
314.340820	1165.735352	4517.977051	1355.727417	5.667613
314.710083	1172.274048	4519.462891	1350.897827	5.336531
315.079285	1177.400879	4470.200195	1345.250854	5.097486
315.448486	1177.623901	4397.532227	1345.993774	5.229027
315.817596	1173.983032	4278.647949	1347.851440	5.600231
316.186707	1171.456665	4186.958008	1348.074219	5.856988
316.555786	1173.908691	4103.664551	1342.130005	5.741820
316.924866	1172.422729	4052.469971	1337.003174	5.714505
317.293884	1171.308228	4034.043213	1339.306519	5.868454
317.662872	1170.416626	4040.359375	1344.359009	6.060831
318.031830	1170.119263	4074.538330	1358.476685	6.485201
318.400757	1173.834473	4110.575195	1365.609741	6.530208
318.769684	1176.286377	4135.317871	1358.253784	6.149559
319.138550	1181.116089	4149.360840	1354.018433	5.825070
319.507416	1176.212036	4119.491699	1353.423950	6.020899
319.876190	1175.914917	4094.971436	1360.631470	6.327954
320.244995	1175.394775	4026.241455	1360.854370	6.505422
320.613770	1179.555786	3977.201904	1357.585083	6.363539
320.982483	1174.131592	3957.363037	1367.467285	6.946447
321.351166	1165.363892	4000.607178	1376.903809	7.461085
321.719818	1161.574341	4063.095459	1387.677612	7.792577
322.088440	1163.357788	4166.673340	1395.850952	7.741217
322.457062	1171.233765	4312.975098	1410.265625	7.608261
322.825623	1171.010864	4472.652344	1436.271606	8.034207
323.194183	1168.410278	4602.607910	1443.924805	8.022676
323.562653	1167.072754	4667.102051	1450.463501	8.096810
323.931183	1168.781860	4695.114746	1444.444824	7.817270
324.299591	1175.617676	4667.845703	1459.156738	8.119145
324.668060	1177.326660	4627.127441	1463.614868	8.298688
325.036407	1177.921021	4544.131836	1468.964844	8.646036
325.404755	1167.295776	4476.516113	1470.079224	9.149692
325.773102	1157.933594	4395.080566	1470.896484	9.667862
326.141388	1169.450562	4333.483398	1470.673706	9.520228
326.509674	1176.212036	4251.898926	1464.655273	9.378173
326.877899	1182.007690	4180.642578	1454.995972	9.103752
327.246124	1176.286499	4136.061035	1451.280762	9.291055
327.614288	1175.469116	4102.104980	1448.680176	9.335328
327.982422	1171.828125	4100.915527	1456.556274	9.720712
328.350525	1176.212036	4106.859863	1465.398438	9.867661
328.718628	1182.750732	4155.082520	1470.302246	9.674273
329.086700	1188.546509	4205.311035	1481.521973	9.711578
329.454712	1177.698242	4263.563965	1493.410522	10.230914
329.822693	1172.497070	4285.037598	1502.772461	10.611119
330.190674	1169.673462	4325.756348	1510.425781	10.796684
330.558563	1165.140991	4370.263672	1521.719727	11.125277
330.926483	1164.397949	4443.153809	1541.930054	11.514493
331.294312	1161.500122	4517.753906	1555.378906	11.735667
331.662231	1165.215332	4611.821289	1573.062866	11.833309
332.029999	1163.877808	4712.873047	1591.489868	12.048820
332.397766	1165.140991	4781.974609	1609.545532	12.287116
332.765503	1158.305054	4799.287109	1617.793335	12.619900
333.133240	1153.995605	4801.219238	1624.183228	12.891659
333.500916	1154.664429	4800.178711	1627.452515	12.969037
333.868561	1164.843750	4808.574707	1638.746460	13.005974
334.236176	1168.113159	4782.420410	1640.975586	13.083073
334.603790	1168.484619	4747.200684	1644.765015	13.308695
334.971344	1163.209106	4717.331055	1640.158203	13.419603
335.338867	1168.335938	4699.869629	1647.216919	13.560142
335.706360	1167.072876	4692.439453	1649.668945	13.689244
336.073853	1173.685669	4701.876465	1661.706055	13.832028
336.441284	1167.964478	4728.253418	1666.535645	14.003671
336.808655	1172.794067	4762.655762	1679.390015	14.111851
337.176086	1168.336060	4801.590332	1691.650024	14.403450
337.543396	1165.661133	4834.952148	1701.532227	14.604214
337.910706	1166.478394	4860.512207	1707.848145	14.655247
338.277954	1162.986206	4863.336426	1703.389771	14.604120
338.645264	1172.125488	4839.931152	1708.293823	14.618232
339.012421	1165.215332	4792.971191	1706.807739	14.929131
339.379669	1169.524780	4700.464355	1707.922363	15.247998
339.746796	1163.580566	4602.310547	1696.554077	15.499138
340.113953	1166.998535	4525.406738	1687.414917	15.495924
340.481018	1169.970581	4496.651855	1690.461304	15.645946
340.848114	1171.679565	4505.270996	1699.229004	15.825258
341.215118	1169.450562	4545.840332	1721.891235	16.361876
341.582153	1171.233765	4649.492676	1731.922241	16.119802
341.949066	1169.376099	4820.909668	1755.921875	16.062998
342.316010	1173.016968	5041.365234	1786.460449	15.858022
342.682922	1168.261597	5292.211426	1830.967651	16.069693
343.049835	1171.159546	5589.570801	1891.375610	16.300341
343.416656	1175.617554	5875.785156	1947.920044	16.431383
343.783478	1176.806396	6091.039551	1994.507813	16.639450
344.150269	1178.143921	6198.630371	2018.284790	16.734253
344.516998	1167.295776	6216.834473	2028.612915	17.057343
344.883728	1167.518555	6143.868652	2030.470337	17.341059
345.250427	1166.626953	6024.167480	2017.318848	17.512812
345.617065	1167.667114	5877.270996	1995.102539	17.569109
345.983704	1167.741577	5745.235840	1978.310059	17.707689
346.350281	1166.924194	5615.873535	1963.226563	17.898663
346.716827	1167.964478	5483.689453	1953.492798	18.201538
347.083405	1166.255493	5394.823730	1940.712524	18.314875
347.449860	1174.057251	5351.133301	1940.935547	18.359213
347.816376	1180.893188	5342.811035	1943.907715	18.333242
348.182770	1181.859131	5348.383789	1954.755859	18.550156
348.549194	1174.800415	5378.401855	1966.867188	18.842575
348.915558	1165.215210	5460.283691	1989.678101	19.195570
349.281921	1171.902466	5538.970703	2009.145508	19.171741
349.648193	1174.800293	5575.453125	2020.959595	19.228041
350.014526	1183.939575	5580.803223	2028.166992	19.200672
350.380737	1174.725952	5601.831543	2039.460938	19.532740
350.746948	1175.766235	5636.753418	2052.612549	19.655880
351.113159	1167.072876	5693.743652	2081.218994	20.194668
351.479309	1171.605347	5752.219238	2093.702148	20.130421
351.845428	1164.620850	5869.320313	2123.125977	20.373356
352.211517	1167.815918	5997.417969	2139.472412	20.118769
352.577576	1165.809692	6131.683594	2168.450684	20.190624
352.943604	1169.822144	6244.697754	2201.292236	20.325033
353.309601	1169.747681	6376.808105	2232.350830	20.406967
353.675537	1166.701294	6515.977051	2275.446533	20.727015
354.041473	1163.654907	6669.263672	2312.375000	20.864542
354.407379	1164.918091	6783.838379	2339.644287	20.906618
354.773254	1162.243164	6909.410156	2376.201172	21.122721
355.139038	1157.190552	7022.052246	2412.981201	21.412109
355.504913	1154.812866	7238.719238	2476.509766	21.724478
355.870636	1157.116211	7498.779297	2528.001709	21.617128
356.236389	1159.642456	7767.383301	2588.558350	21.624878
356.602081	1162.763184	8009.609863	2645.325439	21.653212
356.967804	1164.992432	8172.259277	2698.154541	21.879602
357.333405	1161.128784	8266.846680	2720.148193	21.940351
357.699036	1159.196655	8243.664063	2730.327881	22.177126
358.064606	1160.088257	8198.116211	2734.860352	22.375191
358.430176	1164.174927	8144.395996	2733.077148	22.476397
358.795654	1161.054321	8185.856934	2749.646484	22.614046
359.161163	1165.438110	8336.393555	2781.596680	22.537561
359.526581	1161.797363	8693.417969	2869.199463	22.669785
359.892029	1164.472290	9201.425781	2985.483154	22.657974
360.257416	1153.995483	9748.887695	3112.615234	22.788181
360.622772	1157.339233	10188.983398	3218.199219	22.818213
360.988098	1161.128784	10459.964844	3286.186523	22.852942
361.353394	1168.707520	10546.528320	3329.579102	23.042364
361.718658	1174.428833	10405.352539	3313.381104	23.171593
362.083893	1174.874634	10002.260742	3243.239502	23.431227
362.449097	1177.103638	9426.042969	3121.606201	23.572758
362.814209	1176.286255	8811.039063	2988.083984	23.730928
363.179382	1178.515381	8274.202148	2859.391602	23.688705
363.544434	1174.057251	7898.676270	2772.531982	23.770487
363.909546	1170.342163	7654.666016	2723.120605	23.946651
364.274536	1168.410278	7522.036621	2693.250977	23.999533
364.639587	1166.404175	7387.919922	2669.325195	24.156832
365.004517	1168.781738	7319.263672	2658.105713	24.214752
365.369507	1166.106812	7259.375488	2659.962891	24.516499
365.734344	1165.512329	7272.527344	2651.567139	24.333570
366.099274	1168.633179	7254.100098	2645.919922	24.275652
366.464081	1163.654907	7207.810059	2632.322510	24.298971
366.828918	1164.769531	7141.160156	2634.848877	24.598114
367.193665	1168.410278	7076.442871	2627.938721	24.704136
367.558411	1166.701294	7027.031250	2620.211182	24.802526
367.923126	1165.586792	6936.901855	2610.848877	25.042162
368.287781	1160.162598	6865.497559	2607.356689	25.365629
368.652435	1171.976685	6827.899902	2604.236084	25.323175
369.017059	1177.400879	6849.447266	2600.966553	25.097919
369.381653	1177.549438	6901.162109	2610.477539	25.035378
369.746185	1171.902466	6968.554688	2639.232666	25.313408
370.110687	1168.261719	7070.052246	2671.777100	25.475580
370.475220	1163.209106	7148.516113	2689.386963	25.498739
370.839661	1166.329834	7213.457031	2690.129639	25.198740
371.204041	1163.134888	7246.893066	2693.399170	25.153273
371.568451	1166.849976	7250.087891	2695.628174	25.130995
371.932770	1167.518677	7216.948730	2703.058350	25.383211
372.297150	1168.187500	7179.203125	2695.033936	25.400806
372.661377	1169.450562	7193.171875	2689.684326	25.237452
373.025696	1165.809692	7220.664063	2709.448975	25.494242
373.389862	1166.032593	7279.363281	2734.637695	25.658764
373.754059	1170.119263	7368.824219	2779.442139	25.962242
374.118225	1169.896362	7496.327637	2794.451172	25.678850
374.482361	1173.462769	7656.003906	2819.342529	25.389423
374.846436	1163.803589	7831.135254	2863.255127	25.489231
375.210510	1161.500000	8100.111328	2940.233154	25.635290
375.574524	1161.945923	8372.504883	3024.120850	25.825666
375.938538	1168.930420	8662.136719	3096.640381	25.726103
376.302460	1177.549438	8870.036133	3155.859375	25.717430
376.666412	1176.435059	9015.223633	3195.388672	25.755939
377.030304	1178.812622	9026.815430	3199.252686	25.744640
377.394196	1170.490845	8908.375977	3166.261719	25.792200
377.757996	1169.153320	8708.501953	3114.027100	25.796310
378.121796	1170.416504	8452.827148	3032.814453	25.573921
378.485565	1180.150024	8218.847656	2966.536377	25.379501
378.849304	1180.744507	8007.307129	2913.707031	25.385580
379.212982	1170.119141	7879.952637	2894.833984	25.704287
379.576630	1160.162598	7797.550293	2882.425537	25.947903
379.940277	1159.939819	7785.438965	2873.880615	25.868856
380.303864	1167.369995	7761.216309	2862.512451	25.707947
380.667450	1165.512573	7785.661621	2858.500000	25.573254
381.030945	1165.363892	7785.810547	2864.221436	25.660769
381.394501	1162.837524	7838.193848	2877.744141	25.690113
381.757935	1172.719849	7889.314941	2882.871094	25.461580
382.121399	1175.320435	7980.707031	2893.125000	25.241837
382.484741	1177.103760	8113.783203	2925.075195	25.198965
382.848145	1174.948853	8251.911133	2957.545654	25.188728
383.211487	1174.280151	8361.137695	2984.443359	25.187132
383.574768	1174.948853	8425.631836	2999.823975	25.168320
383.938019	1172.794067	8448.961914	3025.829834	25.467194
384.301270	1166.329834	8484.256836	3031.699463	25.490412
384.664459	1167.518677	8508.850586	3033.111328	25.412182
385.027649	1160.534302	8540.131836	3027.612549	25.300543
385.390778	1168.261719	8637.541992	3055.625000	25.268341
385.753876	1170.565063	8745.801758	3081.556641	25.226824
386.116943	1180.447388	8861.193359	3099.909424	24.990568
386.479980	1179.109863	8860.895508	3108.231689	25.112934
386.842987	1171.456665	8876.203125	3104.739502	25.092102
387.205994	1168.930298	8868.846680	3103.475830	25.124241
387.568909	1171.233765	8862.976563	3099.166748	25.064970
387.931793	1172.274048	8815.125977	3078.287354	24.938509
388.294678	1171.531006	8771.584961	3060.974854	24.860928
388.657471	1165.215210	8799.299805	3042.027588	24.584642
389.020294	1165.140991	8834.891602	3045.000000	24.510042
389.383057	1166.478394	9009.502930	3077.247314	24.362654
389.745819	1174.725952	9175.123047	3116.850586	24.275352
390.108521	1179.332886	9398.997070	3166.410889	24.174686
390.471191	1176.360718	9631.044922	3199.549561	23.929796
390.833801	1173.239868	9843.624023	3240.416016	23.841808
391.196442	1170.639282	10008.725586	3275.115234	23.811445
391.558960	1178.738403	10056.649414	3283.065674	23.702953
391.921509	1171.753906	10036.959961	3268.427979	23.650597
392.284027	1170.416382	9977.889648	3243.016602	23.532288
392.646484	1159.345337	9905.963867	3226.001221	23.628056
393.008911	1163.803589	9867.029297	3208.094482	23.488888
393.371307	1164.100708	9886.645508	3188.181396	23.205162
393.733673	1165.140991	9882.782227	3179.116455	23.102297
394.096008	1166.255493	9808.553711	3146.051514	22.908213
394.458344	1167.592896	9700.741211	3112.763672	22.795464
394.820587	1177.103638	9502.129883	3046.857422	22.459435
395.182831	1178.366821	9317.487305	2986.375000	22.213802
395.545013	1179.555664	9072.138672	2927.898682	22.151722
395.907196	1173.388550	8906.146484	2894.016602	22.251156
396.269287	1177.401001	8808.735352	2864.444092	22.106791
396.631409	1186.020020	8777.900391	2843.713623	21.835087
396.993469	1186.168579	8759.028320	2813.769531	21.492554
397.355530	1176.732178	8777.827148	2810.723389	21.496788
397.717499	1166.404175	8785.924805	2807.528320	21.538418
398.079468	1159.196777	8800.934570	2797.794678	21.442739
398.441376	1160.831421	8792.909180	2785.460205	21.286848
398.803284	1148.199951	8758.582031	2759.008789	21.165939
399.165131	1156.298950	8759.100586	2741.027588	20.844007
399.526978	1159.196777	8739.336914	2712.940918	20.497564
399.888763	1164.843750	8750.779297	2687.454834	20.071501
400.250519	1157.413452	8760.067383	2685.523193	20.099689
400.612244	1160.162720	8780.129883	2688.792725	20.060848
400.973938	1164.695190	8861.788086	2697.188721	19.910030
401.335602	1164.026489	8950.356445	2688.495361	19.578785
401.697205	1157.636353	9111.221680	2693.845215	19.314671
402.058807	1161.054321	9253.214844	2707.962646	19.116135
402.420349	1165.289551	9483.924805	2742.884766	18.964592
402.781860	1173.388550	9666.858398	2755.144775	18.623205
403.143341	1172.274048	9867.178711	2772.977539	18.409674
403.504822	1176.435059	10054.124023	2786.054688	18.131065
403.866241	1169.524780	10187.720703	2815.404297	18.250650
404.227631	1171.233765	10279.930664	2832.271240	18.235731
404.588959	1170.936523	10277.107422	2821.051514	18.120844
404.950287	1166.329834	10245.083008	2778.104492	17.753260
405.311554	1161.648682	10149.157227	2735.900391	17.515997
405.672821	1154.218384	10045.801758	2698.006104	17.362350
406.034027	1158.676636	9921.047852	2666.724609	17.210501
406.395203	1160.162598	9777.569336	2614.192627	16.873175
406.756348	1164.249268	9644.493164	2577.412842	16.664185
407.117493	1172.868286	9606.375977	2554.453369	16.382093
407.478516	1175.394775	9639.886719	2548.211914	16.218540
407.839600	1180.744629	9708.541992	2542.267578	15.965706
408.200592	1174.725952	9816.578125	2533.797363	15.726622
408.561554	1168.558960	9955.153320	2538.701172	15.593552
408.922485	1162.020264	10077.083008	2536.620605	15.418853
409.283417	1159.419800	10157.850586	2540.558594	15.348663
409.644257	1161.871704	10249.019531	2549.251953	15.267500
410.005096	1166.775513	10307.719727	2547.766113	15.107745
410.365906	1175.766235	10290.332031	2514.032471	14.682721
410.726715	1183.642334	10237.726563	2478.218506	14.298257
411.087433	1183.642334	10168.104492	2448.571533	14.079076
411.448120	1182.007690	10145.887695	2441.661621	14.052552
411.808807	1174.131592	10101.900391	2419.073486	13.944603
412.169434	1174.057251	10096.773438	2404.287354	13.787620
412.530029	1167.592896	10140.166992	2389.426758	13.617429
412.890564	1172.274048	10249.317383	2384.968750	13.360020
413.251099	1171.976929	10385.291992	2378.355957	13.093864
413.611572	1177.698120	10545.116211	2378.429932	12.818172
413.972076	1171.382324	10686.811523	2373.451904	12.632846
414.332489	1166.032471	10797.151367	2373.823486	12.540505
414.692871	1161.425903	10973.620117	2386.826416	12.488547
415.053223	1159.716919	11147.562500	2396.931396	12.387200
415.413574	1162.391724	11416.389648	2409.488525	12.162054
415.773834	1161.277222	11614.778320	2407.036621	11.917150
416.134094	1161.723022	11894.528320	2430.664795	11.823020
416.494263	1162.466064	12162.090820	2443.445068	11.645660
416.854462	1168.261597	12535.981445	2469.896729	11.450274
417.214630	1180.150024	12963.149414	2485.277344	11.076360
417.574738	1184.459595	13373.002930	2520.199707	10.958981
417.934784	1177.772339	13822.757813	2549.771973	10.850148
418.294861	1170.045044	14254.307617	2590.044189	10.852726
418.654846	1166.106934	14804.074219	2621.251221	10.669804
419.014832	1170.193481	15354.954102	2665.535889	10.541894
419.374756	1167.964478	16006.664063	2702.464111	10.341201
419.734680	1168.484619	16642.322266	2757.522461	10.269190
420.094543	1167.667236	17147.656250	2795.937256	10.189431
420.454376	1170.713501	17477.560547	2808.940186	10.046250
420.814148	1168.856079	17651.652344	2798.834961	9.888970
421.173920	1166.404175	17810.882813	2796.977295	9.796481
421.533691	1171.308228	17875.748047	2799.132080	9.744858
421.893341	1166.701416	17892.021484	2796.903076	9.746908
422.253021	1163.357788	17863.638672	2765.621826	9.594234
422.612640	1158.305176	17797.953125	2728.544434	9.436733
422.972260	1168.410278	17825.742188	2694.142334	9.159522
423.331757	1174.503052	17901.904297	2678.018555	8.988339
423.691315	1170.787964	18089.591797	2686.043213	8.956042
424.050781	1162.911987	18095.908203	2678.538818	8.950730
424.410248	1157.785034	17901.533203	2653.201416	8.931192
424.769653	1158.453735	17554.908203	2601.338135	8.799977
425.128998	1166.552612	17149.958984	2550.886475	8.661069
425.488373	1173.239868	16714.322266	2509.351318	8.597287
425.847656	1175.469116	16282.178711	2465.067139	8.536591
426.206940	1169.822144	15923.816406	2425.686523	8.512030
426.566193	1164.398071	15566.864258	2379.544678	8.437074
426.925385	1162.614746	15216.527344	2336.672119	8.353954
427.284576	1163.729126	14807.491211	2292.759033	8.275064
427.643677	1163.209106	14538.589844	2254.864502	8.161677
428.002777	1167.964355	14305.725586	2222.022705	8.023120
428.361847	1166.032471	14156.301758	2197.280029	7.938616
428.720856	1168.484497	13930.421875	2176.103760	7.895504
429.079865	1168.187378	13810.870117	2167.707764	7.905920
429.438812	1173.760132	13755.291992	2160.425781	7.842174
429.797760	1175.246216	13755.069336	2141.701660	7.682584
430.156616	1173.091431	13643.540039	2123.794678	7.623649
430.515503	1178.292603	13564.926758	2103.138428	7.466482
430.874268	1177.623901	13549.250000	2099.200439	7.449114
431.233093	1171.308105	13661.745117	2104.847412	7.474032
431.591827	1166.552856	13823.797852	2107.968262	7.437759
431.950562	1172.719971	13973.073242	2115.770020	7.367375
432.309204	1178.218262	14087.127930	2107.447998	7.198359
432.667877	1180.001587	14235.956055	2112.574951	7.142897
433.026459	1171.753906	14342.059570	2112.574951	7.143502
433.385010	1178.589844	14444.299805	2118.147461	7.082603
433.743561	1177.401001	14436.051758	2113.912354	7.063399
434.102051	1179.778564	14472.164063	2109.751221	6.996281
434.460510	1174.577393	14481.971680	2111.014648	7.036969
434.818939	1167.369995	14454.256836	2104.401611	7.052304
435.177338	1163.580688	14421.042969	2100.240967	7.065156
435.535675	1161.797363	14402.096680	2085.082764	6.973297
435.894012	1165.661133	14420.299805	2088.946533	6.965753
436.252289	1168.410278	14552.708008	2098.680420	6.950459
436.610535	1164.175171	14617.203125	2103.510010	6.982330
436.968719	1164.918091	14916.791992	2120.154053	6.946224
437.326935	1168.410278	15150.175781	2136.203369	6.921823
437.685028	1171.605347	15463.139648	2155.670654	6.885652
438.043152	1176.955200	15677.651367	2166.816162	6.826300
438.401215	1171.679688	15988.459961	2184.128418	6.833122
438.759277	1172.794067	16341.843750	2202.629883	6.789060
439.117249	1165.363892	16803.783203	2223.880615	6.768694
439.475250	1169.153320	17187.111328	2238.369873	6.675111
439.833130	1168.856079	17603.949219	2264.672852	6.667542
440.191071	1173.091431	17749.062500	2283.099854	6.696491
440.548889	1171.382446	17827.822266	2284.288818	6.681538
440.906708	1168.707520	17725.136719	2268.090576	6.640218
441.264496	1163.729126	17543.093750	2244.239502	6.596778
441.622223	1165.661133	17286.601563	2234.282959	6.628781
441.979950	1166.404175	16981.587891	2225.218018	6.694920
442.337616	1166.255493	16760.982422	2208.945557	6.686171
442.695251	1162.391724	16517.197266	2193.267578	6.713702
443.052887	1165.958374	16460.132813	2177.961426	6.616918
443.410461	1170.565063	16571.736328	2188.215088	6.607615
443.768005	1170.119263	16827.708984	2187.843506	6.499878
444.125458	1171.085327	17054.033203	2208.128174	6.529284
444.482941	1161.648804	17364.544922	2228.412842	6.583786
444.840393	1163.803589	17880.876953	2267.867676	6.604410
445.197754	1168.484497	18359.458984	2306.059326	6.617280
445.555084	1175.989136	18727.332031	2316.312988	6.497074
445.912415	1175.394775	18895.775391	2328.572998	6.507638
446.269714	1171.531006	19017.111328	2327.235352	6.476138
446.626953	1166.998535	19019.712891	2340.610107	6.573855
446.984161	1169.747681	18864.121094	2332.139404	6.569273
447.341309	1171.902466	18673.982422	2328.275635	6.607061
447.698456	1178.589722	18365.404297	2316.833252	6.622772
448.055542	1179.555786	18149.703125	2303.161377	6.621072
448.412598	1177.326660	17790.896484	2274.034912	6.601280
448.769653	1178.292480	17446.798828	2244.462402	6.553582
449.126617	1168.707520	16991.025391	2219.868164	6.643531
449.483582	1167.667114	16730.373047	2211.991943	6.710432
449.840515	1159.716797	16497.876953	2188.289551	6.705972
450.197388	1167.518677	16359.526367	2174.692139	6.629627
450.554230	1166.552734	16251.416992	2161.837646	6.597904
450.911041	1170.787964	16192.198242	2167.781982	6.637153
451.267822	1172.422607	16274.227539	2171.125244	6.613134
451.624573	1166.329834	16282.921875	2170.828369	6.645007
451.981262	1166.849976	16272.816406	2176.549561	6.684111
452.337921	1166.106812	16077.250977	2178.184326	6.787390
452.694580	1169.747681	15736.573242	2160.722900	6.802959
453.051147	1175.914795	15511.137695	2143.261719	6.748043
453.407715	1170.639282	15146.237305	2116.141357	6.765378
453.764221	1177.921021	15085.977539	2115.398438	6.740535
454.120728	1170.862183	14750.723633	2099.126221	6.835593
454.477142	1179.704224	14735.640625	2102.841553	6.809838
454.833557	1176.509277	14604.421875	2098.160400	6.863697
455.189911	1175.766235	14642.911133	2098.086182	6.848668
455.546265	1170.193481	14684.296875	2098.531982	6.869405
455.902557	1173.165649	14778.067383	2104.550293	6.845949
456.258820	1170.787964	14993.843750	2119.856689	6.865839
456.615051	1171.976807	15305.247070	2139.026611	6.842364
456.971252	1173.908813	15619.250000	2162.134766	6.841140
457.327393	1180.744507	16164.929688	2201.664063	6.813313
457.683502	1177.326660	16729.183594	2235.620361	6.804935
458.039612	1165.883911	17576.828125	2292.015869	6.862079
458.395630	1164.323608	18435.025391	2346.628418	6.845726
458.751648	1170.639404	19157.916016	2402.429932	6.848121
459.107605	1175.617554	19783.396484	2447.754639	6.836587
459.463562	1173.388550	19960.755859	2464.918701	6.874461
459.819458	1167.221313	19885.191406	2449.463623	6.850327
460.175323	1166.701294	19365.072266	2403.990234	6.798899
460.531158	1166.701294	18676.804688	2356.362061	6.794139
460.886932	1171.679565	17936.677734	2327.978516	6.897101
461.242676	1174.948853	17282.662109	2293.279297	6.942826
461.598419	1172.422729	16806.904297	2260.288818	6.958121
461.954102	1174.800415	16348.083008	2219.273682	6.883635
462.309723	1176.509399	15892.014648	2182.939697	6.839251
462.665344	1174.354492	15554.903320	2167.781982	6.908134
463.020905	1168.558960	15361.567383	2162.357666	7.002030
463.376373	1169.896362	15365.430664	2175.657959	7.085056
463.731873	1170.565186	15383.338867	2181.379395	7.112012
464.087341	1172.274048	15433.343750	2184.574219	7.098347
464.442749	1167.369995	15555.867188	2186.134521	7.080410
464.798126	1174.354370	15648.078125	2183.088135	6.969414
465.153503	1175.023193	15789.550781	2196.239990	6.987683
465.508820	1176.509277	15928.497070	2211.917725	7.018772
465.864105	1177.103638	16027.393555	2225.738037	7.061373
466.219330	1175.691895	16269.398438	2245.651123	7.088777
466.574524	1172.199707	16286.264648	2247.285889	7.113151
466.929657	1172.719727	16202.004883	2240.449951	7.104331
467.284790	1176.063354	16005.622070	2226.926758	7.086276
467.639893	1178.292603	15820.015625	2217.193359	7.095482
467.994934	1177.326660	15661.304688	2213.700928	7.155315
468.349945	1177.401001	15447.386719	2198.097412	7.152750
468.704926	1175.840576	15297.592773	2188.512451	7.171007
469.059875	1168.558960	15182.125000	2182.122314	7.232729
469.414764	1166.849976	15104.479492	2182.716553	7.288661
469.769653	1164.695190	15067.106445	2174.394775	7.262766
470.124451	1174.428833	15129.668945	2172.388672	7.151148
470.479248	1170.862183	15226.559570	2169.713623	7.106381
470.834015	1171.382324	15306.137695	2181.379150	7.145485
471.188721	1170.342163	15491.968750	2196.313965	7.163794
471.543365	1175.469116	15721.713867	2219.942139	7.180362
471.898010	1176.509399	15922.331055	2241.787354	7.224270
472.252625	1175.617798	16177.338867	2269.130615	7.289249
472.607178	1178.589844	16362.054688	2285.328857	7.289107
472.961700	1180.595825	16472.171875	2291.867432	7.267214
473.316193	1173.314331	16494.906250	2292.164551	7.302441
473.670654	1165.289551	16468.677734	2291.198730	7.357254
474.025055	1158.528076	16567.203125	2287.409424	7.326272
474.379456	1163.729370	16628.501953	2289.415527	7.279035
474.733795	1161.723145	16781.492188	2290.678711	7.227735
475.088104	1160.682739	17035.904297	2324.411865	7.330475
475.442383	1157.710571	17334.453125	2346.479736	7.348631
475.796570	1164.769409	17634.933594	2370.033936	7.317866
476.150787	1171.753906	17995.970703	2383.334229	7.201407
476.504944	1172.868530	18344.970703	2407.408203	7.189217
476.859070	1165.289673	18643.443359	2433.636963	7.256758
477.213135	1169.227539	18893.248047	2454.367432	7.250838
477.567200	1163.208984	19136.146484	2472.943115	7.287257
477.921173	1165.735352	19438.408203	2503.258545	7.319801
478.275146	1163.803467	19646.306641	2517.822021	7.325948
478.629089	1177.698120	19942.701172	2539.444092	7.256838
478.983002	1179.630005	20340.890625	2558.539795	7.196342
479.336823	1173.239990	20856.998047	2604.830322	7.272953
479.690643	1166.775757	21465.091797	2639.530029	7.255549
480.044403	1167.667358	22261.021484	2699.789307	7.263529
480.398163	1169.079102	23392.724609	2767.181641	7.191001
480.751862	1173.240112	24974.109375	2881.236328	7.176193
481.105499	1175.097534	27099.318359	3013.123779	7.089996
481.459137	1182.899292	30148.328125	3214.261475	7.013057
481.812744	1168.261719	34206.000000	3494.233643	7.040349
482.166290	1157.710815	39101.285156	3843.828125	7.079241
482.519806	1152.806763	44126.453125	4224.109863	7.146946
482.873291	1163.506470	48467.964844	4581.654297	7.225848
483.226715	1170.639526	51280.691406	4835.992676	7.314607
483.580139	1167.815796	52258.738281	4953.167969	7.409050
483.933502	1161.500122	51495.425781	4904.351074	7.436040
484.286804	1166.478394	49382.628906	4743.263184	7.418229
484.640106	1176.137817	46380.203125	4484.763672	7.319311
484.993347	1177.029419	43330.003906	4243.428711	7.274456
485.346558	1174.057251	41135.027344	4051.281982	7.200087
485.699738	1166.924194	40193.535156	3981.510986	7.211969
486.052887	1167.444336	40477.667969	3993.251221	7.188478
486.405975	1163.134644	41408.312500	4067.925537	7.217736
486.759064	1161.574341	42413.480469	4152.110352	7.249450
487.112061	1168.707397	42836.261719	4188.964844	7.248463
487.464996	1173.165649	42433.988281	4179.676758	7.286600
487.817963	1176.286499	41282.441406	4095.863281	7.279622
488.170868	1173.463013	39537.371094	3971.183350	7.292584
488.523743	1176.806519	37575.628906	3830.379639	7.290272
488.876587	1175.989258	35712.933594	3697.897705	7.302060
489.229401	1177.326538	34543.410156	3617.947998	7.314678
489.582153	1175.023315	34273.691406	3581.093750	7.269387
489.934845	1174.948853	34935.503906	3609.254639	7.210503
490.287537	1172.348267	36108.078125	3672.114502	7.155328
490.640198	1169.970703	37345.664063	3762.912842	7.167636
490.992798	1173.537231	38036.457031	3832.757080	7.213807
491.345337	1173.462891	37882.574219	3822.280518	7.215696
491.697876	1176.212158	36681.246094	3734.603516	7.205714
492.050354	1172.794189	34711.187500	3586.369385	7.196454
492.402832	1170.639282	32211.494141	3412.500977	7.222294
492.755219	1167.964478	29656.521484	3232.762695	7.247817
493.107605	1169.376221	27397.642578	3076.207031	7.270137
493.459930	1171.010864	25611.400391	2956.208008	7.304291
493.812225	1169.078979	24345.580078	2864.889893	7.316941
494.164490	1171.828247	23604.710938	2815.181641	7.325645
494.516724	1175.468994	23267.822266	2787.986572	7.298985
494.868896	1180.595825	23245.755859	2796.605713	7.323808
495.221039	1173.834351	23423.562500	2791.404541	7.270067
495.573120	1165.809692	23687.408203	2811.912109	7.308995
495.925201	1162.763184	23995.318359	2822.834717	7.270634
496.277222	1167.667236	24182.490234	2848.246094	7.302159
496.629211	1172.571167	24183.232422	2842.599365	7.257628
496.981140	1181.264648	24030.689453	2831.156494	7.220715
497.333069	1183.270874	23758.146484	2807.008545	7.192676
497.684967	1179.555664	23430.697266	2783.825928	7.209834
498.036804	1167.072876	22983.615234	2758.711670	7.295559
498.388580	1166.478394	22526.802734	2729.733398	7.318499
498.740326	1166.849976	22057.208984	2694.662598	7.313482
499.092072	1173.834351	21612.728516	2653.424561	7.239091
499.443756	1179.258423	21217.142578	2616.124512	7.170747
499.795410	1183.122192	20907.373047	2586.477783	7.114874
500.147003	1180.075806	20662.917969	2566.193115	7.114554
500.498566	1172.942749	20419.279297	2545.462646	7.131331
500.850098	1176.286377	20225.869141	2546.280029	7.191726
501.201599	1169.896362	20072.880859	2534.540283	7.219198
501.553009	1165.586792	19996.421875	2527.852783	7.234230
501.904449	1157.636475	19996.273438	2522.280273	7.243856
502.255859	1163.432007	20054.898438	2527.183838	7.218877
502.607178	1164.992310	20175.123047	2535.505859	7.209385
502.958405	1171.902466	20229.955078	2537.437744	7.165135
503.309692	1165.661011	20291.626953	2544.347900	7.208456
503.660919	1163.803467	20337.322266	2550.812500	7.233983
504.012115	1154.441284	20344.306641	2558.317139	7.315715
504.363251	1156.596191	20309.980469	2541.524414	7.230723
504.714294	1158.156494	20188.123047	2518.044922	7.146037
505.065369	1168.410278	20125.412109	2507.419434	7.063402
505.416443	1168.707520	20004.968750	2512.100586	7.131952
505.767395	1164.695190	19967.220703	2523.023193	7.224178
506.118317	1164.472168	19870.775391	2514.478516	7.216853
506.469238	1162.540405	19996.273438	2517.450684	7.194061
506.820160	1164.620972	20176.904297	2525.995361	7.160499
507.170929	1166.255493	20450.634766	2534.911377	7.097226
507.521729	1175.543213	20663.289063	2540.855713	7.006005
507.872498	1180.150024	20900.685547	2555.121826	6.972284
508.223236	1174.205811	21140.980469	2577.041016	7.025847
508.573883	1169.227539	21347.765625	2597.325928	7.077313
508.924500	1162.020386	21523.640625	2612.706787	7.124611
509.275116	1154.367065	21669.496094	2619.022217	7.139390
509.625702	1153.475464	21879.625000	2636.854980	7.157043
509.976196	1160.162720	22052.750000	2647.183105	7.117454
510.326660	1165.586792	22263.695313	2662.860840	7.096722
510.677124	1164.843750	22430.429688	2655.876221	7.011481
511.027557	1163.432007	22604.296875	2659.071533	6.975649
511.377869	1164.843750	22727.197266	2663.678467	6.951165
511.728180	1168.038696	22793.697266	2675.343750	6.969985
512.078430	1173.537231	22738.564453	2673.857666	6.957192
512.428650	1182.230591	22659.580078	2654.761963	6.856206
512.778931	1179.109985	22483.335938	2647.554688	6.892739
513.129028	1179.407104	22309.687500	2634.700439	6.887241
513.479126	1169.524780	22130.619141	2621.697510	6.927944
513.829285	1173.536987	21969.306641	2599.629395	6.857608
514.179382	1171.159302	21838.386719	2595.394287	6.891273
514.529297	1170.862183	21833.630859	2608.842773	6.959283
514.879272	1172.719849	22006.609375	2622.142822	6.957045
515.229187	1164.917969	22258.349609	2626.378174	6.928508
515.579163	1175.617554	22662.478516	2634.997314	6.791964
515.928955	1167.072754	23135.117188	2667.170410	6.828544
516.278748	1170.119263	23795.445313	2699.566406	6.759890
516.628540	1167.815918	24534.236328	2744.519531	6.747733
516.978333	1172.645508	25373.634766	2791.627686	6.689736
517.327942	1178.069702	26218.978516	2846.908447	6.664450
517.677612	1175.989136	26862.439453	2903.007568	6.723461
518.027222	1183.270874	27263.302734	2919.651123	6.657892
518.376831	1180.521606	27302.312500	2925.744141	6.681098
518.726379	1179.184204	27089.210938	2905.310547	6.662001
519.075867	1174.651733	26528.968750	2885.026123	6.745890
519.425293	1178.069580	25924.291016	2851.886963	6.763931
519.774658	1176.732178	25245.833984	2799.429443	6.741827
520.124084	1174.651611	24722.076172	2754.476318	6.709119
520.473389	1171.828125	24249.287109	2716.730469	6.694421
520.822693	1168.558716	23932.384766	2695.777100	6.708971
521.171997	1168.781860	23719.287109	2676.978271	6.688082
521.521240	1166.478394	23681.017578	2668.953857	6.673357
521.870361	1171.010864	23764.166016	2670.885742	6.638626
522.219482	1174.577393	24004.906250	2686.340576	6.621732
522.568604	1174.354614	24305.162109	2705.436279	6.619232
522.917664	1175.989136	24763.685547	2725.572510	6.569456
523.266724	1177.772339	25378.166016	2756.407959	6.523181
523.615662	1180.967407	26216.376953	2802.475830	6.476860
523.964600	1174.800293	27238.115234	2872.320313	6.513063
524.313538	1171.085083	28412.837891	2953.310547	6.542257
524.662354	1163.729126	29655.626953	3035.414795	6.569186
525.011169	1169.227539	30863.416016	3115.958984	6.555934
525.359985	1167.147095	32051.000000	3184.242920	6.531231
525.708740	1174.131592	33267.113281	3271.028564	6.533818
526.057434	1172.719849	34762.753906	3352.018799	6.487933
526.406067	1172.571167	36684.070313	3477.070313	6.489444
526.754700	1173.983032	39398.050781	3624.338135	6.410503
527.103333	1173.314331	42689.363281	3837.289795	6.416737
527.451782	1172.794312	46206.562500	4070.377686	6.434246
527.800293	1163.432129	48960.292969	4280.579590	6.521657
528.148743	1158.973999	50581.355469	4408.009277	6.574016
528.497131	1154.367065	50635.074219	4425.023926	6.609963
528.845642	1161.797363	49191.222656	4313.569824	6.562170
529.193909	1164.249268	46484.675781	4132.345703	6.549136
529.542175	1170.639282	42986.574219	3890.936279	6.505407
529.890503	1171.233765	39428.589844	3664.535889	6.517184
530.238770	1171.531128	36328.457031	3456.191162	6.498464
530.586914	1169.896362	34253.699219	3319.177002	6.496474
530.934998	1164.918091	33224.906250	3237.444092	6.464525
531.283142	1162.837646	33244.519531	3226.893311	6.433752
531.631226	1161.054321	33953.152344	3247.920654	6.363930
531.979248	1168.187378	35156.707031	3322.297852	6.337759
532.327148	1170.342163	36379.730469	3391.993408	6.309827
532.675110	1174.726074	37242.753906	3459.163330	6.333691
533.023071	1166.998535	37370.031250	3467.113525	6.353377
533.370850	1175.171753	36654.574219	3430.111084	6.355630
533.718689	1176.063477	35402.718750	3336.861084	6.313201
534.066467	1178.441162	33843.031250	3228.230469	6.275264
534.414246	1178.961304	32422.882813	3120.937256	6.215532
534.761963	1178.812622	31310.275391	3059.563232	6.241817
535.109619	1182.750610	30703.445313	3020.925781	6.226734
535.457153	1173.091309	30467.904297	3005.619141	6.255469
535.804749	1174.651733	30391.296875	3001.086914	6.251352
536.152344	1175.246094	30302.656250	3003.613281	6.277136
536.499817	1179.109863	29938.275391	2991.427734	6.301705
536.847229	1177.103638	29395.939453	2958.957275	6.314412
537.194641	1168.558960	28622.599609	2902.264404	6.314937
537.542114	1169.376343	27854.380859	2849.732422	6.297005
537.889404	1166.849976	27215.822266	2796.010986	6.254224
538.236694	1176.880859	26887.406250	2774.017578	6.211996
538.583984	1177.549561	27088.244141	2779.887695	6.184080
538.931213	1174.057251	27793.898438	2826.698242	6.208305
539.278381	1162.094604	29191.458984	2905.533203	6.220043
539.625488	1163.580566	30993.521484	3024.269287	6.237655
539.972595	1163.506226	33309.238281	3160.689209	6.212903
540.319641	1167.369995	35557.046875	3295.623047	6.188639
540.666687	1161.797241	37379.394531	3402.693359	6.187313
541.013611	1168.930298	38419.339844	3469.194092	6.175137
541.360596	1164.695190	38519.644531	3481.008057	6.200819
541.707458	1165.586792	37878.410156	3437.318359	6.187842
542.054260	1165.735352	36478.699219	3357.442627	6.206523
542.401062	1173.908691	34801.687500	3259.214844	6.201142
542.747864	1167.667358	32895.523438	3154.670654	6.262646
543.094666	1166.775635	31118.724609	3037.346436	6.245239
543.441284	1167.072876	29380.632813	2931.093750	6.252387
543.787903	1167.667358	28049.427734	2846.166016	6.244006
544.134460	1171.382446	26877.671875	2780.259033	6.258688
544.481079	1162.540405	26107.302734	2724.829346	6.262994
544.827637	1168.484741	25575.367188	2678.018555	6.184869
545.174072	1160.014160	25356.322266	2659.071533	6.195397
545.520508	1172.274170	25378.390625	2665.535645	6.168942
545.866943	1171.233887	25359.369141	2664.866943	6.175065
546.213318	1169.896484	25262.031250	2658.848389	6.180241
546.559631	1171.828247	24926.185547	2637.969482	6.172094
546.905823	1173.908691	24436.677734	2603.716064	6.146333
547.252136	1178.069702	23693.947266	2565.227295	6.160798
547.598389	1168.261597	22828.468750	2505.264893	6.172625
547.944458	1173.314331	21886.384766	2450.429443	6.165745
548.290588	1181.933350	21002.851563	2388.684082	6.088269
548.636658	1192.335815	20175.937500	2344.176514	6.067556
548.982727	1188.397705	19515.906250	2301.452393	6.073137
549.328735	1175.914795	19074.771484	2257.093750	6.040492
549.674622	1176.434937	18749.029297	2230.344727	5.997463
550.020569	1176.583618	18533.773438	2225.812256	6.044922
550.366455	1181.933472	18367.929688	2228.189941	6.087843
550.712280	1172.868530	18366.591797	2227.447021	6.133509
551.058044	1171.159546	18426.181641	2238.369385	6.184923
551.403748	1176.360718	18552.052734	2245.873779	6.155226
551.749512	1180.447388	18729.931641	2250.183350	6.095541
552.095154	1181.413330	18914.351563	2247.062744	6.009435
552.440735	1172.571167	19006.708984	2238.666748	5.977836
552.786316	1166.329834	18944.148438	2235.248779	6.012655
553.131897	1168.707520	18724.880859	2216.004639	5.965406
553.477417	1173.239868	18449.738281	2211.620605	6.010366
553.822815	1177.252319	18063.437500	2202.852783	6.073606
554.168213	1166.552612	17741.484375	2181.379150	6.122659
554.513672	1159.791138	17434.835938	2163.397705	6.166536
554.859009	1158.602295	17226.341797	2139.249268	6.103204
555.204285	1172.794067	17023.570313	2127.583984	6.023616
555.549500	1174.874512	16864.935547	2107.002197	5.940880
555.894714	1168.187378	16678.285156	2094.667969	5.973403
556.239990	1161.797363	16573.742188	2086.494873	5.999876
556.585022	1169.822021	16429.816406	2089.020996	6.023587
556.930115	1180.744507	16362.871094	2079.213135	5.917936
557.275146	1176.583618	16218.723633	2071.782959	5.951277
557.620178	1167.964478	16150.364258	2067.176270	6.001788
557.965149	1164.620728	16072.867188	2061.380615	6.015194
558.310059	1163.952148	16054.959961	2055.733398	5.988723
558.654968	1169.970703	15979.022461	2043.547852	5.898941
558.999756	1163.209106	15946.551758	2038.569458	5.921261
559.344604	1168.113037	15949.229492	2036.340454	5.873896
559.689331	1167.667358	16017.585938	2038.643921	5.865194
560.033997	1165.661133	16073.983398	2048.600342	5.922459
560.378723	1166.181274	16145.907227	2050.086182	5.900675
560.723389	1158.082153	16197.844727	2058.185303	5.984823
561.067932	1161.128662	16272.592773	2049.937744	5.881688
561.412476	1166.478394	16261.968750	2048.154541	5.840659
561.757019	1174.057251	16224.890625	2039.238281	5.748393
562.101501	1179.852905	16120.346680	2042.804688	5.775925
562.445862	1176.063477	16029.401367	2037.826538	5.801814
562.790222	1171.456665	15970.700195	2042.433228	5.885278
563.134644	1175.171753	15989.871094	2047.114258	5.885658
563.478943	1170.862305	16053.698242	2064.872803	6.006990
563.823181	1175.320435	16168.941406	2061.529297	5.910573
564.167358	1168.781738	16382.562500	2071.634277	5.934439
564.511536	1169.302002	16687.873047	2075.795166	5.841344
564.855774	1166.627075	17044.226563	2094.519287	5.844033
565.199768	1170.044800	17382.750000	2105.590332	5.770447
565.543823	1170.564941	17677.509766	2132.116455	5.825133
565.887817	1175.617676	17872.109375	2151.955322	5.847561
566.231812	1177.549683	17878.201172	2164.735352	5.911060
566.575745	1177.846802	17733.533203	2151.732422	5.882484
566.919617	1176.360718	17539.009766	2129.590332	5.825644
567.263428	1169.450562	17256.138672	2105.739014	5.820269
567.607239	1170.119263	17044.597656	2087.534912	5.779186
567.950989	1164.546509	16813.515625	2077.132568	5.831605
568.294678	1173.017090	16711.425781	2060.860352	5.713862
568.638367	1171.085205	16626.943359	2068.587646	5.806875
568.981995	1173.388550	16609.111328	2065.541260	5.779792
569.325623	1173.165649	16662.013672	2076.389404	5.831446
569.669128	1176.137817	16784.912109	2079.064453	5.784738
570.012573	1180.744507	16938.568359	2096.674072	5.812538
570.356140	1172.125366	17173.736328	2115.621338	5.896256
570.699524	1164.769409	17389.214844	2123.794678	5.910990
571.042908	1160.088379	17723.130859	2131.299072	5.863721
571.386230	1165.363892	17917.804688	2132.413818	5.772591
571.729492	1172.571289	18071.982422	2138.580811	5.716232
572.072815	1168.930542	18053.779297	2140.958740	5.756807
572.416016	1165.438110	17968.033203	2139.026855	5.794276
572.759094	1161.277222	17787.107422	2132.562500	5.842026
573.102234	1164.620850	17588.271484	2118.890625	5.810339
573.445374	1167.518677	17414.253906	2100.612061	5.743267
573.788391	1165.363770	17302.875000	2086.197510	5.706169
574.131409	1158.899536	17244.025391	2078.172852	5.715052
574.474365	1157.264771	17158.876953	2078.767334	5.758811
574.817261	1162.168823	17063.990234	2070.222412	5.710375
575.160156	1173.239990	16868.054688	2062.643799	5.666864
575.502930	1172.274048	16635.857422	2052.166748	5.690096
575.845703	1177.623901	16358.635742	2039.832642	5.679521
576.188477	1180.521606	16050.502930	2019.993774	5.645415
576.531250	1180.075806	15734.122070	2006.842285	5.680664
576.873901	1175.543457	15413.803711	1984.179810	5.679320
577.216431	1168.930420	15123.352539	1975.337891	5.778867
577.559082	1165.735474	14827.256836	1952.824219	5.761355
577.901611	1157.710815	14561.327148	1938.855347	5.827864
578.244080	1159.419678	14285.143555	1920.873901	5.801236
578.586487	1167.593018	14090.172852	1911.140259	5.753860
578.928955	1202.886719	13888.589844	1932.316772	5.750017
579.271301	1198.279907	13712.715820	1914.409668	5.722430
579.613647	1190.626831	13510.834961	1902.595337	5.778868
579.955872	1161.648804	13348.112305	1863.289429	5.757541
580.298157	1165.958252	13251.742188	1853.184204	5.686234
580.640320	1174.948853	13206.343750	1846.199707	5.579161
580.982483	1175.766357	13147.570313	1837.283325	5.525625
581.324524	1179.109985	13085.453125	1845.233765	5.594697
581.666626	1183.642456	13002.381836	1838.026367	5.536833
582.008728	1183.493774	12953.266602	1842.187378	5.596486
582.350647	1181.710449	12900.586914	1827.401001	5.509833
582.692566	1175.691895	12827.250000	1828.292847	5.600976
583.034424	1169.524780	12726.792969	1813.209351	5.569521
583.376343	1160.608521	12641.196289	1821.308228	5.754929
583.718201	1160.162720	12606.200195	1819.227905	5.758021
584.059937	1165.735474	12565.112305	1822.051392	5.757472
584.401611	1167.221558	12537.023438	1810.162964	5.654816
584.743347	1166.775635	12511.686523	1811.277344	5.680976
585.085022	1168.707520	12491.252930	1816.627319	5.722387
585.426514	1178.738281	12442.362305	1828.218384	5.766173
585.768127	1176.657837	12440.504883	1828.218628	5.784532
586.109619	1172.645508	12446.820313	1821.902710	5.758800
586.451172	1164.769409	12461.235352	1817.593140	5.779008
586.792542	1160.162598	12490.288086	1813.877930	5.769710
587.133850	1165.066528	12529.296875	1819.822266	5.761549
587.475220	1168.410278	12607.463867	1819.004883	5.687486
587.816589	1172.125366	12665.270508	1817.221680	5.612879
588.157776	1165.512329	12789.504883	1820.268066	5.632796
588.498962	1167.295776	12917.602539	1825.766479	5.603860
588.840210	1165.586914	13002.753906	1830.818970	5.619859
589.181335	1171.976929	13007.583008	1837.208984	5.620600
589.522400	1175.097534	13004.461914	1840.552734	5.625452
589.863403	1178.143921	12966.344727	1840.849976	5.621774
590.204407	1181.636230	12926.593750	1842.410278	5.626024
590.545410	1175.914917	12833.789063	1827.326782	5.587741
590.886353	1178.218262	12736.972656	1822.199829	5.571375
591.227112	1167.221436	12633.617188	1811.128906	5.615605
591.567932	1165.661011	12560.875000	1816.330078	5.710021
591.908752	1163.209106	12501.433594	1811.946167	5.721681
592.249512	1169.673340	12527.512695	1815.215454	5.683670
592.590149	1168.930298	12497.570313	1816.701538	5.717997
592.930786	1174.948853	12590.968750	1825.469238	5.698312
593.271423	1179.184204	12670.471680	1821.085449	5.585982
593.612000	1181.710449	12811.647461	1821.531250	5.501498
593.952576	1177.995239	12937.515625	1822.942993	5.484473
594.292969	1172.794067	13067.026367	1830.150269	5.526680
594.633484	1175.468872	13279.010742	1847.760132	5.554500
594.973877	1172.571289	13491.515625	1857.939453	5.563530
595.314209	1180.521606	13752.764648	1872.725952	5.505814
595.654480	1179.109863	14078.731445	1881.790649	5.447298
595.994812	1175.023193	14397.788086	1897.468628	5.463649
596.335022	1167.964478	14677.684570	1911.734741	5.505445
596.675171	1163.803467	14730.588867	1918.421875	5.562249
597.015320	1169.227539	14635.406250	1921.468384	5.586149
597.355408	1168.112915	14330.096680	1905.716187	5.604043
597.695496	1164.026367	13921.804688	1884.614258	5.648224
598.035461	1158.453613	13433.487305	1856.230469	5.684521
598.375366	1152.212158	12998.518555	1825.394897	5.682638
598.715271	1161.054321	12639.709961	1796.862671	5.539049
599.055176	1167.964478	12328.084961	1781.704956	5.499407
599.395081	1175.766235	12112.383789	1773.606079	5.466405
599.734802	1172.348267	11919.047852	1768.256348	5.545033
600.074524	1169.376343	11877.290039	1753.544434	5.455480
600.414246	1169.970581	11830.924805	1753.024048	5.469055
600.753906	1171.679565	11859.531250	1755.550415	5.462939
601.093506	1175.543335	11894.973633	1763.203613	5.482197
601.433044	1175.171753	12025.747070	1771.748413	5.498111
601.772583	1180.521606	12255.713867	1776.503784	5.381236
602.112122	1184.088135	12533.531250	1794.708008	5.380175
602.451538	1182.007690	12883.793945	1814.323853	5.403587
602.790894	1171.828369	13235.840820	1842.112915	5.556067
603.130310	1162.763428	13639.378906	1865.443970	5.631980
603.469604	1161.277344	14018.026367	1879.933228	5.589717
603.808838	1175.989136	14353.949219	1898.286011	5.481098
604.148010	1180.893066	14620.398438	1905.641968	5.392675
604.487305	1176.955078	14704.434570	1916.044067	5.463612
604.826416	1161.277222	14624.410156	1902.521118	5.505731
605.165527	1153.326782	14306.171875	1884.539917	5.559353
605.504456	1154.367065	13906.051758	1855.116089	5.495345
605.843445	1158.899536	13453.695313	1835.871582	5.506167
606.182434	1161.054321	13052.164063	1819.970703	5.541253
606.521423	1167.221313	12672.106445	1809.048218	5.578734
606.860229	1170.193481	12336.257813	1797.531250	5.618253
607.199036	1173.611450	12104.209961	1782.893921	5.574100
607.537903	1172.199829	12049.523438	1770.410767	5.499615
607.876648	1169.450562	12142.328125	1763.723633	5.415836
608.215271	1166.329712	12341.161133	1774.348999	5.440971
608.553955	1161.871704	12538.583008	1792.330444	5.541661
608.892578	1160.385620	12703.760742	1802.286743	5.560775
609.231140	1157.116333	12810.235352	1802.286743	5.536461
609.569641	1162.911987	12815.734375	1801.172241	5.477302
609.908081	1165.215210	12737.566406	1799.834839	5.483930
610.246521	1173.314209	12533.753906	1795.302368	5.475036
610.584961	1165.958130	12243.899414	1780.516113	5.547583
610.923340	1162.094360	11926.254883	1768.256226	5.631297
611.261597	1164.992310	11567.002930	1754.064453	5.663060
611.599854	1172.571167	11311.473633	1740.912720	5.605553
611.938110	1181.933472	11068.503906	1722.560059	5.468293
612.276245	1177.475220	10879.032227	1703.835815	5.425527
612.614319	1171.531128	10679.306641	1687.489258	5.426697
612.952393	1164.918091	10521.785156	1677.978394	5.483249
613.290466	1167.221558	10432.770508	1678.498413	5.518042
613.628479	1168.484741	10300.661133	1674.932007	5.545745
613.966370	1174.651733	10233.045898	1664.975464	5.412921
614.304260	1174.800415	10123.522461	1652.418335	5.337276
614.642151	1180.373169	10058.657227	1647.662720	5.263287
614.979980	1183.270874	9987.326172	1647.885742	5.277282
615.317749	1174.874634	9981.084961	1651.154907	5.408459
615.655396	1176.212036	9949.655273	1651.526489	5.417650
615.993164	1166.329956	9927.289063	1654.647461	5.573791
616.330811	1167.593018	9874.831055	1650.560669	5.546738
616.668396	1164.546509	9867.698242	1649.074707	5.567273
617.005859	1166.701294	9879.215820	1648.777344	5.533145
617.343445	1175.543335	9906.930664	1649.000366	5.422472
617.680908	1171.828125	9956.862305	1646.399780	5.402047
618.018311	1172.125488	9955.153320	1640.678345	5.334754
618.355652	1168.856079	9961.840820	1632.505005	5.272942
618.692993	1175.246094	9927.364258	1630.573242	5.202479
619.030273	1176.657837	9883.748047	1637.334595	5.290823
619.367554	1174.948975	9809.816406	1638.003540	5.362614
619.704712	1168.113159	9749.631836	1633.991211	5.428854
620.041870	1164.174927	9730.758789	1630.498901	5.443523
620.379028	1170.416504	9699.329102	1636.145874	5.460595
620.716064	1169.822144	9688.182617	1640.158203	5.521439
621.053040	1171.456665	9653.780273	1641.421387	5.540519
621.389954	1165.735352	9640.851563	1636.740356	5.557505
621.726929	1168.781738	9613.286133	1625.966431	5.413991
622.063843	1172.868408	9588.393555	1614.226563	5.244570
622.400635	1169.376221	9572.938477	1618.313110	5.342221
622.737427	1171.159546	9569.818359	1626.189453	5.417888
623.074219	1163.580688	9593.744141	1629.087280	5.521917
623.410889	1169.153320	9651.032227	1624.034546	5.362977
623.747559	1170.490845	9727.118164	1623.291504	5.291812
624.084167	1168.484619	9796.888672	1628.641235	5.333044
624.420715	1164.695190	9883.375977	1631.910767	5.358788
624.757324	1157.562134	9984.874023	1640.381226	5.469605
625.093750	1166.106934	10127.609375	1646.399780	5.359513
625.430176	1168.558960	10308.387695	1660.665649	5.384200
625.766602	1173.388672	10482.924805	1680.281738	5.444880
626.102905	1171.679688	10660.731445	1693.061890	5.494566
626.439209	1176.063599	10767.058594	1696.851196	5.429964
626.775452	1172.645508	10842.104492	1692.838867	5.379756
627.111694	1172.794067	10791.281250	1694.176392	5.420627
627.447876	1171.085083	10710.663086	1689.792603	5.437426
627.783997	1172.422729	10558.491211	1690.981445	5.524770
628.120056	1170.267944	10420.807617	1684.739868	5.561534
628.456055	1165.512573	10214.766602	1680.578979	5.691811
628.792053	1163.283569	10033.319336	1665.718384	5.664405
629.128052	1159.716919	9882.188477	1651.898071	5.642680
629.463928	1153.029663	9784.851563	1640.901367	5.652013
629.799744	1156.893433	9701.409180	1628.195435	5.515842
630.135559	1160.831421	9617.967773	1618.833374	5.415567
630.471375	1170.936646	9498.117188	1620.765259	5.401932
630.807068	1171.679565	9389.932617	1620.022339	5.455451
631.142700	1171.456665	9319.196289	1621.731323	5.526375
631.478333	1169.078979	9267.925781	1615.861328	5.516617
631.813965	1165.809692	9231.815430	1610.808594	5.516967
632.149475	1160.608521	9180.324219	1606.573364	5.560856
632.484924	1160.459839	9217.327148	1606.424805	5.535215
632.820435	1158.825073	9223.493164	1608.356567	5.574086
633.155884	1164.992310	9248.682617	1613.260742	5.545344
633.491150	1161.945923	9255.889648	1612.889038	5.571364
633.826477	1163.060425	9267.778320	1628.344116	5.740900
634.161804	1158.453735	9273.574219	1632.579468	5.842498
634.497009	1166.032593	9198.454102	1626.337891	5.730592
634.832153	1175.766235	9117.612305	1610.140015	5.469431
635.167297	1178.738281	9004.078125	1599.514648	5.377100
635.502380	1164.472168	8918.184570	1600.183472	5.619390
635.837463	1163.283325	8832.661133	1594.313477	5.620145
636.172424	1166.181274	8762.222656	1592.010132	5.605931
636.507324	1181.116089	8675.958008	1581.830688	5.346539
636.842224	1177.846802	8597.123047	1578.338379	5.397987
637.177124	1176.806519	8513.383789	1571.576782	5.380851
637.511963	1175.097534	8455.055664	1572.394165	5.457403
637.846741	1171.382446	8393.458008	1573.657349	5.570073
638.181396	1176.286499	8322.500000	1575.068970	5.580333
638.516113	1176.732300	8267.367188	1574.548828	5.610450
638.850769	1182.825073	8212.085938	1567.044434	5.466000
639.185303	1177.400879	8151.083496	1562.288940	5.519151
639.519836	1178.441162	8078.563965	1557.756470	5.497225
639.854370	1174.280151	8033.387207	1550.846313	5.490017
640.188843	1169.970703	7974.093750	1545.719604	5.522371
640.523254	1156.150269	7923.270020	1540.295410	5.676642
640.857605	1159.865356	7847.556152	1551.217896	5.851833
641.191895	1164.026489	7814.342285	1548.691528	5.784162
641.526184	1172.942749	7775.185547	1546.759766	5.661970
641.860413	1168.558960	7728.077637	1539.775269	5.659201
642.194580	1162.243164	7693.377441	1539.106445	5.770258
642.528748	1164.249390	7664.028809	1538.958008	5.764944
642.862793	1160.534180	7656.078125	1532.047852	5.719516
643.196838	1169.153442	7630.889160	1521.868286	5.458515
643.530823	1164.175171	7599.607910	1515.626953	5.461199
643.864746	1171.605225	7577.391113	1520.828125	5.451679
644.198669	1169.524780	7552.276855	1529.818726	5.644806
644.532532	1172.719849	7516.091309	1540.369629	5.795810
644.866333	1174.428833	7502.494141	1544.307617	5.845053
645.200073	1181.413208	7487.931152	1549.137329	5.830858
645.533813	1180.670166	7539.199707	1549.508789	5.800691
645.867554	1182.304810	7578.060059	1552.926758	5.794811
646.201172	1175.989136	7621.824707	1550.474976	5.809733
646.534729	1180.744629	7638.691406	1541.261353	5.582529
646.868225	1173.908691	7647.310059	1533.013672	5.547392
647.201782	1172.496948	7643.892578	1531.378906	5.545666
647.535217	1167.370117	7628.214844	1537.174683	5.723781
647.868591	1175.840454	7613.947754	1537.694702	5.620507
648.201965	1171.828125	7589.874512	1541.186890	5.755003
648.535278	1174.428711	7558.740723	1540.963989	5.741187
648.868591	1173.091309	7547.596191	1540.295410	5.760512
649.201782	1183.642334	7545.738281	1541.187012	5.619920
649.534912	1185.202759	7564.313965	1550.772095	5.730725
649.868103	1177.623901	7554.283203	1553.446899	5.893729
650.201172	1168.187378	7564.686035	1550.400391	5.975348
650.534180	1168.038696	7561.416504	1546.090942	5.913185
650.867188	1169.078979	7569.738281	1547.725586	5.915744
651.200134	1169.821899	7576.500000	1556.419067	6.034284
651.533020	1169.821899	7555.769531	1558.276733	6.082963
651.865845	1173.314209	7511.187500	1560.877319	6.115034
652.198608	1171.085205	7466.234375	1560.431519	6.184862
652.531433	1169.896362	7417.640625	1560.431519	6.250819
652.864136	1174.503052	7381.752441	1555.378906	6.135984
653.196777	1239.369507	7396.019043	1623.440063	6.238305
653.529358	1242.415894	7343.783691	1624.406128	6.260731
653.861938	1233.796753	7292.366699	1624.108887	6.442315
654.194519	1166.924316	7157.506348	1552.332520	6.433568
654.526978	1166.552856	7156.466797	1548.914551	6.383425
654.859375	1166.329834	7122.287109	1550.326172	6.447265
655.191833	1176.063477	7140.416504	1551.886597	6.301155
655.524170	1174.131592	7100.665527	1544.828003	6.254860
655.856445	1177.400879	7124.664551	1547.131348	6.216816
656.188660	1181.561890	7141.308594	1549.880493	6.180105
656.520874	1179.778564	7192.131348	1552.852539	6.205125
656.853088	1172.719849	7247.710449	1548.171509	6.180284
657.185181	1168.335938	7310.049316	1548.542969	6.190569
657.517212	1169.376099	7444.686035	1559.985718	6.224547
657.849243	1172.496826	7596.486816	1580.418945	6.349980
658.181274	1170.787964	7800.820313	1597.805664	6.440658
658.513123	1174.428711	7973.277344	1611.625977	6.430460
658.844971	1179.704346	8145.436035	1619.130493	6.308399
659.176819	1179.555664	8236.605469	1624.777710	6.308897
659.508667	1172.274048	8264.543945	1629.235840	6.443096
659.840393	1170.416382	8238.537109	1628.864258	6.486135
660.172058	1171.010864	8164.383301	1623.291504	6.467275
660.503662	1179.184204	8039.852051	1620.765259	6.436415
660.835266	1176.880737	7866.280762	1613.260742	6.523455
661.166931	1174.800293	7688.474121	1598.994629	6.512367
661.498413	1168.261719	7512.525391	1582.350708	6.526983
661.829773	1167.518677	7354.558105	1575.737793	6.597971
662.161194	1172.496948	7200.825684	1574.623169	6.670609
662.492615	1170.862305	7070.795410	1573.434570	6.823336
662.823975	1166.626953	6960.976563	1563.032104	6.841236
663.155212	1166.552612	6871.738281	1555.899048	6.824431
663.486450	1169.970581	6791.045410	1552.852539	6.811543
663.817627	1170.193481	6709.387207	1553.075562	6.912235
664.148743	1160.682739	6655.963379	1545.273804	6.998570
664.479858	1152.212280	6584.707031	1543.564819	7.203919
664.810913	1158.007935	6561.524902	1544.679321	7.155921
665.141907	1165.586792	6528.980469	1559.019531	7.335519
665.472778	1176.063477	6540.274902	1553.744141	7.040749
665.803711	1174.726074	6516.869141	1554.412720	7.107385
666.134583	1176.212036	6507.804199	1544.382202	6.905445
666.465454	1181.487671	6499.185059	1551.366577	6.955622
666.796143	1188.397705	6474.813965	1550.029175	6.840768
667.126831	1185.871460	6457.501465	1559.094116	7.079834
667.457458	1182.304810	6444.869629	1557.979492	7.138623
667.788147	1178.366821	6490.714355	1556.121948	7.110888
668.118774	1175.320435	6536.633301	1559.688477	7.169290
668.449219	1161.425781	6564.794434	1565.707031	7.482022
668.779663	1161.054199	6560.113281	1577.521118	7.713695
669.110107	1160.905640	6542.429688	1576.183594	7.716735
669.440552	1168.781738	6539.828613	1578.338379	7.625267
669.770874	1167.518677	6520.361328	1578.784180	7.683123
670.101135	1177.326538	6489.228027	1578.784180	7.557702
670.431396	1182.601929	6426.219238	1573.137329	7.447824
670.761597	1184.310913	6367.743652	1562.883423	7.303510
671.091797	1177.103638	6309.192871	1553.521118	7.334586
671.421875	1172.719849	6284.003906	1562.214478	7.620289
671.751892	1174.205933	6265.576660	1561.917480	7.615072
672.081909	1178.366821	6243.880371	1573.731567	7.805027
672.411865	1181.190430	6228.797363	1570.313843	7.709067
672.741821	1175.469116	6179.979980	1568.901855	7.861562
673.071716	1176.286499	6182.654785	1562.363281	7.711714
673.401550	1179.332886	6126.779785	1563.552246	7.766013
673.731262	1180.298828	6114.519531	1575.217773	8.003675
674.060974	1176.360718	6071.274902	1580.047363	8.247063
674.390625	1170.862305	6044.154785	1578.561157	8.365984
674.720276	1172.199707	6010.197754	1575.960571	8.345618
675.049927	1170.862305	5969.480469	1573.062866	8.381591
675.379395	1166.255493	5970.075684	1574.326172	8.494712
675.708923	1167.295776	5952.911621	1572.617065	8.469575
676.038330	1166.775513	5952.762207	1579.675781	8.627275
676.367737	1175.097534	5952.911621	1572.542847	8.318560
676.697083	1176.657959	5977.431152	1572.171265	8.238533
677.026428	1177.995361	5999.944824	1570.462280	8.139175
677.355652	1178.218262	6021.714844	1579.452759	8.283984
677.684875	1181.710571	6054.408203	1594.536255	8.472220
678.013977	1185.276978	6083.238281	1602.709595	8.522578
678.343079	1183.419434	6131.088379	1606.573364	8.552592
678.672180	1181.116089	6184.437988	1609.248413	8.556962
679.001221	1178.812622	6255.546387	1615.935547	8.610318
679.330139	1178.812622	6320.040527	1623.588867	8.651168
679.659058	1174.280151	6371.310059	1626.783813	8.706967
679.987976	1175.617676	6442.416504	1636.666016	8.753862
680.316772	1175.171753	6491.605469	1646.325317	8.862211
680.645630	1171.382446	6521.252441	1645.953735	8.870707
680.974304	1171.605347	6492.497559	1650.263550	8.995826
681.302979	1170.119141	6448.361816	1656.133301	9.207878
681.631653	1173.908691	6411.433594	1674.263306	9.553265
681.960266	1169.970703	6378.220215	1673.223022	9.662600
682.288757	1170.119263	6327.768066	1665.644165	9.607574
682.617249	1169.524902	6237.861816	1657.619507	9.630272
682.945679	1176.955078	6132.128906	1653.755737	9.622279
683.274109	1177.400879	6036.799316	1647.736938	9.678895
683.602478	1180.372925	5948.081543	1637.706177	9.592307
683.930725	1174.428833	5886.484375	1625.966431	9.582603
684.259033	1181.041748	5809.506348	1626.709473	9.628845
684.587280	1178.218262	5756.900391	1625.892212	9.777354
684.915344	1177.400879	5703.922363	1628.790039	9.972098
685.243469	1173.091309	5662.907715	1630.127441	10.179395
685.571533	1172.422729	5644.406250	1624.629028	10.111985
685.899536	1175.617676	5591.502441	1622.177124	10.112570
686.227539	1175.394775	5580.134277	1621.805664	10.134786
686.555420	1181.190308	5569.880859	1624.108887	10.092272
686.883301	1179.035522	5597.595703	1633.768188	10.291422
687.211121	1175.097534	5626.053223	1629.755859	10.214848
687.538940	1168.038818	5649.532715	1635.700195	10.435390
687.866638	1161.945923	5652.728027	1635.254272	10.539553
688.194336	1166.478516	5652.356934	1644.170532	10.648795
688.521973	1171.976807	5624.716309	1643.799194	10.596228
688.849609	1173.834351	5580.802734	1642.610352	10.637154
689.177063	1173.091187	5520.097656	1640.975586	10.763371
689.504578	1169.821899	5437.621582	1639.118042	10.996208
689.832031	1176.509155	5366.142578	1639.935181	11.061255
690.159485	1177.252197	5311.084473	1634.065430	11.050600
690.486816	1182.899292	5283.889648	1625.000488	10.780353
690.814087	1186.020020	5244.880371	1612.740601	10.513310
691.141296	1190.998291	5189.822266	1605.533203	10.366421
691.468506	1183.493774	5147.172363	1609.694214	10.752648
691.795715	1176.955200	5110.020996	1604.790039	10.877896
692.122803	1175.394775	5060.163574	1601.372192	10.965322
692.449829	1181.561890	5016.399902	1594.090454	10.757393
692.776855	1181.710449	5010.975586	1596.319702	10.827384
693.103821	1173.685791	4980.511230	1597.805664	11.141038
693.430664	1163.952026	4961.563965	1610.660034	11.762866
693.757568	1163.432007	4941.502441	1618.536133	12.045941
694.084351	1163.208984	4946.629395	1624.183105	12.184057
694.411133	1170.787964	4934.443848	1625.223511	12.074312
694.737854	1173.239868	4915.199219	1619.353516	11.921926
695.064575	1180.447266	4922.406738	1626.040894	11.908030
695.391174	1177.921021	4930.431152	1616.381470	11.684457
695.717773	1179.852905	4945.737793	1623.440063	11.779096
696.044250	1173.091309	4959.483887	1630.573242	12.082264
696.370789	1178.366821	5010.381348	1652.195313	12.364997
696.697205	1169.301880	5092.782715	1662.746460	12.576704
697.023621	1177.029297	5224.744629	1671.959839	12.227405
697.349915	1171.902466	5370.897949	1696.405273	12.491149
697.676208	1171.010864	5535.329590	1725.457642	12.704085
698.002380	1163.952148	5710.535156	1765.581177	13.232553
698.328674	1164.992310	5890.720215	1793.147583	13.292243
698.654724	1169.227539	6055.968750	1819.599243	13.308904
698.980896	1168.558716	6146.543457	1835.203003	13.391850
699.306946	1168.781738	6182.060547	1836.391724	13.316833
699.632935	1174.354492	6126.259277	1826.286621	13.165280
699.958862	1180.298706	6017.777344	1811.277344	13.043544
700.284729	1182.825073	5836.924316	1787.426147	12.990722
700.610596	1179.555664	5632.071777	1775.983521	13.395299
700.936340	1176.212036	5439.776367	1749.308960	13.441732
701.262146	1174.131592	5242.948730	1730.064575	13.663258
701.587830	1184.534058	5095.755371	1715.649902	13.579285
701.913513	1182.825073	4954.431641	1698.337280	13.668240
702.239075	1182.379272	4851.225098	1692.170288	13.895134
702.564697	1164.472290	4760.872559	1679.612915	14.323784
702.890137	1156.893433	4671.561035	1675.303589	14.749907
703.215698	1158.156616	4609.518066	1669.284790	14.809465
703.541016	1163.357788	4528.973633	1661.185913	14.791592
703.866455	1169.227661	4490.708008	1657.024902	14.686139
704.191711	1165.884155	4442.410645	1656.207520	14.964731
704.517029	1163.506470	4427.253418	1650.709106	14.927708
704.842163	1166.775757	4393.965820	1654.201538	15.103722
705.167419	1165.958374	4375.092773	1641.941528	14.832136
705.492493	1166.775757	4341.433594	1648.257324	15.166409
705.817566	1158.899536	4311.860840	1650.635132	15.595991
706.142578	1160.014160	4297.074707	1658.659790	15.895314
706.467590	1164.472168	4315.873535	1659.922852	15.721599
706.792480	1171.159546	4324.938965	1657.693848	15.427025
707.117371	1173.016968	4346.783691	1660.220093	15.350944
707.442200	1170.936523	4340.690918	1666.015625	15.618848
707.766907	1171.828247	4358.449219	1665.198120	15.482539
708.091675	1168.930420	4364.318848	1675.303345	15.846992
708.416321	1163.209106	4376.430176	1673.668945	15.886234
708.741028	1162.763184	4404.814453	1685.780151	16.132286
709.065552	1170.267822	4420.566406	1691.724243	16.043339
709.390137	1180.670288	4445.086426	1696.925415	15.814624
709.714600	1178.292358	4455.116699	1699.228882	15.897604
710.039063	1168.261597	4478.373535	1701.012207	16.094641
710.363403	1163.729248	4497.766113	1716.690063	16.585323
710.687744	1173.017090	4534.249512	1733.408203	16.672192
711.012085	1178.886841	4572.366699	1741.209961	16.570692
711.336304	1180.001465	4615.759277	1740.169556	16.304062
711.660461	1172.125366	4627.722168	1735.191406	16.294321
711.984619	1170.490845	4630.248535	1737.940796	16.401436
712.308716	1170.713745	4603.425293	1742.918945	16.669189
712.632751	1169.376343	4561.592773	1744.330688	16.949224
712.956726	1179.555786	4499.772949	1746.485474	17.075077
713.280701	1185.351440	4454.596680	1740.318359	16.975384
713.604553	1181.413452	4414.547852	1741.804321	17.332743
713.928467	1162.911987	4390.324707	1739.500977	17.865364
714.252258	1157.339233	4376.876465	1738.312134	18.045231
714.575989	1169.599121	4357.260254	1738.683594	17.852728
714.899719	1180.521606	4352.282227	1737.643433	17.565065
715.223267	1180.521606	4336.232910	1738.237793	17.673231
715.546936	1174.874634	4352.950684	1744.330688	17.918262
715.870422	1174.057251	4370.486328	1755.624634	18.194283
716.193970	1171.828247	4379.550781	1765.284180	18.500849
716.517395	1172.051147	4360.009277	1760.900269	18.471045
716.840820	1169.524780	4317.582520	1751.984009	18.502178
717.164124	1167.890137	4248.853027	1749.606079	18.880978
717.487488	1162.317505	4179.379395	1735.637329	19.002586
717.810730	1158.825195	4102.922363	1725.829224	19.259012
718.133972	1163.357788	4050.984375	1713.717896	19.059256
718.457092	1162.614746	4004.544922	1717.507324	19.525202
718.780212	1170.936646	3960.112061	1708.442383	19.271135
719.103210	1175.840698	3908.917236	1695.142212	19.000620
719.426208	1185.276978	3851.555908	1676.492188	18.423250
719.749207	1184.533936	3799.841064	1668.616211	18.509577
720.072083	1177.103638	3770.788818	1662.151978	18.701128
720.394958	1168.633179	3748.720947	1667.204468	19.323811
720.717773	1170.639404	3728.807861	1675.675171	19.742085
721.040527	1165.958374	3704.956299	1681.470703	20.303770
721.363281	1168.113159	3682.665283	1680.727539	20.385910
721.685913	1162.986206	3652.201172	1670.399414	20.384468
722.008545	1164.323608	3616.164795	1668.393188	20.558817
722.331055	1167.890259	3592.610596	1663.860840	20.454756
722.653503	1169.079102	3589.044189	1665.569946	20.516447
722.976013	1168.558960	3592.833740	1670.325195	20.697580
723.298401	1163.060547	3595.508789	1670.547974	20.863235
723.620789	1155.407227	3581.019531	1670.770996	21.246750
723.943115	1154.961548	3575.000977	1671.291016	21.335579
724.265381	1159.939819	3573.589111	1675.972168	21.379755
724.587585	1168.038818	3582.282471	1674.857788	20.992867
724.909790	1176.955200	3582.208252	1671.588379	20.564705
725.231873	1168.707520	3578.939209	1676.566528	21.070963
725.553894	1170.787964	3589.266846	1689.866699	21.463024
725.875916	1200.954956	3656.659912	1727.909668	21.458387
726.197937	1206.453247	3688.981445	1732.293579	21.181644
726.519775	1208.385132	3689.798828	1727.761230	20.930655
726.841675	1172.199585	3662.158447	1690.535522	20.817047
727.163513	1177.177856	3673.823486	1696.405273	20.797003
727.485291	1167.741577	3707.408447	1710.151367	21.357515
727.806946	1171.828125	3740.398682	1723.377319	21.473001
728.128662	1170.193604	3752.213135	1731.847778	21.752514
728.450256	1174.726074	3784.832031	1741.953003	21.731951
728.771790	1173.611450	3771.531982	1755.624634	22.403042
729.093323	1166.998535	3769.079834	1754.658813	22.584240
729.414795	1166.701294	3733.117188	1748.194336	22.657785
729.736145	1166.329712	3714.615967	1737.271973	22.404951
730.057495	1177.921021	3713.649658	1735.562866	21.991386
730.378845	1180.744385	3727.098389	1740.912720	21.998840
730.700134	1184.385254	3732.076904	1761.345825	22.646404
731.021301	1179.184082	3735.494873	1777.543945	23.407164
731.342468	1170.193604	3761.203857	1791.587280	23.982679
731.663574	1161.425781	3793.525635	1793.667603	24.020435
731.984680	1154.441406	3810.169189	1790.695679	23.957811
732.305664	1162.168823	3798.726807	1785.717285	23.650093
732.626648	1169.524780	3792.485352	1780.590332	23.296789
732.947571	1170.267822	3795.977539	1785.940063	23.447842
733.268433	1173.314331	3797.760498	1785.940063	23.343046
733.589233	1171.456665	3790.701904	1790.324097	23.627703
733.909973	1177.698120	3753.699219	1779.772949	23.372461
734.230713	1180.075806	3705.476807	1776.057983	23.599508
734.551331	1175.097534	3651.309814	1775.612183	24.251339
734.871948	1172.645508	3605.911133	1777.544067	24.859537
735.192505	1161.797241	3579.310547	1774.348999	25.338095
735.513062	1167.369995	3538.889893	1767.513062	25.306261
735.833435	1171.456787	3514.147217	1765.878418	25.373461
736.153931	1173.760132	3476.995850	1760.602905	25.479057
736.474304	1175.097534	3458.865967	1754.807251	25.383909
736.794617	1179.184204	3435.237549	1741.581543	24.928371
737.114807	1178.515503	3432.562500	1742.101685	25.003304
737.434998	1173.537109	3425.206787	1734.597046	24.917507
737.755188	1160.459961	3439.621826	1746.188354	25.699289
738.075256	1162.391724	3450.024170	1741.432983	25.311815
738.395325	1163.357788	3474.395264	1752.578247	25.495928
738.715271	1170.787964	3485.614990	1760.083008	25.457411
739.035278	1166.849976	3498.394775	1768.702026	25.813444
739.355164	1163.803467	3504.041748	1770.782349	25.936626
739.675049	1167.444336	3489.330078	1770.113647	25.956028
739.994873	1166.924194	3465.924805	1764.169434	25.978474
740.314636	1171.382446	3423.646484	1762.683472	26.253626
740.634277	1171.976929	3404.104736	1749.457520	25.871304
740.953979	1177.326660	3361.751953	1747.525513	26.102922
741.273499	1175.989136	3338.049561	1740.615601	26.115202
741.593140	1171.753906	3301.864258	1749.977539	27.145243
741.912598	1170.565063	3277.121338	1742.695923	27.159534
742.232117	1181.859009	3238.484131	1740.169556	27.146931
742.551453	1180.521606	3201.406982	1723.600220	26.873301
742.870850	1182.602173	3170.051025	1721.891235	27.134739
743.190063	1177.103638	3156.528076	1703.761353	26.606609
743.509338	1185.054077	3154.447510	1696.999878	25.995100
743.828552	1183.270874	3141.890625	1698.931641	26.327763
744.147705	1178.441040	3119.748291	1713.495117	27.561535
744.466797	1171.679688	3082.225586	1726.497925	29.039776
744.785828	1175.766357	3076.132813	1725.829102	28.945087
745.104858	1175.617676	3066.399170	1719.587769	28.769590
745.423706	1178.218262	3053.098877	1712.677734	28.506321
745.742615	1174.131714	3033.928711	1715.352661	29.101076
746.061401	1178.515503	3043.216553	1712.603516	28.642017
746.380249	1178.515503	3056.368164	1705.470337	28.061563
746.698975	1181.710571	3057.036865	1697.965820	27.528822
747.017639	1176.435059	3046.708984	1702.498047	28.127590
747.336304	1167.815796	3052.132813	1705.841797	28.552839
747.654907	1166.701294	3054.807861	1713.420532	28.955952
747.973389	1166.255493	3053.469971	1716.021118	29.131062
748.291931	1166.998535	3040.095703	1723.451538	29.707642
748.610352	1170.267944	3035.934814	1719.513672	29.439646
748.928711	1180.373047	3041.804688	1724.640625	29.239193
749.247070	1190.181030	3049.606445	1724.343384	28.727280
749.565308	1187.134521	3046.337158	1729.544434	29.174330
749.883545	1176.360718	3038.684326	1721.965698	29.297001
750.201782	1173.314331	3011.415039	1718.399048	29.654779
750.519836	1165.586792	3001.681641	1712.751953	29.800484
750.837952	1164.918091	2983.923096	1720.033691	30.517542
751.155884	1158.528076	2983.031250	1719.513550	30.747301
751.473877	1160.088501	2975.526611	1718.250366	30.745298
751.791809	1167.815918	2968.690674	1713.346313	30.292522
752.109619	1164.695190	2977.458740	1710.448608	30.106155
752.427490	1167.592896	2972.628906	1717.730103	30.477907
752.745300	1169.227661	2973.372070	1716.615601	30.340584
753.062988	1176.806519	2965.941650	1722.039673	30.474678
753.380615	1181.264648	2971.960205	1719.736450	30.070539
753.698303	1171.530884	2969.879639	1720.182251	30.508619
754.015808	1178.292603	2964.901367	1726.200806	30.667498
754.333374	1175.840576	2956.654053	1732.813843	31.276339
754.650757	1177.995483	2959.923096	1734.968384	31.256763
754.968262	1165.438232	2964.530029	1734.671265	31.640022
755.285583	1165.958252	2966.758789	1728.207031	31.222157
755.602905	1163.877808	2959.551514	1728.727051	31.456118
755.920105	1166.329712	2950.858154	1723.674438	31.232044
756.237305	1162.614624	2942.908203	1719.513550	31.281298
756.554443	1165.363892	2938.152588	1719.662109	31.267021
756.871582	1171.382324	2942.313232	1729.470093	31.513807
757.188599	1176.360596	2955.761963	1745.519531	31.985979
757.505615	1179.407104	2970.771484	1754.138672	32.083454
757.822510	1171.679565	2989.718750	1760.528687	32.389244
758.139465	1172.199707	3002.498779	1764.243774	32.346848
758.456238	1162.391724	3022.634766	1771.896973	32.764816
758.773010	1169.078979	3041.879150	1779.550171	32.596706
759.089783	1165.140991	3065.135742	1794.559204	33.127365
759.406433	1169.970581	3091.513428	1796.045288	32.581875
759.723145	1166.701294	3100.801514	1802.881226	32.892811
760.039673	1170.045044	3113.209717	1799.760376	32.406689
760.356201	1171.085327	3113.432861	1812.168945	33.005608
760.672668	1171.010986	3105.927979	1813.952271	33.228367
760.989136	1167.815918	3096.417236	1815.512695	33.583755
761.305481	1167.964478	3098.943604	1817.816040	33.653992
761.621826	1167.815918	3105.110596	1817.518921	33.536613
761.938049	1169.079102	3118.114014	1828.515625	33.834003
762.254333	1171.902466	3143.599609	1837.432007	33.754147
762.570496	1172.868530	3214.558594	1862.026001	33.754265
762.886597	1176.880737	3339.758545	1901.183716	33.487926
763.202637	1180.372925	3519.348389	1965.975708	33.587471
763.518677	1176.657837	3741.364990	2039.758423	33.652988
763.834656	1171.902466	3938.490234	2116.587158	34.146202
764.150574	1161.425903	4061.461670	2171.348633	34.824493
764.466370	1164.175049	4083.083252	2184.351318	34.950611
764.782288	1162.911987	4022.006592	2156.933838	34.767014
765.097961	1162.911865	3901.487305	2104.698975	34.389671
765.413696	1158.082153	3735.049072	2049.417725	34.588554
765.729309	1160.162720	3553.378906	1995.548218	34.906395
766.044861	1169.153320	3403.733398	1946.062622	34.767574
766.360474	1177.921021	3298.520752	1910.025757	34.523479
766.675903	1179.184204	3220.205811	1880.230347	34.347805
766.991394	1176.137817	3151.401367	1854.373047	34.336441
767.306763	1170.936523	3089.581299	1845.382446	35.152203
767.622131	1166.626953	3052.355469	1834.682739	35.426933
767.937378	1167.221558	3004.133057	1816.627319	35.353134
768.252625	1172.794067	2969.731201	1801.172363	34.969410
768.567810	1174.874634	2933.991211	1788.392212	34.876461
768.882996	1175.766235	2900.778076	1791.884399	35.716751
769.197998	1175.543457	2869.496826	1779.104492	35.630322
769.513062	1179.778687	2836.952148	1771.451172	35.703716
769.828064	1180.447388	2812.952393	1763.946655	35.742573
770.142944	1175.097534	2790.884766	1756.962280	36.011223
770.457825	1165.661011	2772.977783	1756.219116	36.741863
770.772705	1152.806763	2762.203857	1752.949829	37.289932
771.087402	1152.806763	2749.646484	1748.640259	37.313293
771.402100	1159.048218	2742.216064	1746.188354	37.086411
771.716736	1164.917969	2725.126709	1730.881958	36.274891
772.031372	1167.221436	2701.126709	1714.758301	35.695610
772.345947	1164.769409	2678.464600	1700.120605	35.367172
772.660461	1173.314209	2664.792725	1702.721069	35.495441
772.974854	1168.113037	2645.771240	1711.414673	36.767746
773.289246	1173.834351	2621.771729	1708.962524	36.957962
773.603638	1168.113159	2603.790283	1707.550781	37.573742
773.917908	1170.862183	2602.452881	1701.012085	37.032227
774.232178	1172.645508	2596.656982	1696.702515	36.801460
774.546265	1176.509155	2593.610596	1693.433228	36.477562
774.860474	1182.899170	2581.870850	1697.668579	36.796272
775.174561	1181.190308	2584.620117	1695.587891	36.652889
775.488586	1182.750610	2576.595459	1691.204224	36.478493
775.802551	1174.354492	2571.320068	1683.550903	36.450176
776.116516	1165.512451	2557.128174	1687.043335	37.476646
776.430359	1159.270996	2560.471436	1691.055664	37.952076
776.744202	1164.546509	2550.812256	1695.811035	38.323425
777.057922	1166.181152	2532.236572	1697.074219	38.863216
777.371704	1175.023315	2510.168945	1690.684204	38.622070
777.685303	1172.571289	2510.317383	1693.061890	38.908028
777.998962	1175.171875	2512.695068	1685.705933	38.170109
778.312500	1167.147095	2515.667236	1691.873047	38.911243
778.626038	1171.085205	2506.825195	1680.133179	38.109810
778.939453	1167.592896	2505.859375	1687.563354	38.854031
779.252869	1167.369995	2496.199951	1686.002930	39.029293
779.566223	1164.843750	2497.017334	1690.832642	39.483509
779.879578	1162.391724	2500.880859	1678.498413	38.558899
780.192749	1162.540405	2504.595947	1677.606812	38.378918
780.505920	1161.202881	2505.859131	1674.485962	38.172066
780.819031	1164.992310	2499.840576	1673.148804	38.068485
781.132141	1170.119141	2487.803711	1667.501831	37.746719
781.445190	1172.051147	2472.943115	1673.445923	38.542385
781.758118	1172.868408	2453.104248	1683.030884	39.849102
782.071045	1169.227539	2437.723389	1682.139282	40.434643
782.383911	1172.868408	2421.376709	1675.303345	40.242821
782.696838	1173.314331	2410.157227	1660.740112	39.408867
783.009583	1165.512451	2410.974365	1653.606934	39.189835
783.322266	1162.763184	2402.281250	1644.987915	38.904213
783.634888	1162.243164	2390.243896	1657.396484	40.321907
783.947510	1171.233765	2375.754883	1655.464478	40.201099
784.260132	1171.679565	2367.358643	1658.288086	40.697250
784.572571	1168.484497	2373.229004	1651.303589	40.076473
784.885010	1163.283325	2367.061768	1657.025024	41.015995
785.197449	1162.020142	2361.934814	1650.560547	40.714596
785.509766	1164.472168	2356.956543	1647.737183	40.525898
785.822083	1163.803589	2356.064941	1634.585571	39.486477
786.134277	1173.017090	2354.950439	1638.672241	39.397751
786.446533	1174.354492	2348.857666	1633.322388	39.077621
786.758606	1182.899292	2349.229248	1639.192383	39.122128
787.070740	1178.366821	2356.882324	1641.792969	39.322872
787.382690	1173.314331	2366.095947	1653.086914	40.223003
787.694641	1167.815918	2392.696289	1661.780396	40.327568
788.006653	1161.723022	2421.154053	1678.795776	41.056061
788.318481	1166.701294	2458.008545	1690.164063	40.537430
788.630310	1171.605347	2487.580811	1715.724121	41.347183
788.942017	1171.531006	2511.877930	1717.210083	40.711781
789.253784	1171.531128	2522.726074	1721.148071	40.676361
789.565430	1168.410278	2516.558838	1719.439331	40.873020
789.877014	1172.496948	2496.125732	1722.262695	41.534737
790.188538	1173.834351	2463.952393	1709.779907	41.542366
790.500061	1173.611450	2426.726807	1701.086548	42.093102
790.811462	1170.639282	2398.566162	1689.569702	42.260693
791.122925	1168.558960	2378.281494	1685.260132	42.712372
791.434204	1169.747803	2358.516846	1670.771118	42.146397
791.745483	1172.274048	2348.783203	1663.786621	41.777199
792.056702	1172.274048	2324.635010	1652.046875	41.633900
792.367920	1168.856079	2307.916748	1643.427734	41.663422
792.678955	1161.425781	2288.969482	1628.195679	41.397057
792.990112	1166.181152	2285.254639	1622.028320	40.734337
793.301086	1173.834351	2275.297852	1621.433960	40.636806
793.612122	1183.047852	2273.514893	1625.372070	40.562824
793.922974	1181.636230	2262.740967	1624.554688	40.969059
794.233826	1171.159546	2262.443604	1624.257446	41.519703
794.544556	1171.902466	2259.471436	1621.434082	41.333618
794.855286	1166.849854	2267.644775	1627.378296	41.835987
795.166016	1173.091187	2281.019287	1630.424683	41.278263
795.476624	1162.688965	2300.412109	1636.591797	41.653618
795.787292	1162.020386	2314.975586	1640.975586	41.541527
796.097778	1162.243164	2328.052734	1646.028198	41.497776
796.408264	1169.747681	2336.894775	1660.517212	42.048645
796.718689	1166.626953	2362.900879	1673.148804	42.341629
797.029053	1173.685669	2374.046143	1678.201294	42.030342
797.339355	1171.902466	2370.108154	1672.034180	41.740055
797.649658	1185.054199	2351.458252	1663.860962	41.049820
797.959839	1180.298706	2329.167236	1655.687500	41.378868
798.270020	1177.995239	2317.724854	1647.217163	41.169582
798.580078	1170.639282	2305.910400	1646.399780	41.907215
798.890137	1164.026367	2288.449463	1646.176758	42.879803
799.200195	1162.466064	2273.737305	1645.805176	43.494251
799.510071	1168.633179	2257.614014	1642.089966	43.477055
799.820007	1171.233765	2250.926514	1633.248047	42.791275
800.129883	1170.639526	2236.586182	1630.127319	43.106079
800.439575	1164.249390	2216.821533	1624.406128	43.717358
800.749329	1164.695190	2207.013672	1615.564087	43.256348
801.058960	1162.986206	2195.868164	1617.495972	44.004036
801.368591	1158.899536	2199.732178	1610.957397	43.432331
801.678162	1158.305176	2200.177734	1616.529907	43.980881
801.987671	1164.472290	2195.645508	1605.384644	42.758320
802.297119	1161.277222	2187.769287	1607.242188	43.445534
802.606506	1159.270996	2177.589844	1602.264038	43.502392
802.915894	1159.642578	2173.354492	1599.886230	43.428871
803.225159	1168.707520	2166.072998	1595.799438	42.822006
803.534424	1174.800415	2157.156738	1597.731445	43.052711
803.843628	1176.137817	2144.673828	1606.647827	44.449562
804.152771	1176.434937	2148.537598	1615.341187	45.150196
804.461792	1169.599121	2156.785400	1620.245117	45.649540
804.770874	1166.255493	2167.261963	1613.334961	44.662994
805.079773	1162.986206	2171.719971	1612.443359	44.556568
805.388733	1171.307983	2184.574219	1614.523804	43.741299
805.697571	1170.193481	2194.456299	1622.474243	44.156712
806.006470	1175.543335	2204.338867	1635.848633	44.742157
806.315125	1173.314331	2197.502930	1634.065430	44.986938
806.623901	1171.456665	2201.292480	1631.464844	44.668110
806.932495	1174.428833	2199.211914	1622.325562	43.706490
807.241150	1178.589722	2198.171631	1624.480347	43.732693
807.549622	1187.060303	2195.645508	1626.486450	43.568569
807.858154	1181.413330	2164.958496	1615.786743	44.164055
808.166565	1171.531006	2148.908936	1609.173950	44.777248
808.474915	1170.639282	2124.314697	1605.310181	45.578495
808.783264	1170.490845	2126.320557	1603.749878	45.328056
809.091492	1167.815918	2116.438477	1594.387695	44.967491
809.399719	1171.531128	2110.271484	1590.152466	44.593945
809.707825	1174.725952	2100.314941	1583.167969	44.127796
810.015930	1182.007690	2080.476074	1588.592163	45.253063
810.323975	1171.531006	2068.513428	1578.338501	45.352894
810.632080	1169.078979	2047.262817	1581.756348	46.992138
810.939880	1171.976807	2049.343506	1572.988647	45.706299
811.247864	1171.753784	2045.999878	1569.719360	45.521000
811.555664	1169.153198	2058.185547	1571.502563	45.257000
811.863464	1165.512451	2051.424072	1566.524292	45.265446
812.171143	1170.342163	2038.643921	1568.976196	45.909618
812.478882	1167.890259	2026.755371	1562.140503	45.903629
812.786438	1170.416504	2026.086548	1562.214844	45.788483
813.094055	1169.747681	2034.482788	1553.372681	44.363297
813.401489	1168.633301	2022.594360	1553.372681	45.053505
813.708984	1157.487793	2012.489258	1557.459351	46.780220
814.016357	1154.812866	2002.012329	1554.933105	47.228577
814.323730	1162.689087	2000.154907	1553.001099	46.606323
814.630981	1165.735474	1993.616211	1545.868164	45.916359
814.938232	1169.227661	1997.108398	1555.601929	46.670280
815.245361	1165.586792	1997.703003	1558.945435	47.272079
815.552490	1166.552856	2004.910156	1560.357300	46.973343
815.859619	1159.494019	1997.925781	1564.146484	48.263016
816.166565	1155.630249	2002.458374	1565.112671	48.354843
816.473572	1156.521851	2004.835938	1567.787476	48.480347
816.780457	1157.116333	2019.696655	1566.970093	47.514851
817.087341	1162.317505	2038.941040	1567.490234	46.219696
817.394043	1168.410278	2045.628296	1573.508789	46.179913
817.700806	1171.085327	2052.687012	1576.777954	46.017677
818.007507	1169.599121	2045.256714	1574.177368	46.202789
818.314209	1164.249390	2049.566406	1574.697632	46.361725
818.620667	1169.301880	2051.275146	1577.966797	46.335297
818.927246	1174.800293	2070.445068	1594.685059	46.880726
819.233704	1168.856079	2111.163086	1619.279297	47.800049
819.540161	1165.512573	2151.063721	1643.650513	48.514778
819.846497	1155.407227	2218.530518	1671.365601	48.532318
820.152832	1159.345337	2282.133789	1697.668579	47.945206
820.458984	1161.203003	2374.566406	1737.643433	47.507648
820.765259	1170.490723	2460.534912	1777.320923	47.039490
821.071350	1171.902466	2579.939209	1832.825195	46.939308
821.377502	1165.809692	2733.076904	1908.688354	47.399616
821.683472	1164.843750	3061.346436	2059.002686	47.147781
821.989441	1168.410278	3684.671875	2343.656494	46.706039
822.295349	1174.354492	4691.474121	2811.763672	46.555401
822.601196	1172.422607	5950.607910	3431.151123	47.271679
822.907043	1171.976685	7144.578125	4027.504639	47.810452
823.212769	1166.181274	7902.614746	4406.448730	48.100639
823.518494	1168.038818	7976.173828	4426.584473	47.862530
823.824097	1167.370117	7421.504395	4161.918457	47.881100
824.129700	1170.044922	6473.476074	3716.993408	48.024540
824.435242	1168.187500	5469.869141	3254.533203	48.500698
824.740723	1167.072876	4621.926270	2842.079102	48.482700
825.046082	1171.010986	4014.501709	2552.223877	48.574551
825.351501	1169.599121	3583.248779	2348.188721	48.830185
825.656799	1171.456665	3312.118164	2212.734863	48.642822
825.962036	1172.645508	3122.794922	2121.788330	48.670261
826.267212	1178.292480	3039.278564	2080.104736	48.458839
826.572449	1180.075806	3022.857666	2088.278076	49.284306
826.877502	1180.447266	3149.097656	2140.587158	48.771477
827.182495	1179.704224	3405.516357	2268.610596	48.921757
827.487488	1178.218262	3749.092529	2419.816895	48.294804
827.792419	1181.487549	4031.739990	2561.809326	48.428055
828.097290	1180.893188	4151.590332	2613.226807	48.215401
828.402100	1175.023315	4039.987305	2562.478027	48.428349
828.706848	1168.410278	3774.503906	2437.798096	48.708447
829.011597	1168.261719	3402.544678	2249.738037	48.403732
829.316223	1172.125488	3042.473633	2078.841553	48.478466
829.620789	1172.051147	2742.439209	1934.991577	48.582924
829.925354	1169.599121	2538.478271	1845.382324	49.367630
830.229797	1171.605347	2393.216553	1784.156860	50.142918
830.534302	1175.543335	2283.619873	1729.024292	49.949703
830.838562	1182.602051	2200.920898	1682.139282	49.055092
831.142944	1181.933228	2143.559326	1645.136353	48.168736
831.447144	1180.744507	2093.850830	1622.548462	48.384724
831.751404	1170.342163	2059.968506	1607.464966	49.135551
832.055542	1171.679565	2040.427124	1598.251465	49.101940
832.359619	1172.571289	2050.829346	1597.657104	48.401016
832.663635	1177.995239	2089.912842	1606.722046	47.013767
832.967651	1176.880737	2139.175537	1643.650391	48.505890
833.271545	1173.239868	2235.248779	1698.188843	49.429810
833.575439	1174.874634	2370.479736	1784.528442	50.991234
833.879211	1174.503052	2591.456055	1889.369751	50.450981
834.183044	1178.812744	2824.692383	1995.919800	49.645615
834.486694	1172.942749	3033.928711	2081.367920	48.814186
834.790344	1172.348267	3109.717529	2106.407715	48.212772
835.093933	1163.283325	3058.596924	2084.934326	48.627888
835.397522	1163.432007	2900.258057	2012.414917	48.881287
835.700928	1165.586792	2701.572754	1912.923462	48.655174
836.004395	1171.382324	2510.020264	1816.478516	48.190491
836.307739	1166.775757	2346.554443	1742.101563	48.765572
836.611023	1168.187378	2225.143555	1685.260132	48.920925
836.914307	1167.964478	2120.451172	1635.922974	49.130188
837.217529	1180.521606	2035.894653	1593.644653	48.297413
837.520691	1180.150024	1970.210938	1563.031860	48.462318
837.823730	1178.589722	1932.539551	1528.258179	46.378212
838.126831	1169.747803	1893.530640	1506.561890	46.535240
838.429749	1159.791138	1863.512329	1492.667358	47.302288
838.732727	1162.540405	1824.280396	1494.153442	50.112286
839.035522	1171.085083	1806.373413	1485.757202	49.532173
839.338379	1173.685669	1801.098022	1473.720093	47.820930
839.641113	1169.227661	1811.871948	1467.255859	46.375298
839.943848	1166.032715	1838.546509	1484.791382	47.398087
840.246460	1170.342163	1877.852539	1517.112915	49.012814
840.549072	1176.806519	1936.626099	1553.669922	49.599064
840.851563	1168.113159	1970.285156	1570.165039	50.120407
841.154053	1169.896362	1980.761841	1568.753296	49.189037
841.456482	1161.574463	1951.040894	1555.155884	49.854103
841.758850	1163.952148	1899.994995	1535.911621	50.535030
842.061157	1162.763184	1834.459961	1516.741577	52.699135
842.363403	1164.918091	1780.293335	1488.506470	52.583912
842.665588	1171.159546	1744.033569	1467.478882	51.725044
842.967712	1172.051147	1722.039917	1456.630493	51.742756
843.269775	1172.868530	1697.445679	1441.101196	51.133121
843.571777	1174.354492	1680.578735	1427.726685	50.051376
843.873840	1170.342163	1655.910278	1408.036499	48.951801
844.175659	1175.617676	1646.251099	1404.841431	48.705372
844.477600	1168.707397	1631.910767	1399.566040	49.839584
844.779297	1176.657837	1619.204956	1397.411499	49.882523
845.081116	1177.177979	1605.607422	1395.330688	50.919167
845.382751	1182.825073	1591.267090	1388.569214	50.372913
845.684387	1179.407104	1585.620117	1381.361938	49.716484
845.985962	1170.490845	1576.183594	1370.588013	49.322342
846.287537	1168.558960	1568.307495	1372.965820	51.133862
846.588989	1162.540405	1559.985474	1372.965698	52.944496
846.890381	1165.438110	1557.385132	1369.250488	51.999981
847.191711	1168.707520	1550.474976	1358.030762	49.591248
847.493042	1171.010864	1543.490356	1352.086548	48.613598
847.794250	1176.509277	1539.478027	1353.349609	48.720539
848.095459	1175.691895	1545.199341	1353.944214	48.240520
848.396606	1175.617554	1546.610962	1354.390015	48.187504
848.697693	1176.955200	1546.090942	1356.321899	48.590988
848.998657	1172.645630	1536.208618	1360.111206	51.563438
849.299622	1180.373169	1541.112793	1353.275513	47.929955
849.600464	1176.583618	1531.602051	1346.142456	47.760574
849.901367	1176.880737	1534.276978	1337.671875	44.989601
850.202087	1161.723022	1531.230469	1342.947388	49.044849
850.502808	1164.397949	1528.629761	1344.136230	49.347221
850.803467	1162.168823	1521.868164	1341.089966	49.741859
851.104065	1169.227661	1512.654663	1336.557495	48.723553
851.404663	1164.472290	1514.958130	1332.544922	47.954185
851.705139	1169.896362	1512.134644	1337.597534	49.001289
852.005615	1172.645508	1512.580444	1335.368530	47.868874
852.306030	1173.017090	1509.756836	1334.031006	47.815536
852.606384	1163.877930	1509.385376	1328.458252	47.634377
852.906616	1159.345337	1501.138062	1327.640991	49.239098
853.206909	1162.391724	1497.274048	1320.656494	47.259815
853.506958	1166.329834	1495.267944	1321.176636	47.074753
853.807129	1165.586792	1496.976929	1325.486206	48.251110
854.107178	1168.781738	1491.924316	1328.829956	49.528667
854.407166	1173.239990	1492.964478	1329.424316	48.849659
854.707092	1173.165649	1493.707642	1324.446045	47.195187
855.007019	1166.404175	1486.574585	1326.154907	49.895535
855.306763	1167.295776	1483.825317	1316.569946	47.159634
855.606567	1164.769409	1475.800781	1313.374878	47.778290
855.906250	1165.363892	1475.503418	1309.213867	46.382343
856.205933	1162.466064	1472.457031	1319.541992	50.671131
856.505493	1171.531006	1474.314453	1322.514038	49.865021
856.805054	1174.800415	1486.203125	1324.668945	48.126919
857.104492	1173.760132	1486.648926	1323.257202	47.779617
857.403931	1168.930542	1488.060669	1325.783447	49.150139
857.703308	1162.614624	1478.475586	1324.148804	51.140911
858.002563	1168.113037	1471.119629	1324.817505	51.716522
858.301819	1175.766235	1470.822388	1323.703003	50.138512
858.601013	1181.190430	1470.228027	1327.566772	50.642666
858.900208	1178.812622	1475.280640	1325.932007	49.624031
859.199219	1177.103760	1461.831665	1327.566650	52.844448
859.498291	1173.611450	1459.676880	1325.560547	53.116901
859.797302	1166.255493	1453.509766	1321.845337	54.164501
860.096191	1163.952148	1458.859497	1313.449219	50.692894
860.395020	1156.967651	1459.231079	1311.442993	51.106197
860.693787	1158.899536	1450.389160	1308.173706	51.210800
860.992554	1158.973999	1450.314819	1313.077637	52.894627
861.291260	1167.741577	1440.581177	1317.610229	54.929214
861.589844	1171.159546	1449.720337	1320.433594	53.587601
861.888428	1167.741577	1449.200195	1318.798950	53.669479
862.186890	1172.571289	1449.646118	1298.885864	45.588615
862.485413	1182.453613	1443.182007	1300.223389	45.169525
862.783813	1182.750854	1437.163452	1295.244995	44.217205
863.082153	1185.054077	1443.553345	1310.402832	48.490952
863.380371	1173.983032	1449.869019	1310.774292	49.582531
863.678589	1179.927124	1450.834961	1312.929077	49.094910
863.976746	1173.165649	1450.314941	1317.238525	51.983852
864.274902	1169.524780	1451.652222	1315.158081	51.619686
864.572937	1168.113037	1459.231079	1314.786621	50.382854
864.870911	1176.732178	1459.008179	1303.641235	44.959209
865.168884	1180.150024	1463.094849	1298.217163	41.727974
865.466736	1175.543335	1465.621094	1293.907593	40.804321
865.764587	1158.973877	1465.769897	1296.285278	44.756577
866.062317	1162.317505	1458.562500	1292.421509	43.917706
866.360107	1169.450562	1456.036133	1288.632080	41.586712
866.657715	1176.286377	1459.825562	1290.489746	40.277809
866.955322	1174.503052	1463.020508	1298.068481	42.827713
867.252808	1168.930420	1463.540649	1296.508179	43.303913
867.550293	1167.444458	1451.354980	1295.913696	45.249905
867.847717	1170.713623	1439.986694	1288.631958	43.791359
868.145081	1171.902466	1429.064331	1293.164673	47.154037
868.442383	1170.787964	1433.893921	1285.585815	43.631794
868.739624	1169.970581	1439.243652	1296.879761	47.130291
869.036804	1169.301880	1446.302368	1295.096558	45.413162
869.333984	1175.171875	1445.336548	1296.731079	44.994484
869.631042	1170.044922	1442.438843	1292.941650	45.117279
869.928101	1171.902466	1444.222046	1297.399902	46.084618
870.224976	1168.781738	1445.856567	1294.353394	45.320484
870.521851	1169.301880	1456.853516	1296.582397	44.263535
870.818726	1171.233765	1455.664551	1299.926147	45.245590
871.115479	1169.673462	1455.590210	1307.059082	48.050919
871.412231	1166.775635	1446.822632	1303.566895	48.845821
871.708862	1164.026367	1444.222046	1303.641235	49.827629
872.005493	1164.843750	1447.268188	1305.573120	49.829033
872.302063	1169.376221	1448.828735	1310.328491	50.438721
872.598572	1172.868530	1450.983521	1314.192261	50.814854
872.895020	1173.834351	1449.869019	1313.969360	50.767178
873.191406	1176.137817	1449.646118	1304.904419	47.079594
873.487671	1173.016968	1445.262329	1304.087036	48.144096
873.783997	1169.524780	1450.017578	1308.470825	49.536404
874.080200	1164.992310	1452.098022	1317.535889	53.131504
874.376343	1164.769409	1458.042358	1315.604004	51.431473
874.672424	1169.599121	1455.441772	1315.604004	51.078762
874.968445	1176.137817	1455.070313	1315.826782	50.079845
875.264465	1171.679688	1451.429321	1311.963135	50.146069
875.560364	1167.072876	1445.484985	1313.449341	52.575466
875.856201	1161.351440	1433.968140	1310.848633	54.837872
876.152039	1162.614624	1433.670898	1310.328613	54.495689
876.447754	1165.066650	1434.488281	1300.000488	50.082779
876.743469	1166.404175	1442.513062	1302.452393	49.273392
877.039063	1172.199707	1435.900024	1305.721802	50.634029
877.334595	1171.605225	1436.940430	1310.179810	52.226234
877.630127	1175.692017	1443.553345	1309.436890	49.930637
877.925537	1174.280151	1452.246704	1309.585327	48.676785
878.221008	1171.902588	1461.757446	1308.916626	47.269878
878.516296	1164.472290	1460.865845	1307.876343	48.382988
878.811646	1161.128662	1472.754272	1310.031128	47.782486
879.106812	1165.958374	1481.447632	1319.096191	48.539787
879.401978	1174.280151	1499.057251	1327.938110	47.311821
879.697083	1176.880737	1513.620728	1344.284790	49.713150
879.992126	1177.252319	1542.078735	1363.083374	50.936840
880.287109	1170.416504	1587.700562	1384.482544	51.299835
880.582031	1167.592896	1664.009399	1416.655640	50.172131
880.876892	1165.586792	1779.475952	1474.091797	50.254189
881.171753	1165.140991	2011.077515	1594.462280	50.751007
881.466492	1164.546509	2380.361816	1787.277710	51.219227
881.761230	1162.540405	2903.601563	2053.207275	51.156551
882.055786	1167.518677	3421.491455	2320.473877	51.152138
882.350403	1165.512451	3785.946289	2509.500000	51.288742
882.644958	1168.261597	3862.329834	2545.834229	51.133545
882.939453	1165.363770	3661.935547	2441.215820	51.104160
883.233826	1167.518677	3318.434326	2261.551758	50.863602
883.528137	1163.580688	2942.536377	2065.838379	50.718391
883.822449	1165.066772	2623.331787	1904.527222	50.708237
884.116577	1163.877808	2350.343506	1772.862915	51.327663
884.410828	1167.072876	2137.466553	1672.628540	52.097996
884.704956	1160.385620	1971.622681	1582.870728	52.079117
884.999023	1156.447632	1850.880737	1515.849976	51.754784
885.292969	1159.048218	1764.986816	1471.565430	51.575722
885.586914	1167.147095	1708.739624	1437.386108	49.897110
885.880798	1181.190308	1666.387085	1415.764038	48.346104
886.174622	1182.230591	1633.693848	1398.897339	47.992111
886.468384	1183.345093	1612.071777	1399.863281	50.502617
886.762085	1175.171875	1606.350586	1385.522827	48.785095
887.055664	1177.252319	1583.316528	1382.996460	50.667885
887.349304	1173.239868	1561.248657	1364.123657	49.195740
887.642822	1176.063477	1525.434937	1354.984375	51.212227
887.936340	1171.605347	1507.825073	1338.712036	49.701630
888.229736	1170.490845	1489.323853	1327.938354	49.382439
888.523071	1174.205933	1479.441528	1323.777222	49.001915
888.816284	1175.914917	1463.392090	1310.105591	46.678722
889.109619	1181.264648	1452.023804	1305.647339	45.938499
889.402710	1176.583618	1437.237427	1290.563965	43.728634
889.695862	1174.874634	1428.767090	1287.591797	44.395634
889.988892	1173.908691	1407.665039	1281.573242	46.058449
890.281921	1177.846680	1386.934570	1277.709595	47.761215
>>>>>End Processed Spectral Data<<<<<
