Jaz Data File
++++++++++++++++++++++++++++++++++++
Date: Fri Jun 04 13:38:22 2021
User: jaz
Dark Spectrum Present: Yes
Reference Spectrum Present: Yes
Processed Spectrum Present: Yes
Spectrometers: JAZA3586
Integration Time (usec): 30700 (JAZA3586)
Spectra Averaged: 10 (JAZA3586)
Boxcar Smoothing: 1 (JAZA3586)
Correct for Electrical Dark: No (JAZA3586)
Strobe/Lamp Enabled: Yes (JAZA3586)
Correct for Detector Non-linearity: No (JAZA3586)
Correct for Stray Light: No (JAZA3586)
Number of Pixels in Processed Spectrum: 2048
>>>>>Begin Processed Spectral Data<<<<<
W	D	R	S	P
191.335022	0.000000	0.000000	0.000000	0.000000
191.713211	290.375031	294.164459	294.461700	107.843956
192.091385	586.397034	587.808777	588.106018	121.054909
192.469528	886.431458	888.140381	883.533691	-169.566772
192.847641	899.657288	900.549011	895.942200	-416.618744
193.225739	907.161926	913.180420	906.047363	-18.518969
193.603790	918.233093	923.137024	918.233093	0.000000
193.981842	924.771729	924.102966	922.171082	388.874695
194.359863	931.310242	928.486816	926.480652	171.054276
194.737854	934.653809	925.366150	922.839844	127.200676
195.115829	935.174011	929.155518	922.022461	218.518967
195.493774	934.951111	928.561096	926.406311	133.721130
195.871704	940.003723	937.700378	931.310303	377.425934
196.249603	938.814880	935.991394	930.047180	310.527466
196.627457	935.025391	938.889160	930.195740	-124.998421
197.005310	920.982178	929.972900	929.749939	97.520096
197.383133	924.548767	937.551758	925.291748	5.713923
197.760910	929.972839	945.502136	927.372253	-16.746321
198.138687	931.756165	951.372070	922.765564	-45.833218
198.516449	930.195801	942.307129	922.988464	-59.509052
198.894180	923.359863	927.223694	914.072083	-240.377533
199.271866	918.010193	920.759338	916.375488	-59.462280
199.649536	919.273254	924.548828	922.616882	63.379417
200.027191	918.976074	921.428040	926.183411	293.941193
200.404816	923.805725	929.304016	927.743835	71.624260
200.782410	924.177246	933.687988	926.406311	23.437340
201.159988	923.582764	952.189270	917.638672	-20.778811
201.537537	923.731445	956.944763	910.505554	-39.821049
201.915070	915.632385	959.916809	908.425049	-16.275105
202.292557	918.010071	958.579407	913.849121	-10.256391
202.670029	919.793457	961.402893	914.963684	-11.607398
203.047485	918.530273	956.944641	911.620117	-17.988468
203.424911	913.403320	959.619629	910.356934	-6.591584
203.802292	911.917297	958.505066	909.019531	-6.220015
204.179688	908.647949	966.529785	906.047363	-4.492922
204.557037	911.397217	959.619629	902.555176	-18.335958
204.934357	906.641785	962.443115	911.694336	9.054536
205.311661	908.722351	953.303894	913.626282	10.999912
205.688934	910.654114	957.687744	911.917297	2.685703
206.066177	911.397156	956.870422	904.784180	-14.542558
206.443390	906.418945	960.288330	902.480896	-7.310366
206.820587	905.304382	957.984924	914.889343	18.194500
207.197769	904.932861	956.573242	913.997742	17.553860
207.574921	910.059753	965.638184	920.982178	19.652271
207.952042	908.350769	968.610291	909.762451	2.342671
208.329147	904.412781	961.477234	911.991516	13.281010
208.706223	918.233093	968.164490	916.672607	-3.125260
209.083267	914.666504	964.226379	918.232971	7.196280
209.460297	920.164856	964.375000	917.044189	-7.058712
209.837280	904.784363	950.108887	902.629456	-4.754395
210.214264	907.830750	954.492737	898.840027	-19.267767
210.591217	904.858582	955.161438	888.363342	-32.791855
210.968124	904.709961	961.625793	889.552185	-26.631914
211.345016	901.514893	961.848694	889.849365	-19.334978
211.721893	901.737793	969.056152	898.096924	-5.408434
212.098724	902.778076	963.409119	890.815247	-19.730536
212.475555	905.378723	967.941589	890.741028	-23.396778
212.852356	903.223938	969.947754	890.963928	-18.374264
213.229126	908.425110	969.056152	897.056824	-18.749943
213.605865	907.682068	963.037598	901.291992	-11.543699
213.982590	908.870911	955.310059	900.920410	-17.120255
214.359283	904.561340	954.789978	910.877014	12.573851
214.735931	907.087646	952.783752	904.115479	-6.504204
215.112579	912.214539	956.350281	907.013245	-11.784766
215.489197	902.406555	959.693909	903.298157	1.556367
215.865799	899.508789	964.895203	911.620117	18.522697
216.242355	891.632629	965.415283	907.607727	21.651564
216.618896	894.010315	957.464844	902.257996	12.997781
216.995407	896.239441	954.269836	894.530457	-2.944981
217.371902	899.954529	948.919983	892.227051	-15.781489
217.748367	901.886414	949.811707	893.267273	-17.984533
218.124802	895.942200	947.359680	894.456055	-2.890350
218.501236	895.645020	954.566956	893.341614	-3.909250
218.877609	905.527344	964.226379	892.152771	-22.784996
219.253983	911.620117	975.371826	899.583069	-18.881138
219.630295	911.620117	978.789734	904.709961	-10.287622
220.006592	906.344543	971.136536	909.168030	4.357770
220.382889	901.291992	971.582336	909.836731	12.156348
220.759140	905.081482	967.198547	911.322937	10.047891
221.135391	903.372559	971.136536	914.294922	16.118244
221.511581	909.242432	961.997314	908.202148	-1.971918
221.887772	907.236267	960.808411	913.700500	12.066408
222.263931	913.774902	963.409119	909.390930	-8.832561
222.640060	912.065918	968.090149	910.059753	-3.580887
223.016159	910.951416	971.210754	910.951416	0.000000
223.392212	906.790344	971.730957	912.511719	8.810164
223.768265	902.778015	978.566833	914.889404	15.980443
224.144302	906.567444	982.876404	906.790466	0.292262
224.520294	910.579834	988.300476	906.790466	-4.875626
224.896286	907.459167	985.551270	906.344543	-1.427320
225.272217	904.487061	988.151855	904.115479	-0.444132
225.648148	901.143372	988.671936	902.629395	1.697758
226.024048	908.350769	988.077637	893.638855	-18.452894
226.399902	910.059753	987.408875	900.326111	-12.584038
226.775772	905.527344	995.359314	896.833801	-9.677560
227.151581	902.852356	1007.024719	905.007141	2.068481
227.527374	894.902039	1014.380676	900.251770	4.477563
227.903137	896.165039	1030.504395	903.223877	5.254482
228.278870	898.988586	1044.919067	905.898743	4.735239
228.654572	896.016418	1060.299683	908.202148	7.417511
229.030273	893.415833	1062.454468	905.007141	6.857195
229.405930	895.793518	1063.569214	904.338379	5.093027
229.781555	903.892578	1068.398804	904.709961	0.496870
230.157181	913.997742	1072.931274	906.939026	-4.441300
230.532761	913.849121	1073.599976	899.880310	-8.744123
230.908325	915.409485	1064.312134	897.651184	-11.926115
231.283859	911.471497	1056.658813	903.000977	-5.834201
231.659332	911.694397	1052.052124	909.836731	-1.323522
232.034821	903.892578	1049.377319	915.632385	8.069442
232.410263	898.096985	1045.439331	916.301086	12.354969
232.785690	888.883484	1039.643677	918.455994	19.615595
233.161087	889.329285	1041.947144	910.728516	14.021446
233.536469	900.846191	1047.148193	909.836853	6.145276
233.911804	901.143372	1060.522827	902.034973	0.559421
234.287140	901.886414	1064.535034	901.960754	0.045706
234.662430	892.152771	1061.414429	895.050598	1.712040
235.037704	898.394226	1063.569214	897.799805	-0.359874
235.412933	906.938965	1061.785889	902.406555	-2.927026
235.788162	906.938965	1067.878540	903.892639	-1.892838
236.163345	908.796570	1060.745605	907.607727	-0.782396
236.538513	901.069153	1064.312134	908.276428	4.415060
236.913635	895.867920	1073.377197	919.347473	13.227226
237.288742	892.524353	1080.138672	916.523987	12.792006
237.663834	895.570740	1092.250000	925.217468	15.073643
238.038879	900.251770	1087.866089	913.551941	7.089102
238.413910	903.818298	1096.039429	914.740723	5.682219
238.788910	905.155701	1097.971313	908.499329	1.734106
239.163879	907.384766	1111.345825	914.146301	3.315111
239.538834	905.898743	1119.147461	919.421875	6.341484
239.913757	906.047363	1138.763550	915.706787	4.150732
240.288651	909.539551	1160.014038	919.570496	4.004777
240.663528	906.121643	1188.323364	920.685059	5.160640
241.038361	900.400391	1210.094116	921.873840	6.933770
241.413177	897.279602	1237.734741	917.712952	6.001774
241.787979	901.514893	1268.644653	919.421875	4.877562
242.162735	907.904968	1314.638062	918.158691	2.520996
242.537476	909.019470	1344.582031	915.260925	1.432964
242.912170	906.938965	1363.380493	914.294922	1.611588
243.286865	903.521057	1361.745850	914.220703	2.335021
243.661514	903.372498	1346.811035	913.254700	2.228539
244.036148	910.134033	1335.591309	911.397156	0.296886
244.410751	911.991638	1318.427368	906.790344	-1.279733
244.785339	908.127930	1327.863892	904.635681	-0.832011
245.159882	905.675964	1339.157959	904.487061	-0.274268
245.534378	906.641846	1374.600220	913.552002	1.476660
245.908890	908.870850	1432.853638	926.034851	3.275680
246.283356	909.242371	1516.518555	929.452698	3.328029
246.657791	908.053528	1598.623047	931.830383	3.443079
247.032196	910.282654	1666.907227	929.452698	2.533627
247.406586	909.019531	1703.761353	930.047180	2.645847
247.780960	909.985413	1715.204102	935.619873	3.183540
248.155289	910.505554	1695.513794	935.842773	3.227637
248.529602	906.195984	1655.018677	928.486816	2.976784
248.903870	905.898743	1599.588989	913.774841	1.135391
249.278122	910.728455	1532.493652	907.384827	-0.537764
249.652344	910.282532	1478.624023	909.465332	-0.143787
250.026550	914.517883	1438.946411	916.375488	0.354215
250.400711	908.945129	1419.033325	920.610657	2.286963
250.774857	910.431213	1411.454468	920.313477	1.972416
251.148987	905.304382	1426.017944	913.031799	1.484005
251.523071	902.257996	1457.224976	914.666504	2.235900
251.897125	899.805969	1495.490845	916.821289	2.856430
252.271164	896.313782	1516.741577	925.366150	4.682635
252.645187	899.360168	1517.484497	929.378479	4.856355
253.019165	906.790466	1494.822266	933.762207	4.586782
253.393112	907.904968	1476.469360	944.461853	6.429682
253.767044	903.372498	1455.664551	947.805420	8.045186
254.140930	894.976257	1439.243774	943.421631	8.901022
254.514801	902.852356	1423.268555	930.344299	5.282684
254.888657	908.499329	1417.844604	922.765442	2.800873
255.262466	909.539551	1426.835083	915.558105	1.163465
255.636276	903.149597	1434.934204	917.638611	2.724602
256.010010	904.858582	1458.636719	918.455994	2.455390
256.383759	909.539551	1485.608765	924.994629	2.682851
256.757446	915.335205	1529.595825	921.651062	1.028205
257.131134	907.830750	1568.827759	917.638611	1.483798
257.504791	910.356934	1631.464844	911.768738	0.195783
257.878418	908.053528	1711.117554	917.638611	1.193564
258.252014	911.248596	1809.196899	927.149414	1.770794
258.625580	909.019531	1926.372437	936.214355	2.673096
258.999115	901.886414	2067.621826	941.044006	3.359046
259.372650	904.932800	2236.586182	940.821106	2.695019
259.746124	900.549011	2375.755127	948.177002	3.228565
260.119598	897.799805	2457.636719	952.412292	3.501167
260.493042	900.697571	2459.940186	945.279114	2.859179
260.866425	902.332275	2388.312256	942.158508	2.680133
261.239838	908.870911	2272.251709	929.304199	1.498722
261.613159	900.697571	2137.837891	928.041016	2.210214
261.986511	903.966980	2037.157715	916.969910	1.147462
262.359802	900.697571	1970.285156	919.347473	1.743654
262.733063	897.502625	1942.718872	920.536438	2.203737
263.106293	896.239441	1929.864624	932.127625	3.472069
263.479523	907.682129	1914.038086	937.625977	2.975473
263.852692	912.957581	1896.279663	937.328796	2.478457
264.225861	911.917297	1879.487305	937.031555	2.595601
264.598969	900.697571	1885.728882	924.548645	2.421352
264.972076	894.010315	1907.573853	928.635315	3.416165
265.345154	901.143372	1958.173828	926.109131	2.361877
265.718201	903.149597	2023.040161	932.573425	2.627384
266.091217	913.031921	2088.054932	933.390808	1.732637
266.464203	906.270325	2145.565430	926.480652	1.630792
266.837158	908.276428	2190.146973	922.988464	1.147701
267.210114	903.818298	2228.784424	925.663330	1.648724
267.583038	908.647949	2253.155762	932.350586	1.762923
267.955902	911.397156	2267.644775	936.585876	1.857236
268.328766	912.511719	2270.022461	934.282471	1.603726
268.701569	906.716125	2277.526855	937.328857	2.233184
269.074371	906.939026	2296.399658	939.334961	2.331547
269.447144	910.505554	2342.541992	942.232849	2.215537
269.819885	911.620117	2416.101563	945.873718	2.276771
270.192596	911.843018	2523.320313	947.731262	2.227040
270.565277	907.384766	2670.588135	950.628967	2.452593
270.937927	908.202148	2812.358154	950.628967	2.228117
271.310577	904.041199	2922.845947	957.687805	2.657345
271.683136	904.784180	2979.093018	956.944824	2.514604
272.055725	901.589172	2992.021729	956.127380	2.608944
272.428284	901.663513	2964.827148	956.498840	2.657827
272.800812	901.737793	2915.787354	958.505066	2.818564
273.173279	901.886414	2842.376221	954.938538	2.733955
273.545776	900.994812	2804.555908	949.365906	2.541085
273.918152	901.514893	2764.803955	947.211121	2.452450
274.290558	904.487000	2763.021240	953.601074	2.642624
274.662964	905.452942	2738.798096	955.830261	2.747836
275.035278	902.555176	2755.516357	956.573242	2.915229
275.407593	907.236267	2785.460205	953.526917	2.464597
275.779907	906.195984	2853.150391	951.297791	2.316531
276.152161	907.384766	2912.963867	951.446350	2.196951
276.524384	897.056702	2960.666260	955.384338	2.826486
276.896606	899.285828	2994.325439	955.161438	2.667043
277.268799	900.474670	2998.635010	963.111816	2.985336
277.640930	901.217773	3007.253906	955.384338	2.571968
278.013031	904.561340	3017.210693	962.666016	2.750323
278.385162	903.818298	3042.399170	953.303955	2.313948
278.757233	901.069092	3051.984375	949.588867	2.255774
279.129272	899.954590	3071.748779	945.947937	2.117758
279.501282	899.731628	3105.705078	950.554749	2.303886
279.873230	905.378662	3175.475342	960.139832	2.412284
280.245178	911.025696	3283.883057	955.681641	1.881948
280.617126	917.341370	3417.182373	946.988220	1.185949
280.988983	918.233093	3555.756836	948.845764	1.160660
281.360870	914.369324	3686.306641	963.409119	1.769152
281.732697	912.660339	3783.643311	972.325378	2.078209
282.104492	911.917236	3835.803711	980.647278	2.350640
282.476288	914.146423	3831.196533	976.486328	2.137087
282.848053	912.214539	3815.964844	976.412048	2.210848
283.219757	911.620117	3812.769775	971.359558	2.059164
283.591461	909.985413	3805.191406	974.034363	2.212241
283.963135	907.830750	3818.119873	982.281921	2.558205
284.334747	907.087646	3878.601807	987.260254	2.698039
284.706360	900.771912	3982.997314	985.254089	2.740947
285.077942	897.651123	4096.309082	982.059082	2.638855
285.449524	901.737793	4188.444336	976.040527	2.260705
285.821014	900.177429	4207.986328	979.309875	2.392292
286.192535	903.075256	4252.790527	984.139465	2.420033
286.563995	896.536621	4252.790527	986.145691	2.669913
286.935425	898.691406	4246.771973	994.096130	2.849535
287.306824	905.007080	4154.339355	997.291199	2.840095
287.678223	912.957520	4069.114258	999.445984	2.740309
288.049561	915.781006	4006.625244	990.083740	2.403962
288.420898	910.654114	3983.368408	984.733948	2.410892
288.792145	913.626282	4018.959717	978.046692	2.074509
289.163452	912.660339	4134.500488	976.337708	1.976429
289.534668	912.808899	4292.839355	975.446106	1.853155
289.905914	908.870911	4434.980957	984.288086	2.138821
290.277039	914.220703	4534.249512	990.158020	2.097699
290.648193	910.208313	4581.431641	991.198303	2.206076
291.019318	903.743958	4572.960938	986.591553	2.257909
291.390381	901.886414	4503.784668	990.158020	2.450697
291.761475	905.007141	4411.426758	994.541809	2.553450
292.132507	910.654236	4352.875977	998.405579	2.549265
292.503510	901.143494	4340.616211	993.427307	2.683080
292.874481	905.378662	4400.652832	1001.080505	2.738035
293.245422	907.236267	4506.088379	997.291077	2.502321
293.616364	912.734680	4680.476563	998.405701	2.273803
293.987213	910.208313	4840.153809	991.198303	2.060843
294.358093	906.567566	4956.140137	998.479980	2.269682
294.728943	908.202148	5062.838867	1002.566650	2.271306
295.099731	910.356873	5194.503418	1000.486145	2.103786
295.470490	910.133972	5331.814941	1007.990723	2.213112
295.841248	905.007141	5464.296875	1010.219910	2.307657
296.211975	903.298157	5576.196777	1017.947266	2.453490
296.582642	904.264099	5709.569824	1015.941101	2.324035
296.953308	904.412659	5781.643066	1021.142334	2.393360
297.323883	907.979187	5770.943848	1020.993713	2.323984
297.694519	902.183594	5639.873535	1013.563477	2.350932
298.065063	910.282532	5491.268066	1008.139343	2.136152
298.435608	903.743958	5310.118652	1007.842102	2.362444
298.806122	896.239319	5126.516113	1010.071106	2.690883
299.176575	900.325989	4927.979004	1004.572754	2.588276
299.547028	905.007141	4815.781738	995.062012	2.302737
299.917450	913.106201	4759.460938	986.517273	1.908588
300.287872	908.499329	4750.247559	985.328308	1.999844
300.658234	905.081543	4722.829590	988.300476	2.179791
301.028564	907.384827	4699.052246	995.136292	2.314324
301.398865	906.047424	4647.337891	994.616211	2.367332
301.769135	906.196045	4590.199219	998.554199	2.507005
302.139374	905.452942	4539.079590	999.817383	2.596977
302.509583	895.719299	4489.964844	994.616211	2.751535
302.879791	897.428223	4420.417480	991.867004	2.680644
303.249939	901.366272	4371.897949	987.854736	2.492081
303.620087	911.471497	4335.117676	992.758728	2.374288
303.990173	910.356934	4337.272949	989.489258	2.309141
304.360260	910.579834	4326.201660	996.696594	2.521261
304.730286	905.229980	4312.530273	999.074402	2.754216
305.100281	898.914307	4302.053223	993.427307	2.777230
305.470276	893.118652	4330.659668	977.600891	2.457636
305.840179	894.456116	4362.906738	975.743347	2.343618
306.210144	899.657410	4403.848145	979.086914	2.266701
306.579987	904.338379	4423.314941	989.712219	2.426099
306.949890	909.836914	4466.262207	992.981506	2.337870
307.319702	908.573730	4555.722656	998.034119	2.452886
307.689484	909.688232	4673.715332	992.907227	2.210903
308.059265	916.152527	4802.630371	988.894836	1.871677
308.429016	918.233093	4897.069336	992.610046	1.869314
308.798737	920.313477	4971.595215	1001.303528	1.999122
309.168396	905.675842	5032.746582	1006.058838	2.432306
309.538055	902.406555	5069.823242	1001.600647	2.380230
309.907684	892.524231	5069.674805	999.297302	2.556122
310.277313	897.131042	5084.312012	1007.470520	2.635173
310.646851	901.143372	5071.829590	1013.563477	2.695482
311.016388	907.830566	5064.473145	1020.102051	2.701014
311.385895	905.007141	4996.263184	1014.677979	2.680615
311.755371	905.675842	4930.431641	1004.647156	2.459064
312.124817	907.310547	4863.855957	993.501648	2.178443
312.494232	911.322815	4804.934082	992.907288	2.095342
312.863617	906.864746	4780.265625	995.433533	2.286590
313.232971	900.251770	4804.339844	1000.263184	2.561710
313.602295	899.360168	4883.323730	991.644043	2.316383
313.971619	895.645020	4987.792969	1000.337585	2.558377
314.340820	897.874023	5022.641113	996.548096	2.392234
314.710083	899.360168	5028.213867	1002.715271	2.503240
315.079285	907.607727	4951.162109	1002.343689	2.342888
315.448486	911.620056	4873.218262	1007.247742	2.413866
315.817596	909.390930	4723.201172	1007.024841	2.560010
316.186707	904.784241	4579.054199	997.439758	2.521739
316.555786	907.087585	4472.949219	989.192139	2.302516
316.924866	912.808899	4415.884766	989.712219	2.195308
317.293884	918.530273	4422.126465	990.603943	2.057134
317.662872	914.443665	4445.605957	994.244690	2.259908
318.031830	913.329102	4509.506348	998.182800	2.359553
318.400757	911.248535	4545.097656	996.473816	2.345317
318.769684	905.007141	4576.229980	1000.486145	2.600741
319.138550	903.521057	4565.084961	998.405701	2.591369
319.507416	901.366272	4539.524902	991.346924	2.473247
319.876190	906.195984	4483.797852	987.185974	2.263807
320.244995	908.499329	4397.160645	983.025085	2.136228
320.613770	908.425110	4349.161133	988.449158	2.325783
320.982483	910.282654	4342.622559	992.907288	2.407239
321.351166	902.629395	4394.634277	986.442871	2.400153
321.719818	895.867920	4458.237793	987.334534	2.567578
322.088440	894.084656	4582.694824	990.232361	2.606611
322.457062	894.902039	4755.596680	1003.606873	2.815681
322.825623	903.372559	4959.111816	1011.334290	2.661949
323.194183	904.264099	5104.968262	1009.996887	2.517025
323.562653	898.914307	5203.567871	1002.195068	2.399282
323.931183	899.211487	5218.577637	998.702820	2.303378
324.299591	894.827637	5180.014160	1000.708984	2.470869
324.668060	905.081482	5083.271973	1004.498535	2.379428
325.036407	905.378601	5012.535645	1013.340515	2.628629
325.404755	909.539551	4941.428223	1007.619202	2.432598
325.773102	906.939026	4882.208984	1013.266296	2.674718
326.141388	907.236267	4790.519531	1009.848328	2.642405
326.509674	902.852356	4685.604004	1003.309631	2.655667
326.877899	900.474670	4603.945313	996.548096	2.594146
327.246124	900.474670	4542.645508	988.523438	2.417480
327.614288	911.471497	4500.367676	1001.600769	2.511337
327.982422	914.517883	4485.135254	1002.046448	2.451357
328.350525	921.205261	4500.887207	1000.857666	2.225125
328.718628	916.449768	4556.763184	995.582214	2.173781
329.086700	915.260925	4619.103027	987.408875	1.947922
329.454712	905.898743	4683.448730	990.826843	2.248232
329.822693	899.880188	4709.900879	996.399475	2.533301
330.190674	897.205383	4747.201172	1007.990723	2.877544
330.558563	902.332275	4778.779785	1017.055664	2.959498
330.926483	909.168152	4874.184082	1011.705872	2.586061
331.294312	911.694336	4980.659668	1011.928711	2.463387
331.662231	908.796631	5100.212891	1006.281738	2.325828
332.029999	905.007141	5224.669922	1010.888489	2.451149
332.397766	905.304382	5300.087402	1018.616028	2.578322
332.765503	903.000977	5360.049805	1025.823364	2.755689
333.133240	901.069153	5365.548340	1033.773804	2.972456
333.500916	898.022705	5373.052734	1032.584961	3.006958
333.868561	901.663513	5352.248047	1029.984375	2.883236
334.236176	901.291992	5312.644531	1027.086548	2.851610
334.603790	907.310547	5261.227051	1025.005981	2.703208
334.971344	899.508789	5224.893066	1029.612793	3.007918
335.338867	907.607727	5211.741699	1030.504517	2.855320
335.706360	901.366394	5208.100098	1028.721313	2.957111
336.073853	906.939026	5227.122559	1026.343506	2.763875
336.441284	905.081482	5249.562012	1020.845154	2.664615
336.808655	909.093750	5300.904785	1019.804871	2.520854
337.176086	911.099915	5344.223145	1023.594238	2.537586
337.543396	906.493164	5387.393066	1024.411621	2.631580
337.910706	901.812073	5391.033691	1031.024536	2.878282
338.277954	905.007141	5373.646973	1029.910034	2.795099
338.645264	901.960754	5333.820801	1037.934692	3.068101
339.012421	905.824524	5286.415527	1043.804565	3.149804
339.379669	896.982422	5194.354980	1041.055420	3.352583
339.746796	903.669678	5091.520020	1034.665405	3.127994
340.113953	911.174316	5016.622559	1022.331055	2.707542
340.481018	920.908020	4996.560547	1024.634521	2.545028
340.848114	920.685059	4999.978516	1028.275269	2.637472
341.215118	908.945129	5054.888672	1031.619019	2.958890
341.582153	901.143372	5189.971191	1030.355835	3.012769
341.949066	897.948425	5395.046387	1038.306152	3.121073
342.316010	901.663574	5656.592285	1051.383423	3.148730
342.682922	907.459167	5954.248535	1072.782593	3.275814
343.049835	911.991516	6315.508301	1084.968384	3.201191
343.416656	922.171082	6640.434082	1090.020874	2.935328
343.783478	920.016296	6877.683105	1086.305786	2.791185
344.150269	921.725281	7011.873535	1088.534790	2.739006
344.516998	909.762512	7046.350098	1095.742310	3.030671
344.883728	908.202148	6956.294922	1100.051880	3.172070
345.250427	896.833801	6822.847656	1098.862915	3.409191
345.617065	898.171204	6636.718750	1090.689575	3.354828
345.983704	901.886414	6481.797363	1086.305786	3.305059
346.350281	911.917236	6311.273438	1084.076782	3.188520
346.716827	908.202148	6173.515625	1090.764038	3.467256
347.083405	903.000977	6074.321777	1092.918823	3.672521
347.449860	907.384766	6012.130371	1089.352173	3.564672
347.816376	913.031799	5989.468750	1083.630859	3.360606
348.182770	910.877014	6000.613281	1084.894043	3.418979
348.549194	907.533386	6034.644043	1092.844360	3.614335
348.915558	908.573547	6122.023926	1102.132324	3.712681
349.281921	903.298157	6216.982910	1107.110474	3.835612
349.648193	899.657410	6265.726074	1111.345825	3.944944
350.014526	896.759583	6291.137207	1113.129028	4.011018
350.380737	906.344666	6324.499512	1106.070190	3.686228
350.746948	903.669678	6398.652832	1103.395386	3.634692
351.113159	902.703796	6453.265625	1098.342773	3.524670
351.479309	903.372498	6514.119629	1101.091919	3.523941
351.845428	902.332275	6626.911621	1104.732788	3.535640
352.211517	903.075256	6792.382813	1114.169189	3.584359
352.577576	901.886414	6945.149902	1125.166016	3.694686
352.943604	905.527283	7079.488281	1129.921509	3.634526
353.309601	908.945251	7215.908691	1139.060669	3.648593
353.675537	914.592102	7386.730469	1152.063721	3.669137
354.041473	913.626221	7595.224609	1159.345337	3.677550
354.407379	905.824402	7738.703125	1161.203003	3.737496
354.773254	895.719238	7922.973145	1166.478394	3.852987
355.139038	892.672852	8086.438965	1177.029419	3.952819
355.504913	900.623291	8357.570313	1187.654663	3.849181
355.870636	899.583008	8640.663086	1197.314087	3.846118
356.236389	904.115540	8947.754883	1208.013672	3.778117
356.602081	901.737793	9233.822266	1224.583130	3.874725
356.967804	904.932861	9439.195313	1235.208374	3.869995
357.333405	905.601563	9567.739258	1245.313599	3.921804
357.699036	908.127869	9601.249023	1235.654175	3.767649
358.064606	907.682068	9555.180664	1235.728638	3.793543
358.430176	911.843018	9467.282227	1225.771973	3.669349
358.795654	905.230042	9493.584961	1239.518066	3.892341
359.161163	907.161926	9689.297852	1246.130859	3.859755
359.526581	892.598633	10130.209961	1266.712769	4.049901
359.892029	894.307556	10713.413086	1288.632080	4.015891
360.257416	896.165039	11358.062500	1315.083862	4.004234
360.622772	906.567444	11898.762695	1335.145508	3.898931
360.988098	904.561340	12227.254883	1349.634644	3.930808
361.353394	902.926697	12358.549805	1354.018433	3.937732
361.718658	901.960754	12152.878906	1353.646851	4.014660
362.083893	907.607666	11691.534180	1336.483032	3.976987
362.449097	911.545837	10964.257813	1303.641113	3.900393
362.814209	903.372498	10224.425781	1270.502197	3.938715
363.179382	903.000977	9558.079102	1237.214722	3.861476
363.544434	906.641846	9102.604492	1224.806030	3.881962
363.909546	916.004089	8818.692383	1218.936157	3.833279
364.274536	914.072083	8631.003906	1215.741089	3.909183
364.639587	902.852478	8471.699219	1212.546021	4.091687
365.004517	900.103210	8370.499023	1211.877441	4.173463
365.369507	898.840027	8314.102539	1209.945557	4.195476
365.734344	899.360168	8296.865234	1210.837280	4.210570
366.099274	898.171326	8259.936523	1208.979492	4.221924
366.464081	903.223877	8226.500000	1213.512085	4.237013
366.828918	899.731628	8176.419434	1209.499756	4.256993
367.193665	902.555176	8110.142090	1201.772339	4.151420
367.558411	896.462341	8027.740723	1196.199463	4.203133
367.923126	905.452942	7920.596191	1191.146851	4.072532
368.287781	903.446777	7855.729004	1194.267578	4.183098
368.652435	908.202148	7787.519531	1192.930054	4.138897
369.017059	910.579895	7809.066406	1197.759766	4.162941
369.381653	915.186707	7831.209473	1193.821777	4.028834
369.746185	914.666504	7922.156250	1202.886841	4.113033
370.110687	911.174255	8001.288574	1204.967285	4.143700
370.475220	912.808899	8131.838379	1220.273560	4.259086
370.839661	907.979248	8194.030273	1222.428345	4.315769
371.204041	904.784241	8245.745117	1225.103394	4.363450
371.568451	910.579834	8239.280273	1217.301636	4.185214
371.932770	913.997742	8242.698242	1205.041626	3.971289
372.297150	908.945129	8200.642578	1199.989136	3.991444
372.661377	898.840027	8212.976563	1199.988892	4.117353
373.025696	900.474670	8240.394531	1203.406860	4.127187
373.389862	909.019531	8314.548828	1210.539917	4.071558
373.754059	909.242371	8405.717773	1208.236572	3.988464
374.118225	910.356934	8545.036133	1221.982544	4.081712
374.482361	912.957520	8731.312500	1221.313843	3.944005
374.846436	917.638489	8981.860352	1235.357056	3.939854
375.210510	913.774841	9305.895508	1238.849243	3.873567
375.574524	914.072021	9663.960938	1256.161743	3.909647
375.938538	909.316711	10009.468750	1275.554810	4.024527
376.302460	909.688293	10289.144531	1291.084106	4.066289
376.666412	909.762512	10462.195313	1291.827026	3.999657
377.030304	910.728516	10455.805664	1287.368774	3.945911
377.394196	917.118591	10307.348633	1280.235840	3.866968
377.757996	912.214539	10042.236328	1271.765259	3.938115
378.121796	909.539612	9728.901367	1258.465210	3.956359
378.485565	903.446777	9407.467773	1243.901855	4.003460
378.849304	899.434509	9169.698242	1239.072144	4.106733
379.212982	898.765808	9020.275391	1232.756348	4.112419
379.576630	901.291992	8960.461914	1232.533569	4.110120
379.940277	914.889404	8925.539063	1224.806152	3.868809
380.303864	916.969910	8904.289063	1218.193115	3.771268
380.667450	922.319641	8917.737305	1215.295288	3.664294
381.030945	908.796570	8943.373047	1221.685425	3.894279
381.394501	914.666504	8976.139648	1228.595581	3.894190
381.757935	908.425049	9012.994141	1232.756470	4.001834
382.121399	916.524109	9084.101563	1234.911255	3.898183
382.484741	919.644836	9265.327148	1242.118652	3.863960
382.848145	919.867676	9479.764648	1249.994751	3.856671
383.211487	914.220703	9641.743164	1260.619995	3.969045
383.574768	902.778015	9722.882813	1263.294800	4.087443
383.938019	900.920593	9742.944336	1258.985352	4.049580
384.301270	898.245605	9765.383789	1250.588989	3.973586
384.664459	900.326172	9798.374023	1250.960571	3.940577
385.027649	903.372559	9821.555664	1259.728394	3.995834
385.390778	918.233093	9963.325195	1273.177124	3.924162
385.753876	924.623047	10054.198242	1283.059448	3.926102
386.116943	924.325867	10170.110352	1280.235840	3.849430
386.479980	912.140198	10196.563477	1286.923218	4.036686
386.842987	906.790466	10222.048828	1286.625977	4.077563
387.205994	902.406555	10218.853516	1293.387573	4.196675
387.568909	906.938965	10188.240234	1278.898438	4.007622
387.931793	903.595398	10112.897461	1277.635254	4.061544
388.294678	900.400391	10063.634766	1280.681763	4.150078
388.657471	892.672913	10054.420898	1291.678589	4.355126
389.020294	893.936035	10144.327148	1284.694214	4.224235
389.383057	900.920410	10358.467773	1294.279175	4.159205
389.745819	905.527283	10599.506836	1301.486572	4.084589
390.108521	905.304382	10881.559570	1317.015747	4.126913
390.471191	902.778076	11170.746094	1326.749390	4.129067
390.833801	903.595398	11414.309570	1330.093018	4.057742
391.196442	905.081482	11597.911133	1343.467407	4.099812
391.558960	905.007141	11625.031250	1341.015503	4.067233
391.921509	905.452942	11605.266602	1352.160889	4.174913
392.284027	906.493164	11523.237305	1350.229126	4.179586
392.646484	903.595398	11487.573242	1360.334351	4.315381
393.008911	901.960754	11468.847656	1356.321899	4.299858
393.371307	896.759521	11499.089844	1351.789429	4.291791
393.733673	894.381836	11443.807617	1335.814331	4.184422
394.096008	895.199158	11329.827148	1327.418091	4.142159
394.458344	902.480774	11156.106445	1332.842285	4.197164
394.820587	901.514893	10937.360352	1325.783447	4.227531
395.182831	905.452942	10695.801758	1322.588501	4.260681
395.545013	894.976318	10438.417969	1303.789795	4.283711
395.907196	904.709961	10234.234375	1298.885864	4.225038
396.269287	911.694397	10138.754883	1290.489624	4.105264
396.631409	929.452698	10096.476563	1288.111938	3.912494
396.993469	927.372253	10081.988281	1286.551636	3.923478
397.355530	922.914063	10080.798828	1289.226440	3.999967
397.717499	914.443542	10130.358398	1296.359497	4.144092
398.079468	911.397156	10162.382813	1304.532837	4.249663
398.441376	905.155762	10168.847656	1312.409058	4.396231
398.803284	896.982422	10109.925781	1312.483276	4.509969
399.165131	896.313721	10073.666016	1306.910645	4.474024
399.526978	897.131042	10032.799805	1295.542236	4.361051
399.888763	899.211487	10029.381836	1297.028198	4.357167
400.250519	904.932861	10026.854492	1299.257324	4.322822
400.612244	905.007141	10065.937500	1301.858032	4.331993
400.973938	904.709961	10151.386719	1298.885864	4.262893
401.335602	898.468506	10269.824219	1304.755737	4.335416
401.697205	897.279602	10439.161133	1319.021851	4.419907
402.058807	902.257996	10628.335938	1329.275757	4.390441
402.420349	907.756348	10914.327148	1341.238403	4.331975
402.781860	910.951355	11184.492188	1339.009399	4.166606
403.143341	910.802734	11437.492188	1342.798828	4.103817
403.504822	919.570496	11625.700195	1343.616089	3.960774
403.866241	921.502441	11776.015625	1361.374390	4.052433
404.227631	917.861572	11894.602539	1369.399048	4.113584
404.588959	906.939026	11911.247070	1379.504395	4.294367
404.950287	905.081360	11856.633789	1374.674683	4.287915
405.311554	904.115540	11710.628906	1364.718140	4.262268
405.672821	900.771912	11618.641602	1349.485962	4.186597
406.034027	897.279602	11470.481445	1338.192017	4.170094
406.395203	902.480774	11304.565430	1333.065063	4.139404
406.756348	905.601563	11147.860352	1332.322144	4.166274
407.117493	903.446777	11087.601563	1339.529419	4.281972
407.478516	904.487000	11115.835938	1343.318848	4.297492
407.839600	909.465332	11181.519531	1341.535522	4.206268
408.200592	912.437317	11322.992188	1341.238403	4.118907
408.561554	907.013367	11488.315430	1349.634521	4.183050
408.922485	903.223877	11661.515625	1360.259888	4.248221
409.283417	907.310547	11770.963867	1369.324829	4.252844
409.644257	911.025635	11888.510742	1379.355835	4.266279
410.005096	903.669678	11944.385742	1378.389648	4.299721
410.365906	902.703674	11925.585938	1372.222656	4.259494
410.726715	897.279602	11867.258789	1366.649902	4.278680
411.087433	898.617126	11775.049805	1365.981079	4.297033
411.448120	901.886536	11737.377930	1366.872925	4.291327
411.808807	910.728516	11680.906250	1361.300171	4.183512
412.169434	919.793457	11654.233398	1359.739746	4.098456
412.530029	913.849182	11691.385742	1365.163818	4.187549
412.890564	909.168152	11802.168945	1367.169922	4.204551
413.251099	909.985535	11977.598633	1376.012085	4.210723
413.611572	915.335205	12169.671875	1386.711548	4.188397
413.972076	912.660339	12349.038086	1391.244141	4.184750
414.332489	908.053528	12471.637695	1394.364868	4.205542
414.692871	904.041260	12673.815430	1387.900513	4.111032
415.053223	903.075378	12847.312500	1397.485474	4.139319
415.413574	904.561340	13165.847656	1417.101563	4.180151
415.773834	904.932922	13420.112305	1432.184937	4.212900
416.134094	906.493225	13765.174805	1448.680176	4.216505
416.494263	907.161926	14103.622070	1451.132202	4.122092
416.854462	904.264160	14541.117188	1467.701660	4.131727
417.214630	901.663513	15044.890625	1484.419800	4.120391
417.574738	896.165100	15490.409180	1516.890015	4.253217
417.934784	900.920593	16005.102539	1541.781250	4.242935
418.294861	909.168152	16578.572266	1569.942017	4.216969
418.654846	912.140198	17272.189453	1596.691040	4.184284
419.014832	906.270325	17992.777344	1615.712769	4.152062
419.374756	901.514954	18765.228516	1647.365601	4.175228
419.734680	900.623291	19533.814453	1674.040161	4.150748
420.094543	898.840027	20145.251953	1711.786011	4.223883
420.454376	905.452942	20501.681641	1721.519653	4.164407
420.814148	903.075256	20688.033203	1722.931519	4.143836
421.173920	906.641785	20836.638672	1728.504272	4.123746
421.533691	903.966980	20935.757813	1737.346191	4.160283
421.893341	908.796570	20984.427734	1742.175903	4.151199
422.253021	910.505554	20956.712891	1733.482422	4.105400
422.612640	913.774902	20936.279297	1720.925293	4.031216
422.972260	900.251770	20962.283203	1717.210327	4.072163
423.331757	898.691406	21060.884766	1729.470093	4.120478
423.691315	897.279724	21176.943359	1750.126343	4.205428
424.050781	908.573730	21184.150391	1760.231445	4.200412
424.410248	919.273254	20979.226563	1736.231812	4.072585
424.769653	914.889404	20678.001953	1721.148071	4.079614
425.128998	911.917297	20260.048828	1701.309448	4.079940
425.488373	902.406555	19725.439453	1692.913208	4.199677
425.847656	899.657410	19234.375000	1659.774292	4.145779
426.206940	907.310547	18759.431641	1634.882813	4.075551
426.566193	904.338379	18339.917969	1609.693970	4.045496
426.925385	902.332214	17826.560547	1589.632324	4.061042
427.284576	894.679138	17338.837891	1574.177368	4.132156
427.643677	896.610901	16936.041016	1562.957642	4.154429
428.002777	896.388000	16666.322266	1554.635742	4.174067
428.361847	907.533386	16438.363281	1554.858765	4.168003
428.720856	905.007141	16208.840820	1540.072632	4.149715
429.079865	910.059753	16068.112305	1542.078613	4.169526
429.438812	901.440613	16055.332031	1529.670044	4.145664
429.797760	908.350769	16085.053711	1533.756836	4.120830
430.156616	917.490051	16010.377930	1533.459473	4.081190
430.515503	917.267151	15858.875977	1528.704102	4.092176
430.874268	918.604553	15823.061523	1528.109741	4.089416
431.233093	908.647949	15912.819336	1529.447144	4.137511
431.591827	905.155762	16130.971680	1538.066284	4.156825
431.950562	903.223877	16342.510742	1547.279785	4.171539
432.309204	908.573669	16499.216797	1543.044556	4.069562
432.667877	919.496094	16691.212891	1546.610962	3.976199
433.026459	919.347595	16737.876953	1551.960938	3.999192
433.385010	915.260925	16829.416016	1563.626465	4.074143
433.743561	913.180481	16805.716797	1562.957886	4.088570
434.102051	910.654236	16833.951172	1564.592407	4.106802
434.460510	911.174316	16836.476563	1565.929810	4.111416
434.818939	907.756348	16812.253906	1567.787476	4.149965
435.177338	905.973083	16775.845703	1568.901978	4.177279
435.535675	907.236267	16759.052734	1573.731567	4.204536
435.894012	909.985352	16763.064453	1575.663574	4.199047
436.252289	914.369324	17013.984375	1587.180298	4.179050
436.610535	913.551941	17120.312500	1575.515015	4.084487
436.968719	909.242371	17497.326172	1589.780884	4.102574
437.326935	902.778076	17768.900391	1603.081177	4.152129
437.685028	903.372498	18109.357422	1628.641235	4.215212
438.043152	906.121765	18322.009766	1640.083984	4.214325
438.401215	908.350769	18600.423828	1645.953735	4.169116
438.759277	906.716125	19026.400391	1667.650269	4.199489
439.117249	906.344543	19613.095703	1694.399292	4.212676
439.475250	911.322815	20152.160156	1721.371216	4.210047
439.833130	913.106140	20649.468750	1735.340210	4.166087
440.191071	912.363098	20818.583984	1744.553711	4.180555
440.548889	914.220703	20906.185547	1736.380371	4.112451
440.906708	907.459167	20772.439453	1730.510376	4.143227
441.264496	903.075256	20554.732422	1720.108032	4.157577
441.622223	897.576904	20219.626953	1708.814087	4.198504
441.979950	908.722351	19911.865234	1695.811035	4.141887
442.337616	912.437439	19695.421875	1670.399414	4.035365
442.695251	906.344543	19433.281250	1656.430542	4.048624
443.052887	902.629456	19305.705078	1652.418091	4.074257
443.410461	905.452942	19375.326172	1657.099243	4.069580
443.768005	908.499451	19654.333984	1673.817383	4.082603
444.125458	905.973145	19951.990234	1691.204224	4.122810
444.482941	902.034973	20350.994141	1711.488892	4.161940
444.840393	901.069092	20926.025391	1730.881836	4.143893
445.197754	904.115540	21447.480469	1750.051880	4.117808
445.555084	904.932861	21906.748047	1771.748413	4.127337
445.912415	910.356934	22149.568359	1782.819336	4.107791
446.269714	913.923523	22328.787109	1784.899902	4.067158
446.626953	918.827454	22299.361328	1788.466431	4.067433
446.984161	926.109070	22093.320313	1787.500610	4.069462
447.341309	922.765442	21838.611328	1774.869141	4.073962
447.698456	916.449707	21480.248047	1760.602905	4.105045
448.055542	908.870911	21256.595703	1749.977539	4.133664
448.412598	906.567566	20871.783203	1734.151001	4.145127
448.769653	908.573730	20497.814453	1723.154297	4.158306
449.126617	909.465332	19957.859375	1697.519897	4.137118
449.483582	912.585999	19600.687500	1687.043335	4.144120
449.840515	907.236267	19240.095703	1670.102173	4.161194
450.197388	900.326172	19037.769531	1660.740234	4.192510
450.554230	889.700867	18898.005859	1654.127075	4.244854
450.911041	903.298279	18861.671875	1647.439941	4.143703
451.267822	906.790466	18932.037109	1651.898071	4.133689
451.624573	916.226807	18984.568359	1657.099243	4.100390
451.981262	910.579773	18946.451172	1660.517212	4.158033
452.337921	918.827393	18766.638672	1656.802124	4.134820
452.694580	913.626282	18382.492188	1646.176636	4.193463
453.051147	910.059753	18142.865234	1634.882813	4.206066
453.407715	911.025635	17726.994141	1614.746704	4.184838
453.764221	909.019531	17586.710938	1601.966675	4.154934
454.120728	908.425049	17208.363281	1578.858521	4.113104
454.477142	902.109375	17166.232422	1577.966919	4.155512
454.833557	899.583008	17071.794922	1574.028809	4.170399
455.189911	901.217712	17103.296875	1589.558105	4.248469
455.546265	899.657410	17183.693359	1588.071899	4.227542
455.902557	902.852356	17209.548828	1591.638672	4.223948
456.258820	897.279602	17508.396484	1594.907837	4.199767
456.615051	899.360168	17807.687500	1608.653931	4.194937
456.971252	904.932861	18248.599609	1630.127319	4.181322
457.327393	909.093811	18852.755859	1663.489258	4.204245
457.683502	905.378662	19586.791016	1697.519897	4.240264
458.039612	907.756348	20663.736328	1726.943726	4.146529
458.395630	912.883301	21719.798828	1760.305664	4.072792
458.751648	917.787292	22642.195313	1793.593384	4.031438
459.107605	913.923523	23388.712891	1839.215210	4.117021
459.463562	915.038086	23618.087891	1852.069702	4.127338
459.819458	911.471497	23473.939453	1843.227661	4.129673
460.175323	913.923523	22740.646484	1813.135132	4.119774
460.531158	908.425110	21873.828125	1773.308594	4.125289
460.886932	906.790344	20979.150391	1738.757935	4.144842
461.242676	905.378601	20209.001953	1696.479858	4.098201
461.598419	908.276367	19646.382813	1675.526367	4.094597
461.954102	909.390930	19076.554688	1658.659668	4.124302
462.309723	903.075256	18633.265625	1640.232544	4.157639
462.665344	897.799805	18253.800781	1622.028442	4.172785
463.020905	902.257996	18060.763672	1614.969727	4.153693
463.376373	910.728455	18054.076172	1621.136841	4.143930
463.731873	920.536377	18048.947266	1627.824097	4.129325
464.087341	912.288818	18129.716797	1634.214233	4.192992
464.442749	909.911133	18253.798828	1640.232788	4.210830
464.798126	905.304382	18389.033203	1644.542114	4.228147
465.153503	900.994812	18539.273438	1653.755859	4.267769
465.508820	900.400391	18692.931641	1653.978638	4.235363
465.864105	895.719299	18824.669922	1656.430664	4.242922
466.219330	906.195984	19089.855469	1657.545044	4.132001
466.574524	901.589172	19122.400391	1663.786499	4.183114
466.929657	904.115540	18981.298828	1661.631714	4.190454
467.284790	913.477722	18761.806641	1661.111450	4.188817
467.639893	915.112305	18473.810547	1649.000122	4.179625
467.994934	912.734619	18321.044922	1642.833130	4.193965
468.349945	899.657410	18097.169922	1628.046997	4.235436
468.704926	896.610901	17942.546875	1624.554810	4.270484
469.059875	899.805908	17775.662109	1615.935547	4.243516
469.414764	901.589172	17649.943359	1608.208130	4.219035
469.769653	907.533386	17653.435547	1610.214355	4.196137
470.124451	908.276428	17728.257813	1607.316406	4.156010
470.479248	903.075256	17802.634766	1615.489868	4.215581
470.834015	900.920471	17874.263672	1613.632202	4.199006
471.188721	902.406555	18090.707031	1627.601074	4.219117
471.543365	908.202148	18396.908203	1642.907349	4.201026
471.898010	905.155701	18631.779297	1651.823730	4.212128
472.252625	900.400391	18924.087891	1666.164185	4.248652
472.607178	894.902039	19191.947266	1678.126953	4.280609
472.961700	894.530457	19345.160156	1687.563354	4.298135
473.316193	898.171326	19383.351563	1698.783081	4.331101
473.670654	903.149597	19289.431641	1688.826538	4.273170
474.025055	913.997742	19397.617188	1689.123657	4.193583
474.379456	914.294983	19466.644531	1681.767700	4.136795
474.733795	918.381653	19640.884766	1688.157837	4.111502
475.088104	910.951355	19913.056641	1703.315552	4.169876
475.442383	902.852356	20287.244141	1724.566284	4.239049
475.796570	896.462219	20675.548828	1740.466919	4.267157
476.150787	897.056702	21149.154297	1751.835327	4.220692
476.504944	907.756348	21589.398438	1765.135376	4.145604
476.859070	911.322815	22006.906250	1778.509888	4.110752
477.213135	916.226868	22249.728516	1796.937012	4.128296
477.567200	909.613953	22540.474609	1808.008179	4.153298
477.921173	907.384949	22776.681641	1817.072876	4.159658
478.275146	902.926697	22999.884766	1831.933594	4.204230
478.629089	907.459167	23301.630859	1851.623657	4.216117
478.983002	910.356934	23778.876953	1880.601929	4.242710
479.336823	911.248596	24470.189453	1900.737915	4.200058
479.690643	913.477600	25256.609375	1928.675781	4.170368
480.044403	902.703796	26280.576172	1960.328735	4.167509
480.398163	900.177429	27603.609375	2020.885376	4.196869
480.751862	898.691406	29446.759766	2092.067383	4.180233
481.105499	908.870911	31887.828125	2197.057373	4.158263
481.459137	913.923523	35504.214844	2333.922852	4.105196
481.812744	913.106140	40200.964844	2523.914795	4.100016
482.166290	909.019531	45694.015625	2779.961914	4.177610
482.519806	905.304382	50753.667969	3039.129883	4.280633
482.873291	898.394226	54665.109375	3273.406250	4.417253
483.226715	897.131042	57032.542969	3426.767334	4.506311
483.580139	905.527283	57867.703125	3492.154053	4.540955
483.933502	912.214539	57342.605469	3451.287354	4.499477
484.286804	922.988464	55630.152344	3317.690674	4.377310
484.640106	917.118469	53042.855469	3149.989502	4.283625
484.993347	913.329102	50227.300781	2984.219971	4.199400
485.346558	905.007141	48023.406250	2874.995361	4.180932
485.699738	902.852356	47031.468750	2833.014404	4.184305
486.052887	900.623291	47336.781250	2860.803467	4.221237
486.405975	904.115540	48345.140625	2910.363281	4.228930
486.759064	910.728333	49482.792969	2949.000732	4.196388
487.112061	913.254700	49975.562500	2972.926025	4.198073
487.464996	918.753113	49638.972656	2948.182861	4.165477
487.817963	919.644775	48438.167969	2892.827393	4.152449
488.170868	917.638611	46557.785156	2793.261963	4.109591
488.523743	904.487000	44306.121094	2703.207275	4.144361
488.876587	894.679138	42227.058594	2621.400146	4.177647
489.229401	898.840027	40863.453125	2565.747314	4.170958
489.582153	907.830627	40570.402344	2550.366455	4.141274
489.934845	911.917297	41173.445313	2580.459229	4.144259
490.287537	905.378662	42452.121094	2624.818115	4.138566
490.640198	901.217712	43847.894531	2687.009277	4.158160
490.992798	898.394226	44662.996094	2708.036865	4.134946
491.345337	909.911133	44533.113281	2707.071045	4.119734
491.697876	916.449768	43216.390625	2649.932373	4.098073
492.050354	919.421875	41067.707031	2572.805908	4.118194
492.402832	910.134033	38196.054688	2458.900146	4.153756
492.755219	910.208313	35118.214844	2322.702881	4.129135
493.107605	911.471497	32351.179688	2205.304932	4.115284
493.459930	915.632507	30268.548828	2129.813232	4.136491
493.812225	906.716064	28868.240234	2069.330811	4.157909
494.164490	910.505554	28053.140625	2034.259766	4.140181
494.516724	902.480896	27590.828125	2006.767700	4.137712
494.868896	904.784363	27564.750000	2020.142212	4.183644
495.221039	902.629456	27769.750000	2028.018555	4.188723
495.573120	917.861511	28077.291016	2037.900757	4.123943
495.925201	917.341370	28358.601563	2043.473511	4.103792
496.277222	915.260925	28533.134766	2045.999878	4.094229
496.629211	906.790466	28556.392578	2048.080322	4.127690
496.981140	913.923523	28431.490234	2040.724243	4.094841
497.333069	909.391113	28123.505859	2039.609497	4.153059
497.684967	908.870911	27697.083984	2026.309448	4.171381
498.036804	905.007141	27143.228516	2000.377930	4.174715
498.388580	907.087646	26626.306641	1961.740601	4.100641
498.740326	906.493164	26100.912109	1944.205078	4.118817
499.092072	902.183594	25637.263672	1933.133789	4.167968
499.443756	906.121643	25145.156250	1922.582886	4.193489
499.795410	907.310547	24776.615234	1897.394165	4.147936
500.147003	914.517822	24410.226563	1881.642090	4.116174
500.498566	907.682068	24079.208984	1874.954956	4.174403
500.850098	907.979187	23892.859375	1872.354370	4.195693
501.201599	900.474670	23732.664063	1869.604858	4.244578
501.553009	898.988586	23670.916016	1860.614258	4.222856
501.904449	905.527344	23618.455078	1856.750610	4.188026
502.255859	917.787292	23658.359375	1855.561890	4.123795
502.607178	925.886230	23784.228516	1857.493652	4.075569
502.958405	920.610657	23890.554688	1864.552368	4.109465
503.309692	905.378662	24019.916016	1862.397583	4.140334
503.660919	898.840027	24123.865234	1857.270874	4.126716
504.012115	894.381836	24096.521484	1852.738281	4.130466
504.363251	895.422119	24032.250000	1856.899048	4.155612
504.714294	899.657410	23847.162109	1861.580444	4.191842
505.065369	903.075195	23755.250000	1858.756836	4.182016
505.416443	912.585999	23578.109375	1858.905640	4.175150
505.767395	916.078186	23620.388672	1859.722656	4.156235
506.118317	913.923523	23612.662109	1863.289185	4.182460
506.469238	907.236145	23800.796875	1857.122192	4.149141
506.820160	899.360107	23960.177734	1853.629883	4.138057
507.170929	902.629395	24200.468750	1862.546265	4.120197
507.521729	903.743958	24417.210938	1880.676147	4.154778
507.872498	914.815125	24623.328125	1905.196167	4.177322
508.223236	911.768738	24949.218750	1910.248657	4.153852
508.573883	910.134033	25235.876953	1918.199097	4.144026
508.924500	904.709961	25526.031250	1921.468384	4.129585
509.275116	907.459167	25710.302734	1933.505371	4.136808
509.625702	907.236145	25945.617188	1952.526978	4.174754
509.976196	903.149597	26121.195313	1967.238892	4.219555
510.326660	906.716064	26364.388672	1983.585449	4.230039
510.677124	914.517883	26542.119141	1986.780396	4.184014
511.027557	919.941956	26751.283203	1987.895020	4.134331
511.377869	913.923523	26886.367188	1989.678345	4.141909
511.728180	909.836853	26896.173828	1992.427368	4.165999
512.078430	910.208313	26807.603516	1994.433594	4.186619
512.428650	915.409607	26658.333984	1990.049683	4.174507
512.778931	914.072083	26496.427734	1971.176758	4.132164
513.129028	904.338440	26342.841797	1966.718628	4.176268
513.479126	899.508789	26185.318359	1960.477417	4.195906
513.829285	896.908203	26109.826172	1964.043823	4.232495
514.179382	900.994812	26023.041016	1963.375122	4.228877
514.529297	904.189758	26025.791016	1955.053223	4.183107
514.879272	901.366272	26178.333984	1961.740601	4.195022
515.229187	898.468567	26339.421875	1954.830200	4.152209
515.579163	898.617126	26778.552734	1975.709351	4.161881
515.928955	902.629456	27322.521484	1995.994019	4.138414
516.278748	901.886414	28171.353516	2043.622070	4.186864
516.628540	901.960754	29053.181641	2080.327393	4.185846
516.978333	903.000977	30042.523438	2121.937256	4.183103
517.327942	908.722351	31016.482422	2152.475586	4.131005
517.677612	912.288879	31861.453125	2178.704346	4.091922
518.027222	915.781067	32401.705078	2200.251953	4.079508
518.376831	913.700623	32546.968750	2207.162354	4.088928
518.726379	905.378723	32277.992188	2201.366699	4.130953
519.075867	899.805969	31633.490234	2176.995117	4.155666
519.425293	898.542786	30877.609375	2147.719971	4.166831
519.774658	899.360168	30085.396484	2119.261963	4.179745
520.124084	902.406555	29435.619141	2086.420410	4.149599
520.473389	900.771912	28835.250000	2057.888428	4.142252
520.822693	900.103210	28396.937500	2044.959595	4.163594
521.171997	900.920471	28135.765625	2038.495117	4.176909
521.521240	912.065918	28121.945313	2038.569458	4.140053
521.870361	908.350769	28249.001953	2037.157715	4.128676
522.219482	910.505554	28515.154297	2045.331055	4.110994
522.568604	901.663574	28784.875000	2057.739502	4.146136
522.917664	906.195984	29237.898438	2070.371094	4.109089
523.266724	901.663513	29905.138672	2098.754639	4.127406
523.615662	902.257996	30900.937500	2156.710693	4.181693
523.964600	897.502502	32145.509766	2218.233398	4.226608
524.313538	903.075256	33589.582031	2285.105713	4.228138
524.662354	906.641785	35099.117188	2340.684326	4.194029
525.011169	912.808899	36509.011719	2405.476074	4.193333
525.359985	907.904968	37858.128906	2453.178467	4.182041
525.708740	907.384827	39323.675781	2509.202881	4.169632
526.057434	910.877136	41142.308594	2584.174072	4.159178
526.406067	916.524109	43450.527344	2691.021729	4.171950
526.754700	917.564270	46425.972656	2831.602295	4.205900
527.103333	905.750183	49848.511719	2982.957031	4.244155
527.451782	895.422058	53146.656250	3146.125732	4.307465
527.800293	894.530457	55516.542969	3274.446533	4.357064
528.148743	905.378601	56710.437500	3361.752197	4.401704
528.497131	911.991516	56669.937500	3380.328125	4.426879
528.845642	910.505554	55491.347656	3297.554688	4.373419
529.193909	908.350769	53255.207031	3161.432373	4.304139
529.542175	900.474670	50021.636719	2970.771484	4.214674
529.890503	900.103210	46391.574219	2811.540283	4.201748
530.238770	895.942200	42987.621094	2663.232422	4.198669
530.586914	897.056702	40609.785156	2557.202393	4.180387
530.934998	903.149597	39383.117188	2507.048096	4.168139
531.283142	907.087646	39393.000000	2509.425781	4.163441
531.631226	911.248596	40143.460938	2549.252197	4.175150
531.979248	905.081482	41481.578125	2602.675537	4.183688
532.327148	902.703796	42750.664063	2658.774170	4.196311
532.675110	905.898743	43736.734375	2700.309570	4.189530
533.023071	908.127869	43967.074219	2703.875977	4.170441
533.370850	911.545715	43194.328125	2672.520264	4.164756
533.718689	910.877014	41793.871094	2610.551758	4.157413
534.066467	913.031799	39953.839844	2534.762939	4.153939
534.414246	912.660339	38280.464844	2465.735840	4.156186
534.761963	913.551941	36918.347656	2413.946777	4.167208
535.109619	911.991516	36158.972656	2386.529053	4.183444
535.457153	911.025635	35831.671875	2355.767578	4.137215
535.804749	907.236145	35770.296875	2352.721191	4.146179
536.152344	910.133972	35667.535156	2347.817383	4.136337
536.499817	905.230042	35413.566406	2341.130127	4.161024
536.847229	910.951355	34882.226563	2311.260498	4.122039
537.194641	900.623291	34044.242188	2272.548584	4.139335
537.542114	904.115417	33083.656250	2246.394287	4.171218
537.889404	897.279602	32201.015625	2215.409912	4.210776
538.236694	904.561279	31735.583984	2202.555420	4.210026
538.583984	913.254822	31918.962891	2203.150146	4.160186
538.931213	916.449768	32846.335938	2254.641602	4.191032
539.278381	915.706726	34513.613281	2312.969482	4.158779
539.625488	912.511719	36711.785156	2400.572266	4.156678
539.972595	913.254700	39465.371094	2500.509521	4.117167
540.319641	917.564270	42101.039063	2610.328857	4.110301
540.666687	910.505554	44230.699219	2687.380859	4.101725
541.013611	908.202148	45360.324219	2738.501221	4.117462
541.360596	903.000977	45512.343750	2742.216064	4.122937
541.707458	902.109375	44678.519531	2720.891357	4.154708
542.054260	898.691406	43066.824219	2660.631836	4.178370
542.401062	899.062927	41067.562500	2588.483887	4.205835
542.747864	904.338379	38896.878906	2497.611572	4.193647
543.094666	904.041199	36851.398438	2397.080078	4.153404
543.441284	902.703674	34882.152344	2318.988037	4.168062
543.787903	898.914368	33301.066406	2262.740723	4.209061
544.134460	911.248596	31891.392578	2222.468506	4.232453
544.481079	905.007141	30938.312500	2188.140869	4.272370
544.827637	912.883118	30281.181641	2159.534180	4.244887
545.174072	906.567444	29992.884766	2151.435303	4.279909
545.520508	910.728516	29942.435547	2146.159668	4.255455
545.866943	906.790466	29946.001953	2140.735840	4.249238
546.213318	905.973145	29839.005859	2125.206299	4.213983
546.559631	908.425110	29470.242188	2100.538086	4.173800
546.905823	913.477722	28891.275391	2076.984131	4.158678
547.252136	911.100037	28017.994141	2042.730469	4.174696
547.598389	911.768738	27030.509766	2006.544922	4.191535
547.944458	905.229980	25963.822266	1966.272949	4.234248
548.290588	908.276428	24999.001953	1928.304199	4.234110
548.636658	910.431152	24059.369141	1887.066040	4.218919
548.982727	905.304260	23288.775391	1847.462769	4.209171
549.328735	902.332214	22710.255859	1815.735352	4.188400
549.674622	900.474609	22299.955078	1793.890503	4.174942
550.020569	912.214539	22022.435547	1783.710938	4.128315
550.366455	918.381653	21778.201172	1785.568726	4.157213
550.712280	917.712891	21684.357422	1781.704956	4.160480
551.058044	913.180420	21709.841797	1784.528320	4.189845
551.403748	905.601563	21851.390625	1786.311646	4.204712
551.749512	902.778137	22084.849609	1801.840942	4.244452
552.095154	902.406555	22244.525391	1811.426147	4.259275
552.440735	905.750183	22329.156250	1811.128906	4.226120
552.786316	906.716125	22219.634766	1810.014282	4.238266
553.131897	903.595398	22012.255859	1795.451050	4.225070
553.477417	904.635559	21679.900391	1780.590454	4.216335
553.822815	906.493164	21279.630859	1757.556519	4.177380
554.168213	905.155701	20865.615234	1742.398804	4.194508
554.513672	898.468506	20469.361328	1725.903687	4.227887
554.859009	897.502625	20189.314453	1718.770508	4.257080
555.204285	900.994873	19979.705078	1705.395996	4.216224
555.549500	899.360107	19825.302734	1699.080444	4.225524
555.894714	900.846191	19685.763672	1685.557129	4.177346
556.239990	893.861755	19515.087891	1680.653320	4.225240
556.585022	907.756348	19409.876953	1676.789429	4.156459
556.930115	907.310547	19242.544922	1677.903931	4.202801
557.275146	910.728455	19155.687500	1676.863770	4.199162
557.620178	902.406555	19056.642578	1669.285034	4.224240
557.965149	903.223877	18989.472656	1663.117798	4.201501
558.310059	904.709961	18905.138672	1660.517212	4.198829
558.654968	900.697571	18830.017578	1668.765015	4.283863
558.999756	899.508789	18857.732422	1669.062134	4.285242
559.344604	897.354004	18928.099609	1671.959961	4.296028
559.689331	906.716125	18995.640625	1669.730835	4.218132
560.033997	908.945129	19009.013672	1679.018555	4.254533
560.378723	913.849121	19066.671875	1677.606812	4.207377
560.723389	910.728455	19104.789063	1678.944336	4.222344
561.067932	907.384827	19172.255859	1665.049683	4.148208
561.412476	906.418945	19132.576172	1667.353027	4.174956
561.757019	905.452942	19118.384766	1663.637817	4.162893
562.101501	907.459167	19049.656250	1666.832886	4.185677
562.445862	906.344543	18940.654297	1658.511108	4.170753
562.790222	905.378662	18847.703125	1655.761841	4.182196
563.134644	904.041260	18804.384766	1654.573120	4.192835
563.478943	905.601563	18892.359375	1662.374878	4.207391
563.823181	906.493164	19036.136719	1667.947632	4.200052
564.167358	900.177429	19308.009766	1682.585083	4.250406
564.511536	897.948425	19721.205078	1694.622070	4.232390
564.855774	892.672913	20162.935547	1710.820313	4.245647
565.199768	902.183655	20542.994141	1724.417603	4.186355
565.543823	902.703796	20798.669922	1735.191528	4.184204
565.887817	909.316650	21005.750000	1746.113892	4.163909
566.231812	911.545715	21036.511719	1746.262573	4.147668
566.575745	909.911133	20901.503906	1738.089233	4.142632
566.919617	907.756348	20607.265625	1726.423706	4.155775
567.263428	901.960693	20272.384766	1713.420532	4.189169
567.607239	907.607727	19999.990234	1709.036743	4.197638
567.950989	908.127869	19760.365234	1696.033813	4.179376
568.294678	910.728455	19633.751953	1693.804810	4.182425
568.638367	910.282654	19546.373047	1686.671753	4.166051
568.981995	907.904968	19554.025391	1686.523315	4.175766
569.325623	902.555176	19659.236328	1689.569702	4.195916
569.669128	897.651184	19815.421875	1692.690430	4.202605
570.012573	894.827637	20064.632813	1702.275391	4.212081
570.356140	899.211609	20322.982422	1717.284546	4.211710
570.699524	896.462402	20612.169922	1737.643433	4.266553
571.042908	900.400391	20916.662109	1750.646484	4.247777
571.386230	897.428284	21157.253906	1756.962280	4.242554
571.729492	898.096985	21295.160156	1767.735962	4.263550
572.072815	891.929871	21335.060547	1763.797974	4.264846
572.416016	893.861633	21244.783203	1757.185059	4.242183
572.759094	901.960754	21071.210938	1735.117188	4.130825
573.102234	916.524109	20822.818359	1727.463867	4.073785
573.445374	922.468262	20577.691406	1710.225586	4.007878
573.788391	919.719055	20390.375000	1712.454712	4.071438
574.131409	911.768738	20241.472656	1713.866577	4.149561
574.474365	908.350769	20120.806641	1718.473267	4.216653
574.817261	906.418884	20005.634766	1718.770508	4.253325
575.160156	905.972961	19788.375000	1702.572632	4.218741
575.502930	904.858459	19541.466797	1695.290894	4.241289
575.845703	903.075195	19269.443359	1680.504517	4.232896
576.188477	910.133972	18924.455078	1675.972168	4.251275
576.531250	910.356934	18539.123047	1656.802124	4.234245
576.873901	910.431213	18067.376953	1630.424438	4.196512
577.216431	902.034973	17706.931641	1606.573608	4.192461
577.559082	900.771790	17375.693359	1591.638672	4.193446
577.901611	906.493164	17104.857422	1584.282593	4.184308
578.244080	906.938965	16793.751953	1572.171265	4.187324
578.586487	904.189758	16538.818359	1562.957642	4.213518
578.928955	910.505554	16280.247070	1555.750366	4.198150
579.271301	911.620117	16088.100586	1550.326294	4.208526
579.613647	907.310547	15816.078125	1538.586426	4.234259
579.955872	891.335449	15682.184570	1532.493652	4.334830
580.298157	894.158875	15547.101563	1527.366821	4.321371
580.640320	896.536560	15522.656250	1528.407104	4.320151
580.982483	906.121643	15421.381836	1515.626953	4.199066
581.324524	900.028809	15334.077148	1510.277222	4.227839
581.666626	902.480896	15231.538086	1505.150269	4.205925
582.008728	906.344543	15163.550781	1501.583618	4.175005
582.350647	910.951355	15095.415039	1503.664063	4.178605
582.692566	916.152527	15040.133789	1498.463013	4.122849
583.034424	909.168152	14999.043945	1503.664063	4.219313
583.376343	910.728455	14931.355469	1502.178101	4.218425
583.718201	909.762512	14896.803711	1502.326782	4.236524
584.059937	906.641846	14815.367188	1496.605469	4.241680
584.401611	902.332275	14805.411133	1490.140991	4.227903
584.743347	903.892578	14752.656250	1483.973999	4.188687
585.085022	906.195984	14695.518555	1484.791382	4.195967
585.426514	913.403320	14627.011719	1484.939819	4.167659
585.768127	912.065918	14611.778320	1483.230835	4.169174
586.109619	912.363098	14638.528320	1470.227905	4.064244
586.451172	906.418945	14652.792969	1465.101074	4.064215
586.792542	901.886414	14708.148438	1466.289917	4.088026
587.133850	902.257996	14774.946289	1477.286743	4.145042
587.475220	911.768738	14874.809570	1486.871704	4.118752
587.816589	911.843018	14939.304688	1490.958374	4.128440
588.157776	917.861511	15018.362305	1490.809937	4.063320
588.498962	913.923401	15110.721680	1492.741577	4.077104
588.840210	924.994568	15185.098633	1507.379272	4.084014
589.181335	920.462097	15289.864258	1517.484497	4.154817
589.522400	925.663330	15315.127930	1517.484375	4.112877
589.863403	917.267151	15305.989258	1501.509277	4.060417
590.204407	923.285645	15220.690430	1498.091431	4.020350
590.545410	915.781067	15081.223633	1489.769531	4.052033
590.886353	910.208313	14887.961914	1494.896484	4.182991
591.227112	901.737854	14706.143555	1488.729126	4.252203
591.567932	896.833801	14608.731445	1495.936646	4.369219
591.908752	901.217712	14632.731445	1490.735352	4.293173
592.249512	905.527283	14680.135742	1497.794312	4.299701
592.590149	907.533447	14718.031250	1489.026489	4.210515
592.930786	913.180481	14786.985352	1493.113281	4.180056
593.271423	912.957520	14834.166992	1495.936646	4.187705
593.612000	909.762512	15037.460938	1493.930542	4.134913
593.952576	905.972961	15186.584961	1495.490845	4.128099
594.292969	902.629395	15408.304688	1494.450562	4.079928
594.633484	907.236145	15603.421875	1513.992188	4.128664
594.973877	912.734680	15912.075195	1536.357300	4.157667
595.314209	914.740784	16254.687500	1553.001099	4.160773
595.654480	914.146423	16610.894531	1575.440430	4.212936
595.994812	914.220703	16934.111328	1579.081421	4.150220
596.335022	915.781067	17197.363281	1589.260864	4.136452
596.675171	912.140198	17253.312500	1580.715942	4.091357
597.015320	900.103210	17168.832031	1583.390991	4.200007
597.355408	895.570740	16839.300781	1561.397461	4.176104
597.695496	899.062988	16428.109375	1545.125122	4.160347
598.035461	907.459229	15874.554688	1512.580444	4.043010
598.375366	909.391113	15361.046875	1490.586914	4.021655
598.715271	914.072083	14891.825195	1474.314575	4.008101
599.055176	912.957520	14462.950195	1464.135132	4.067734
599.395081	917.935852	14149.020508	1458.488281	4.085473
599.734802	911.099915	13917.567383	1442.141602	4.082905
600.074524	914.517883	13834.051758	1441.101196	4.075869
600.414246	908.350769	13761.754883	1441.918579	4.151179
600.753906	908.425049	13799.204102	1449.200195	4.195054
601.093506	903.075256	13862.286133	1446.971069	4.196982
601.433044	908.945251	14073.307617	1449.423218	4.105615
601.772583	911.545837	14338.418945	1454.252930	4.041947
602.112122	918.901794	14705.846680	1468.741821	3.988121
602.451538	919.942078	15107.081055	1485.237183	3.984560
602.790894	920.982239	15533.503906	1510.128540	4.031791
603.130310	911.843079	16020.484375	1534.945679	4.124147
603.469604	906.939148	16433.607422	1555.750366	4.178689
603.808838	900.994812	16814.185547	1574.697632	4.233613
604.148010	902.480896	17083.013672	1582.424927	4.202235
604.487305	903.372498	17194.095703	1594.090454	4.239946
604.826416	909.539612	17055.447266	1586.883179	4.195141
605.165527	915.038025	16644.033203	1571.279663	4.172178
605.504456	908.053528	16159.131836	1549.434570	4.205480
605.843445	909.019531	15671.187500	1527.143921	4.187220
606.182434	904.709961	15198.101563	1506.487671	4.210181
606.521423	916.672668	14770.043945	1485.236938	4.104158
606.860229	917.861511	14425.500977	1466.587036	4.062335
607.199036	915.112305	14251.335938	1458.487915	4.074434
607.537903	907.830750	14212.104492	1454.550171	4.109352
607.876648	902.109375	14254.679688	1466.215698	4.224702
608.215271	901.440613	14403.582031	1478.921509	4.276958
608.553955	903.446777	14652.273438	1484.419922	4.225620
608.892578	910.133972	14869.386719	1483.825317	4.109757
609.231140	919.050293	15007.515625	1488.357910	4.040948
609.569641	918.753235	14966.054688	1487.912109	4.051731
609.908081	912.660400	14823.765625	1496.754028	4.198758
610.246521	911.842957	14586.143555	1482.116577	4.170404
610.584961	914.889343	14247.323242	1481.522095	4.250032
610.923340	920.387756	13892.676758	1461.088745	4.168123
611.261597	910.431152	13450.426758	1447.640015	4.283964
611.599854	908.573547	13073.859375	1428.246704	4.271771
611.938110	904.635559	12753.393555	1418.438965	4.336348
612.276245	912.140137	12528.403320	1399.863281	4.198623
612.614319	904.264099	12370.288086	1391.912964	4.252990
612.952393	908.202148	12216.628906	1383.813965	4.205818
613.290466	912.363098	12075.973633	1387.454712	4.255716
613.628479	917.787109	11890.590820	1377.052368	4.185487
613.966370	916.969910	11757.143555	1365.683960	4.139362
614.304260	914.815125	11643.831055	1363.231934	4.179478
614.642151	912.585938	11586.468750	1358.773804	4.180183
614.979980	907.830566	11538.618164	1355.876099	4.214603
615.317749	904.487000	11535.719727	1352.012329	4.209534
615.655396	909.836853	11497.305664	1352.161011	4.177808
615.993164	915.335205	11490.768555	1354.687134	4.154458
616.330811	916.524109	11477.838867	1348.743042	4.092473
616.668396	915.038025	11497.604492	1349.708862	4.107424
617.005859	917.564270	11504.811523	1347.331177	4.059289
617.343445	920.610779	11486.531250	1345.919556	4.025288
617.680908	911.917297	11504.141602	1347.554077	4.112798
618.018311	903.372498	11495.968750	1349.560425	4.212262
618.355652	897.576843	11521.082031	1355.132935	4.307016
618.692993	904.561340	11484.674805	1361.745972	4.321169
619.030273	903.223938	11439.870117	1354.687134	4.284695
619.367554	898.171326	11380.874023	1355.355835	4.361323
619.704712	898.171387	11329.382813	1337.300415	4.209761
620.041870	899.211609	11316.675781	1335.442871	4.187500
620.379028	908.350769	11243.933594	1328.606934	4.066110
620.716064	901.589172	11224.094727	1332.396484	4.173476
621.053040	899.731628	11191.104492	1336.928833	4.248191
621.389954	892.672852	11181.742188	1334.848511	4.297528
621.726929	904.264099	11124.378906	1335.368408	4.218194
622.063843	911.991638	11090.573242	1327.715210	4.084298
622.400635	916.821289	11105.953125	1329.498535	4.050171
622.737427	908.945251	11145.629883	1332.024902	4.132976
623.074219	905.007141	11130.176758	1337.523315	4.229917
623.410889	906.641846	11131.366211	1335.665771	4.195946
623.747559	914.592285	11169.929688	1334.551147	4.095027
624.084167	916.598389	11268.007813	1338.637817	4.077120
624.420715	915.112305	11388.675781	1352.755249	4.178549
624.757324	917.341370	11546.049805	1364.495117	4.207037
625.093750	917.564270	11732.028320	1380.172974	4.277685
625.430176	921.279480	11925.290039	1389.163696	4.251943
625.766602	917.044250	12113.945313	1382.847778	4.160111
626.102905	920.462097	12315.527344	1385.597046	4.081898
626.439209	916.078308	12448.602539	1381.807617	4.038399
626.775452	908.053528	12536.355469	1391.021118	4.153380
627.111694	898.394226	12475.797852	1387.231812	4.222342
627.447876	899.583008	12402.239258	1382.773804	4.200689
627.783997	902.109375	12249.992188	1376.680786	4.182026
628.120056	900.177490	12103.913086	1364.718140	4.146302
628.456055	896.388000	11905.227539	1355.727539	4.172461
628.792053	898.765808	11704.907227	1347.554199	4.153086
629.128052	903.000977	11554.148438	1343.690430	4.137483
629.463928	903.223877	11376.637695	1347.702759	4.243878
629.799744	898.542786	11252.625977	1346.588257	4.327235
630.135559	898.468506	11117.840820	1340.644043	4.326837
630.471375	899.285828	11029.718750	1326.080688	4.212997
630.807068	906.938965	10949.620117	1324.223022	4.155106
631.142700	912.883240	10849.088867	1324.074463	4.138312
631.478333	904.932861	10774.266602	1321.696777	4.222817
631.813965	903.223877	10701.524414	1310.551514	4.157125
632.149475	896.165100	10646.019531	1311.071655	4.255516
632.484924	909.762512	10652.260742	1316.941528	4.179411
632.820435	902.926697	10646.242188	1324.743286	4.329292
633.155884	902.555176	10691.864258	1324.074585	4.305916
633.491150	897.056824	10730.798828	1321.176758	4.312905
633.826477	903.892578	10738.600586	1328.384033	4.316259
634.161804	906.939148	10702.043945	1324.966187	4.267714
634.497009	909.539612	10604.559570	1318.650391	4.219803
634.832153	906.344543	10521.636719	1299.554565	4.089424
635.167297	908.127869	10438.566406	1293.833252	4.047090
635.502380	903.966797	10345.465820	1291.158325	4.100954
635.837463	901.143372	10231.633789	1294.799194	4.219026
636.172424	907.087585	10094.396484	1291.678589	4.186112
636.507324	908.276428	9958.496094	1288.929321	4.206007
636.842224	913.403320	9852.243164	1280.978882	4.112117
637.177124	905.452942	9756.244141	1276.074829	4.187444
637.511963	903.000977	9677.706055	1276.000610	4.250851
637.846741	899.805969	9595.230469	1276.149292	4.328062
638.181396	896.165100	9530.809570	1274.514648	4.381762
638.516113	898.096985	9447.145508	1273.994507	4.396951
638.850769	900.177429	9376.631836	1260.768555	4.254033
639.185303	905.601563	9314.143555	1259.951294	4.214164
639.519836	901.217712	9276.471680	1251.257813	4.179457
639.854370	903.669678	9187.382813	1258.019409	4.277668
640.188843	907.979187	9086.999023	1247.914185	4.156182
640.523254	918.010071	9013.440430	1245.016479	4.039395
640.857605	922.542664	8953.477539	1241.301270	3.969134
641.191895	911.174316	8925.094727	1242.713013	4.137035
641.526184	909.911133	8861.120117	1246.279541	4.230406
641.860413	905.898743	8841.503906	1246.502441	4.292095
642.194580	911.842957	8818.171875	1247.988525	4.251601
642.528748	908.202148	8815.051758	1245.313599	4.263537
642.862793	909.168152	8796.178711	1241.078247	4.208313
643.196838	909.985352	8741.566406	1235.951416	4.162200
643.530823	916.152527	8711.697266	1233.276611	4.068017
643.864746	914.963684	8674.545898	1236.174438	4.139537
644.198669	921.130798	8661.839844	1237.883301	4.092035
644.532532	926.034851	8612.279297	1247.988525	4.188699
644.866333	927.743835	8596.081055	1247.914185	4.175225
645.200073	920.164856	8615.772461	1246.205200	4.236707
645.533813	911.545715	8672.761719	1235.059937	4.168344
645.867554	906.493164	8696.315430	1232.830811	4.189282
646.201172	907.310547	8707.907227	1232.607910	4.170160
646.534729	904.932861	8696.315430	1230.898926	4.183674
646.868225	898.617188	8695.721680	1227.926758	4.223485
647.201782	899.805969	8704.934570	1221.239502	4.118235
647.535217	896.165100	8716.081055	1225.474731	4.211166
647.868591	905.155762	8711.250977	1224.062988	4.085362
648.201965	903.595459	8654.409180	1227.406616	4.177770
648.535278	905.898865	8617.778320	1216.038452	4.021583
648.868591	897.056824	8610.942383	1215.518188	4.128417
649.201782	899.062927	8621.418945	1211.580200	4.046916
649.534912	899.657288	8643.263672	1214.775269	4.069396
649.868103	903.669739	8647.722656	1220.570801	4.092186
650.201172	906.716125	8664.291992	1229.561401	4.161677
650.534180	912.511719	8641.555664	1232.161987	4.135703
650.867188	907.979248	8614.658203	1229.709961	4.174700
651.200134	903.298157	8601.283203	1231.641968	4.265322
651.533020	898.988586	8567.327148	1234.168213	4.370955
651.865845	904.338379	8540.354492	1227.258179	4.228904
652.198608	907.459167	8477.420898	1227.332397	4.225559
652.531433	900.103210	8450.894531	1223.245728	4.279585
652.864136	902.629395	8435.141602	1227.332397	4.310687
653.196777	1037.117310	8547.413086	1302.452271	3.532949
653.529358	1040.609497	8493.915039	1301.783569	3.504138
653.861938	1039.420776	8421.470703	1301.709351	3.553059
654.194519	896.685242	8221.076172	1214.700806	4.341870
654.526978	898.542786	8185.856934	1213.066284	4.316041
654.859375	900.400391	8136.371094	1207.419189	4.242952
655.191833	906.344666	8117.126465	1208.088013	4.184614
655.524170	908.053528	8096.990723	1207.122070	4.160122
655.856445	906.716064	8098.179688	1209.351196	4.208255
656.188660	908.870911	8139.937500	1212.397583	4.197537
656.520874	908.276428	8198.859375	1212.620483	4.174482
656.853088	912.734619	8293.668945	1209.573975	4.021704
657.185181	917.415710	8360.616211	1212.026001	3.958113
657.517212	917.490051	8495.699219	1216.409790	3.944464
657.849243	913.106140	8689.406250	1224.583130	4.005465
658.181274	911.248535	8929.180664	1235.059937	4.038590
658.513123	911.174255	9138.937500	1255.567261	4.185742
658.844971	913.849121	9350.700195	1275.554688	4.287210
659.176819	900.994812	9494.550781	1281.647583	4.429514
659.508667	907.904968	9569.000977	1269.090454	4.170206
659.840393	903.298157	9512.754883	1260.099976	4.144301
660.172058	911.694336	9380.050781	1253.858398	4.040502
660.503662	903.075195	9170.442383	1252.892456	4.231302
660.835266	899.880310	8969.377930	1240.335327	4.219036
661.166931	906.716125	8742.235352	1233.202271	4.166746
661.498413	910.505615	8554.843750	1224.583252	4.108631
661.829773	918.010193	8330.820313	1217.375854	4.038491
662.161194	920.164856	8139.565918	1210.911499	4.027296
662.492615	915.112305	7960.941895	1204.001343	4.100142
662.823975	913.551941	7840.349121	1207.642212	4.245689
663.155212	902.332214	7735.210449	1194.639160	4.277947
663.486450	903.149597	7672.572754	1193.004517	4.281826
663.817627	892.227051	7600.648438	1177.921021	4.258736
664.148743	888.734863	7549.082031	1171.382446	4.243736
664.479858	888.660583	7470.692871	1164.918091	4.197146
664.810913	901.366272	7421.727051	1168.410278	4.095541
665.141907	910.356934	7406.495605	1177.475220	4.111955
665.472778	915.112305	7407.907715	1183.419434	4.132382
665.803711	917.564270	7414.669434	1186.317261	4.136504
666.134583	908.722351	7391.857422	1185.797119	4.273777
666.465454	905.973083	7402.631348	1176.286255	4.160803
666.796143	898.914368	7381.826660	1171.085205	4.198280
667.126831	903.372559	7382.940918	1171.828247	4.143111
667.457458	911.545837	7369.417969	1182.007690	4.188096
667.788147	916.078308	7375.882813	1186.094360	4.179942
668.118774	913.997742	7379.448730	1183.865234	4.173993
668.449219	905.973083	7372.761719	1172.571167	4.122573
668.779663	905.304382	7358.124512	1166.701294	4.050894
669.110107	908.573669	7348.019531	1168.113159	4.030463
669.440552	903.818359	7322.236328	1183.493774	4.357388
669.770874	902.109375	7302.992188	1185.574341	4.428529
670.101135	898.320007	7272.156250	1177.326660	4.377374
670.431396	900.623352	7239.166016	1164.769531	4.167302
670.761597	906.641785	7174.225098	1167.815796	4.167061
671.091797	907.979248	7125.854004	1173.017090	4.262515
671.421875	912.586121	7068.714844	1160.980103	4.034905
671.751892	907.459167	7036.765137	1152.955444	4.005287
672.081909	916.672668	6999.910156	1144.113281	3.738809
672.411865	915.855286	6992.183594	1154.887207	3.933822
672.741821	918.158691	6952.654785	1157.041870	3.958627
673.071716	905.378662	6925.385254	1157.190552	4.182917
673.401550	905.304382	6863.193848	1158.527954	4.250223
673.731262	900.400391	6852.865723	1160.311401	4.366443
674.060974	907.236267	6812.816406	1160.236938	4.284095
674.390625	910.208313	6791.640137	1156.744873	4.191778
674.720276	906.864746	6767.640625	1154.664307	4.228102
675.049927	905.229980	6748.544434	1160.682739	4.371710
675.379395	901.589172	6716.669434	1155.778809	4.371215
675.708923	909.019470	6686.947754	1149.908813	4.169130
676.038330	909.539551	6660.941406	1148.125610	4.148312
676.367737	910.802734	6655.963379	1150.280518	4.168339
676.697083	904.412781	6660.867188	1149.091553	4.250512
677.026428	902.034973	6669.412109	1140.175293	4.129092
677.355652	896.536621	6696.235840	1135.568359	4.121450
677.684875	899.880188	6737.176270	1139.729370	4.108909
678.013977	901.069031	6771.578613	1151.097778	4.259064
678.343079	910.059753	6846.699219	1150.057495	4.042653
678.672180	907.087585	6889.942871	1152.360840	4.099602
679.001221	912.065918	7006.523438	1152.286499	3.941624
679.330139	903.298157	7092.714844	1170.267944	4.313327
679.659058	902.778015	7176.751465	1172.496948	4.299013
679.987976	900.623230	7247.115723	1169.524780	4.237010
680.316772	902.778076	7304.478027	1163.952148	4.079761
680.645630	910.802734	7354.854980	1166.701416	3.971083
680.974304	912.065918	7326.024902	1174.577515	4.092817
681.302979	911.471497	7289.765625	1175.840698	4.144826
681.631653	910.208313	7220.664063	1180.373047	4.281224
681.960266	910.431335	7180.243652	1174.651733	4.214168
682.288757	909.465332	7090.485840	1170.193726	4.218209
682.617249	908.499329	6986.833496	1163.209106	4.190454
682.945679	903.298157	6855.540527	1154.664307	4.223050
683.274109	908.350769	6744.904297	1152.360840	4.180722
683.602478	904.561279	6661.685059	1140.175171	4.092562
683.930725	896.313660	6578.614746	1135.197021	4.203990
684.259033	897.353821	6494.652344	1127.395142	4.109863
684.587280	893.861755	6414.925781	1130.367188	4.283693
684.915344	901.737793	6336.090332	1138.317749	4.353415
685.243469	898.691406	6281.255371	1134.453979	4.380116
685.571533	905.081360	6225.304688	1124.720337	4.128379
685.899536	912.065918	6227.756348	1117.661377	3.867709
686.227539	918.381592	6235.930176	1122.713989	3.842605
686.555420	914.072083	6255.769531	1131.258911	4.065877
686.883301	909.613953	6271.892578	1130.515869	4.119553
687.211121	896.016602	6307.706543	1133.116455	4.381253
687.538940	902.480896	6364.027832	1129.995728	4.165758
687.866638	904.338379	6372.572754	1128.881226	4.106314
688.194336	915.260925	6345.453125	1124.422974	3.851835
688.521973	912.140137	6294.332031	1127.543823	4.002155
688.849609	907.384766	6221.589844	1133.116577	4.247706
689.177063	909.985413	6150.407715	1134.231079	4.279152
689.504578	914.666504	6053.442871	1129.995972	4.190287
689.832031	916.746887	5992.736816	1124.943237	4.101591
690.159485	906.790344	5900.898926	1117.290039	4.214961
690.486816	899.583008	5837.370605	1108.819458	4.237453
690.814087	906.716125	5767.748535	1106.218872	4.104123
691.141296	912.734619	5731.562988	1106.441772	4.019798
691.468506	920.462097	5681.929199	1107.333496	3.924660
691.795715	918.233093	5630.882813	1102.503784	3.910129
692.122803	917.935852	5576.567871	1095.147827	3.803949
692.449829	906.270325	5542.908691	1096.039429	4.092817
692.776855	898.691406	5509.917969	1095.519409	4.268452
693.103821	896.685242	5473.509766	1104.584351	4.542431
693.430664	905.452942	5443.268066	1096.113770	4.201600
693.757568	905.898743	5428.779785	1094.850586	4.177688
694.084351	903.743958	5414.067871	1093.884644	4.215677
694.411133	900.400391	5388.061523	1108.076538	4.627715
694.737854	900.920410	5380.928711	1106.516113	4.589181
695.064575	899.805969	5399.578613	1101.091919	4.473248
695.391174	905.527344	5433.089355	1095.593628	4.197983
695.717773	906.493225	5447.949707	1092.101440	4.086976
696.044250	915.335205	5474.921875	1089.129272	3.811619
696.370789	912.214417	5540.605469	1091.284058	3.868939
696.697205	912.214417	5638.833496	1104.064087	4.058919
697.023621	899.434387	5764.033691	1114.095093	4.412711
697.349915	896.313660	5924.527344	1123.234253	4.512946
697.676208	899.805969	6141.863281	1126.949341	4.333096
698.002380	905.675842	6384.981934	1137.648926	4.233622
698.328674	912.734619	6624.607910	1145.376343	4.072950
698.654724	904.338379	6794.612793	1147.679810	4.131241
698.980896	905.378662	6909.039063	1154.069824	4.142326
699.306946	907.310547	6912.010254	1145.970825	3.974558
699.632935	915.260925	6841.497559	1145.227905	3.880489
699.958862	921.056580	6677.287598	1130.664551	3.641410
700.284729	915.929688	6483.357910	1128.807007	3.823620
700.610596	910.431213	6252.053223	1126.652222	4.047853
700.936340	901.514893	6057.157715	1120.113403	4.239986
701.262146	893.713135	5831.128906	1107.927856	4.338600
701.587830	901.812195	5641.210938	1105.847412	4.305086
701.913513	909.019531	5435.466797	1102.355103	4.271243
702.239075	913.551941	5291.319824	1099.754517	4.253368
702.564697	905.898743	5182.837891	1087.494629	4.245931
702.890137	903.149597	5094.789063	1079.767090	4.213566
703.215698	900.920471	5003.173340	1076.349121	4.276398
703.541016	908.202148	4912.003906	1072.485474	4.103183
703.866455	909.316650	4853.156250	1070.256348	4.080787
704.191711	910.579895	4812.215820	1071.370972	4.121119
704.517029	902.257996	4780.711426	1068.324585	4.281774
704.842163	900.920471	4753.813965	1066.838501	4.306323
705.167419	900.549011	4739.473633	1057.847900	4.097473
705.492493	901.440613	4732.043457	1069.736328	4.393453
705.817566	904.635559	4701.802246	1070.330566	4.363648
706.142578	910.579773	4705.294922	1075.606079	4.348846
706.467590	912.511658	4698.755859	1068.993286	4.132898
706.792480	909.539612	4722.012207	1065.946899	4.102516
707.117371	910.282715	4708.340332	1065.501099	4.086783
707.442200	919.347656	4716.513672	1056.584717	3.614197
707.766907	917.341492	4729.516602	1060.597046	3.757843
708.091675	912.140137	4754.779297	1062.900391	3.923352
708.416321	903.743958	4781.751465	1064.535156	4.146232
708.741028	906.270264	4804.042480	1070.925171	4.224334
709.065552	911.768738	4814.519531	1065.055176	3.927651
709.390137	914.889404	4811.844238	1076.720825	4.152766
709.714600	913.700623	4803.373535	1081.401855	4.311448
710.039063	904.932922	4830.048828	1090.243774	4.721156
710.363403	895.645020	4869.949219	1085.637085	4.780511
710.687744	893.267273	4939.867676	1076.349243	4.524340
711.012085	896.610901	5005.253906	1077.240845	4.396341
711.336304	898.691406	5065.587891	1071.370972	4.144081
711.660461	902.109314	5104.002441	1080.287231	4.240420
711.984619	901.960754	5086.467285	1073.822876	4.107106
712.308716	897.725525	5032.448730	1080.064331	4.409940
712.632751	894.976318	4953.391113	1072.782593	4.381176
712.956726	898.542786	4886.072754	1071.890991	4.347258
713.280701	909.539551	4843.273926	1073.525635	4.168713
713.604553	908.499329	4797.875488	1075.457642	4.292676
713.928467	902.852356	4761.912598	1075.011841	4.461176
714.252258	897.205383	4726.916504	1064.757935	4.375070
714.575989	897.725403	4712.427246	1058.590942	4.216989
714.899719	895.793640	4717.107910	1055.098755	4.168857
715.223267	899.954590	4737.318848	1052.869629	3.984898
715.546936	904.709961	4749.207031	1058.442261	3.998762
715.870422	908.796570	4753.665527	1067.730103	4.133653
716.193970	903.298157	4736.946777	1073.599976	4.442291
716.517395	908.499329	4700.761230	1068.101563	4.208629
716.840820	911.397156	4656.997559	1063.048950	4.048798
717.164124	921.576660	4594.583008	1065.352417	3.914389
717.487488	914.294922	4519.462891	1056.733276	3.950949
717.810730	909.390930	4446.126465	1047.965576	3.918151
718.133972	902.183594	4366.770996	1043.656006	4.083384
718.457092	902.034973	4297.446777	1047.445435	4.282557
718.780212	913.180481	4225.818848	1051.457886	4.174238
719.103210	917.787170	4166.524902	1049.080078	4.041351
719.426208	916.969910	4113.324707	1043.433105	3.956482
719.749207	913.626221	4065.176025	1044.621948	4.156549
720.072083	909.465332	4032.631592	1034.219604	3.994481
720.394958	909.613953	4019.479736	1034.516724	4.016340
720.717773	905.898743	3974.229736	1027.606567	3.966581
721.040527	912.660339	3936.112549	1034.813965	4.040204
721.363281	914.220703	3908.174561	1033.179321	3.973295
721.685913	908.945129	3913.301514	1033.699463	4.152448
722.008545	900.846191	3896.805908	1025.451904	4.159125
722.331055	898.468506	3862.180908	1024.931763	4.267056
722.653503	907.013367	3823.989502	1019.210449	3.846349
722.976013	911.397156	3819.531250	1025.080200	3.909141
723.298401	908.945129	3829.339111	1024.783081	3.966518
723.620789	898.840027	3835.060547	1030.058472	4.468957
723.943115	897.428284	3817.748291	1033.402222	4.656131
724.265381	897.279724	3795.234619	1034.442505	4.733089
724.587585	902.926758	3783.643311	1030.132935	4.415782
724.909790	905.898743	3788.696045	1026.417847	4.180630
725.231873	906.939026	3805.860107	1026.863525	4.136867
725.553894	911.099915	3839.147461	1033.848022	4.192149
725.875916	951.594971	3909.735107	1083.259399	4.450919
726.197937	954.715637	3928.682373	1086.231567	4.422239
726.519775	951.520691	3933.066162	1077.760986	4.234056
726.841675	909.316711	3902.676514	1023.371399	3.810256
727.163513	907.830627	3920.508789	1017.947327	3.655110
727.485291	903.000977	3946.960205	1023.371399	3.954403
727.806946	903.669617	3980.991211	1025.823364	3.969483
728.128662	899.508728	3988.495850	1029.910034	4.221491
728.450256	905.527283	3980.248047	1027.829468	3.977668
728.771790	905.527161	3956.322998	1031.544800	4.130648
729.093323	911.397156	3946.440430	1031.321777	3.951332
729.414795	910.579773	3939.901611	1033.550903	4.059362
729.736145	910.431152	3936.781006	1030.058594	3.952862
730.057495	915.781006	3951.270264	1027.681030	3.686392
730.378845	913.254700	3982.774170	1032.361938	3.880322
730.700134	902.034973	3996.446045	1031.024536	4.168469
731.021301	891.929932	4022.006104	1030.207153	4.417695
731.342468	896.611023	4043.182617	1031.841797	4.297718
731.663574	910.282715	4084.271729	1032.436279	3.848582
731.984680	916.969910	4096.605957	1037.563110	3.792673
732.305664	909.242371	4098.389160	1036.968750	4.005033
732.626648	905.898743	4089.844482	1040.163696	4.216936
732.947571	900.400391	4088.432861	1038.306274	4.325737
733.268433	911.768738	4073.423828	1034.739746	3.889451
733.589233	911.917297	4059.826416	1031.693237	3.804936
733.909973	915.112305	4006.477295	1038.751953	3.999516
734.230713	910.802734	3943.171143	1033.550781	4.047926
734.551331	904.115417	3864.410156	1033.476440	4.369870
734.871948	904.561279	3824.806885	1022.776917	4.048140
735.192505	910.134033	3787.952393	1020.993652	3.852211
735.513062	915.929626	3757.934570	1019.656250	3.649769
735.833435	912.660339	3707.037109	1020.919434	3.874177
736.153931	906.790344	3669.885742	1016.089661	3.955684
736.474304	909.168152	3620.400391	1018.913269	4.047795
736.794617	913.477722	3606.208252	1023.074219	4.070088
737.114807	910.951355	3583.992188	1033.550903	4.586520
737.434998	908.722229	3605.985596	1027.235107	4.393819
737.755188	901.812195	3594.617188	1021.142334	4.431444
738.075256	899.508728	3611.855469	1015.643860	4.281722
738.395325	897.279602	3627.384766	1015.569580	4.332799
738.715271	904.189758	3670.406006	1014.009277	3.970026
739.035278	910.431213	3696.560303	1020.250671	3.941650
739.355164	909.019531	3703.841797	1022.554016	4.062315
739.675049	904.115540	3685.934814	1025.897583	4.377784
739.994873	908.202148	3662.306641	1021.959656	4.130472
740.314636	909.613953	3628.870361	1027.012207	4.317293
740.634277	914.072083	3583.768799	1025.080444	4.158089
740.953979	906.716125	3540.376221	1024.114380	4.457608
741.273499	912.140198	3497.428955	1013.043274	3.902971
741.593140	907.384766	3467.188232	1012.374573	4.101479
741.912598	911.025574	3437.169922	1006.876221	3.794346
742.232117	914.889343	3396.749023	1010.219788	3.841089
742.551453	920.164856	3361.455078	1006.504700	3.536648
742.870850	920.239197	3333.814453	1012.746155	3.832777
743.190063	912.065918	3307.362549	1009.997009	4.088474
743.509338	910.579895	3281.728271	1005.390137	3.998495
743.828552	908.945251	3254.310547	1002.789551	4.001266
744.147705	909.242432	3246.805908	1000.857605	3.919259
744.466797	918.158752	3239.227295	1006.058838	3.787052
744.785828	916.598389	3232.985596	996.845398	3.464318
745.104858	917.118591	3218.496826	999.000183	3.557937
745.423706	905.230164	3207.946045	995.507874	3.920489
745.742615	904.264160	3186.323486	998.331299	4.122029
746.061401	906.938965	3171.760498	993.427307	3.818771
746.380249	909.390930	3159.128906	988.151855	3.500893
746.698975	910.133972	3159.203125	990.678223	3.581226
747.017639	910.654114	3155.785156	1000.411804	3.997882
747.336304	913.329102	3150.137939	1005.464355	4.119049
747.654907	910.356934	3136.689453	1001.972168	4.115074
747.973389	909.539551	3135.128906	999.371582	4.036325
748.291931	904.264099	3143.302002	999.000061	4.231102
748.610352	904.264160	3151.846924	999.000061	4.215013
748.928711	908.276428	3150.509766	994.096130	3.827420
749.247070	908.499451	3148.503174	997.811279	3.987129
749.565308	913.031799	3144.045166	998.702942	3.840010
749.883545	909.168152	3135.797607	1001.452087	4.144557
750.201782	912.957520	3115.290283	992.015625	3.589744
750.519836	916.524109	3106.447998	988.523376	3.287752
750.837952	906.493164	3114.472900	987.185852	3.654594
751.155884	909.762512	3116.181641	989.415039	3.610036
751.473877	905.378662	3103.401611	992.461426	3.961868
751.791809	915.186584	3085.123291	990.529602	3.472130
752.109619	912.511719	3086.163818	994.170410	3.756751
752.427490	906.344543	3081.111328	995.359192	4.093066
752.745300	909.316650	3064.021484	995.359192	3.993240
753.062988	901.663513	3037.123779	992.238525	4.241475
753.380615	908.796570	3043.439453	991.569824	3.877616
753.698303	904.189880	3044.479736	995.210632	4.252730
754.015808	907.979248	3046.857422	1001.452087	4.370181
754.333374	907.533386	3039.278564	1001.377747	4.402232
754.650757	907.904846	3037.346436	998.702881	4.263936
754.968262	911.545715	3034.077148	1001.526367	4.239308
755.285583	905.675781	3025.755127	1000.188904	4.457999
755.602905	907.310547	3022.188721	996.993896	4.240592
755.920105	900.400391	3009.780273	987.631775	4.135404
756.237305	903.149597	3005.248047	990.306641	4.146193
756.554443	900.103088	3001.978516	992.684326	4.404696
756.871582	907.756348	3029.024658	991.198242	3.933585
757.188599	912.660339	3044.033936	999.891785	4.092734
757.505615	912.883301	3067.141846	1001.377747	4.107884
757.822510	909.168152	3077.618896	1007.470642	4.533305
758.139465	904.932800	3100.578125	1002.269348	4.433164
758.456238	901.960693	3123.760498	998.331360	4.337504
758.773010	900.846191	3150.286865	996.473816	4.251173
759.089783	899.954590	3172.726318	995.284973	4.194455
759.406433	901.737793	3174.732422	1000.708984	4.354220
759.723145	906.418945	3172.651611	998.925781	4.081965
760.039673	903.743958	3167.896484	996.993835	4.118533
760.356201	903.669678	3184.094482	993.055847	3.919716
760.672668	899.954529	3190.410156	996.919617	4.233441
760.989136	902.406494	3203.561768	991.124023	3.855347
761.305481	903.743958	3202.075928	996.845276	4.050821
761.621826	906.641785	3218.050781	996.993896	3.908963
761.938049	907.236145	3240.044678	999.445862	3.952734
762.254333	908.276367	3276.378662	993.798889	3.611437
762.570496	909.911133	3351.795898	1001.674988	3.757911
762.886597	914.443604	3475.955811	1009.625305	3.715840
763.202637	914.815125	3686.752686	1026.120483	4.015435
763.518677	905.007141	3974.080811	1028.275391	4.016464
763.834656	898.617126	4255.093750	1044.027588	4.332235
764.150574	891.335449	4442.410645	1040.238159	4.193172
764.466370	894.233215	4440.999512	1038.974976	4.080950
764.782288	900.103088	4325.979004	1034.665405	3.927822
765.097961	908.722168	4159.615234	1028.795410	3.693546
765.413696	907.979187	3971.109375	1026.566284	3.871435
765.729309	907.904968	3779.779541	1011.705750	3.614391
766.044861	905.452942	3592.016602	1011.408630	3.943911
766.360474	912.363098	3467.782471	1003.681152	3.573505
766.675903	912.140198	3364.873047	999.074402	3.544381
766.991394	915.038025	3283.511719	997.736877	3.491652
767.306763	913.329041	3213.592529	1001.526367	3.834227
767.622131	911.174316	3162.621094	1010.739929	4.422295
767.937378	909.093750	3117.221924	999.445984	4.091802
768.252625	903.075195	3060.900391	994.764832	4.249169
768.567810	901.514893	2998.857666	985.625549	4.010344
768.882996	898.468506	2956.356689	994.839172	4.682989
769.197998	899.805969	2911.106445	991.867004	4.577189
769.513062	897.502625	2888.369873	994.021790	4.848097
769.828064	901.737793	2858.945557	993.427429	4.684717
770.142944	902.778076	2836.580322	991.644104	4.595404
770.457825	904.412781	2813.917969	987.334656	4.342585
770.772705	907.756348	2788.878174	986.591614	4.190865
771.087402	909.391113	2773.720459	983.247986	3.961579
771.402100	910.579895	2751.132568	981.018860	3.827055
771.716736	899.657410	2729.213135	973.960144	4.061245
772.031372	896.908203	2715.764404	971.582336	4.105555
772.345947	904.264099	2699.269287	972.325439	3.791707
772.660461	908.499329	2688.049561	973.291321	3.640919
772.974854	910.728333	2669.473877	977.303711	3.785390
773.289246	905.824463	2660.557617	967.941589	3.539976
773.603638	910.282715	2640.198486	963.483398	3.075334
773.917908	909.836914	2619.913818	962.591736	3.084939
774.232178	908.202148	2600.520752	972.622620	3.806640
774.546265	900.103210	2591.158936	978.715393	4.648705
774.860474	905.675842	2572.731689	981.613220	4.555179
775.174561	908.053528	2565.449951	976.114746	4.106514
775.488586	915.409485	2560.100342	973.588562	3.537387
775.802551	907.979248	2548.137695	972.251038	3.918633
776.116516	904.561340	2537.735352	973.885803	4.244769
776.430359	903.966980	2519.531006	970.542175	4.120864
776.744202	908.945129	2527.035645	967.867188	3.641456
777.057922	910.654114	2522.800293	974.926025	3.986730
777.371704	904.264099	2523.543457	977.155090	4.501447
777.685303	899.211426	2506.676514	977.006531	4.839614
777.998962	901.143372	2497.240234	975.743347	4.673900
778.312500	901.440613	2498.131592	978.343933	4.816419
778.626038	905.452942	2511.654785	982.207703	4.778650
778.939453	902.703796	2502.961426	971.805176	4.318141
779.252869	903.372498	2488.918213	968.164368	4.086408
779.566223	897.131104	2475.766602	961.997314	4.109005
779.879578	901.143372	2479.927490	963.409119	3.943905
780.192749	905.898743	2485.723389	962.368835	3.574453
780.505920	915.112305	2476.138428	959.991211	2.874962
780.819031	913.403320	2453.847412	957.985107	2.894087
781.132141	915.781006	2434.156982	957.836426	2.769763
781.445190	918.827454	2432.002197	965.415222	3.078809
781.758118	917.787109	2425.166504	968.015808	3.332187
782.071045	915.186584	2411.197510	969.204590	3.610803
782.383911	910.579834	2399.160400	961.254211	3.404208
782.696838	902.778015	2397.748779	959.248108	3.777338
783.009583	898.765808	2392.101807	960.436951	4.129757
783.322266	897.205322	2370.256836	966.901306	4.731401
783.634888	904.858582	2362.455078	969.799072	4.455314
783.947510	908.870911	2355.916260	965.341003	3.902441
784.260132	907.310547	2352.944336	961.402832	3.741770
784.572571	903.372498	2345.439697	963.409119	4.163233
784.885010	908.499329	2340.312744	959.991211	3.596270
785.197449	913.551941	2330.876221	958.802307	3.192662
785.509766	913.626282	2312.374756	960.288391	3.335990
785.822083	903.743958	2303.532959	968.313049	4.612773
786.134277	900.103210	2300.263672	969.278992	4.940561
786.446533	905.378601	2307.173584	963.557678	4.150327
786.758606	915.038086	2305.836182	961.700012	3.355047
787.070740	920.387878	2307.768311	961.328613	2.950938
787.382690	920.610657	2319.359375	954.566956	2.427619
787.694641	915.483826	2354.504639	959.991150	3.092890
788.006653	912.957520	2394.108154	963.111816	3.386171
788.318481	911.620117	2436.163330	970.170654	3.840530
788.630310	908.276428	2478.292969	965.786804	3.663043
788.942017	909.093811	2512.026611	966.826965	3.601720
789.253784	908.127930	2531.344971	968.313049	3.707768
789.565430	908.127930	2516.781982	964.672302	3.515011
789.877014	909.019470	2488.026611	965.043762	3.548071
790.188538	908.870850	2433.785645	971.359436	4.097841
790.500061	911.025635	2384.300049	967.421387	3.827919
790.811462	901.737793	2346.925781	965.043762	4.380466
791.122925	902.926697	2315.867188	960.808594	4.096556
791.434204	899.583008	2289.118164	969.650574	5.042519
791.745483	903.595398	2265.266846	966.232605	4.600024
792.056702	905.972961	2253.230225	966.529785	4.494823
792.367920	905.898682	2237.106201	969.873352	4.805762
792.678955	901.589172	2222.468750	966.306824	4.899587
792.990112	895.199219	2212.140625	963.260437	5.168128
793.301086	902.035095	2211.248779	954.344055	3.995449
793.612122	906.270325	2201.663818	955.458740	3.797179
793.922974	907.384827	2188.066406	947.582520	3.138773
794.233826	900.920471	2182.270752	945.650696	3.490866
794.544556	898.319885	2193.416260	944.238953	3.545610
794.855286	904.487061	2196.462646	950.183289	3.536927
795.166016	904.858582	2208.053955	954.121277	3.780147
795.476624	910.654114	2212.066162	963.260498	4.042254
795.787292	902.629456	2240.449951	972.548340	5.226327
796.097778	901.366211	2264.003906	978.418213	5.654621
796.408264	901.737793	2290.901367	970.616394	4.958279
796.718689	903.892578	2313.637939	963.334778	4.216520
797.029053	909.242371	2318.690674	962.145996	3.753499
797.339355	910.877014	2317.055908	965.415283	3.878473
797.649658	911.025635	2311.854736	961.551514	3.606855
797.959839	905.898743	2291.421631	953.452454	3.432185
798.270020	905.824463	2265.564209	950.777649	3.306014
798.580078	905.230042	2232.648193	949.960266	3.369716
798.890137	908.870911	2209.317139	942.158447	2.559701
799.200195	904.264099	2194.679443	942.455750	2.959640
799.510071	906.344543	2177.441162	948.845764	3.343665
799.820007	903.223877	2170.531250	960.437012	4.514543
800.129883	895.942200	2154.704590	958.728027	4.987901
800.439575	896.016602	2143.261963	956.424622	4.843315
800.749329	897.279602	2138.209229	956.498962	4.772177
801.058960	902.406494	2131.670654	960.437012	4.720752
801.368591	902.332214	2123.051514	963.037598	4.972919
801.678162	897.056824	2104.030029	953.452454	4.672484
801.987671	902.629456	2097.937256	952.858093	4.202151
802.297119	902.109375	2097.045654	945.576416	3.637603
802.606506	908.127869	2086.791992	949.588806	3.517621
802.915894	904.561340	2078.247070	939.780823	3.000759
803.225159	903.521057	2061.603271	940.672424	3.208008
803.534424	902.852356	2061.528809	942.232849	3.398748
803.843628	899.211609	2058.854248	946.690918	4.094306
804.152771	901.440674	2057.516602	951.149109	4.299755
804.461792	902.332214	2060.414307	950.331787	4.144747
804.770874	908.053528	2051.349365	957.910645	4.360824
805.079773	909.242371	2067.324463	954.641357	3.920187
805.388733	911.471436	2071.188232	954.864258	3.741674
805.697571	905.304382	2102.469727	947.434021	3.519116
806.006470	904.932800	2114.655518	948.697083	3.617712
806.315125	905.007080	2125.875244	950.926270	3.761191
806.623901	909.762512	2120.525635	953.749695	3.633013
806.932495	907.087585	2107.819580	954.567078	3.954212
807.241150	910.133972	2099.720703	957.464844	3.978766
807.549622	911.545715	2085.454346	961.254395	4.234459
807.858154	916.078186	2075.795166	962.888977	4.036397
808.166565	911.397156	2060.562744	957.985046	4.054063
808.474915	907.979187	2048.006104	955.904480	4.203874
808.783264	902.480774	2027.572632	952.263672	4.424786
809.091492	900.623291	2013.678101	951.000488	4.526030
809.399719	900.028809	2001.863892	947.359680	4.295640
809.707825	895.199219	1993.393433	943.124512	4.364009
810.015930	891.558350	1972.737305	946.839600	5.113053
810.323975	891.632629	1968.501953	948.697266	5.299123
810.632080	904.264160	1967.907593	956.647644	4.924910
810.939880	907.161926	1970.656860	957.539246	4.736959
811.247864	911.545837	1953.121460	961.031433	4.751032
811.555664	902.852356	1943.536499	956.127441	5.119237
811.863464	908.722351	1944.279297	952.709473	4.247678
812.171143	907.384766	1939.301147	947.805481	3.917053
812.478882	907.830566	1932.985352	944.461914	3.573251
812.786438	904.338379	1918.942017	941.935608	3.705608
813.094055	908.127869	1924.291992	940.375305	3.173448
813.401489	910.356934	1918.570679	940.598145	2.999484
813.708984	909.019531	1914.558228	936.362976	2.719283
814.016357	894.233337	1912.329102	939.780823	4.473792
814.323730	888.066162	1907.945313	939.409241	5.034232
814.630981	887.768982	1904.750122	935.917175	4.734424
814.938232	897.205383	1888.552124	931.607483	3.470239
815.245361	900.920593	1893.381714	929.750000	2.904840
815.552490	901.737793	1901.629395	932.870605	3.113619
815.859619	899.211487	1909.059570	932.053406	3.252164
816.166565	898.914307	1909.802856	938.146179	3.880929
816.473572	898.468506	1901.481079	942.232849	4.363290
816.780457	900.697571	1903.264282	943.867493	4.305940
817.087341	897.799805	1895.313843	939.929504	4.223469
817.394043	903.223877	1906.087769	940.969727	3.763806
817.700806	903.000977	1916.712891	947.434021	4.383203
818.007507	905.824463	1939.449585	954.715637	4.730068
818.314209	903.000977	1947.845825	961.477234	5.596645
818.620667	907.681946	1959.065430	957.910706	4.777396
818.927246	911.099915	1979.870239	955.978821	4.199116
819.233704	912.363098	2008.774048	948.845764	3.327463
819.540161	910.802734	2063.832275	947.285400	3.164070
819.846497	906.938965	2133.899658	943.941833	3.015815
820.152832	902.629456	2233.836914	948.548523	3.449430
820.458984	900.697571	2339.198242	953.452576	3.667360
820.765259	901.886414	2444.485107	961.774414	3.882280
821.071350	905.230042	2572.657227	968.684570	3.805535
821.377502	910.728455	2764.358154	970.319153	3.214812
821.683472	910.356934	3162.100830	987.854553	3.441671
821.989441	904.635681	3914.936279	1020.250671	3.840646
822.295349	899.880188	5134.837891	1080.881714	4.273987
822.601196	902.034973	6647.419434	1140.918335	4.157831
822.907043	912.140198	8054.563965	1194.787720	3.957305
823.212769	916.226868	8881.999023	1226.440674	3.894335
823.518494	914.666504	8906.295898	1240.558228	4.077913
823.824097	902.332214	8231.477539	1216.112671	4.281269
824.129700	898.319885	7153.196777	1171.753906	4.371533
824.435242	897.353943	6026.916504	1110.900024	4.163047
824.740723	904.932861	5062.318359	1071.148071	3.998070
825.046082	902.257996	4340.839355	1040.015259	4.006224
825.351501	910.133972	3813.067139	1020.176453	3.790734
825.656799	909.465332	3452.030273	1006.281738	3.807824
825.962036	910.802734	3210.323242	993.873230	3.612514
826.267212	911.694397	3113.432373	989.786621	3.546844
826.572449	916.747009	3126.658447	988.374817	3.241207
826.877502	923.880066	3307.882813	997.439758	3.085554
827.182495	921.428040	3598.554932	1010.517029	3.327784
827.487488	920.387756	3964.867432	1019.358948	3.250841
827.792419	905.601563	4267.502441	1030.207153	3.706403
828.097290	900.325989	4383.563965	1028.498169	3.679685
828.402100	892.895813	4266.536621	1029.241211	4.041491
828.706848	899.731689	3946.811768	1024.485962	4.094223
829.011597	899.062988	3528.859131	1007.247742	4.113808
829.316223	898.468506	3118.559326	989.637878	4.106561
829.620789	900.994812	2777.733154	973.811462	3.879958
829.925354	899.880188	2531.047852	970.393555	4.322876
830.229797	909.539551	2349.971924	963.111877	3.719184
830.534302	912.734680	2215.038330	961.700012	3.759901
830.838562	920.313477	2116.587158	953.972595	2.813664
831.142944	912.214539	2050.086426	954.121277	3.682905
831.447144	904.561340	2014.346680	947.136780	3.836367
831.751404	895.273499	1989.678223	957.910706	5.723404
832.055542	888.586243	1962.855103	962.517517	6.882009
832.359619	885.316895	1947.474243	959.768250	7.009447
832.663635	894.010315	1970.062378	954.789978	5.648395
832.967651	896.462341	2035.820313	948.845764	4.597627
833.271545	904.041260	2161.020264	956.944763	4.208782
833.575439	901.440613	2356.733643	968.907410	4.635960
833.879211	905.230042	2621.177002	981.093079	4.421060
834.183044	902.629395	2893.125000	989.637878	4.371197
834.486694	900.623291	3097.680420	991.792664	4.149613
834.790344	900.549011	3156.305420	1001.526367	4.476430
835.093933	904.041199	3090.844727	999.966003	4.386531
835.397522	904.784180	2902.041260	987.780457	4.155513
835.700928	902.332214	2683.814209	971.508118	3.883054
836.004395	903.966980	2449.388916	960.882813	3.682867
836.307739	907.162048	2272.251221	959.842529	3.859124
836.611023	914.443665	2123.125732	955.607239	3.405658
836.914307	909.539551	2016.575806	945.353516	3.235121
837.217529	903.372498	1918.644897	941.787048	3.783669
837.520691	889.329285	1853.927124	938.591980	5.107071
837.823730	890.964050	1793.444824	944.461914	5.927867
838.126831	897.428223	1755.179077	940.077942	4.972274
838.429749	911.545715	1711.340332	945.799316	4.282800
838.732727	911.842957	1680.504517	942.158447	3.943932
839.035522	907.384827	1659.774048	933.836609	3.515705
839.338379	904.635559	1662.746460	923.285645	2.460073
839.641113	904.784180	1680.653320	924.028625	2.480373
839.943848	913.774902	1720.851074	932.647766	2.338424
840.246460	917.564392	1777.172485	944.090332	3.085818
840.549072	914.963684	1842.707520	952.337952	4.028512
840.851563	911.174255	1880.081665	958.207825	4.854290
841.154053	913.329041	1891.152832	951.297791	3.882985
841.456482	918.010193	1851.252319	939.557922	2.308911
841.758850	904.635681	1792.627563	933.093567	3.204746
842.061157	895.124939	1709.333984	923.954346	3.540787
842.363403	893.787415	1632.950806	928.040955	4.634096
842.665588	903.966980	1579.898804	919.421875	2.286458
842.967712	904.412781	1542.970337	922.022461	2.757728
843.269775	899.434387	1527.663940	919.124695	3.134254
843.571777	892.524231	1507.082031	924.994568	5.283528
843.873840	894.456238	1488.357788	928.041016	5.654940
844.175659	894.307617	1470.302246	926.109070	5.521137
844.477600	900.400391	1452.841187	928.041016	5.003364
844.779297	894.456238	1436.420288	922.171082	5.113779
845.081116	897.056824	1433.373901	927.149414	5.610970
845.382751	896.462341	1424.754761	925.440430	5.485237
845.684387	904.189880	1419.256470	928.412537	4.702820
845.985962	901.886475	1402.241089	924.920349	4.603510
846.287537	902.852356	1389.089355	923.954346	4.339857
846.588989	899.211487	1383.665161	930.121521	6.380390
846.890381	907.310547	1367.690063	931.384705	5.229198
847.191711	909.688171	1357.733643	931.607483	4.892207
847.493042	907.607666	1349.188843	925.440430	4.038389
847.794250	904.115479	1359.888550	918.381592	3.130091
848.095459	899.805908	1359.739868	914.220703	3.134101
848.396606	904.338379	1355.355957	911.397156	1.565078
848.697693	898.691406	1343.095947	906.790466	1.822452
848.998657	903.000977	1347.034058	908.127869	1.154619
849.299622	907.161926	1342.575806	910.059753	0.665534
849.600464	913.403381	1342.798828	917.044128	0.847877
849.901367	909.093811	1335.145630	920.759338	2.738054
850.202087	897.799805	1322.662720	921.353699	5.543881
850.502808	889.626465	1312.483276	922.245361	7.713934
850.803467	896.611023	1309.734131	920.462097	5.773357
851.104065	906.493164	1320.136475	920.313477	3.341118
851.404663	912.585999	1312.186035	924.920227	3.086643
851.705139	908.499329	1307.876465	929.155457	5.172086
852.005615	909.168030	1301.337769	937.105896	7.123922
852.306030	915.558105	1302.378052	930.418640	3.841719
852.606384	916.524109	1302.378052	928.858337	3.196605
852.906616	916.226868	1300.669067	915.112305	-0.289917
853.206909	912.957520	1305.424438	915.112305	0.549036
853.506958	916.746887	1298.068481	909.688171	-1.851119
853.807129	915.409485	1293.833374	918.678894	0.863954
854.107178	912.808838	1286.551636	922.468262	2.584511
854.407166	906.344543	1284.768433	920.684998	3.789521
854.707092	906.716003	1281.573364	913.997742	1.942536
855.007019	909.762451	1276.669434	914.369324	1.255597
855.306763	910.133972	1273.400024	919.793457	2.659066
855.606567	908.573669	1267.901611	924.251526	4.363105
855.906250	902.629395	1269.536255	923.434143	5.670308
856.205933	905.973083	1259.134033	918.678772	3.597705
856.505493	902.778015	1260.768677	916.523987	3.839757
856.805054	907.459167	1271.913940	918.827393	3.119242
857.104492	906.195984	1283.505249	921.576599	4.076395
857.403931	911.397156	1289.598022	922.468262	2.927309
857.703308	908.870850	1284.173950	918.976013	2.692534
858.002563	910.505554	1285.214233	916.301086	1.546677
858.301819	911.397217	1280.978882	912.660339	0.341771
858.601013	914.220703	1265.003784	906.790344	-2.118220
858.900208	914.294922	1255.790405	908.945129	-1.566578
859.199219	914.294983	1242.341431	913.106140	-0.362401
859.498291	916.746887	1248.508667	913.774902	-0.895819
859.797302	908.053528	1250.514771	910.802734	0.802779
860.096191	899.360168	1260.025513	916.895569	4.861959
860.395020	892.821472	1249.474487	917.712891	6.979169
860.693787	896.685242	1249.920410	914.146423	4.943217
860.992554	897.948425	1246.428101	898.840027	0.255855
861.291260	903.223938	1248.285645	901.143372	-0.602955
861.589844	902.035156	1233.425171	905.155762	0.941672
861.888428	911.917297	1229.264160	908.647949	-1.030213
862.186890	907.013367	1230.081543	910.951355	1.218934
862.485413	913.254700	1235.728516	912.140198	-0.345610
862.783813	909.242432	1239.889526	918.084473	2.674163
863.082153	909.762512	1242.713013	916.226807	1.941518
863.380371	913.477722	1240.038086	917.935791	1.365159
863.678589	914.294922	1238.774902	913.700500	-0.183192
863.976746	919.867676	1240.038208	911.768738	-2.529570
864.274902	913.031738	1246.205200	915.855286	0.847471
864.572937	906.418945	1248.582886	918.976013	3.669898
864.870911	901.514893	1244.124756	927.446533	7.568854
865.168884	898.022705	1247.468384	921.428040	6.697846
865.466736	903.521057	1247.765625	920.016357	4.791739
865.764587	904.412781	1245.685181	916.226868	3.461776
866.062317	901.960693	1235.505737	920.536438	5.569186
866.360107	902.109314	1234.539673	919.496155	5.230220
866.657715	904.635559	1243.604614	918.233093	4.011438
866.955322	908.499329	1247.839844	914.592224	1.795511
867.252808	909.985413	1251.926514	919.867737	2.890066
867.550293	904.635559	1242.192871	915.855286	3.323799
867.847717	907.459167	1232.310669	915.781067	2.561755
868.145081	902.778076	1228.892700	909.391052	2.027807
868.442383	902.034973	1232.236206	908.425049	1.935207
868.739624	902.332214	1239.666504	902.852356	0.154192
869.036804	901.143372	1231.419067	905.898743	1.439819
869.333984	907.236267	1230.378784	912.585999	1.655533
869.631042	908.870911	1228.669800	916.598389	2.416356
869.928101	915.929688	1226.143555	919.198975	1.053882
870.224976	914.072083	1222.428345	912.065918	-0.650600
870.521851	912.808899	1219.604858	911.322815	-0.484388
870.818726	911.991516	1223.840088	904.932800	-2.263508
871.115479	914.072083	1227.183716	908.647949	-1.732332
871.412231	912.585999	1237.066040	909.539551	-0.938871
871.708862	908.053528	1240.929810	914.517883	1.941969
872.005493	901.217712	1240.558228	913.254700	3.547171
872.302063	904.189758	1237.214600	911.397217	2.164241
872.598572	908.053467	1226.663574	909.539612	0.466446
872.895020	913.923523	1230.898804	911.099915	-0.890798
873.191406	916.449768	1232.533569	912.214539	-1.339907
873.487671	914.889465	1240.706909	909.168152	-1.755988
873.783997	910.134094	1236.174316	905.378723	-1.458523
874.080200	906.939026	1240.335327	901.291992	-1.693790
874.376343	906.493164	1231.938965	903.743896	-0.844770
874.672424	909.762512	1228.818359	903.966797	-1.816521
874.968445	909.242371	1223.022827	910.728455	0.473606
875.264465	904.412781	1233.573730	912.586121	2.483083
875.560364	902.926697	1233.499390	916.747070	4.180737
875.856201	904.041260	1230.973145	918.010193	4.272735
876.152039	904.709961	1225.548950	914.443665	3.033828
876.447754	905.898743	1232.459106	916.003906	3.094424
876.743469	897.725525	1241.226807	913.997742	4.737164
877.039063	904.858582	1238.849243	916.747009	3.559509
877.334595	909.688171	1243.233032	913.180420	1.047010
877.630127	916.003906	1242.564331	916.895691	0.273084
877.925537	919.347595	1253.486816	920.610779	0.378041
878.221008	909.093750	1248.434204	929.229797	5.933877
878.516296	905.601563	1249.548828	924.251526	5.422332
878.811646	900.623291	1260.917114	928.189636	7.651073
879.106812	904.635681	1272.879883	924.623047	5.427748
879.401978	900.920471	1297.028198	931.384583	7.690865
879.697083	906.418945	1326.526489	926.703552	4.828432
879.992126	904.858582	1363.009155	926.554871	4.735624
880.287109	912.288818	1422.451294	926.034729	2.694418
880.582031	905.081482	1496.233887	933.613586	4.826523
880.876892	903.149597	1654.795898	936.734375	4.468163
881.171753	900.251770	1932.390991	945.799316	4.412927
881.466492	903.000977	2398.194580	955.607239	3.518358
881.761230	908.276428	3021.594482	984.213867	3.593280
882.055786	906.121643	3638.381592	1008.808044	3.758295
882.350403	903.372559	4044.446045	1023.668640	3.829776
882.644958	904.784180	4107.454590	1020.993591	3.628516
882.939453	910.208313	3858.242920	1016.015381	3.589071
883.233826	911.322815	3445.045654	1000.337585	3.513201
883.528137	902.629395	2990.610352	980.870300	3.747204
883.822449	904.338379	2606.688232	957.464905	3.120776
884.116577	901.217773	2295.954102	948.399902	3.382871
884.410828	907.830750	2063.386475	944.090332	3.137848
884.704956	898.691406	1870.645142	942.158508	4.472137
884.999023	900.177429	1727.315308	934.802490	4.186129
885.292969	896.685242	1626.337891	933.019226	4.979628
885.586914	908.945129	1557.682251	920.610657	1.798190
885.880798	908.350769	1504.852905	920.239197	1.993024
886.174622	910.505554	1458.785156	917.638672	1.301000
886.468384	910.579834	1431.887695	924.028625	2.579818
886.762085	908.870850	1408.853882	920.090637	2.244034
887.055664	909.391052	1389.758179	921.873840	2.598593
887.349304	897.576843	1359.442505	921.873962	5.260646
887.642822	903.000977	1328.904175	923.805725	4.884854
887.936340	902.406555	1307.059082	921.576660	4.737424
888.229736	902.629395	1279.567261	927.446533	6.583880
888.523071	900.623230	1268.496094	929.378418	7.816610
888.816284	905.007141	1249.177368	931.384583	7.664068
889.109619	917.564270	1234.316772	915.706726	-0.586434
889.402710	911.694397	1220.793579	907.087708	-1.490360
889.695862	905.230164	1207.939331	901.143372	-1.350072
889.988892	893.861816	1211.951660	906.939026	4.111168
890.281921	896.313782	1218.193115	909.242493	4.016633
>>>>>End Processed Spectral Data<<<<<
