Jaz Data File
++++++++++++++++++++++++++++++++++++
Date: Fri Jun 04 11:49:45 2021
User: jaz
Dark Spectrum Present: Yes
Reference Spectrum Present: Yes
Processed Spectrum Present: Yes
Spectrometers: JAZA3586
Integration Time (usec): 40000 (JAZA3586)
Spectra Averaged: 10 (JAZA3586)
Boxcar Smoothing: 1 (JAZA3586)
Correct for Electrical Dark: No (JAZA3586)
Strobe/Lamp Enabled: Yes (JAZA3586)
Correct for Detector Non-linearity: No (JAZA3586)
Correct for Stray Light: No (JAZA3586)
Number of Pixels in Processed Spectrum: 2048
>>>>>Begin Processed Spectral Data<<<<<
W	D	R	S	P
191.335022	0.000000	0.000000	0.000000	0.000000
191.713211	383.699249	385.259644	375.971771	-495.225983
192.091385	766.209656	765.392395	756.624695	1172.815552
192.469528	1150.726196	1154.069946	1129.624268	-631.085693
192.847641	1155.853149	1160.014038	1134.305298	-517.866577
193.225739	1163.877808	1177.029419	1132.596313	-237.852936
193.603790	1172.719727	1178.218262	1143.890381	-524.309570
193.981842	1184.534058	1180.224365	1154.069946	706.874390
194.359863	1191.146973	1181.264648	1162.837524	286.465485
194.737854	1193.598999	1187.060181	1175.171753	281.813080
195.115829	1192.855957	1188.546265	1172.719849	467.228424
195.493774	1186.094360	1186.094360	1171.605347	0.000000
195.871704	1180.595825	1186.094360	1166.849976	-249.991119
196.249603	1184.979858	1194.639160	1174.428833	-109.231758
196.627457	1194.861938	1196.719604	1180.224365	-787.955078
197.005310	1200.954956	1200.731934	1172.794067	12626.929688
197.383133	1193.004517	1199.914673	1163.283325	-430.108826
197.760910	1190.403931	1203.629761	1162.837524	-208.428558
198.138687	1194.193359	1204.744263	1166.478516	-262.677460
198.516449	1199.023071	1197.388306	1173.091309	1586.267944
198.894180	1197.611206	1189.215088	1165.066772	387.612854
199.271866	1198.057007	1184.385498	1159.122437	284.786194
199.649536	1192.632935	1188.546387	1155.630249	905.475403
200.027191	1191.221069	1192.781616	1162.911987	-1814.048828
200.404816	1191.964233	1188.917847	1170.639404	700.004028
200.782410	1188.843628	1194.267578	1179.109863	-179.458954
201.159988	1185.945801	1204.595703	1174.131714	-63.346642
201.537537	1180.075806	1226.812134	1177.846680	-4.769579
201.915070	1179.704224	1230.155762	1173.983032	-11.339974
202.292557	1181.190308	1230.007202	1177.103638	-8.371426
202.670029	1175.989136	1212.248901	1169.004639	-19.262388
203.047485	1171.233765	1209.796997	1159.419678	-30.635624
203.424911	1169.599243	1206.676147	1157.562134	-32.465248
203.802292	1173.165649	1217.524414	1157.116333	-36.180710
204.179688	1182.453491	1212.100220	1152.509399	-101.003021
204.557037	1185.648560	1207.790649	1147.011108	-174.497757
204.934357	1185.574219	1207.344849	1156.818970	-132.082764
205.311661	1177.326660	1210.762817	1167.890137	-28.222511
205.688934	1174.725952	1215.146606	1180.224487	13.603281
206.066177	1177.252319	1201.029175	1173.388550	-16.250128
206.443390	1180.001465	1204.892944	1168.187378	-47.462372
206.820587	1182.304932	1206.973389	1167.072876	-61.747097
207.197769	1183.122192	1214.403687	1171.010986	-38.716839
207.574921	1182.973633	1211.282959	1168.336060	-51.705833
207.952042	1181.487427	1207.419312	1161.351563	-77.649055
208.329147	1178.961304	1210.762817	1151.915039	-85.047096
208.706223	1188.843384	1225.177490	1171.010864	-49.079285
209.083267	1187.431763	1224.360229	1170.119263	-46.881176
209.460297	1178.961304	1223.765869	1169.970703	-20.066259
209.837280	1169.822144	1209.945679	1149.240234	-51.296349
210.214264	1168.558960	1208.162231	1146.936768	-54.596985
210.591217	1167.964478	1212.248901	1147.828491	-45.469681
210.968124	1163.357788	1212.843262	1153.549805	-19.819923
211.345016	1163.952148	1217.004272	1157.487793	-12.184914
211.721893	1156.373291	1216.558472	1155.778809	-0.987755
212.098724	1153.549683	1214.849487	1154.738647	1.939590
212.475555	1153.178223	1217.227173	1138.837769	-22.389835
212.852356	1168.707520	1210.911377	1143.890259	-58.803299
213.229126	1169.376221	1210.391235	1145.673706	-57.789848
213.605865	1171.085083	1205.933105	1159.270996	-33.901741
213.982590	1163.580566	1205.264526	1152.583862	-26.381140
214.359283	1166.701294	1204.075562	1146.416748	-54.274097
214.735931	1167.370117	1203.703979	1145.599487	-59.918293
215.112579	1173.016968	1207.567871	1146.416748	-76.988495
215.489197	1171.976807	1206.156128	1143.890503	-82.173378
215.865799	1169.896362	1202.440918	1140.175171	-91.324615
216.242355	1169.079102	1209.351074	1141.215454	-69.188683
216.618896	1170.044922	1218.787598	1147.531128	-46.189079
216.995407	1166.032593	1227.555298	1151.097656	-24.275488
217.371902	1160.980103	1223.097046	1147.085327	-22.368736
217.748367	1163.134766	1215.295288	1137.723267	-48.717876
218.124802	1166.701416	1221.016602	1138.317627	-52.257557
218.501236	1165.289673	1212.694702	1144.410522	-44.044167
218.877609	1168.113159	1216.781372	1150.354736	-36.488750
219.253983	1169.227661	1202.440918	1146.639526	-68.009392
219.630295	1176.286499	1212.546143	1146.862427	-81.148270
220.006592	1176.880859	1215.443848	1147.308228	-76.686569
220.382889	1178.366821	1219.827759	1149.908813	-68.638123
220.759140	1175.840576	1210.688599	1149.685913	-75.053505
221.135391	1171.902710	1208.013672	1152.360962	-54.115833
221.511581	1165.958374	1219.233398	1158.899536	-13.249807
221.887772	1168.187500	1226.737915	1159.345337	-15.101794
222.263931	1166.032593	1223.171387	1161.945923	-7.152181
222.640060	1173.537109	1216.484253	1159.419678	-32.871643
223.016159	1167.221558	1215.146606	1159.196777	-16.744438
223.392212	1174.354492	1222.502563	1162.986206	-23.611094
223.768265	1177.178101	1217.227051	1161.425781	-39.332664
224.144302	1183.568115	1225.103271	1160.905640	-54.562153
224.520294	1173.462891	1223.840210	1157.859375	-30.973295
224.896286	1162.540283	1232.162109	1162.317505	-0.319983
225.272217	1159.493896	1225.549072	1161.871582	3.599545
225.648148	1169.450562	1230.007324	1159.494019	-16.441669
226.024048	1169.822144	1228.967041	1160.459839	-15.829437
226.399902	1167.592896	1239.220825	1160.534180	-9.854697
226.775772	1159.568237	1235.654175	1155.704468	-5.078165
227.151581	1165.883911	1249.548950	1152.360840	-16.163347
227.527374	1166.329956	1250.069092	1156.596069	-11.624060
227.903137	1171.679565	1254.750122	1157.264893	-17.352325
228.278870	1167.370117	1259.208130	1153.401245	-15.210338
228.654572	1173.314331	1262.848999	1149.983276	-26.058125
229.030273	1171.010864	1275.480469	1147.679932	-22.332747
229.405930	1170.193481	1276.446411	1144.782104	-23.915930
229.781555	1172.794067	1289.895142	1151.692261	-18.020164
230.157181	1173.685669	1294.056152	1156.596313	-14.197297
230.532761	1168.038818	1294.056152	1157.487793	-8.372678
230.908325	1158.676636	1288.334839	1152.732422	-4.584526
231.283859	1158.899536	1286.180054	1151.989380	-5.429076
231.659332	1166.181274	1290.043823	1154.069824	-9.778137
232.034821	1169.376221	1285.882813	1152.360962	-14.604546
232.410263	1171.902466	1278.824097	1151.989380	-18.624001
232.785690	1167.667236	1273.251465	1151.246460	-15.552300
233.161087	1169.598999	1279.938599	1146.045044	-21.346783
233.536469	1167.741577	1279.418579	1145.227905	-20.159632
233.911804	1165.363892	1277.115234	1148.125610	-15.425570
234.287140	1167.667236	1277.040894	1154.515747	-12.024366
234.662430	1173.091431	1286.774536	1151.469238	-19.019707
235.037704	1181.338989	1299.183105	1155.927368	-21.563759
235.412933	1181.264648	1301.040649	1154.367065	-22.456572
235.788162	1165.735474	1298.588745	1155.853149	-7.438525
236.163345	1156.224731	1290.564087	1145.450806	-8.019933
236.538513	1152.212280	1294.204834	1145.450806	-4.761851
236.913635	1155.853149	1301.858032	1147.308228	-5.852490
237.288742	1162.614746	1301.932251	1155.853149	-4.853372
237.663834	1159.791138	1301.635132	1158.379395	-0.995279
238.038879	1169.747681	1302.452515	1156.967651	-9.630417
238.413910	1169.970703	1307.505005	1159.270996	-7.779665
238.788910	1169.747681	1315.083862	1159.716919	-6.901765
239.163879	1164.472290	1323.628662	1165.512451	0.653547
239.538834	1162.391846	1337.969116	1162.020264	-0.211634
239.913757	1165.512573	1340.123901	1160.757080	-2.723474
240.288651	1170.119263	1348.668579	1161.648804	-4.744044
240.663528	1174.874634	1364.346558	1171.010864	-2.039231
241.038361	1180.521606	1400.531860	1180.298706	-0.101314
241.413177	1178.664063	1438.649292	1186.688843	3.086629
241.787979	1176.806641	1472.011230	1176.509277	-0.100731
242.162735	1175.246216	1500.766479	1173.983032	-0.388051
242.537476	1175.246216	1516.369995	1168.930298	-1.851503
242.912170	1173.388550	1528.109863	1172.794067	-0.167591
243.286865	1166.032593	1518.004517	1167.295776	0.358888
243.661514	1168.187378	1513.100586	1168.781738	0.172322
244.036148	1168.187378	1497.571289	1168.930420	0.225585
244.410751	1172.199707	1489.695313	1170.416504	-0.561647
244.785339	1165.883911	1481.521851	1164.695190	-0.376609
245.159882	1165.586792	1497.868530	1159.345337	-1.878362
245.534378	1161.202881	1527.143921	1160.905762	-0.081193
245.908890	1160.979980	1575.589233	1165.809692	1.164883
246.283356	1163.729370	1636.814819	1171.753906	1.696213
246.657791	1163.803589	1706.510620	1177.029419	2.437011
247.032196	1163.580688	1770.411133	1176.657837	2.154992
247.406586	1164.695190	1815.067017	1177.326538	1.942173
247.780960	1168.484619	1828.887207	1180.224487	1.777683
248.155289	1168.261719	1810.311523	1175.097534	1.064686
248.529602	1166.552612	1761.197388	1182.007690	2.599044
248.903870	1161.277222	1706.436401	1177.103760	2.903104
249.278122	1160.979980	1662.226196	1189.066528	5.603343
249.652344	1155.927368	1627.898315	1183.791016	5.903678
250.026550	1164.249268	1600.926392	1184.088257	4.543171
250.400711	1164.620850	1582.425171	1182.824951	4.357088
250.774857	1174.057251	1583.613892	1181.933350	1.923079
251.148987	1168.930298	1596.245483	1175.989136	1.651904
251.523071	1168.113159	1620.468140	1168.856079	0.164234
251.897125	1163.803589	1637.260620	1167.072876	0.690514
252.271164	1168.187378	1657.842407	1167.890259	-0.060679
252.645187	1174.131470	1654.573120	1169.822021	-0.896976
253.019165	1177.475220	1654.647461	1171.679565	-1.214583
253.393112	1178.515503	1638.449341	1170.490845	-1.744742
253.767044	1178.515503	1613.632202	1171.828247	-1.536888
254.140930	1171.828247	1584.951294	1166.404175	-1.312943
254.514801	1163.506348	1572.542603	1166.478394	0.726597
254.888657	1158.305176	1578.041138	1165.066650	1.610888
255.262466	1161.128662	1593.124634	1167.815918	1.547990
255.636276	1172.199707	1599.960571	1167.518677	-1.094310
256.010010	1175.766235	1613.929565	1174.874634	-0.203486
256.383759	1177.326538	1631.762207	1176.955078	-0.081741
256.757446	1170.490723	1667.055786	1186.020020	3.127344
257.131134	1172.125366	1707.179321	1181.561890	1.763658
257.504791	1165.883911	1747.674316	1190.329468	4.201781
257.878418	1167.295776	1800.354980	1195.530762	4.460086
258.252014	1167.072876	1870.570923	1200.286133	4.721159
258.625580	1169.599121	1976.526733	1205.338745	4.429099
258.999115	1173.091431	2103.510010	1204.967163	3.425956
259.372650	1171.902466	2242.010498	1207.567749	3.332868
259.746124	1174.131714	2349.823486	1210.168457	3.065152
260.119598	1175.914917	2406.367920	1219.010376	3.502406
260.493042	1173.388550	2409.562988	1231.196167	4.676332
260.866425	1174.428711	2355.916260	1234.168335	5.056306
261.239838	1168.633179	2268.907959	1226.217896	5.233667
261.613159	1163.803589	2167.633301	1210.911499	4.692819
261.986511	1163.060547	2085.826172	1198.354248	3.824774
262.359802	1165.883911	2037.083374	1188.397705	2.584229
262.733063	1166.478394	2002.978394	1186.911743	2.442720
263.106293	1165.512573	1986.706055	1182.379272	2.053925
263.479523	1158.973877	1971.102417	1186.985962	3.449218
263.852692	1162.614746	1967.461792	1184.756958	2.751108
264.225861	1156.224609	1959.213989	1192.038574	4.460080
264.598969	1162.020386	1958.545288	1194.490601	4.076485
264.972076	1167.221313	1976.600952	1196.570923	3.626186
265.345154	1176.434937	2015.312622	1198.131348	2.586362
265.718201	1177.623901	2060.711670	1196.199463	2.103478
266.091217	1179.630005	2110.791748	1203.852661	2.601337
266.464203	1184.459595	2160.946045	1202.515137	1.849031
266.837158	1180.893066	2207.533936	1210.317017	2.866041
267.210114	1179.184204	2238.740967	1210.317017	2.938286
267.583038	1173.834351	2248.028809	1213.512085	3.693720
267.955902	1178.961304	2261.180420	1204.372925	2.348103
268.328766	1169.896362	2265.935791	1203.258179	3.043852
268.701569	1164.769409	2285.700195	1196.422241	2.823799
269.074371	1159.716797	2302.641357	1201.549194	3.660119
269.447144	1171.307983	2326.418213	1196.199463	2.154901
269.819885	1178.292480	2376.052490	1205.933228	2.307703
270.192596	1181.190308	2465.661377	1216.187012	2.724600
270.565277	1174.725952	2581.648193	1228.298340	3.807772
270.937927	1177.103638	2701.498291	1224.880371	3.134145
271.310577	1177.029419	2780.630615	1226.737915	3.099804
271.683136	1181.041626	2834.797119	1231.864746	3.073194
272.055725	1171.605347	2859.762939	1240.112427	4.058097
272.428284	1170.490723	2848.617432	1235.431274	3.869824
272.800812	1165.140991	2819.936768	1235.282715	4.238694
273.173279	1166.998535	2747.640381	1233.053711	4.179010
273.545776	1162.614624	2709.300049	1236.397339	4.770376
273.918152	1168.781738	2664.718506	1233.128052	4.301406
274.290558	1164.769409	2662.266602	1226.960815	4.153023
274.662964	1163.283325	2652.532715	1224.360229	4.101187
275.035278	1161.277222	2674.303467	1223.245605	4.095658
275.407593	1168.335938	2687.752441	1228.001099	3.926847
275.779907	1176.806519	2724.755127	1231.790405	3.552049
276.152161	1177.252319	2765.770264	1237.066040	3.765379
276.524384	1181.413208	2811.540771	1242.861694	3.769551
276.896606	1173.091309	2844.531250	1243.530273	4.214268
277.268799	1170.416504	2855.007813	1241.672729	4.229882
277.640930	1163.060547	2867.490479	1237.437500	4.363744
278.013031	1170.267944	2871.057373	1231.716187	3.612925
278.385162	1177.846680	2892.381836	1227.332397	2.886247
278.757233	1188.620605	2898.846436	1226.589478	2.220109
279.129272	1188.174805	2925.520752	1229.784424	2.395010
279.501282	1173.834351	2943.799561	1234.242554	3.412960
279.873230	1165.215210	3005.396484	1241.672852	4.154897
280.245178	1166.701294	3088.912842	1245.759399	4.112872
280.617126	1168.558960	3204.676025	1254.304199	4.211214
280.988983	1172.942749	3308.551758	1259.802612	4.067218
281.360870	1172.571167	3404.996338	1270.576538	4.390085
281.732697	1176.063477	3466.370850	1265.152466	3.889827
282.104492	1173.685669	3499.583984	1254.973022	3.494880
282.476288	1169.004761	3511.175049	1251.777954	3.534038
282.848053	1175.023193	3506.791016	1254.378540	3.403227
283.219757	1173.016968	3510.877930	1260.545776	3.743970
283.591461	1173.611450	3487.769775	1259.802612	3.724515
283.963135	1168.336060	3508.722900	1260.768677	3.949459
284.334747	1166.849976	3569.651367	1259.133911	3.840681
284.706360	1167.890259	3659.260498	1262.180298	3.784666
285.077942	1172.422607	3750.504150	1267.901733	3.703495
285.449524	1177.549561	3834.094482	1278.675537	3.806673
285.821014	1179.407104	3860.323486	1276.743652	3.630719
286.192535	1173.537231	3893.759766	1280.681641	3.938810
286.563995	1167.518677	3876.150391	1279.195679	4.123004
286.935425	1163.654907	3864.558838	1282.464966	4.398900
287.306824	1167.592896	3792.113525	1277.412354	4.184363
287.678223	1173.983032	3713.872803	1274.588867	3.961032
288.049561	1180.521606	3666.393555	1269.164673	3.565874
288.420898	1173.165649	3650.344482	1269.684937	3.896339
288.792145	1171.159546	3690.690674	1270.056274	3.925204
289.163452	1166.924194	3781.785889	1277.560913	4.231073
289.534668	1174.205811	3891.233643	1284.322632	4.052841
289.905914	1167.815918	4000.755615	1292.273071	4.393216
290.277039	1171.233765	4079.516357	1300.892212	4.458248
290.648193	1176.732178	4127.144531	1296.954102	4.074750
291.019318	1181.710449	4131.603027	1299.108765	3.979749
291.390381	1175.394653	4094.154297	1286.402954	3.803270
291.761475	1169.376099	4036.569580	1286.551636	4.086768
292.132507	1168.558838	3992.433594	1281.573364	4.002108
292.503510	1171.902466	3973.486328	1288.855103	4.174518
292.874481	1167.147095	4019.182861	1285.585815	4.152779
293.245422	1170.490723	4092.593750	1290.118164	4.093882
293.616364	1173.016968	4219.279785	1295.319336	4.014833
293.987213	1176.880859	4340.690430	1301.857910	3.950208
294.358093	1170.490723	4442.262207	1308.991089	4.233192
294.728943	1168.187378	4547.623535	1308.693726	4.157686
295.099731	1162.094604	4641.765625	1320.879395	4.563213
295.470490	1170.119263	4767.113770	1324.148926	4.282176
295.841248	1162.391724	4860.363770	1329.052856	4.506825
296.211975	1168.261719	4963.718750	1329.201294	4.240321
296.582642	1167.593018	5049.390137	1333.065063	4.262769
296.953308	1180.967529	5088.250000	1333.139404	3.894571
297.323883	1175.097534	5076.881836	1331.950562	4.020033
297.694519	1164.100708	4989.798828	1322.365601	4.136889
298.065063	1152.880981	4884.734863	1322.662720	4.549528
298.435608	1155.035767	4732.785645	1314.638062	4.460968
298.806122	1164.918091	4571.475098	1306.464722	4.155123
299.176575	1170.713745	4409.940918	1296.359497	3.878881
299.547028	1168.187378	4311.712402	1288.780762	3.836247
299.917450	1168.856079	4277.162109	1291.678589	3.951429
300.287872	1163.357666	4286.301270	1298.440063	4.325483
300.658234	1171.159546	4277.533691	1299.405884	4.128490
301.028564	1169.747681	4250.487793	1298.885864	4.191791
301.398865	1174.354370	4208.580566	1296.656738	4.030760
301.769135	1170.342163	4164.370117	1301.114868	4.367785
302.139374	1167.370117	4113.992676	1297.845581	4.427967
302.509583	1163.803467	4074.835205	1289.300781	4.311094
302.879791	1162.465942	4040.061523	1288.557739	4.381845
303.249939	1168.633179	4004.768311	1284.471069	4.084357
303.620087	1177.103638	3962.638672	1278.229614	3.630397
303.990173	1181.636108	3946.960938	1281.721924	3.619315
304.360260	1181.338989	3939.604736	1281.721924	3.639350
304.730286	1180.670288	3938.118408	1288.260620	3.901808
305.100281	1182.081909	3930.836670	1279.492920	3.543823
305.470276	1174.354492	3935.443604	1280.681763	3.850918
305.840179	1164.843750	3955.208008	1281.053223	4.164670
306.210144	1159.345337	3985.375000	1282.910767	4.372404
306.579987	1168.856079	4013.758545	1283.505249	4.029986
306.949890	1173.685791	4058.563232	1284.991211	3.858237
307.319702	1172.942749	4135.986328	1296.953979	4.185266
307.689484	1167.444336	4244.022461	1305.944580	4.501762
308.059265	1169.153320	4352.653320	1310.700073	4.446262
308.429016	1171.605347	4428.813965	1312.854858	4.336520
308.798737	1170.044922	4499.550293	1313.597778	4.311537
309.168396	1164.026367	4535.215332	1324.520142	4.760747
309.538055	1163.952026	4554.236816	1324.074341	4.722976
309.907684	1169.970703	4546.063965	1323.257202	4.540351
310.277313	1170.044922	4559.363770	1321.548218	4.470022
310.646851	1171.679565	4556.911621	1324.668945	4.519318
311.016388	1164.695190	4552.676270	1326.303589	4.770051
311.385895	1174.280151	4495.537598	1330.093018	4.691382
311.755371	1176.732178	4448.355469	1320.805176	4.403716
312.124817	1177.103638	4386.535645	1323.703003	4.567767
312.494232	1167.890015	4343.736816	1313.895142	4.597361
312.863617	1162.465942	4318.771484	1322.737061	5.077807
313.232971	1164.769409	4339.650391	1324.594604	5.034053
313.602295	1168.410278	4408.529297	1337.374634	5.214757
313.971619	1167.890015	4480.825684	1330.390137	4.905019
314.340820	1165.735352	4517.977051	1329.721436	4.891834
314.710083	1172.274048	4519.462891	1321.399536	4.455245
315.079285	1177.400879	4470.200195	1326.897949	4.540121
315.448486	1177.623901	4397.532227	1327.715454	4.661361
315.817596	1173.983032	4278.647949	1331.430542	5.071321
316.186707	1171.456665	4186.958008	1325.040405	5.093141
316.555786	1173.908691	4103.664551	1322.959961	5.087498
316.924866	1172.422729	4052.469971	1317.238647	5.028248
317.293884	1171.308228	4034.043213	1324.000122	5.333777
317.662872	1170.416626	4040.359375	1327.566650	5.475719
318.031830	1170.119263	4074.538330	1333.510864	5.625621
318.400757	1173.834473	4110.575195	1344.359009	5.806592
318.769684	1176.286377	4135.317871	1350.080444	5.873343
319.138550	1181.116089	4149.360840	1357.287720	5.935213
319.507416	1176.212036	4119.491699	1348.668701	5.859336
319.876190	1175.914917	4094.971436	1344.953491	5.790863
320.244995	1175.394775	4026.241455	1346.959717	6.018034
320.613770	1179.555786	3977.201904	1351.863647	6.159030
320.982483	1174.131592	3957.363037	1361.820190	6.743550
321.351166	1165.363892	4000.607178	1368.284546	7.157081
321.719818	1161.574341	4063.095459	1379.504272	7.510886
322.088440	1163.357788	4166.673340	1393.844727	7.674417
322.457062	1171.233765	4312.975098	1403.504028	7.393043
322.825623	1171.010864	4472.652344	1419.479126	7.525598
323.194183	1168.410278	4602.607910	1429.138672	7.592119
323.562653	1167.072754	4667.102051	1439.689575	7.788987
323.931183	1168.781860	4695.114746	1449.869019	7.971089
324.299591	1175.617676	4667.845703	1453.138306	7.946807
324.668060	1177.326660	4627.127441	1449.571899	7.891622
325.036407	1177.921021	4544.131836	1438.723633	7.747661
325.404755	1167.295776	4476.516113	1440.061035	8.242584
325.773102	1157.933594	4395.080566	1440.581177	8.731380
326.141388	1169.450562	4333.483398	1448.977417	8.834512
326.509674	1176.212036	4251.898926	1445.485229	8.754896
326.877899	1182.007690	4180.642578	1446.153809	8.808879
327.246124	1176.286499	4136.061035	1450.463379	9.263438
327.614288	1175.469116	4102.104980	1453.509766	9.500350
327.982422	1171.828125	4100.915527	1455.218750	9.675049
328.350525	1176.212036	4106.859863	1455.515991	9.530451
328.718628	1182.750732	4155.082520	1467.404419	9.576780
329.086700	1188.546509	4205.311035	1476.543579	9.546555
329.454712	1177.698242	4263.563965	1482.562134	9.879363
329.822693	1172.497070	4285.037598	1484.642700	10.028645
330.190674	1169.673462	4325.756348	1493.113281	10.248140
330.558563	1165.140991	4370.263672	1504.778809	10.596719
330.926483	1164.397949	4443.153809	1518.747559	10.807441
331.294312	1161.500122	4517.753906	1535.168579	11.133498
331.662231	1165.215332	4611.821289	1551.069336	11.195188
332.029999	1163.877808	4712.873047	1562.660645	11.236500
332.397766	1165.140991	4781.974609	1573.583008	11.292807
332.765503	1158.305054	4799.287109	1580.790405	11.603610
333.133240	1153.995605	4801.219238	1599.514648	12.215293
333.500916	1154.664429	4800.178711	1604.641602	12.343311
333.868561	1164.843750	4808.574707	1608.356567	12.171942
334.236176	1168.113159	4782.420410	1607.687866	12.162074
334.603790	1168.484619	4747.200684	1609.396973	12.320406
334.971344	1163.209106	4717.331055	1614.895386	12.708800
335.338867	1168.335938	4699.869629	1610.883179	12.531304
335.706360	1167.072876	4692.439453	1619.204956	12.825108
336.073853	1173.685669	4701.876465	1629.830200	12.928567
336.441284	1167.964478	4728.253418	1640.009644	13.258619
336.808655	1172.794067	4762.655762	1653.012573	13.377075
337.176086	1168.336060	4801.590332	1659.179688	13.509751
337.543396	1165.661133	4834.952148	1678.275391	13.970389
337.910706	1166.478394	4860.512207	1681.916382	13.953257
338.277954	1162.986206	4863.336426	1694.993652	14.377219
338.645264	1172.125488	4839.931152	1697.817017	14.332589
339.012421	1165.215332	4792.971191	1696.405396	14.642387
339.379669	1169.524780	4700.464355	1686.151733	14.631431
339.746796	1163.580566	4602.310547	1673.445923	14.827142
340.113953	1166.998535	4525.406738	1678.721313	15.237063
340.481018	1169.970581	4496.651855	1674.485962	15.165727
340.848114	1171.679565	4505.270996	1679.390137	15.230139
341.215118	1169.450562	4545.840332	1685.037109	15.270350
341.582153	1171.233765	4649.492676	1712.380493	15.557978
341.949066	1169.376099	4820.909668	1737.791992	15.566497
342.316010	1173.016968	5041.365234	1772.937134	15.508432
342.682922	1168.261597	5292.211426	1815.512695	15.694932
343.049835	1171.159546	5589.570801	1879.189941	16.024548
343.416656	1175.617554	5875.785156	1927.858398	16.004555
343.783478	1176.806396	6091.039551	1967.684570	16.093622
344.150269	1178.143921	6198.630371	1980.910522	15.989818
344.516998	1167.295776	6216.834473	1996.811157	16.427547
344.883728	1167.518555	6143.868652	1990.421265	16.536270
345.250427	1166.626953	6024.167480	1984.699829	16.841297
345.617065	1167.667114	5877.270996	1963.152222	16.890701
345.983704	1167.741577	5745.235840	1947.548706	17.035677
346.350281	1166.924194	5615.873535	1933.579712	17.232283
346.716827	1167.964478	5483.689453	1925.406372	17.550745
347.083405	1166.255493	5394.823730	1920.874023	17.845722
347.449860	1174.057251	5351.133301	1920.576782	17.871820
347.816376	1180.893188	5342.811035	1928.824341	17.970829
348.182770	1181.859131	5348.383789	1931.796509	17.999111
348.549194	1174.800415	5378.401855	1937.146118	18.135536
348.915558	1165.215210	5460.283691	1943.684937	18.124735
349.281921	1171.902466	5538.970703	1967.907593	18.227448
349.648193	1174.800293	5575.453125	1987.820801	18.474998
350.014526	1183.939575	5580.803223	2012.712280	18.849178
350.380737	1174.725952	5601.831543	2017.913452	19.046022
350.746948	1175.766235	5636.753418	2031.436157	19.181179
351.113159	1167.072876	5693.743652	2038.717896	19.255762
351.479309	1171.605347	5752.219238	2055.881836	19.304760
351.845428	1164.620850	5869.320313	2071.485352	19.275717
352.211517	1167.815918	5997.417969	2097.343018	19.246452
352.577576	1165.809692	6131.683594	2127.435547	19.364685
352.943604	1169.822144	6244.697754	2166.370117	19.636894
353.309601	1169.747681	6376.808105	2215.261475	20.078772
353.675537	1166.701294	6515.977051	2260.585938	20.449209
354.041473	1163.654907	6669.263672	2296.399902	20.574383
354.407379	1164.918091	6783.838379	2318.021729	20.521801
354.773254	1162.243164	6909.410156	2343.730713	20.557737
355.139038	1157.190552	7022.052246	2381.327881	20.872398
355.504913	1154.812866	7238.719238	2424.052002	20.862240
355.870636	1157.116211	7498.779297	2497.463135	21.135574
356.236389	1159.642456	7767.383301	2558.093994	21.163837
356.602081	1162.763184	8009.609863	2631.579346	21.452448
356.967804	1164.992432	8172.259277	2650.675049	21.202028
357.333405	1161.128784	8266.846680	2674.229248	21.294125
357.699036	1159.196655	8243.664063	2674.749512	21.392616
358.064606	1160.088257	8198.116211	2683.294189	21.642511
358.430176	1164.174927	8144.395996	2674.080811	21.631205
358.795654	1161.054321	8185.856934	2690.352783	21.769985
359.161163	1165.438110	8336.393555	2736.717773	21.911720
359.526581	1161.797363	8693.417969	2823.280518	22.060102
359.892029	1164.472290	9201.425781	2934.883545	22.028387
360.257416	1153.995483	9748.887695	3054.287842	22.109552
360.622772	1157.339233	10188.983398	3169.828369	22.282642
360.988098	1161.128784	10459.964844	3237.295654	22.327171
361.353394	1168.707520	10546.528320	3264.936279	22.353048
361.718658	1174.428833	10405.352539	3252.229736	22.509132
362.083893	1174.874634	10002.260742	3182.905518	22.747742
362.449097	1177.103638	9426.042969	3083.562500	23.111563
362.814209	1176.286255	8811.039063	2935.477539	23.041889
363.179382	1178.515381	8274.202148	2824.246338	23.193399
363.544434	1174.057251	7898.676270	2729.733643	23.134045
363.909546	1170.342163	7654.666016	2682.402588	23.318707
364.274536	1168.410278	7522.036621	2641.907471	23.191435
364.639587	1166.404175	7387.919922	2625.858154	23.458174
365.004517	1168.781738	7319.263672	2611.963623	23.464533
365.369507	1166.106812	7259.375488	2602.452881	23.572670
365.734344	1165.512329	7272.527344	2595.468262	23.414972
366.099274	1168.633179	7254.100098	2590.787354	23.369680
366.464081	1163.654907	7207.810059	2597.920654	23.729797
366.828918	1164.769531	7141.160156	2597.474609	23.972748
367.193665	1168.410278	7076.442871	2588.855469	24.042608
367.558411	1166.701294	7027.031250	2558.688477	23.752710
367.923126	1165.586792	6936.901855	2539.295410	23.802351
368.287781	1160.162598	6865.497559	2534.168701	24.082830
368.652435	1171.976685	6827.899902	2541.822021	24.219658
369.017059	1177.400879	6849.447266	2560.322998	24.381361
369.381653	1177.549438	6901.162109	2569.090576	24.312286
369.746185	1171.902466	6968.554688	2589.895508	24.462275
370.110687	1168.261719	7070.052246	2605.573486	24.353825
370.475220	1163.209106	7148.516113	2631.579346	24.532913
370.839661	1166.329834	7213.457031	2647.851807	24.499601
371.204041	1163.134888	7246.893066	2656.173584	24.541388
371.568451	1166.849976	7250.087891	2657.882568	24.510509
371.932770	1167.518677	7216.948730	2650.006592	24.506241
372.297150	1168.187500	7179.203125	2648.966309	24.634420
372.661377	1169.450562	7193.171875	2651.715576	24.607132
373.025696	1165.809692	7220.664063	2664.941406	24.759171
373.389862	1166.032593	7279.363281	2681.213623	24.784870
373.754059	1170.119263	7368.824219	2697.188721	24.635298
374.118225	1169.896362	7496.327637	2729.510498	24.652353
374.482361	1173.462769	7656.003906	2767.181885	24.584791
374.846436	1163.803589	7831.135254	2818.599609	24.819466
375.210510	1161.500000	8100.111328	2896.617188	25.006693
375.574524	1161.945923	8372.504883	2970.176758	25.077539
375.938538	1168.930420	8662.136719	3045.445313	25.042885
376.302460	1177.549438	8870.036133	3104.292969	25.047083
376.666412	1176.435059	9015.223633	3136.020508	24.998575
377.030304	1178.812622	9026.815430	3152.218750	25.145329
377.394196	1170.490845	8908.375977	3116.924805	25.154598
377.757996	1169.153320	8708.501953	3060.900391	25.091652
378.121796	1170.416504	8452.827148	2985.408936	24.922962
378.485565	1180.150024	8218.847656	2913.038086	24.619442
378.849304	1180.744507	8007.307129	2870.536865	24.753195
379.212982	1170.119141	7879.952637	2848.840576	25.018824
379.576630	1160.162598	7797.550293	2834.871826	25.231451
379.940277	1159.939819	7785.438965	2826.326904	25.151117
380.303864	1167.369995	7761.216309	2815.552979	24.995775
380.667450	1165.512573	7785.661621	2817.261719	24.950333
381.030945	1165.363892	7785.810547	2819.119385	24.979515
381.394501	1162.837524	7838.193848	2827.961670	24.944347
381.757935	1172.719849	7889.314941	2842.450439	24.859777
382.121399	1175.320435	7980.707031	2865.113037	24.830221
382.484741	1177.103760	8113.783203	2912.220703	25.013653
382.848145	1174.948853	8251.911133	2955.093750	25.154081
383.211487	1174.280151	8361.137695	2982.734375	25.163351
383.574768	1174.948853	8425.631836	2980.430908	24.900854
383.938019	1172.794067	8448.961914	2976.789795	24.793211
384.301270	1166.329834	8484.256836	2983.328857	24.829424
384.664459	1167.518677	8508.850586	2988.975586	24.810987
385.027649	1160.534302	8540.131836	2997.446289	24.891764
385.390778	1168.261719	8637.541992	3013.718506	24.707291
385.753876	1170.565063	8745.801758	3028.504639	24.526489
386.116943	1180.447388	8861.193359	3040.764404	24.220526
386.479980	1179.109863	8860.895508	3043.216553	24.266581
386.842987	1171.456665	8876.203125	3043.736572	24.300344
387.205994	1168.930298	8868.846680	3043.142334	24.340679
387.568909	1171.233765	8862.976563	3037.569580	24.264149
387.931793	1172.274048	8815.125977	3027.092773	24.268673
388.294678	1171.531006	8771.584961	3020.851563	24.332993
388.657471	1165.215210	8799.299805	3009.706299	24.161261
389.020294	1165.140991	8834.891602	3009.706055	24.049871
389.383057	1166.478394	9009.502930	3026.795654	23.719387
389.745819	1174.725952	9175.123047	3058.448486	23.545362
390.108521	1179.332886	9398.997070	3109.643311	23.484055
390.471191	1176.360718	9631.044922	3157.940186	23.437651
390.833801	1173.239868	9843.624023	3203.635986	23.417604
391.196442	1170.639282	10008.725586	3232.465576	23.328876
391.558960	1178.738403	10056.649414	3236.403564	23.177355
391.921509	1171.753906	10036.959961	3226.669922	23.179564
392.284027	1170.416382	9977.889648	3193.679688	22.972118
392.646484	1159.345337	9905.963867	3169.679688	22.984133
393.008911	1163.803589	9867.029297	3144.862549	22.762354
393.371307	1164.100708	9886.645508	3143.005127	22.687237
393.733673	1165.140991	9882.782227	3125.915283	22.492027
394.096008	1166.255493	9808.553711	3103.475830	22.415569
394.458344	1167.592896	9700.741211	3056.442383	22.135435
394.820587	1177.103638	9502.129883	2994.845703	21.834671
395.182831	1178.366821	9317.487305	2932.579834	21.552856
395.545013	1179.555664	9072.138672	2885.620361	21.616051
395.907196	1173.388550	8906.146484	2844.605469	21.612171
396.269287	1177.401001	8808.735352	2810.500244	21.399918
396.631409	1186.020020	8777.900391	2788.506836	21.107904
396.993469	1186.168579	8759.028320	2771.788818	20.938196
397.355530	1176.732178	8777.827148	2763.912842	20.880949
397.717499	1166.404175	8785.924805	2748.531982	20.764139
398.079468	1159.196777	8800.934570	2744.891357	20.750444
398.441376	1160.831421	8792.909180	2734.340088	20.617043
398.803284	1148.199951	8758.582031	2711.380615	20.540108
399.165131	1156.298950	8759.100586	2696.371338	20.256643
399.526978	1159.196777	8739.336914	2672.817627	19.968245
399.888763	1164.843750	8750.779297	2669.028076	19.828594
400.250519	1157.413452	8760.067383	2655.876221	19.709734
400.612244	1160.162720	8780.129883	2654.984619	19.617170
400.973938	1164.695190	8861.788086	2648.149170	19.272913
401.335602	1164.026489	8950.356445	2653.424561	19.128370
401.697205	1157.636353	9111.221680	2659.443115	18.882135
402.058807	1161.054321	9253.214844	2670.737061	18.656115
402.420349	1165.289551	9483.924805	2692.730713	18.361681
402.781860	1173.388550	9666.858398	2712.123779	18.116686
403.143341	1172.274048	9867.178711	2740.878906	18.040508
403.504822	1176.435059	10054.124023	2762.946533	17.870770
403.866241	1169.524780	10187.720703	2777.064453	17.825512
404.227631	1171.233765	10279.930664	2775.429688	17.611694
404.588959	1170.936523	10277.107422	2748.606445	17.325283
404.950287	1166.329834	10245.083008	2721.931641	17.134531
405.311554	1161.648682	10149.157227	2683.219727	16.929842
405.672821	1154.218384	10045.801758	2661.820557	16.955385
406.034027	1158.676636	9921.047852	2630.390625	16.795841
406.395203	1160.162598	9777.569336	2595.765625	16.659340
406.756348	1164.249268	9644.493164	2548.360596	16.321598
407.117493	1172.868286	9606.375977	2519.085205	15.962716
407.478516	1175.394775	9639.886719	2510.317383	15.770853
407.839600	1180.744629	9708.541992	2511.803711	15.608476
408.200592	1174.725952	9816.578125	2510.540283	15.457500
408.561554	1168.558960	9955.153320	2500.435303	15.158049
408.922485	1162.020264	10077.083008	2492.039063	14.918782
409.283417	1159.419800	10157.850586	2497.314697	14.868092
409.644257	1161.871704	10249.019531	2506.676758	14.798979
410.005096	1166.775513	10307.719727	2507.493896	14.667176
410.365906	1175.766235	10290.332031	2481.116455	14.321585
410.726715	1183.642334	10237.726563	2455.704834	14.049599
411.087433	1183.642334	10168.104492	2422.640137	13.790451
411.448120	1182.007690	10145.887695	2397.897217	13.564322
411.808807	1174.131592	10101.900391	2367.210205	13.363682
412.169434	1174.057251	10096.773438	2348.337158	13.160566
412.530029	1167.592896	10140.166992	2341.352783	13.081640
412.890564	1172.274048	10249.317383	2335.482910	12.814843
413.251099	1171.976929	10385.291992	2327.681396	12.543850
413.611572	1177.698120	10545.116211	2326.640869	12.265309
413.972076	1171.382324	10686.811523	2329.910400	12.175258
414.332489	1166.032471	10797.151367	2341.427002	12.204132
414.692871	1161.425903	10973.620117	2351.680908	12.130365
415.053223	1159.716919	11147.562500	2364.758301	12.065078
415.413574	1162.391724	11416.389648	2381.996582	11.893945
415.773834	1161.277222	11614.778320	2384.225830	11.698938
416.134094	1161.723022	11894.528320	2397.600342	11.514951
416.494263	1162.466064	12162.090820	2407.036865	11.314666
416.854462	1168.261597	12535.981445	2445.154053	11.232617
417.214630	1180.150024	12963.149414	2466.775879	10.919341
417.574738	1184.459595	13373.002930	2495.159424	10.753540
417.934784	1177.772339	13822.757813	2516.038330	10.583373
418.294861	1170.045044	14254.307617	2550.069336	10.547207
418.654846	1166.106934	14804.074219	2589.152588	10.434442
419.014832	1170.193481	15354.954102	2630.761963	10.296743
419.374756	1167.964478	16006.664063	2682.031006	10.203499
419.734680	1168.484619	16642.322266	2726.463867	10.068474
420.094543	1167.667236	17147.656250	2759.974609	9.964383
420.454376	1170.713501	17477.560547	2760.494385	9.749162
420.814148	1168.856079	17651.652344	2754.178711	9.618044
421.173920	1166.404175	17810.882813	2735.974609	9.429976
421.533691	1171.308228	17875.748047	2742.662109	9.406804
421.893341	1166.701416	17892.021484	2738.501221	9.397726
422.253021	1163.357788	17863.638672	2721.485840	9.329951
422.612640	1158.305176	17797.953125	2684.408447	9.171488
422.972260	1168.410278	17825.742188	2660.483154	8.957454
423.331757	1174.503052	17901.904297	2652.012695	8.832870
423.691315	1170.787964	18089.591797	2649.486572	8.739971
424.050781	1162.911987	18095.908203	2629.945068	8.663754
424.410248	1157.785034	17901.533203	2608.396973	8.663604
424.769653	1158.453735	17554.908203	2580.310547	8.671733
425.128998	1166.552612	17149.958984	2541.747803	8.603893
425.488373	1173.239868	16714.322266	2480.150635	8.409393
425.847656	1175.469116	16282.178711	2418.776367	8.230165
426.206940	1169.822144	15923.816406	2370.330811	8.136839
426.566193	1164.398071	15566.864258	2340.312744	8.164676
426.925385	1162.614746	15216.527344	2303.161377	8.115510
427.284576	1163.729126	14807.491211	2252.784424	7.982075
427.643677	1163.209106	14538.589844	2214.666992	7.861144
428.002777	1167.964355	14305.725586	2178.704346	7.693396
428.361847	1166.032471	14156.301758	2170.902588	7.735560
428.720856	1168.484497	13930.421875	2154.704590	7.727824
429.079865	1168.187378	13810.870117	2147.497070	7.746059
429.438812	1173.760132	13755.291992	2137.168945	7.657325
429.797760	1175.246216	13755.069336	2124.463379	7.545552
430.156616	1173.091431	13643.540039	2104.475830	7.468732
430.515503	1178.292603	13564.926758	2083.002441	7.303920
430.874268	1177.623901	13549.250000	2079.807373	7.292360
431.233093	1171.308105	13661.745117	2085.157471	7.316392
431.591827	1166.552856	13823.797852	2098.234619	7.360857
431.950562	1172.719971	13973.073242	2097.417236	7.223998
432.309204	1178.218262	14087.127930	2109.156982	7.211598
432.667877	1180.001587	14235.956055	2118.965088	7.191841
433.026459	1171.753906	14342.059570	2119.336426	7.194841
433.385010	1178.589844	14444.299805	2108.859619	7.012589
433.743561	1177.401001	14436.051758	2093.479248	6.909287
434.102051	1179.778564	14472.164063	2088.203857	6.834178
434.460510	1174.577393	14481.971680	2094.742432	6.914690
434.818939	1167.369995	14454.256836	2094.593750	6.978487
435.177338	1163.580688	14421.042969	2092.959229	7.010230
435.535675	1161.797363	14402.096680	2078.395752	6.922792
435.894012	1165.661133	14420.299805	2075.943848	6.867654
436.252289	1168.410278	14552.708008	2090.358398	6.888281
436.610535	1164.175171	14617.203125	2098.160156	6.942563
436.968719	1164.918091	14916.791992	2108.042480	6.858152
437.326935	1168.410278	15150.175781	2114.803955	6.768771
437.685028	1171.605347	15463.139648	2132.265137	6.721880
438.043152	1176.955200	15677.651367	2147.348633	6.692047
438.401215	1171.679688	15988.459961	2158.271240	6.658609
438.759277	1172.794067	16341.843750	2169.713867	6.572065
439.117249	1165.363892	16803.783203	2189.849854	6.551084
439.475250	1169.153320	17187.111328	2208.202393	6.486776
439.833130	1168.856079	17603.949219	2236.214600	6.494387
440.191071	1173.091431	17749.062500	2244.239502	6.462053
440.548889	1171.382446	17827.822266	2257.242432	6.519160
440.906708	1168.707520	17725.136719	2252.932861	6.548666
441.264496	1163.729126	17543.093750	2239.707031	6.569107
441.622223	1165.661133	17286.601563	2215.632568	6.513091
441.979950	1166.404175	16981.587891	2190.518311	6.475512
442.337616	1166.255493	16760.982422	2174.246094	6.463663
442.695251	1162.391724	16517.197266	2156.710693	6.475621
443.052887	1165.958374	16460.132813	2144.822266	6.400240
443.410461	1170.565063	16571.736328	2151.732422	6.370732
443.768005	1170.119263	16827.708984	2163.917969	6.347073
444.125458	1171.085327	17054.033203	2183.236572	6.372565
444.482941	1161.648804	17364.544922	2192.301758	6.360918
444.840393	1163.803589	17880.876953	2226.332520	6.355950
445.197754	1168.484497	18359.458984	2258.208252	6.338930
445.555084	1175.989136	18727.332031	2300.635010	6.407748
445.912415	1175.394775	18895.775391	2312.523682	6.417068
446.269714	1171.531006	19017.111328	2313.415283	6.398695
446.626953	1166.998535	19019.712891	2304.201660	6.369917
446.984161	1169.747681	18864.121094	2295.433838	6.361831
447.341309	1171.902466	18673.982422	2285.403076	6.362104
447.698456	1178.589722	18365.404297	2270.393799	6.352568
448.055542	1179.555786	18149.703125	2257.985352	6.354863
448.412598	1177.326660	17790.896484	2244.387939	6.422830
448.769653	1178.292480	17446.798828	2225.886719	6.439401
449.126617	1168.707520	16991.025391	2202.183838	6.531763
449.483582	1167.667114	16730.373047	2179.819092	6.503702
449.840515	1159.716797	16497.876953	2166.444580	6.563550
450.197388	1167.518677	16359.526367	2144.896729	6.433502
450.554230	1166.552734	16251.416992	2145.045166	6.486584
450.911041	1170.787964	16192.198242	2143.113525	6.472931
451.267822	1172.422607	16274.227539	2158.939697	6.532445
451.624573	1166.329834	16282.921875	2161.763184	6.585038
451.981262	1166.849976	16272.816406	2167.633057	6.625084
452.337921	1166.106812	16077.250977	2146.679932	6.576109
452.694580	1169.747681	15736.573242	2129.739014	6.590258
453.051147	1175.914795	15511.137695	2112.574951	6.533977
453.407715	1170.639282	15146.237305	2106.407959	6.695733
453.764221	1177.921021	15085.977539	2091.250000	6.566906
454.120728	1170.862183	14750.723633	2070.519775	6.624939
454.477142	1179.704224	14735.640625	2060.414307	6.496859
454.833557	1176.509277	14604.421875	2057.813721	6.563228
455.189911	1175.766235	14642.911133	2052.984131	6.513763
455.546265	1170.193481	14684.296875	2069.702393	6.656075
455.902557	1173.165649	14778.067383	2085.454346	6.705588
456.258820	1170.787964	14993.843750	2104.178955	6.752421
456.615051	1171.976807	15305.247070	2117.256104	6.688327
456.971252	1173.908813	15619.250000	2130.853516	6.624591
457.327393	1180.744507	16164.929688	2164.809814	6.567359
457.683502	1177.326660	16729.183594	2203.595703	6.599013
458.039612	1165.883911	17576.828125	2264.301025	6.693199
458.395630	1164.323608	18435.025391	2321.513916	6.700309
458.751648	1170.639404	19157.916016	2367.284424	6.652730
459.107605	1175.617554	19783.396484	2411.643311	6.642521
459.463562	1173.388550	19960.755859	2432.447998	6.701628
459.819458	1167.221313	19885.191406	2433.414063	6.764584
460.175323	1166.701294	19365.072266	2395.222656	6.750721
460.531158	1166.701294	18676.804688	2341.575928	6.709695
460.886932	1171.679565	17936.677734	2290.009766	6.670625
461.242676	1174.948853	17282.662109	2257.316650	6.719562
461.598419	1172.422729	16806.904297	2228.487305	6.754714
461.954102	1174.800415	16348.083008	2202.852539	6.775410
462.309723	1176.509399	15892.014648	2172.017090	6.765026
462.665344	1174.354492	15554.903320	2156.413574	6.829079
463.020905	1168.558960	15361.567383	2152.698486	6.933974
463.376373	1169.896362	15365.430664	2150.692139	6.909185
463.731873	1170.565186	15383.338867	2150.246338	6.892962
464.087341	1172.274048	15433.343750	2137.540771	6.768544
464.442749	1167.369995	15555.867188	2138.952393	6.752494
464.798126	1174.354370	15648.078125	2154.259033	6.770232
465.153503	1175.023193	15789.550781	2175.880859	6.848375
465.508820	1176.509277	15928.497070	2195.273682	6.905946
465.864105	1177.103638	16027.393555	2204.115967	6.915773
466.219330	1175.691895	16269.398438	2220.239502	6.920418
466.574524	1172.199707	16286.264648	2226.852539	6.977956
466.929657	1172.719727	16202.004883	2225.515137	7.004960
467.284790	1176.063354	16005.622070	2220.685303	7.044188
467.639893	1178.292603	15820.015625	2201.366699	6.987389
467.994934	1177.326660	15661.304688	2180.115967	6.923438
468.349945	1177.401001	15447.386719	2159.979980	6.885634
468.704926	1175.840576	15297.592773	2149.057617	6.891617
469.059875	1168.558960	15182.125000	2144.822266	6.966558
469.414764	1166.849976	15104.479492	2145.862549	7.024240
469.769653	1164.695190	15067.106445	2150.469482	7.090672
470.124451	1174.428833	15129.668945	2161.837646	7.075541
470.479248	1170.862183	15226.559570	2154.927490	7.001184
470.834015	1171.382324	15306.137695	2155.670654	6.963603
471.188721	1170.342163	15491.968750	2160.722900	6.915281
471.543365	1175.469116	15721.713867	2181.082031	6.913213
471.898010	1176.509399	15922.331055	2199.286377	6.936046
472.252625	1175.617798	16177.338867	2215.484375	6.931649
472.607178	1178.589844	16362.054688	2234.134277	6.951934
472.961700	1180.595825	16472.171875	2246.468506	6.970326
473.316193	1173.314331	16494.906250	2264.821289	7.123979
473.670654	1165.289551	16468.677734	2261.403076	7.162554
474.025055	1158.528076	16567.203125	2268.164795	7.201377
474.379456	1163.729370	16628.501953	2263.929688	7.114235
474.733795	1161.723145	16781.492188	2285.625977	7.195387
475.088104	1160.682739	17035.904297	2307.693848	7.225166
475.442383	1157.710571	17334.453125	2339.569824	7.305916
475.796570	1164.769409	17634.933594	2358.071289	7.245234
476.150787	1171.753906	17995.970703	2370.925537	7.127652
476.504944	1172.868530	18344.970703	2383.111084	7.047725
476.859070	1165.289673	18643.443359	2399.457764	7.061204
477.213135	1169.227539	18893.248047	2427.321289	7.098242
477.567200	1163.208984	19136.146484	2447.531738	7.145870
477.921173	1165.735352	19438.408203	2485.871826	7.224649
478.275146	1163.803467	19646.306641	2503.704346	7.249564
478.629089	1177.698120	19942.701172	2525.846436	7.184375
478.983002	1179.630005	20340.890625	2539.369385	7.096294
479.336823	1173.239990	20856.998047	2568.125000	7.086477
479.690643	1166.775757	21465.091797	2609.288818	7.106565
480.044403	1167.667358	22261.021484	2677.275635	7.156796
480.398163	1169.079102	23392.724609	2757.151123	7.145867
480.751862	1173.240112	24974.109375	2864.147217	7.104392
481.105499	1175.097534	27099.318359	2988.306885	6.994267
481.459137	1182.899292	30148.328125	3204.230469	6.978426
481.812744	1168.261719	34206.000000	3479.893799	6.996944
482.166290	1157.710815	39101.285156	3843.010986	7.077088
482.519806	1152.806763	44126.453125	4203.082031	7.098014
482.873291	1163.506470	48467.964844	4550.298340	7.159562
483.226715	1170.639526	51280.691406	4794.011230	7.230828
483.580139	1167.815796	52258.738281	4906.803223	7.318301
483.933502	1161.500122	51495.425781	4862.072754	7.352045
484.286804	1166.478394	49382.628906	4694.817871	7.317754
484.640106	1176.137817	46380.203125	4451.030273	7.244686
484.993347	1177.029419	43330.003906	4213.633301	7.203772
485.346558	1174.057251	41135.027344	4025.647217	7.135938
485.699738	1166.924194	40193.535156	3954.614014	7.143049
486.052887	1167.444336	40477.667969	3969.102783	7.127048
486.405975	1163.134644	41408.312500	4046.452148	7.164380
486.759064	1161.574341	42413.480469	4116.965332	7.164253
487.112061	1168.707397	42836.261719	4148.246582	7.150742
487.464996	1173.165649	42433.988281	4123.875488	7.151360
487.817963	1176.286499	41282.441406	4040.359131	7.141230
488.170868	1173.463013	39537.371094	3923.555420	7.168437
488.523743	1176.806519	37575.628906	3782.751709	7.159421
488.876587	1175.989258	35712.933594	3656.288330	7.181582
489.229401	1177.326538	34543.410156	3569.800049	7.170376
489.582153	1175.023315	34273.691406	3545.725830	7.162532
489.934845	1174.948853	34935.503906	3583.620117	7.134573
490.287537	1172.348267	36108.078125	3643.953857	7.074721
490.640198	1169.970703	37345.664063	3719.965820	7.048918
490.992798	1173.537231	38036.457031	3769.302734	7.041672
491.345337	1173.462891	37882.574219	3769.302734	7.071378
491.697876	1176.212158	36681.246094	3702.653564	7.115727
492.050354	1172.794189	34711.187500	3577.973389	7.171420
492.402832	1170.639282	32211.494141	3419.708252	7.245512
492.755219	1167.964478	29656.521484	3237.815186	7.265551
493.107605	1169.376221	27397.642578	3060.305908	7.209511
493.459930	1171.010864	25611.400391	2931.167969	7.201838
493.812225	1169.078979	24345.580078	2844.976807	7.231021
494.164490	1171.828247	23604.710938	2797.869141	7.248470
494.516724	1175.468994	23267.822266	2760.792236	7.175891
494.868896	1180.595825	23245.755859	2749.498047	7.110314
495.221039	1173.834351	23423.562500	2739.318359	7.035969
495.573120	1165.809692	23687.408203	2747.714844	7.023947
495.925201	1162.763184	23995.318359	2766.364502	7.023311
496.277222	1167.667236	24182.490234	2781.670898	7.012888
496.629211	1172.571167	24183.232422	2790.958740	7.033207
496.981140	1181.264648	24030.689453	2777.881592	6.987558
497.333069	1183.270874	23758.146484	2765.621826	7.009346
497.684967	1179.555664	23430.697266	2744.371094	7.032518
498.036804	1167.072876	22983.615234	2704.619141	7.047616
498.388580	1166.478394	22526.802734	2685.746338	7.112570
498.740326	1166.849976	22057.208984	2654.390381	7.120703
499.092072	1173.834351	21612.728516	2626.378174	7.106763
499.443756	1179.258423	21217.142578	2591.158691	7.046154
499.795410	1183.122192	20907.373047	2562.923584	6.995457
500.147003	1180.075806	20662.917969	2548.360352	7.023024
500.498566	1172.942749	20419.279297	2536.026123	7.082301
500.850098	1176.286377	20225.869141	2520.571045	7.056767
501.201599	1169.896362	20072.880859	2514.255615	7.111889
501.553009	1165.586792	19996.421875	2502.886963	7.101651
501.904449	1157.636475	19996.273438	2509.053955	7.173648
502.255859	1163.432007	20054.898438	2506.676514	7.110324
502.607178	1164.992310	20175.123047	2509.128662	7.070632
502.958405	1171.902466	20229.955078	2506.602295	7.003338
503.309692	1165.661011	20291.626953	2516.113037	7.060830
503.660919	1163.803467	20337.322266	2515.815674	7.051455
504.012115	1154.441284	20344.306641	2523.394775	7.133732
504.363251	1156.596191	20309.980469	2519.753662	7.117058
504.714294	1158.156494	20188.123047	2520.273926	7.157750
505.065369	1168.410278	20125.412109	2504.596191	7.048509
505.416443	1168.707520	20004.968750	2494.713867	7.039647
505.767395	1164.695190	19967.220703	2486.094482	7.027776
506.118317	1164.472168	19870.775391	2487.506348	7.072665
506.469238	1162.540405	19996.273438	2484.237305	7.017711
506.820160	1164.620972	20176.904297	2488.175049	6.961574
507.170929	1166.255493	20450.634766	2495.531006	6.893017
507.521729	1175.543213	20663.289063	2518.713623	6.892385
507.872498	1180.150024	20900.685547	2527.481445	6.832124
508.223236	1174.205811	21140.980469	2540.112793	6.840899
508.573883	1169.227539	21347.765625	2555.047607	6.867792
508.924500	1162.020386	21523.640625	2575.703857	6.942883
509.275116	1154.367065	21669.496094	2590.564209	7.000673
509.625702	1153.475464	21879.625000	2591.010010	6.935849
509.976196	1160.162720	22052.750000	2599.406494	6.888777
510.326660	1165.586792	22263.695313	2605.425049	6.824490
510.677124	1164.843750	22430.429688	2619.319580	6.839576
511.027557	1163.432007	22604.296875	2626.081055	6.821782
511.377869	1164.843750	22727.197266	2623.777588	6.766116
511.728180	1168.038696	22793.697266	2617.684814	6.703362
512.078430	1173.537231	22738.564453	2619.988281	6.707393
512.428650	1182.230591	22659.580078	2614.564209	6.669043
512.778931	1179.109985	22483.335938	2623.926025	6.781828
513.129028	1179.407104	22309.687500	2598.217529	6.714584
513.479126	1169.524780	22130.619141	2599.852295	6.823726
513.829285	1173.536987	21969.306641	2582.688232	6.776144
514.179382	1171.159302	21838.386719	2581.053711	6.821885
514.529297	1170.862183	21833.630859	2576.372803	6.802141
514.879272	1172.719849	22006.609375	2572.137451	6.717025
515.229187	1164.917969	22258.349609	2586.254883	6.738292
515.579163	1175.617554	22662.478516	2599.852295	6.628398
515.928955	1167.072754	23135.117188	2627.269775	6.646914
516.278748	1170.119263	23795.445313	2667.541992	6.618348
516.628540	1167.815918	24534.236328	2730.104736	6.686043
516.978333	1172.645508	25373.634766	2785.757568	6.665480
517.327942	1178.069702	26218.978516	2835.762939	6.619941
517.677612	1175.989136	26862.439453	2866.302002	6.580562
518.027222	1183.270874	27263.302734	2898.549072	6.576979
518.376831	1180.521606	27302.312500	2911.700928	6.627338
518.726379	1179.184204	27089.210938	2902.487061	6.651104
519.075867	1174.651733	26528.968750	2863.106689	6.659438
519.425293	1178.069580	25924.291016	2807.602539	6.584977
519.774658	1176.732178	25245.833984	2767.479248	6.609084
520.124084	1174.651611	24722.076172	2727.429688	6.594259
520.473389	1171.828125	24249.287109	2692.804688	6.590745
520.822693	1168.558716	23932.384766	2665.238525	6.574817
521.171997	1168.781860	23719.287109	2647.182861	6.555955
521.521240	1166.478394	23681.017578	2647.034424	6.576000
521.870361	1171.010864	23764.166016	2638.563721	6.495564
522.219482	1174.577393	24004.906250	2651.418213	6.468767
522.568604	1174.354614	24305.162109	2663.158203	6.436453
522.917664	1175.989136	24763.685547	2682.922852	6.388643
523.266724	1177.772339	25378.166016	2723.195068	6.385940
523.615662	1180.967407	26216.376953	2783.380127	6.400585
523.964600	1174.800293	27238.115234	2856.270752	6.451484
524.313538	1171.085083	28412.837891	2926.561279	6.444065
524.662354	1163.729126	29655.626953	2993.953857	6.423667
525.011169	1169.227539	30863.416016	3072.566406	6.409803
525.359985	1167.147095	32051.000000	3148.354736	6.415027
525.708740	1174.131592	33267.113281	3237.444092	6.429170
526.057434	1172.719849	34762.753906	3319.176758	6.390160
526.406067	1172.571167	36684.070313	3440.290039	6.385871
526.754700	1173.983032	39398.050781	3605.093750	6.360157
527.103333	1173.314331	42689.363281	3810.986328	6.353379
527.451782	1172.794312	46206.562500	4034.117432	6.353728
527.800293	1163.432129	48960.292969	4231.168457	6.418280
528.148743	1158.973999	50581.355469	4351.687500	6.460055
528.497131	1154.367065	50635.074219	4342.770996	6.443731
528.845642	1161.797363	49191.222656	4242.165527	6.413502
529.193909	1164.249268	46484.675781	4064.061768	6.398467
529.542175	1170.639282	42986.574219	3846.057617	6.398084
529.890503	1171.233765	39428.589844	3606.208252	6.364723
530.238770	1171.531128	36328.457031	3411.460693	6.371233
530.586914	1169.896362	34253.699219	3274.223633	6.360596
530.934998	1164.918091	33224.906250	3191.747803	6.321991
531.283142	1162.837646	33244.519531	3186.026367	6.306367
531.631226	1161.054321	33953.152344	3216.044922	6.266726
531.979248	1168.187378	35156.707031	3296.143311	6.260808
532.327148	1170.342163	36379.730469	3361.083740	6.222039
532.675110	1174.726074	37242.753906	3417.107666	6.217090
533.023071	1166.998535	37370.031250	3434.791748	6.264098
533.370850	1175.171753	36654.574219	3386.346436	6.232277
533.718689	1176.063477	35402.718750	3298.297607	6.200530
534.066467	1178.441162	33843.031250	3186.843750	6.148562
534.414246	1178.961304	32422.882813	3096.120117	6.136102
534.761963	1178.812622	31310.275391	3037.643799	6.169070
535.109619	1182.750610	30703.445313	2999.526611	6.154245
535.457153	1173.091309	30467.904297	2984.591797	6.183691
535.804749	1174.651733	30391.296875	2980.876709	6.182178
536.152344	1175.246094	30302.656250	2967.205078	6.152140
536.499817	1179.109863	29938.275391	2940.381592	6.124210
536.847229	1177.103638	29395.939453	2898.772217	6.101132
537.194641	1168.558960	28622.599609	2853.967529	6.139018
537.542114	1169.376343	27854.380859	2807.008057	6.136899
537.889404	1166.849976	27215.822266	2763.392578	6.129004
538.236694	1176.880859	26887.406250	2733.002686	6.052470
538.583984	1177.549561	27088.244141	2733.002686	6.003131
538.931213	1174.057251	27793.898438	2781.447998	6.038318
539.278381	1162.094604	29191.458984	2861.620361	6.063376
539.625488	1163.580566	30993.521484	2976.789795	6.078487
539.972595	1163.506226	33309.238281	3118.039307	6.080225
540.319641	1167.369995	35557.046875	3267.239014	6.106103
540.666687	1161.797241	37379.394531	3386.420654	6.142383
541.013611	1168.930298	38419.339844	3443.559326	6.106319
541.360596	1164.695190	38519.644531	3443.559570	6.100568
541.707458	1165.586792	37878.410156	3391.993408	6.064384
542.054260	1165.735352	36478.699219	3312.489502	6.079224
542.401062	1173.908691	34801.687500	3215.747314	6.071881
542.747864	1167.667358	32895.523438	3103.104248	6.100119
543.094666	1166.775635	31118.724609	2980.133545	6.054224
543.441284	1167.072876	29380.632813	2875.514893	6.055393
543.787903	1167.667358	28049.427734	2797.274414	6.062129
544.134460	1171.382446	26877.671875	2741.324463	6.107229
544.481079	1162.540405	26107.302734	2684.854248	6.102739
544.827637	1168.484741	25575.367188	2649.263428	6.067054
545.174072	1160.014160	25356.322266	2638.861084	6.111870
545.520508	1172.274170	25378.390625	2640.718750	6.066419
545.866943	1171.233887	25359.369141	2637.226318	6.060791
546.213318	1169.896484	25262.031250	2621.400146	6.024803
546.559631	1171.828247	24926.185547	2598.069092	6.004123
546.905823	1173.908691	24436.677734	2572.286133	6.011225
547.252136	1178.069702	23693.947266	2519.828125	5.959166
547.598389	1168.261597	22828.468750	2466.255859	5.992529
547.944458	1173.314331	21886.384766	2403.024170	5.936879
548.290588	1181.933350	21002.851563	2352.424316	5.905332
548.636658	1192.335815	20175.937500	2309.031494	5.882422
548.982727	1188.397705	19515.906250	2268.016357	5.890701
549.328735	1175.914795	19074.771484	2235.397461	5.919275
549.674622	1176.434937	18749.029297	2210.431641	5.884144
550.020569	1176.583618	18533.773438	2200.623779	5.899804
550.366455	1181.933472	18367.929688	2196.834229	5.905394
550.712280	1172.868530	18366.591797	2184.351318	5.882861
551.058044	1171.159546	18426.181641	2184.648682	5.873590
551.403748	1176.360718	18552.052734	2199.583740	5.888819
551.749512	1180.447388	18729.931641	2211.546143	5.875379
552.095154	1181.413330	18914.351563	2208.425537	5.791552
552.440735	1172.571167	19006.708984	2203.892822	5.782851
552.786316	1166.329834	18944.148438	2209.242920	5.866373
553.131897	1168.707520	18724.880859	2212.660889	5.946361
553.477417	1173.239868	18449.738281	2188.215088	5.874890
553.822815	1177.252319	18063.437500	2159.831299	5.818833
554.168213	1166.552612	17741.484375	2132.859619	5.829931
554.513672	1159.791138	17434.835938	2112.054932	5.851067
554.859009	1158.602295	17226.341797	2099.572021	5.856267
555.204285	1172.794067	17023.570313	2081.367920	5.732047
555.549500	1174.874512	16864.935547	2076.984131	5.749561
555.894714	1168.187378	16678.285156	2068.662109	5.805732
556.239990	1161.797363	16573.742188	2066.135986	5.867777
556.585022	1169.822021	16429.816406	2053.504395	5.790843
556.930115	1180.744507	16362.871094	2044.885254	5.691829
557.275146	1176.583618	16218.723633	2037.603516	5.724052
557.620178	1167.964478	16150.364258	2039.089478	5.814322
557.965149	1164.620728	16072.867188	2038.049316	5.858695
558.310059	1163.952148	16054.959961	2037.454712	5.865973
558.654968	1169.970703	15979.022461	2029.504395	5.804110
558.999756	1163.209106	15946.551758	2021.182617	5.803650
559.344604	1168.113037	15949.229492	2020.439575	5.766321
559.689331	1167.667358	16017.585938	2024.972046	5.773127
560.033997	1165.661133	16073.983398	2034.928345	5.830751
560.378723	1166.181274	16145.907227	2036.117310	5.807423
560.723389	1158.082153	16197.844727	2038.346558	5.852914
561.067932	1161.128662	16272.592773	2041.838867	5.828093
561.412476	1166.478394	16261.968750	2039.163940	5.781101
561.757019	1174.057251	16224.890625	2027.424194	5.669899
562.101501	1179.852905	16120.346680	2026.829590	5.669001
562.445862	1176.063477	16029.401367	2031.064819	5.756291
562.790222	1171.456665	15970.700195	2037.974976	5.855153
563.134644	1175.171753	15989.871094	2024.377563	5.732184
563.478943	1170.862305	16053.698242	2017.393188	5.687968
563.823181	1175.320435	16168.941406	2026.903931	5.679639
564.167358	1168.781738	16382.562500	2038.346558	5.715639
564.511536	1169.302002	16687.873047	2052.761475	5.692917
564.855774	1166.627075	17044.226563	2062.866455	5.644678
565.199768	1170.044800	17382.750000	2089.169678	5.669164
565.543823	1170.564941	17677.509766	2113.689697	5.713502
565.887817	1175.617676	17872.109375	2134.419922	5.742537
566.231812	1177.549683	17878.201172	2120.896729	5.648564
566.575745	1177.846802	17733.533203	2109.974365	5.630257
566.919617	1176.360718	17539.009766	2094.667969	5.612216
567.263428	1169.450562	17256.138672	2080.624756	5.664150
567.607239	1170.119263	17044.597656	2056.773682	5.585408
567.950989	1164.546509	16813.515625	2035.968872	5.568561
568.294678	1173.017090	16711.425781	2036.860718	5.559409
568.638367	1171.085205	16626.943359	2041.615845	5.632367
568.981995	1173.388550	16609.111328	2049.194580	5.673891
569.325623	1173.165649	16662.013672	2060.860352	5.731186
569.669128	1176.137817	16784.912109	2058.259766	5.651449
570.012573	1180.744507	16938.568359	2063.460938	5.601766
570.356140	1172.125366	17173.736328	2061.529053	5.558213
570.699524	1164.769409	17389.214844	2081.590820	5.650865
571.042908	1160.088379	17723.130859	2096.897217	5.656019
571.386230	1165.363892	17917.804688	2112.649414	5.654612
571.729492	1172.571289	18071.982422	2117.924805	5.594003
572.072815	1168.930542	18053.779297	2110.197266	5.574623
572.416016	1165.438110	17968.033203	2098.383057	5.552386
572.759094	1161.277222	17787.107422	2091.770264	5.596671
573.102234	1164.620850	17588.271484	2079.510010	5.570559
573.445374	1167.518677	17414.253906	2074.680664	5.583657
573.788391	1165.363770	17302.875000	2057.293701	5.527060
574.131409	1158.899536	17244.025391	2057.739502	5.588019
574.474365	1157.264771	17158.876953	2044.885254	5.547069
574.817261	1162.168823	17063.990234	2052.464111	5.598700
575.160156	1173.239990	16868.054688	2042.061646	5.535724
575.502930	1172.274048	16635.857422	2029.950195	5.546426
575.845703	1177.623901	16358.635742	2008.476929	5.472975
576.188477	1180.521606	16050.502930	2002.086914	5.524992
576.531250	1180.075806	15734.122070	1989.455444	5.561200
576.873901	1175.543457	15413.803711	1964.415405	5.540508
577.216431	1168.930420	15123.352539	1936.625977	5.501450
577.559082	1165.735474	14827.256836	1919.907837	5.520412
577.901611	1157.710815	14561.327148	1907.499390	5.593927
578.244080	1159.419678	14285.143555	1898.508789	5.630845
578.586487	1167.593018	14090.172852	1881.345093	5.523294
578.928955	1202.886719	13888.589844	1881.642212	5.350555
579.271301	1198.279907	13712.715820	1869.010620	5.359656
579.613647	1190.626831	13510.834961	1869.084961	5.506872
579.955872	1161.648804	13348.112305	1856.527710	5.702055
580.298157	1165.958252	13251.742188	1846.496948	5.630902
580.640320	1174.948853	13206.343750	1845.679688	5.574839
580.982483	1175.766357	13147.570313	1842.707520	5.570933
581.324524	1179.109985	13085.453125	1841.890137	5.566614
581.666626	1183.642456	13002.381836	1830.967773	5.477110
582.008728	1183.493774	12953.266602	1822.274292	5.427297
582.350647	1181.710449	12900.586914	1813.432251	5.390635
582.692566	1175.691895	12827.250000	1815.512695	5.491290
583.034424	1169.524780	12726.792969	1814.026489	5.576592
583.376343	1160.608521	12641.196289	1808.082397	5.639728
583.718201	1160.162720	12606.200195	1796.119629	5.556132
584.059937	1165.735474	12565.112305	1789.506836	5.471978
584.401611	1167.221558	12537.023438	1795.153687	5.522806
584.743347	1166.775635	12511.686523	1802.807007	5.606314
585.085022	1168.707520	12491.252930	1800.577759	5.580638
585.426514	1178.738281	12442.362305	1797.680054	5.495050
585.768127	1176.657837	12440.504883	1783.710938	5.389394
586.109619	1172.645508	12446.820313	1786.534546	5.445091
586.451172	1164.769409	12461.235352	1786.385864	5.502752
586.792542	1160.162598	12490.288086	1782.968140	5.496899
587.133850	1165.066528	12529.296875	1786.386108	5.467327
587.475220	1168.410278	12607.463867	1784.305542	5.384145
587.816589	1172.125366	12665.270508	1799.091797	5.455133
588.157776	1165.512329	12789.504883	1797.754272	5.439112
588.498962	1167.295776	12917.602539	1808.974121	5.460950
588.840210	1165.586914	13002.753906	1814.323853	5.480508
589.181335	1171.976929	13007.583008	1816.775757	5.447958
589.522400	1175.097534	13004.461914	1813.655151	5.398072
589.863403	1178.143921	12966.344727	1803.921387	5.308507
590.204407	1181.636230	12926.593750	1811.797485	5.365377
590.545410	1175.914917	12833.789063	1811.277344	5.450071
590.886353	1178.218262	12736.972656	1818.187622	5.536664
591.227112	1167.221436	12633.617188	1807.190796	5.581260
591.567932	1165.661011	12560.875000	1807.190796	5.629818
591.908752	1163.209106	12501.433594	1790.546875	5.532945
592.249512	1169.673340	12527.512695	1787.946289	5.443579
592.590149	1168.930298	12497.570313	1781.705078	5.409077
592.930786	1174.948853	12590.968750	1789.358276	5.381993
593.271423	1179.184204	12670.471680	1789.283813	5.309237
593.612000	1181.710449	12811.647461	1787.946411	5.212719
593.952576	1177.995239	12937.515625	1796.416992	5.258903
594.292969	1172.794067	13067.026367	1803.550171	5.303041
594.633484	1175.468872	13279.010742	1817.147461	5.301577
594.973877	1172.571289	13491.515625	1830.447632	5.340363
595.314209	1180.521606	13752.764648	1851.698242	5.338559
595.654480	1179.109863	14078.731445	1864.923950	5.316545
595.994812	1175.023193	14397.788086	1878.892944	5.323166
596.335022	1167.964478	14677.684570	1896.131226	5.389947
596.675171	1163.803467	14730.588867	1901.183716	5.435188
597.015320	1169.227539	14635.406250	1893.456177	5.378130
597.355408	1168.112915	14330.096680	1864.626831	5.291862
597.695496	1164.026367	13921.804688	1849.097656	5.369832
598.035461	1158.453613	13433.487305	1826.806641	5.444817
598.375366	1152.212158	12998.518555	1810.980103	5.560956
598.715271	1161.054321	12639.709961	1799.091797	5.558469
599.055176	1167.964478	12328.084961	1784.602661	5.525373
599.395081	1175.766235	12112.383789	1768.033203	5.415450
599.734802	1172.348267	11919.047852	1746.708374	5.344526
600.074524	1169.376343	11877.290039	1745.668091	5.381924
600.414246	1169.970581	11830.924805	1750.274902	5.443268
600.753906	1171.679565	11859.531250	1749.977661	5.410799
601.093506	1175.543335	11894.973633	1748.937500	5.349110
601.433044	1175.171753	12025.747070	1753.395630	5.328970
601.772583	1180.521606	12255.713867	1766.844360	5.294019
602.112122	1184.088135	12533.531250	1777.098267	5.225015
602.451538	1182.007690	12883.793945	1788.912476	5.186429
602.790894	1171.828369	13235.840820	1812.243530	5.308475
603.130310	1162.763428	13639.378906	1830.076050	5.348507
603.469604	1161.277344	14018.026367	1855.487671	5.399579
603.808838	1175.989136	14353.949219	1875.103394	5.305178
604.148010	1180.893066	14620.398438	1879.858887	5.200830
604.487305	1176.955078	14704.434570	1878.595703	5.186780
604.826416	1161.277222	14624.410156	1867.004517	5.241925
605.165527	1153.326782	14306.171875	1856.527710	5.346379
605.504456	1154.367065	13906.051758	1835.277222	5.339767
605.843445	1158.899536	13453.695313	1813.432129	5.323656
606.182434	1161.054321	13052.164063	1797.011353	5.348172
606.521423	1167.221313	12672.106445	1771.971313	5.256463
606.860229	1170.193481	12336.257813	1751.538086	5.206352
607.199036	1173.611450	12104.209961	1740.912720	5.190029
607.537903	1172.199829	12049.523438	1749.754517	5.309713
607.876648	1169.450562	12142.328125	1753.321289	5.321035
608.215271	1166.329712	12341.161133	1760.305786	5.315302
608.553955	1161.871704	12538.583008	1758.151001	5.241228
608.892578	1160.385620	12703.760742	1772.268555	5.300728
609.231140	1157.116333	12810.235352	1774.200317	5.295441
609.569641	1162.911987	12815.734375	1777.246704	5.271982
609.908081	1165.215210	12737.566406	1776.800903	5.284887
610.246521	1173.314209	12533.753906	1768.107422	5.235653
610.584961	1165.958130	12243.899414	1764.986816	5.407401
610.923340	1162.094360	11926.254883	1746.782593	5.431806
611.261597	1164.992310	11567.002930	1741.209961	5.539484
611.599854	1172.571167	11311.473633	1724.789063	5.446526
611.938110	1181.933472	11068.503906	1707.105103	5.311970
612.276245	1177.475220	10879.032227	1693.061890	5.314474
612.614319	1171.531128	10679.306641	1674.040405	5.285245
612.952393	1164.918091	10521.785156	1665.941284	5.354604
613.290466	1167.221558	10432.770508	1664.975464	5.372093
613.628479	1168.484741	10300.661133	1665.718384	5.444853
613.966370	1174.651733	10233.045898	1661.557617	5.375190
614.304260	1174.800415	10123.522461	1647.662964	5.284135
614.642151	1180.373169	10058.657227	1638.672241	5.162023
614.979980	1183.270874	9987.326172	1636.591797	5.149001
615.317749	1174.874634	9981.084961	1635.551392	5.231272
615.655396	1176.212036	9949.655273	1641.198608	5.299932
615.993164	1166.329956	9927.289063	1631.390625	5.308331
616.330811	1167.593018	9874.831055	1629.161499	5.300974
616.668396	1164.546509	9867.698242	1627.526855	5.319686
617.005859	1166.701294	9879.215820	1641.569946	5.450420
617.343445	1175.543335	9906.930664	1638.003418	5.296525
617.680908	1171.828125	9956.862305	1631.242065	5.229506
618.018311	1172.125488	9955.153320	1633.025391	5.247620
618.355652	1168.856079	9961.840820	1632.876587	5.277167
618.692993	1175.246094	9927.364258	1624.926270	5.137958
619.030273	1176.657837	9883.748047	1606.870605	4.940948
619.367554	1174.948975	9809.816406	1604.418579	4.973668
619.704712	1168.113159	9749.631836	1605.384644	5.095502
620.041870	1164.174927	9730.758789	1615.118164	5.263979
620.379028	1170.416504	9699.329102	1617.124390	5.237572
620.716064	1169.822144	9688.182617	1620.913696	5.295521
621.053040	1171.456665	9653.780273	1618.387573	5.268968
621.389954	1165.735352	9640.851563	1620.468140	5.365505
621.726929	1168.781738	9613.286133	1628.121216	5.439508
622.063843	1172.868408	9588.393555	1626.709473	5.392902
622.400635	1169.376221	9572.938477	1614.449585	5.296246
622.737427	1171.159546	9569.818359	1610.214355	5.227677
623.074219	1163.580688	9593.744141	1612.517700	5.325366
623.410889	1169.153320	9651.032227	1622.474243	5.344582
623.747559	1170.490845	9727.118164	1618.164551	5.231894
624.084167	1168.484619	9796.888672	1613.557983	5.158235
624.420715	1164.695190	9883.375977	1615.712524	5.173000
624.757324	1157.562134	9984.874023	1621.731323	5.258330
625.093750	1166.106934	10127.609375	1632.356567	5.202807
625.430176	1168.558960	10308.387695	1634.585571	5.098855
625.766602	1173.388672	10482.924805	1648.554321	5.104074
626.102905	1171.679688	10660.731445	1651.823730	5.059979
626.439209	1176.063599	10767.058594	1669.879272	5.148743
626.775452	1172.645508	10842.104492	1670.473633	5.148459
627.111694	1172.794067	10791.281250	1675.823608	5.229820
627.447876	1171.085083	10710.663086	1665.421265	5.181950
627.783997	1172.422729	10558.491211	1661.631836	5.212077
628.120056	1170.267944	10420.807617	1654.572876	5.235424
628.456055	1165.512573	10214.766602	1652.863892	5.385541
628.792053	1163.283569	10033.319336	1641.124023	5.387131
629.128052	1159.716919	9882.188477	1629.458618	5.385419
629.463928	1153.029663	9784.851563	1618.759155	5.395494
629.799744	1156.893433	9701.409180	1617.272949	5.388012
630.135559	1160.831421	9617.967773	1614.523804	5.364610
630.471375	1170.936646	9498.117188	1606.350586	5.228828
630.807068	1171.679565	9389.932617	1600.703613	5.220380
631.142700	1171.456665	9319.196289	1609.174194	5.372257
631.478333	1169.078979	9267.925781	1612.071899	5.469827
631.813965	1165.809692	9231.815430	1607.093750	5.470912
632.149475	1160.608521	9180.324219	1588.146484	5.331086
632.484924	1160.459839	9217.327148	1592.530273	5.362760
632.820435	1158.825073	9223.493164	1601.817993	5.493009
633.155884	1164.992310	9248.682617	1606.722046	5.464457
633.491150	1161.945923	9255.889648	1605.681763	5.482319
633.826477	1163.060425	9267.778320	1589.409546	5.260506
634.161804	1158.453735	9273.574219	1590.672485	5.326091
634.497009	1166.032593	9198.454102	1582.202148	5.181122
634.832153	1175.766235	9117.612305	1592.604492	5.248631
635.167297	1178.738281	9004.078125	1579.452759	5.120729
635.502380	1164.472168	8918.184570	1572.394165	5.260990
635.837463	1163.283325	8832.661133	1565.335449	5.242304
636.172424	1166.181274	8762.222656	1567.118652	5.278241
636.507324	1181.116089	8675.958008	1567.935913	5.161147
636.842224	1177.846802	8597.123047	1558.648315	5.132596
637.177124	1176.806519	8513.383789	1564.369507	5.282613
637.511963	1175.097534	8455.055664	1559.836914	5.284912
637.846741	1171.382446	8393.458008	1564.295288	5.440442
638.181396	1176.286499	8322.500000	1550.994995	5.243455
638.516113	1176.732300	8267.367188	1547.725708	5.232161
638.850769	1182.825073	8212.085938	1533.831177	4.993500
639.185303	1177.400879	8151.083496	1539.329590	5.189922
639.519836	1178.441162	8078.563965	1540.072632	5.240942
639.854370	1174.280151	8033.387207	1542.375977	5.366527
640.188843	1169.970703	7974.093750	1533.310913	5.340001
640.523254	1156.150269	7923.270020	1519.267700	5.365908
640.857605	1159.865356	7847.556152	1515.106812	5.311870
641.191895	1164.026489	7814.342285	1516.221313	5.295911
641.526184	1172.942749	7775.185547	1514.438110	5.172415
641.860413	1168.558960	7728.077637	1518.970581	5.342032
642.194580	1162.243164	7693.377441	1513.620728	5.380039
642.528748	1164.249390	7664.028809	1515.106812	5.397990
642.862793	1160.534180	7656.078125	1516.741577	5.483873
643.196838	1169.153442	7630.889160	1525.806519	5.519462
643.530823	1164.175171	7599.607910	1533.905396	5.745227
643.864746	1171.605225	7577.391113	1532.567993	5.634949
644.198669	1169.524780	7552.276855	1529.001343	5.631999
644.532532	1172.719849	7516.091309	1526.400879	5.575600
644.866333	1174.428833	7502.494141	1529.818726	5.616091
645.200073	1181.413208	7487.931152	1528.852661	5.509212
645.533813	1180.670166	7539.199707	1529.150024	5.480510
645.867554	1182.304810	7578.060059	1517.855957	5.246466
646.201172	1175.989136	7621.824707	1520.233765	5.340574
646.534729	1180.744629	7638.691406	1521.570923	5.277626
646.868225	1173.908691	7647.310059	1534.499878	5.570351
647.201782	1172.496948	7643.892578	1531.676270	5.550261
647.535217	1167.370117	7628.214844	1530.710327	5.623726
647.868591	1175.840454	7613.947754	1531.007690	5.516640
648.201965	1171.828125	7589.874512	1529.001343	5.565139
648.535278	1174.428711	7558.740723	1530.784668	5.581744
648.868591	1173.091309	7547.596191	1523.874512	5.502909
649.201782	1183.642334	7545.738281	1517.261719	5.243860
649.534912	1185.202759	7564.313965	1520.679565	5.258990
649.868103	1177.623901	7554.283203	1532.419312	5.563970
650.201172	1168.187378	7564.686035	1544.307739	5.880098
650.534180	1168.038696	7561.416504	1540.964233	5.832997
650.867188	1169.078979	7569.738281	1535.094116	5.718398
651.200134	1169.821899	7576.500000	1527.441040	5.581975
651.533020	1169.821899	7555.769531	1533.905396	5.701323
651.865845	1173.314209	7511.187500	1537.769165	5.750430
652.198608	1171.085205	7466.234375	1545.793823	5.952339
652.531433	1169.896362	7417.640625	1542.821777	5.968961
652.864136	1174.503052	7381.752441	1542.301636	5.925307
653.196777	1239.369507	7396.019043	1686.523071	7.262937
653.529358	1242.415894	7343.783691	1690.832642	7.349446
653.861938	1233.796753	7292.366699	1683.922485	7.429571
654.194519	1166.924316	7157.506348	1530.264526	6.065190
654.526978	1166.552856	7156.466797	1528.927124	6.049741
654.859375	1166.329834	7122.287109	1524.914673	6.020608
655.191833	1176.063477	7140.416504	1529.001343	5.917454
655.524170	1174.131592	7100.665527	1518.821899	5.816052
655.856445	1177.400879	7124.664551	1527.292358	5.883235
656.188660	1181.561890	7141.308594	1535.688599	5.941976
656.520874	1179.778564	7192.131348	1538.958008	5.974025
656.853088	1172.719849	7247.710449	1542.004395	6.078767
657.185181	1168.335938	7310.049316	1545.348022	6.138549
657.517212	1169.376099	7444.686035	1555.527466	6.153502
657.849243	1172.496826	7596.486816	1556.344727	5.975225
658.181274	1170.787964	7800.820313	1564.815308	5.943069
658.513123	1174.428711	7973.277344	1581.904907	5.993312
658.844971	1179.704346	8145.436035	1595.205078	5.964926
659.176819	1179.555664	8236.605469	1606.350586	6.047781
659.508667	1172.274048	8264.543945	1611.180176	6.188514
659.840393	1170.416382	8238.537109	1616.975708	6.317936
660.172058	1171.010864	8164.383301	1615.192505	6.351465
660.503662	1179.184204	8039.852051	1607.093628	6.237139
660.835266	1176.880737	7866.280762	1601.817993	6.352397
661.166931	1174.800293	7688.474121	1588.889282	6.357226
661.498413	1168.261719	7512.525391	1580.567505	6.498875
661.829773	1167.518677	7354.558105	1568.307617	6.477879
662.161194	1172.496948	7200.825684	1561.323242	6.449985
662.492615	1170.862305	7070.795410	1547.279907	6.380032
662.823975	1166.626953	6960.976563	1542.747437	6.491159
663.155212	1166.552612	6871.738281	1537.100464	6.494931
663.486450	1169.970581	6791.045410	1537.694824	6.541885
663.817627	1170.193481	6709.387207	1535.465820	6.594323
664.148743	1160.682739	6655.963379	1531.824829	6.753833
664.479858	1152.212280	6584.707031	1533.088257	7.011070
664.810913	1158.007935	6561.524902	1532.419434	6.929033
665.141907	1165.586792	6528.980469	1536.357422	6.912986
665.472778	1176.063477	6540.274902	1539.478149	6.774801
665.803711	1174.726074	6516.869141	1543.861938	6.909883
666.134583	1176.212036	6507.804199	1542.375977	6.867816
666.465454	1181.487671	6499.185059	1544.159180	6.820086
666.796143	1188.397705	6474.813965	1536.728882	6.589175
667.126831	1185.871460	6457.501465	1536.208618	6.645709
667.457458	1182.304810	6444.869629	1535.985840	6.720697
667.788147	1178.366821	6490.714355	1536.431641	6.740237
668.118774	1175.320435	6536.633301	1534.202637	6.693924
668.449219	1161.425781	6564.794434	1536.283203	6.937476
668.779663	1161.054199	6560.113281	1542.673218	7.068251
669.110107	1160.905640	6542.429688	1548.914551	7.210019
669.440552	1168.781738	6539.828613	1550.474976	7.106496
669.770874	1167.518677	6520.361328	1549.954712	7.144541
670.101135	1177.326538	6489.228027	1554.264282	7.096098
670.431396	1182.601929	6426.219238	1546.685547	6.943367
670.761597	1184.310913	6367.743652	1549.954712	7.054086
671.091797	1177.103638	6309.192871	1542.673218	7.123211
671.421875	1172.719849	6284.003906	1548.691772	7.355723
671.751892	1174.205933	6265.576660	1544.679321	7.276496
672.081909	1178.366821	6243.880371	1551.440796	7.364978
672.411865	1181.190430	6228.797363	1552.406860	7.354305
672.741821	1175.469116	6179.979980	1549.286133	7.469602
673.071716	1176.286499	6182.654785	1542.152954	7.308022
673.401550	1179.332886	6126.779785	1536.803223	7.225350
673.731262	1180.298828	6114.519531	1540.889771	7.307961
674.060974	1176.360718	6071.274902	1533.459595	7.295304
674.390625	1170.862305	6044.154785	1542.301758	7.621941
674.720276	1172.199707	6010.197754	1546.908325	7.745117
675.049927	1170.862305	5969.480469	1561.620239	8.143134
675.379395	1166.255493	5970.075684	1553.744141	8.066260
675.708923	1167.295776	5952.911621	1549.954712	7.996023
676.038330	1166.775513	5952.762207	1553.521118	8.080791
676.367737	1175.097534	5952.911621	1557.756470	8.009080
676.697083	1176.657959	5977.431152	1567.787476	8.147219
677.026428	1177.995361	5999.944824	1562.066040	7.965050
677.355652	1178.218262	6021.714844	1563.403442	7.952626
677.684875	1181.710571	6054.408203	1559.985718	7.763156
678.013977	1185.276978	6083.238281	1568.976196	7.833856
678.343079	1183.419434	6131.088379	1578.412720	7.983422
678.672180	1181.116089	6184.437988	1590.895508	8.190147
679.001221	1178.812622	6255.546387	1605.310181	8.401023
679.330139	1178.812622	6320.040527	1611.551758	8.417038
679.659058	1174.280151	6371.310059	1622.251465	8.619757
679.987976	1175.617676	6442.416504	1625.817871	8.547891
680.316772	1175.171753	6491.605469	1636.517578	8.677732
680.645630	1171.382446	6521.252441	1638.598022	8.733213
680.974304	1171.605347	6492.497559	1641.198608	8.825461
681.302979	1170.119141	6448.361816	1636.071655	8.827796
681.631653	1173.908691	6411.433594	1633.471069	8.774419
681.960266	1169.970703	6378.220215	1632.653687	8.883657
682.288757	1170.119263	6327.768066	1637.780640	9.067336
682.617249	1169.524902	6237.861816	1631.167603	9.108366
682.945679	1176.955078	6132.128906	1624.406250	9.029980
683.274109	1177.400879	6036.799316	1617.719116	9.061168
683.602478	1180.372925	5948.081543	1606.127563	8.929964
683.930725	1174.428833	5886.484375	1605.979004	9.158427
684.259033	1181.041748	5809.506348	1596.468262	8.975471
684.587280	1178.218262	5756.900391	1594.759277	9.097400
684.915344	1177.400879	5703.922363	1593.347656	9.189104
685.243469	1173.091309	5662.907715	1597.508423	9.452884
685.571533	1172.422729	5644.406250	1596.542603	9.483932
685.899536	1175.617676	5591.502441	1592.976074	9.451298
686.227539	1175.394775	5580.134277	1589.335327	9.397617
686.555420	1181.190308	5569.880859	1594.165039	9.409976
686.883301	1179.035522	5597.595703	1594.462036	9.401853
687.211121	1175.097534	5626.053223	1598.474243	9.512041
687.538940	1168.038818	5649.532715	1614.226563	9.956227
687.866638	1161.945923	5652.728027	1611.700317	10.015057
688.194336	1166.478516	5652.356934	1610.808594	9.905086
688.521973	1171.976807	5624.716309	1601.075073	9.636725
688.849609	1173.834351	5580.802734	1603.824219	9.757045
689.177063	1173.091187	5520.097656	1604.938843	9.934369
689.504578	1169.821899	5437.621582	1604.641602	10.188381
689.832031	1176.509155	5366.142578	1605.533203	10.240133
690.159485	1177.252197	5311.084473	1605.458984	10.358592
690.486816	1182.899292	5283.889648	1600.034790	10.171580
690.814087	1186.020020	5244.880371	1601.223633	10.229562
691.141296	1190.998291	5189.822266	1594.684937	10.095134
691.468506	1183.493774	5147.172363	1601.000610	10.533317
691.795715	1176.955200	5110.020996	1596.616821	10.670089
692.122803	1175.394775	5060.163574	1600.703491	10.948109
692.449829	1181.561890	5016.399902	1594.387817	10.765147
692.776855	1181.710449	5010.975586	1589.483765	10.648866
693.103821	1173.685791	4980.511230	1586.437500	10.842412
693.430664	1163.952026	4961.563965	1588.666504	11.183725
693.757568	1163.432007	4941.502441	1598.771851	11.522809
694.084351	1163.208984	4946.629395	1598.474609	11.504554
694.411133	1170.787964	4934.443848	1598.548828	11.365568
694.737854	1173.239868	4915.199219	1603.304077	11.493022
695.064575	1180.447266	4922.406738	1610.585815	11.495008
695.391174	1177.921021	4930.431152	1614.449585	11.632975
695.717773	1179.852905	4945.737793	1611.774780	11.469334
696.044250	1173.091309	4959.483887	1618.833374	11.772209
696.370789	1178.366821	5010.381348	1633.173828	11.868613
696.697205	1169.301880	5092.782715	1638.151978	11.949850
697.023621	1177.029297	5224.744629	1647.216919	11.616124
697.349915	1171.902466	5370.897949	1661.334473	11.655931
697.676208	1171.010864	5535.329590	1693.879272	11.980527
698.002380	1163.952148	5710.535156	1732.962280	12.515116
698.328674	1164.992310	5890.720215	1768.553345	12.771811
698.654724	1169.227539	6055.968750	1795.376587	12.813223
698.980896	1168.558716	6146.543457	1804.813110	12.781364
699.306946	1168.781738	6182.060547	1809.568481	12.781790
699.632935	1174.354492	6126.259277	1807.933960	12.794662
699.958862	1180.298706	6017.777344	1799.909180	12.808542
700.284729	1182.825073	5836.924316	1777.915405	12.786370
700.610596	1179.555664	5632.071777	1756.293335	12.953074
700.936340	1176.212036	5439.776367	1726.200806	12.899741
701.262146	1174.131592	5242.948730	1706.213379	13.077064
701.587830	1184.534058	5095.755371	1690.089722	12.925776
701.913513	1182.825073	4954.431641	1688.380859	13.404256
702.239075	1182.379272	4851.225098	1675.154907	13.431354
702.564697	1164.472290	4760.872559	1665.198242	13.922976
702.890137	1156.893433	4671.561035	1645.062134	13.889470
703.215698	1158.156616	4609.518066	1633.916870	13.784713
703.541016	1163.357788	4528.973633	1626.783813	13.769427
703.866455	1169.227661	4490.708008	1622.697144	13.652632
704.191711	1165.884155	4442.410645	1624.406128	13.994148
704.517029	1163.506470	4427.253418	1620.690918	14.007962
704.842163	1166.775757	4393.965820	1623.440063	14.150524
705.167419	1165.958374	4375.092773	1622.399902	14.223198
705.492493	1166.775757	4341.433594	1618.610352	14.232545
705.817566	1158.899536	4311.860840	1616.232788	14.504879
706.142578	1160.014160	4297.074707	1628.121216	14.921837
706.467590	1164.472168	4315.873535	1639.043823	15.059068
706.792480	1171.159546	4324.938965	1646.696899	15.078333
707.117371	1173.016968	4346.783691	1642.164429	14.782041
707.442200	1170.936523	4340.690918	1642.833130	14.887482
707.766907	1171.828247	4358.449219	1646.994141	14.911277
708.091675	1168.930420	4364.318848	1642.981812	14.835485
708.416321	1163.209106	4376.430176	1649.594727	15.137011
708.741028	1162.763184	4404.814453	1658.436646	15.288884
709.065552	1170.267822	4420.566406	1666.833008	15.277525
709.390137	1180.670288	4445.086426	1667.130249	14.901898
709.714600	1178.292358	4455.116699	1669.879272	15.001931
710.039063	1168.261597	4478.373535	1677.086792	15.371843
710.363403	1163.729248	4497.766113	1689.643921	15.774111
710.687744	1173.017090	4534.249512	1699.972046	15.677433
711.012085	1178.886841	4572.366699	1712.380493	15.721137
711.336304	1180.001465	4615.759277	1717.210327	15.635818
711.660461	1172.125366	4627.722168	1718.473267	15.810523
711.984619	1170.490845	4630.248535	1722.857056	15.965459
712.308716	1170.713745	4603.425293	1718.324707	15.952724
712.632751	1169.376343	4561.592773	1717.135742	16.147537
712.956726	1179.555786	4499.772949	1715.723999	16.148588
713.280701	1185.351440	4454.596680	1712.603394	16.127636
713.604553	1181.413452	4414.547852	1714.981079	16.503107
713.928467	1162.911987	4390.324707	1708.219360	16.896116
714.252258	1157.339233	4376.876465	1714.015015	17.290554
714.575989	1169.599121	4357.260254	1713.940796	17.076523
714.899719	1180.521606	4352.282227	1723.748657	17.126987
715.223267	1180.521606	4336.232910	1729.321655	17.390692
715.546936	1174.874634	4352.950684	1725.606445	17.329094
715.870422	1174.057251	4370.486328	1725.160645	17.241220
716.193970	1171.828247	4379.550781	1714.089478	16.904867
716.517395	1172.051147	4360.009277	1722.857056	17.277702
716.840820	1169.524780	4317.582520	1708.814087	17.130859
717.164124	1167.890137	4248.853027	1708.591187	17.549742
717.487488	1162.317505	4179.379395	1694.770874	17.648075
717.810730	1158.825195	4102.922363	1690.089722	18.045074
718.133972	1163.357788	4050.984375	1685.334351	18.076319
718.457092	1162.614746	4004.544922	1677.681274	18.123827
718.780212	1170.936646	3960.112061	1675.080566	18.075018
719.103210	1175.840698	3908.917236	1660.814453	17.744608
719.426208	1185.276978	3851.555908	1649.297485	17.403301
719.749207	1184.533936	3799.841064	1644.245117	17.577713
720.072083	1177.103638	3770.788818	1648.331543	18.168278
720.394958	1168.633179	3748.720947	1647.811523	18.572172
720.717773	1170.639404	3728.807861	1637.929199	18.266577
721.040527	1165.958374	3704.956299	1632.059204	18.357668
721.363281	1168.113159	3682.665283	1635.477173	18.586370
721.685913	1162.986206	3652.201172	1646.696899	19.432261
722.008545	1164.323608	3616.164795	1648.480103	19.746649
722.331055	1167.890259	3592.610596	1647.068359	19.762201
722.653503	1169.079102	3589.044189	1647.811401	19.782612
722.976013	1168.558960	3592.833740	1660.442871	20.289940
723.298401	1163.060547	3595.508789	1665.272461	20.646355
723.620789	1155.407227	3581.019531	1663.117798	20.931232
723.943115	1154.961548	3575.000977	1649.594727	20.439053
724.265381	1159.939819	3573.589111	1645.953979	20.136070
724.587585	1168.038818	3582.282471	1643.278931	19.684845
724.909790	1176.955200	3582.208252	1646.622681	19.526739
725.231873	1168.707520	3578.939209	1649.223267	19.936497
725.553894	1170.787964	3589.266846	1660.517212	20.249474
725.875916	1200.954956	3656.659912	1719.216309	21.104382
726.197937	1206.453247	3688.981445	1737.568970	21.394146
726.519775	1208.385132	3689.798828	1737.643555	21.328909
726.841675	1172.199585	3662.158447	1690.832642	20.828979
727.163513	1177.177856	3673.823486	1686.969116	20.419048
727.485291	1167.741577	3707.408447	1700.120483	20.962547
727.806946	1171.828125	3740.398682	1718.324707	21.276293
728.128662	1170.193604	3752.213135	1726.943726	21.562584
728.450256	1174.726074	3784.832031	1731.401978	21.327713
728.771790	1173.611450	3771.531982	1728.875610	21.373409
729.093323	1166.998535	3769.079834	1727.018188	21.521990
729.414795	1166.701294	3733.117188	1725.086304	21.757385
729.736145	1166.329712	3714.615967	1721.296875	21.778055
730.057495	1177.921021	3713.649658	1718.027466	21.299852
730.378845	1180.744385	3727.098389	1724.194702	21.342293
730.700134	1184.385254	3732.076904	1725.903687	21.255259
731.021301	1179.184082	3735.494873	1743.587769	22.078836
731.342468	1170.193604	3761.203857	1753.024048	22.494331
731.663574	1161.425781	3793.525635	1768.256226	23.054993
731.984680	1154.441406	3810.169189	1765.284058	23.000952
732.305664	1162.168823	3798.726807	1772.268555	23.140007
732.626648	1169.524780	3792.485352	1777.246704	23.169313
732.947571	1170.267822	3795.977539	1785.568726	23.433699
733.268433	1173.314331	3797.760498	1774.497437	22.907045
733.589233	1171.456665	3790.701904	1774.274414	23.014942
733.909973	1177.698120	3753.699219	1775.389038	23.202278
734.230713	1180.075806	3705.476807	1771.302368	23.411196
734.551331	1175.097534	3651.309814	1757.705078	23.528173
734.871948	1172.645508	3605.911133	1736.974609	23.192253
735.192505	1161.797241	3579.310547	1732.219360	23.595409
735.513062	1167.369995	3538.889893	1724.120239	23.476515
735.833435	1171.456787	3514.147217	1712.529175	23.096197
736.153931	1173.760132	3476.995850	1701.532227	22.914375
736.474304	1175.097534	3458.865967	1697.519897	22.875452
736.794617	1179.184204	3435.237549	1710.448730	23.548405
737.114807	1178.515503	3432.562500	1719.290649	23.991301
737.434998	1173.537109	3425.206787	1722.857300	24.396128
737.755188	1160.459961	3439.621826	1727.984009	24.900558
738.075256	1162.391724	3450.024170	1724.120239	24.555017
738.395325	1163.357788	3474.395264	1736.603149	24.804674
738.715271	1170.787964	3485.614990	1740.689819	24.619629
739.035278	1166.849976	3498.394775	1758.225220	25.364094
739.355164	1163.803467	3504.041748	1747.154175	24.926979
739.675049	1167.444336	3489.330078	1744.033325	24.832788
739.994873	1166.924194	3465.924805	1745.370972	25.160793
740.314636	1171.382446	3423.646484	1752.058228	25.781868
740.634277	1171.976929	3404.104736	1745.296509	25.684889
740.953979	1177.326660	3361.751953	1733.482422	25.460049
741.273499	1175.989136	3338.049561	1732.368042	25.733734
741.593140	1171.753906	3301.864258	1731.327759	26.269712
741.912598	1170.565063	3277.121338	1723.303101	26.238941
742.232117	1181.859009	3238.484131	1707.922363	25.578964
742.551453	1180.521606	3201.406982	1702.572632	25.832788
742.870850	1182.602173	3170.051025	1693.210449	25.691643
743.190063	1177.103638	3156.528076	1698.857422	26.358864
743.509338	1185.054077	3154.447510	1698.411621	26.066784
743.828552	1183.270874	3141.890625	1706.064819	26.691957
744.147705	1178.441040	3119.748291	1701.458008	26.941483
744.466797	1171.679688	3082.225586	1707.476563	28.044178
744.785828	1175.766357	3076.132813	1700.789185	27.627451
745.104858	1175.617676	3066.399170	1699.303223	27.696777
745.423706	1178.218262	3053.098877	1685.111328	27.036018
745.742615	1174.131714	3033.928711	1677.681030	27.075499
746.061401	1178.515503	3043.216553	1677.012329	26.733337
746.380249	1178.515503	3056.368164	1676.938110	26.542158
746.698975	1181.710571	3057.036865	1687.860718	26.989977
747.017639	1176.435059	3046.708984	1683.476685	27.110554
747.336304	1167.815796	3052.132813	1681.098999	27.239748
747.654907	1166.701294	3054.807861	1675.749146	26.960758
747.973389	1166.255493	3053.469971	1674.783203	26.945942
748.291931	1166.998535	3040.095703	1680.281738	27.402914
748.610352	1170.267944	3035.934814	1685.111328	27.595676
748.928711	1180.373047	3041.804688	1689.198120	27.335146
749.247070	1190.181030	3049.606445	1688.157837	26.781219
749.565308	1187.134521	3046.337158	1682.956543	26.668530
749.883545	1176.360718	3038.684326	1674.114624	26.727573
750.201782	1173.314331	3011.415039	1677.903931	27.451685
750.519836	1165.586792	3001.681641	1688.455078	28.477194
750.837952	1164.918091	2983.923096	1700.343384	29.435064
751.155884	1158.528076	2983.031250	1701.160767	29.741394
751.473877	1160.088501	2975.526611	1702.943970	29.902174
751.791809	1167.815918	2968.690674	1704.504395	29.801544
752.109619	1164.695190	2977.458740	1708.813965	30.015982
752.427490	1167.592896	2972.628906	1703.687134	29.699919
752.745300	1169.227661	2973.372070	1701.160767	29.483953
753.062988	1176.806519	2965.941650	1702.275391	29.369993
753.380615	1181.264648	2971.960205	1704.504395	29.219917
753.698303	1171.530884	2969.879639	1711.414551	30.021076
754.015808	1178.292603	2964.901367	1713.866577	29.977127
754.333374	1175.840576	2956.654053	1713.197754	30.174816
754.650757	1177.995483	2959.923096	1712.677734	30.005835
754.968262	1165.438232	2964.530029	1703.984375	29.934334
755.285583	1165.958252	2966.758789	1705.470337	29.959570
755.602905	1163.877808	2959.551514	1709.557007	30.388550
755.920105	1166.329712	2950.858154	1713.792358	30.678280
756.237305	1162.614624	2942.908203	1716.392944	31.106010
756.554443	1165.363892	2938.152588	1706.436523	30.520988
756.871582	1171.382324	2942.313232	1709.854370	30.406158
757.188599	1176.360596	2955.761963	1710.151367	29.998335
757.505615	1179.407104	2970.771484	1725.383423	30.478239
757.822510	1171.679565	2989.718750	1739.426758	31.228546
758.139465	1172.199707	3002.498779	1746.188354	31.360374
758.456238	1162.391724	3022.634766	1755.179077	31.866123
758.773010	1169.078979	3041.879150	1757.110718	31.398531
759.089783	1165.140991	3065.135742	1762.460571	31.437960
759.406433	1169.970581	3091.513428	1756.664917	30.532461
759.723145	1166.701294	3100.801514	1763.426392	30.852854
760.039673	1170.045044	3113.209717	1767.958984	30.770111
760.356201	1171.085327	3113.432861	1786.757446	31.697321
760.672668	1171.010986	3105.927979	1788.392212	31.907375
760.989136	1167.815918	3096.417236	1796.416870	32.593616
761.305481	1167.964478	3098.943604	1795.153687	32.480373
761.621826	1167.815918	3105.110596	1801.692383	32.719673
761.938049	1169.079102	3118.114014	1803.698608	32.560703
762.254333	1171.902466	3143.599609	1804.813354	32.099804
762.570496	1172.868530	3214.558594	1820.193848	31.705366
762.886597	1176.880737	3339.758545	1857.345093	31.461061
763.202637	1180.372925	3519.348389	1917.010132	31.494011
763.518677	1176.657837	3741.364990	1987.969238	31.633688
763.834656	1171.902466	3938.490234	2061.900391	32.169518
764.150574	1161.425903	4061.461670	2116.736084	32.941326
764.466370	1164.175049	4083.083252	2142.593262	33.520008
764.782288	1162.911987	4022.006592	2130.407471	33.839226
765.097961	1162.911865	3901.487305	2096.822510	34.102058
765.413696	1158.082153	3735.049072	2033.814087	33.983051
765.729309	1160.162720	3553.378906	1973.034546	33.965664
766.044861	1169.153320	3403.733398	1920.205078	33.610420
766.360474	1177.921021	3298.520752	1884.688477	33.328663
766.675903	1179.184204	3220.205811	1867.598999	33.728931
766.991394	1176.137817	3151.401367	1850.286499	34.129555
767.306763	1170.936523	3089.581299	1840.181152	34.881111
767.622131	1166.626953	3052.355469	1823.240112	34.820133
767.937378	1167.221558	3004.133057	1806.893555	34.823235
768.252625	1172.794067	2969.731201	1791.067017	34.407043
768.567810	1174.874634	2933.991211	1767.438843	33.685329
768.882996	1175.766235	2900.778076	1756.516235	33.666435
769.197998	1175.543457	2869.496826	1743.884766	33.551178
769.513062	1179.778687	2836.952148	1750.794922	34.457241
769.828064	1180.447388	2812.952393	1747.748657	34.750355
770.142944	1175.097534	2790.884766	1754.807251	35.877850
770.457825	1165.661011	2772.977783	1745.370728	36.066925
770.772705	1152.806763	2762.203857	1738.163452	36.371178
771.087402	1152.806763	2749.646484	1725.680664	35.875481
771.402100	1159.048218	2742.216064	1714.312378	35.072983
771.716736	1164.917969	2725.126709	1715.501099	35.289070
772.031372	1167.221436	2701.126709	1709.036743	35.322605
772.345947	1164.769409	2678.464600	1699.749023	35.342625
772.660461	1173.314209	2664.792725	1691.724243	34.758129
772.974854	1168.113037	2645.771240	1691.129883	35.394981
773.289246	1173.834351	2621.771729	1695.811035	36.049671
773.603638	1168.113159	2603.790283	1688.380737	36.238480
773.917908	1170.862183	2602.452881	1686.671875	36.030529
774.232178	1172.645508	2596.656982	1684.962891	35.977055
774.546265	1176.509155	2593.610596	1683.476685	35.774963
774.860474	1182.899170	2581.870850	1672.925781	35.027630
775.174561	1181.190308	2584.620117	1666.609985	34.588097
775.488586	1182.750610	2576.595459	1655.687500	33.930382
775.802551	1174.354492	2571.320068	1656.653442	34.524757
776.116516	1165.512451	2557.128174	1651.303711	34.908436
776.430359	1159.270996	2560.471436	1654.498657	35.343098
776.744202	1164.546509	2550.812256	1649.966187	35.016350
777.057922	1166.181152	2532.236572	1654.647339	35.757420
777.371704	1175.023315	2510.168945	1656.356079	36.050957
777.685303	1172.571289	2510.317383	1662.003296	36.586315
777.998962	1175.171875	2512.695068	1663.340820	36.497978
778.312500	1167.147095	2515.667236	1656.653442	36.299522
778.626038	1171.085205	2506.825195	1651.526733	35.968193
778.939453	1167.592896	2505.859375	1650.337891	36.072411
779.252869	1167.369995	2496.199951	1653.161255	36.557819
779.566223	1164.843750	2497.017334	1656.579224	36.912266
779.879578	1162.391724	2500.880859	1654.572876	36.771397
780.192749	1162.540405	2504.595947	1663.043457	37.293766
780.505920	1161.202881	2505.859131	1662.894897	37.310059
780.819031	1164.992310	2499.840576	1659.848267	37.072075
781.132141	1170.119141	2487.803711	1656.430542	36.906509
781.445190	1172.051147	2472.943115	1651.154907	36.828865
781.758118	1172.868408	2453.104248	1651.303711	37.370872
782.071045	1169.227539	2437.723389	1639.786743	37.095840
782.383911	1172.868408	2421.376709	1638.375000	37.285023
782.696838	1173.314331	2410.157227	1641.347168	37.840927
783.009583	1165.512451	2410.974365	1644.319214	38.444111
783.322266	1162.763184	2402.281250	1640.975586	38.580509
783.634888	1162.243164	2390.243896	1635.700073	38.555099
783.947510	1171.233765	2375.754883	1641.124146	39.010555
784.260132	1171.679565	2367.358643	1644.170532	39.516537
784.572571	1168.484497	2373.229004	1636.071655	38.812141
784.885010	1163.283325	2367.061768	1622.920044	38.182835
785.197449	1162.020142	2361.934814	1611.328979	37.445065
785.509766	1164.472168	2356.956543	1612.666138	37.584892
785.822083	1163.803589	2356.064941	1617.198608	38.028156
786.134277	1173.017090	2354.950439	1625.074829	38.247311
786.446533	1174.354492	2348.857666	1629.532837	38.754971
786.758606	1182.899292	2349.229248	1616.529907	37.179070
787.070740	1178.366821	2356.882324	1617.198730	37.235989
787.382690	1173.314331	2366.095947	1615.638306	37.083401
787.694641	1167.815918	2392.696289	1639.935425	38.544132
788.006653	1161.723022	2421.154053	1654.201538	39.103252
788.318481	1166.701294	2458.008545	1679.761719	39.731861
788.630310	1171.605347	2487.580811	1694.102051	39.704136
788.942017	1171.531006	2511.877930	1702.943970	39.647419
789.253784	1171.531128	2522.726074	1701.309448	39.208134
789.565430	1168.410278	2516.558838	1693.284668	38.932980
789.877014	1172.496948	2496.125732	1684.962891	38.716743
790.188538	1173.834351	2463.952393	1680.356079	39.261658
790.500061	1173.611450	2426.726807	1666.758789	39.353706
790.811462	1170.639282	2398.566162	1655.761719	39.507439
791.122925	1168.558960	2378.281494	1643.724731	39.278904
791.434204	1169.747803	2358.516846	1643.427734	39.846252
791.745483	1172.274048	2348.783203	1645.359497	40.210945
792.056702	1172.274048	2324.635010	1636.294556	40.266941
792.367920	1168.856079	2307.916748	1628.492798	40.352261
792.678955	1161.425781	2288.969482	1623.217163	40.955521
792.990112	1166.181152	2285.254639	1621.211060	40.661308
793.301086	1173.834351	2275.297852	1615.564087	40.103893
793.612122	1183.047852	2273.514893	1601.000610	38.327866
793.922974	1181.636230	2262.740967	1592.678711	38.020599
794.233826	1171.159546	2262.443604	1588.666504	38.258320
794.544556	1171.902466	2259.471436	1589.706665	38.416340
794.855286	1166.849854	2267.644775	1599.886230	39.338516
795.166016	1173.091187	2281.019287	1606.944946	39.159019
795.476624	1162.688965	2300.412109	1618.981934	40.105801
795.787292	1162.020386	2314.975586	1626.486450	40.284832
796.097778	1162.243164	2328.052734	1634.288452	40.490772
796.408264	1169.747681	2336.894775	1643.724731	40.609882
796.718689	1166.626953	2362.900879	1652.121094	40.583862
797.029053	1173.685669	2374.046143	1661.260254	40.619015
797.339355	1171.902466	2370.108154	1663.043579	40.989716
797.649658	1185.054199	2351.458252	1654.721680	40.266277
797.959839	1180.298706	2329.167236	1648.925903	40.790325
798.270020	1177.995239	2317.724854	1645.136353	40.987011
798.580078	1170.639282	2305.910400	1651.377930	42.345715
798.890137	1164.026367	2288.449463	1642.089966	42.516346
799.200195	1162.466064	2273.737305	1637.260376	42.725330
799.510071	1168.633179	2257.614014	1626.263672	42.023743
799.820007	1171.233765	2250.926514	1628.121094	42.316422
800.129883	1170.639526	2236.586182	1627.675293	42.876045
800.439575	1164.249390	2216.821533	1626.783813	43.943253
800.749329	1164.695190	2207.013672	1622.548462	43.926426
801.058960	1162.986206	2195.868164	1616.678589	43.924900
801.368591	1158.899536	2199.732178	1611.254395	43.460865
801.678162	1158.305176	2200.177734	1602.783813	42.661518
801.987671	1164.472290	2195.645508	1591.415649	41.403652
802.297119	1161.277222	2187.769287	1583.242310	41.107487
802.606506	1159.270996	2177.589844	1587.180542	42.021175
802.915894	1159.642578	2173.354492	1582.127930	41.677063
803.225159	1168.707520	2166.072998	1579.527344	41.190498
803.534424	1174.800415	2157.156738	1566.301392	39.853256
803.843628	1176.137817	2144.673828	1568.679199	40.529354
804.152771	1176.434937	2148.537598	1572.171387	40.709328
804.461792	1169.599121	2156.785400	1575.069214	41.073311
804.770874	1166.255493	2167.261963	1579.527344	41.285633
805.079773	1162.986206	2171.719971	1583.167969	41.654377
805.388733	1171.307983	2184.574219	1595.428101	41.856731
805.697571	1170.193481	2194.456299	1605.533203	42.502735
806.006470	1175.543335	2204.338867	1614.969727	42.712704
806.315125	1173.314331	2197.502930	1617.347290	43.354610
806.623901	1171.456665	2201.292480	1618.610352	43.419899
806.932495	1174.428833	2199.211914	1610.362915	42.539158
807.241150	1178.589722	2198.171631	1614.523804	42.756161
807.549622	1187.060303	2195.645508	1606.424805	41.579483
807.858154	1181.413330	2164.958496	1601.149414	42.675831
808.166565	1171.531006	2148.908936	1590.895630	42.907108
808.474915	1170.639282	2124.314697	1581.756470	43.108711
808.783264	1170.490845	2126.320557	1574.326172	42.249714
809.091492	1167.815918	2116.438477	1569.050659	42.296562
809.399719	1171.531128	2110.271484	1567.415894	42.171913
809.707825	1174.725952	2100.314941	1565.929810	42.265396
810.015930	1182.007690	2080.476074	1564.666626	42.590137
810.323975	1171.531006	2068.513428	1563.626465	43.712727
810.632080	1169.078979	2047.262817	1564.295288	45.003822
810.939880	1171.976807	2049.343506	1546.091187	42.640594
811.247864	1171.753784	2045.999878	1540.592651	42.189365
811.555664	1169.153198	2058.185547	1537.472046	41.429184
811.863464	1165.512451	2051.424072	1553.669922	43.814468
812.171143	1170.342163	2038.643921	1556.939331	44.523365
812.478882	1167.890259	2026.755371	1557.607910	45.375885
812.786438	1170.416504	2026.086548	1555.453125	44.998260
813.094055	1169.747681	2034.482788	1555.081665	44.560928
813.401489	1168.633301	2022.594360	1553.744141	45.097004
813.708984	1157.487793	2012.489258	1546.239624	45.467972
814.016357	1154.812866	2002.012329	1540.443970	45.518337
814.323730	1162.689087	2000.154907	1529.744507	43.829300
814.630981	1165.735474	1993.616211	1535.985840	44.722668
814.938232	1169.227661	1997.108398	1535.688599	44.264942
815.245361	1165.586792	1997.703003	1544.976563	45.593365
815.552490	1166.552856	2004.910156	1537.546265	44.252422
815.859619	1159.494019	1997.925781	1538.958008	45.258781
816.166565	1155.630249	2002.458374	1546.388184	46.143711
816.473572	1156.521851	2004.835938	1554.412964	46.903748
816.780457	1157.116333	2019.696655	1560.431274	46.756798
817.087341	1162.317505	2038.941040	1550.846313	44.321056
817.394043	1168.410278	2045.628296	1555.676147	44.147049
817.700806	1171.085327	2052.687012	1554.561646	43.497684
818.007507	1169.599121	2045.256714	1559.317017	44.505741
818.314209	1164.249390	2049.566406	1562.363281	44.968513
818.620667	1169.301880	2051.275146	1573.880249	45.871952
818.927246	1174.800293	2070.445068	1580.047363	45.246407
819.233704	1168.856079	2111.163086	1588.146362	44.496143
819.540161	1165.512573	2151.063721	1608.431030	44.941193
819.846497	1155.407227	2218.530518	1646.845337	46.225880
820.152832	1159.345337	2282.133789	1683.848145	46.714302
820.458984	1161.203003	2374.566406	1720.999634	46.135941
820.765259	1170.490723	2460.534912	1766.844360	46.227379
821.071350	1171.902466	2579.939209	1821.977173	46.168873
821.377502	1165.809692	2733.076904	1901.406616	46.935005
821.683472	1164.843750	3061.346436	2047.262817	46.528755
821.989441	1168.410278	3684.671875	2347.966064	46.877308
822.295349	1174.354492	4691.474121	2834.871826	47.212421
822.601196	1172.422607	5950.607910	3458.123047	47.836159
822.907043	1171.976685	7144.578125	4031.665283	47.880116
823.212769	1166.181274	7902.614746	4391.885254	47.884449
823.518494	1168.038818	7976.173828	4412.986816	47.662804
823.824097	1167.370117	7421.504395	4137.844238	47.496166
824.129700	1170.044922	6473.476074	3681.625244	47.357651
824.435242	1168.187500	5469.869141	3219.908203	47.695782
824.740723	1167.072876	4621.926270	2823.206299	47.936428
825.046082	1171.010986	4014.501709	2520.942627	47.474453
825.351501	1169.599121	3583.248779	2306.504883	47.103180
825.656799	1171.456665	3312.118164	2175.063232	46.883007
825.962036	1172.645508	3122.794922	2093.701904	47.230042
826.267212	1178.292480	3039.278564	2055.287598	47.125290
826.572449	1180.075806	3022.857666	2061.380371	47.824680
826.877502	1180.447266	3149.097656	2129.070068	48.186455
827.182495	1179.704224	3405.516357	2251.075195	48.133938
827.487488	1178.218262	3749.092529	2405.773438	47.748550
827.792419	1181.487549	4031.739990	2541.450195	47.713760
828.097290	1180.893188	4151.590332	2598.440430	47.717659
828.402100	1175.023315	4039.987305	2553.041748	48.098980
828.706848	1168.410278	3774.503906	2424.943604	48.215202
829.011597	1168.261719	3402.544678	2254.790283	48.629856
829.316223	1172.125488	3042.473633	2069.256592	47.965996
829.620789	1172.051147	2742.439209	1922.880249	47.811691
829.925354	1169.599121	2538.478271	1809.717163	46.762203
830.229797	1171.605347	2393.216553	1754.658691	47.728226
830.534302	1175.543335	2283.619873	1703.315552	47.629581
830.838562	1182.602051	2200.920898	1661.037231	46.982845
831.142944	1181.933228	2143.559326	1624.108887	45.982079
831.447144	1180.744507	2093.850830	1604.567261	46.415489
831.751404	1170.342163	2059.968506	1592.158691	47.415024
832.055542	1171.679565	2040.427124	1586.511719	47.750599
832.359619	1172.571289	2050.829346	1579.230103	46.302883
832.663635	1177.995239	2089.912842	1588.294922	44.993065
832.967651	1176.880737	2139.175537	1605.235962	44.513927
833.271545	1173.239868	2235.248779	1660.442993	45.875614
833.575439	1174.874634	2370.479736	1739.055298	47.187878
833.879211	1174.503052	2591.456055	1852.589844	47.855278
834.183044	1178.812744	2824.692383	1969.616577	48.047489
834.486694	1172.942749	3033.928711	2067.399170	48.063576
834.790344	1172.348267	3109.717529	2104.401611	48.109226
835.093933	1163.283325	3058.596924	2071.857178	47.937916
835.397522	1163.432007	2900.258057	1995.548218	47.910164
835.700928	1165.586792	2701.572754	1892.639038	47.334564
836.004395	1171.382324	2510.020264	1801.618042	47.080372
836.307739	1166.775757	2346.554443	1722.634277	47.115490
836.611023	1168.187378	2225.143555	1664.901001	46.994724
836.914307	1167.964478	2120.451172	1617.198730	47.164360
837.217529	1180.521606	2035.894653	1575.812134	46.212646
837.520691	1180.150024	1970.210938	1550.697876	46.901176
837.823730	1178.589722	1932.539551	1519.044800	45.156197
838.126831	1169.747803	1893.530640	1498.462891	45.416260
838.429749	1159.791138	1863.512329	1476.395020	44.989960
838.732727	1162.540405	1824.280396	1466.215454	45.890388
839.035522	1171.085083	1806.373413	1454.921509	44.678364
839.338379	1173.685669	1801.098022	1454.401489	44.741837
839.641113	1169.227661	1811.871948	1460.642944	45.346279
839.943848	1166.032715	1838.546509	1481.893555	46.967190
840.246460	1170.342163	1877.852539	1511.837524	48.267189
840.549072	1176.806519	1936.626099	1545.719604	48.552723
840.851563	1168.113159	1970.285156	1564.518066	49.416447
841.154053	1169.896362	1980.761841	1574.697632	49.922123
841.456482	1161.574463	1951.040894	1556.790649	50.061176
841.758850	1163.952148	1899.994995	1537.992065	50.817684
842.061157	1162.763184	1834.459961	1497.125488	49.778755
842.363403	1164.918091	1780.293335	1474.611816	50.325996
842.665588	1171.159546	1744.033569	1453.286987	49.247726
842.967712	1172.051147	1722.039917	1433.299438	47.500660
843.269775	1172.868530	1697.445679	1415.838379	46.317276
843.571777	1174.354492	1680.578735	1391.169922	42.829918
843.873840	1170.342163	1655.910278	1384.482544	44.100998
844.175659	1175.617676	1646.251099	1379.950195	43.416492
844.477600	1168.707397	1631.910767	1385.522827	46.807827
844.779297	1176.657837	1619.204956	1382.848022	46.591690
845.081116	1177.177979	1605.607422	1378.463989	46.982300
845.382751	1182.825073	1591.267090	1372.148438	46.352570
845.684387	1179.407104	1585.620117	1358.922485	44.192425
845.985962	1170.490845	1576.183594	1356.470581	45.842510
846.287537	1168.558960	1568.307495	1346.068115	44.405205
846.588989	1162.540405	1559.985474	1344.433472	45.765587
846.890381	1165.438110	1557.385132	1336.854492	43.734581
847.191711	1168.707520	1550.474976	1335.814331	43.771885
847.493042	1171.010864	1543.490356	1338.637817	45.003002
847.794250	1176.509277	1539.478027	1340.718262	45.240528
848.095459	1175.691895	1545.199341	1341.684204	44.922588
848.396606	1175.617554	1546.610962	1340.569702	44.462284
848.697693	1176.955200	1546.090942	1337.151733	43.397732
848.998657	1172.645630	1536.208618	1332.767944	44.042522
849.299622	1180.373169	1541.112793	1326.303589	40.453117
849.600464	1176.583618	1531.602051	1326.675171	42.277115
849.901367	1176.880737	1534.276978	1320.507935	40.187103
850.202087	1161.723022	1531.230469	1326.229370	44.520443
850.502808	1164.397949	1528.629761	1325.783447	44.308456
850.803467	1162.168823	1521.868164	1330.835938	46.891136
851.104065	1169.227661	1512.654663	1325.263184	45.434845
851.404663	1164.472290	1514.958130	1313.449219	42.505833
851.705139	1169.896362	1512.134644	1310.997192	41.228828
852.005615	1172.645508	1512.580444	1310.997192	40.699459
852.306030	1173.017090	1509.756836	1318.650391	43.248028
852.606384	1163.877930	1509.385376	1312.706177	43.075264
852.906616	1159.345337	1501.138062	1308.173828	43.543491
853.206909	1162.391724	1497.274048	1302.972534	41.979168
853.506958	1166.329834	1495.267944	1309.065308	43.392807
853.807129	1165.586792	1496.976929	1315.752563	45.313892
854.107178	1168.781738	1491.924316	1310.551392	43.872166
854.407166	1173.239990	1492.964478	1309.585449	42.644672
854.707092	1173.165649	1493.707642	1308.099487	42.095528
855.007019	1166.404175	1486.574585	1315.306763	46.507294
855.306763	1167.295776	1483.825317	1315.306763	46.760559
855.606567	1164.769409	1475.800781	1309.957031	46.679413
855.906250	1165.363892	1475.503418	1316.792847	48.826073
856.205933	1162.466064	1472.457031	1317.164307	49.904114
856.505493	1171.531006	1474.314453	1320.507935	49.202469
856.805054	1174.800415	1486.203125	1313.151855	44.428463
857.104492	1173.760132	1486.648926	1317.610107	45.974792
857.403931	1168.930542	1488.060669	1313.895020	45.424881
857.703308	1162.614624	1478.475586	1307.950806	46.012707
858.002563	1168.113037	1471.119629	1308.322266	46.272667
858.301819	1175.766235	1470.822388	1313.449219	46.663315
858.601013	1181.190430	1470.228027	1319.839233	47.969124
858.900208	1178.812622	1475.280640	1310.179810	44.310745
859.199219	1177.103760	1461.831665	1304.012695	44.572006
859.498291	1173.611450	1459.676880	1296.062378	42.805218
859.797302	1166.255493	1453.509766	1295.765137	45.085369
860.096191	1163.952148	1458.859497	1293.015991	43.764202
860.395020	1156.967651	1459.231079	1304.235718	48.721760
860.693787	1158.899536	1450.389160	1308.916748	51.465714
860.992554	1158.973999	1450.314819	1316.718506	54.144321
861.291260	1167.741577	1440.581177	1298.960083	48.093643
861.589844	1171.159546	1449.720337	1299.777466	46.172298
861.888428	1167.741577	1449.200195	1291.604248	44.007420
862.186890	1172.571289	1449.646118	1290.266846	42.477894
862.485413	1182.453613	1443.182007	1289.152222	40.923279
862.783813	1182.750854	1437.163452	1287.294556	41.092186
863.082153	1185.054077	1443.553345	1295.319336	42.655926
863.380371	1173.983032	1449.869019	1295.839355	44.169086
863.678589	1179.927124	1450.834961	1300.297485	44.432217
863.976746	1173.165649	1450.314941	1303.195435	46.916874
864.274902	1169.524780	1451.652222	1297.474243	45.351654
864.572937	1168.113037	1459.231079	1296.954102	44.257328
864.870911	1176.732178	1459.008179	1293.387451	41.326672
865.168884	1180.150024	1463.094849	1290.489624	38.996861
865.466736	1175.543335	1465.621094	1286.774536	38.345306
865.764587	1158.973877	1465.769897	1291.307007	43.133915
866.062317	1162.317505	1458.562500	1290.489624	43.265583
866.360107	1169.450562	1456.036133	1299.628906	45.423901
866.657715	1176.286377	1459.825562	1287.443237	39.203350
866.955322	1174.503052	1463.020508	1285.214233	38.372437
867.252808	1168.930420	1463.540649	1279.046997	37.377037
867.550293	1167.444458	1451.354980	1278.229614	39.021152
867.847717	1170.713623	1439.986694	1284.471069	42.246128
868.145081	1171.902466	1429.064331	1282.093384	42.848858
868.442383	1170.787964	1433.893921	1288.632202	44.789650
868.739624	1169.970581	1439.243652	1290.712524	44.839962
869.036804	1169.301880	1446.302368	1291.529907	44.125565
869.333984	1175.171875	1445.336548	1296.656738	44.966969
869.631042	1170.044922	1442.438843	1292.124390	44.817249
869.928101	1171.902466	1444.222046	1287.666138	42.510227
870.224976	1168.781738	1445.856567	1281.201782	40.573895
870.521851	1169.301880	1456.853516	1287.666138	41.162785
870.818726	1171.233765	1455.664551	1293.536011	42.998947
871.115479	1169.673462	1455.590210	1297.994263	44.880478
871.412231	1166.775635	1446.822632	1300.891968	47.890652
871.708862	1164.026367	1444.222046	1294.279175	46.486374
872.005493	1164.843750	1447.268188	1291.604126	44.882935
872.302063	1169.376221	1448.828735	1279.864380	39.537365
872.598572	1172.868530	1450.983521	1290.489624	42.292252
872.895020	1173.834351	1449.869019	1293.387329	43.310856
873.191406	1176.137817	1449.646118	1303.344116	46.509117
873.487671	1173.016968	1445.262329	1301.486572	47.188904
873.783997	1169.524780	1450.017578	1305.424561	48.450363
874.080200	1164.992310	1452.098022	1305.944702	49.094250
874.376343	1164.769409	1458.042358	1304.904297	47.783092
874.672424	1169.599121	1455.441772	1301.263550	46.061855
874.968445	1176.137817	1455.070313	1298.217163	43.766628
875.264465	1171.679688	1451.429321	1298.588745	45.365227
875.560364	1167.072876	1445.484985	1302.303833	48.572224
875.856201	1161.351440	1433.968140	1296.285278	49.495808
876.152039	1162.614624	1433.670898	1294.279175	48.574619
876.447754	1165.066650	1434.488281	1284.545532	44.346432
876.743469	1166.404175	1442.513062	1284.693970	42.841721
877.039063	1172.199707	1435.900024	1284.396851	42.547215
877.334595	1171.605225	1436.940430	1287.666016	43.741196
877.630127	1175.692017	1443.553345	1296.582397	45.131702
877.925537	1174.280151	1452.246704	1300.520508	45.415665
878.221008	1171.902588	1461.757446	1302.675293	45.116615
878.516296	1164.472290	1460.865845	1291.678467	42.917995
878.811646	1161.128662	1472.754272	1289.969604	41.344788
879.106812	1165.958374	1481.447632	1303.715576	43.664627
879.401978	1174.280151	1499.057251	1319.096191	44.589363
879.697083	1176.880737	1513.620728	1333.733887	46.579899
879.992126	1177.252319	1542.078735	1339.157959	44.378815
880.287109	1170.416504	1587.700562	1361.002930	45.673065
880.582031	1167.592896	1664.009399	1398.228638	46.460129
880.876892	1165.586792	1779.475952	1470.525269	49.673214
881.171753	1165.140991	2011.077515	1588.220703	50.013176
881.466492	1164.546509	2380.361816	1778.286987	50.479748
881.761230	1162.540405	2903.601563	2045.553833	50.716969
882.055786	1167.518677	3421.491455	2325.006592	51.353237
882.350403	1165.512451	3785.946289	2517.524902	51.594986
882.644958	1168.261597	3862.329834	2549.623535	51.274197
882.939453	1165.363770	3661.935547	2448.126221	51.380955
883.233826	1167.518677	3318.434326	2275.446533	51.509594
883.528137	1163.580688	2942.536377	2089.318359	52.038265
883.822449	1165.066772	2623.331787	1910.843140	51.141346
884.116577	1163.877808	2350.343506	1755.921875	49.899803
884.410828	1167.072876	2137.466553	1635.551392	48.277161
884.704956	1160.385620	1971.622681	1564.220825	49.780170
884.999023	1156.447632	1850.880737	1517.781738	52.032963
885.292969	1159.048218	1764.986816	1479.144165	52.826466
885.586914	1167.147095	1708.739624	1442.958862	50.926067
885.880798	1181.190308	1666.387085	1416.358398	48.468601
886.174622	1182.230591	1633.693848	1404.692993	49.275860
886.468384	1183.345093	1612.071777	1387.008789	47.504318
886.762085	1175.171875	1606.350586	1379.430054	47.372047
887.055664	1177.252319	1583.316528	1359.888306	44.977119
887.349304	1173.239868	1561.248657	1343.913330	43.987011
887.642822	1176.063477	1525.434937	1322.142578	41.811974
887.936340	1171.605347	1507.825073	1313.746460	42.276257
888.229736	1170.490845	1489.323853	1307.133545	42.857136
888.523071	1174.205933	1479.441528	1303.046875	42.210327
888.816284	1175.914917	1463.392090	1304.087036	44.585148
889.109619	1181.264648	1452.023804	1299.480225	43.660786
889.402710	1176.583618	1437.237427	1293.907593	45.011417
889.695862	1174.874634	1428.767090	1283.208130	42.669048
889.988892	1173.908691	1407.665039	1279.864380	45.327404
890.281921	1177.846680	1386.934570	1275.480591	46.695152
>>>>>End Processed Spectral Data<<<<<
