Jaz Data File
++++++++++++++++++++++++++++++++++++
Date: Fri Jun 04 12:55:08 2021
User: jaz
Dark Spectrum Present: Yes
Reference Spectrum Present: Yes
Processed Spectrum Present: Yes
Spectrometers: JAZA3586
Integration Time (usec): 40000 (JAZA3586)
Spectra Averaged: 10 (JAZA3586)
Boxcar Smoothing: 1 (JAZA3586)
Correct for Electrical Dark: No (JAZA3586)
Strobe/Lamp Enabled: Yes (JAZA3586)
Correct for Detector Non-linearity: No (JAZA3586)
Correct for Stray Light: No (JAZA3586)
Number of Pixels in Processed Spectrum: 2048
>>>>>Begin Processed Spectral Data<<<<<
W	D	R	S	P
191.335022	0.000000	0.000000	0.000000	0.000000
191.713211	424.640045	428.652374	416.095245	-212.963577
192.091385	846.753845	859.013672	846.456604	-2.424514
192.469528	1283.133667	1284.322388	1271.170898	-1006.356567
192.847641	1300.743530	1286.997437	1282.316284	134.054413
193.225739	1322.068359	1296.508179	1282.539185	154.651398
193.603790	1320.879517	1312.483276	1293.387451	327.433044
193.981842	1316.569946	1320.507935	1301.635132	-379.249847
194.359863	1311.517334	1326.526489	1312.929077	9.405880
194.737854	1320.433716	1328.755615	1314.860962	-66.964928
195.115829	1324.743164	1333.882446	1320.062134	-51.218796
195.493774	1330.464478	1333.882446	1312.780518	-517.382141
195.871704	1333.287964	1328.012573	1313.077637	383.105804
196.249603	1341.015503	1325.783569	1320.210571	136.587601
196.627457	1339.083618	1321.325317	1324.668823	81.172150
197.005310	1337.448975	1324.074585	1331.653442	43.333061
197.383133	1336.260132	1323.703003	1329.870117	50.887547
197.760910	1337.746216	1323.257202	1324.148804	93.846359
198.138687	1332.767944	1327.120972	1318.650391	250.002167
198.516449	1331.504761	1324.891846	1307.207764	367.417358
198.894180	1329.275757	1324.594604	1313.597778	334.917084
199.271866	1323.405762	1314.043579	1312.483276	116.666016
199.649536	1314.786621	1314.340820	1319.319214	-1016.730530
200.027191	1305.350220	1314.266479	1316.792847	128.334381
200.404816	1308.693726	1323.405762	1310.551392	12.626845
200.782410	1306.984863	1334.402466	1308.025146	3.794216
201.159988	1308.470825	1347.999878	1313.969238	13.909802
201.537537	1319.021973	1351.120605	1318.204468	-2.546853
201.915070	1320.730835	1354.910034	1315.529663	-15.217360
202.292557	1328.607056	1349.931763	1309.065308	-91.639000
202.670029	1321.696777	1358.328125	1311.665894	-27.383333
203.047485	1324.445923	1354.315674	1309.288208	-50.746037
203.424911	1316.644165	1357.807861	1307.579224	-22.021690
203.802292	1313.523438	1351.194946	1305.721802	-20.709644
204.179688	1312.409058	1339.603638	1309.139648	-12.022283
204.557037	1314.340820	1338.266357	1312.483276	-7.763855
204.934357	1311.665894	1337.300415	1317.684448	23.478319
205.311661	1305.201538	1348.891724	1319.096191	31.802689
205.688934	1300.371948	1336.185913	1321.548218	59.128525
206.066177	1294.873535	1337.968994	1315.826782	48.620544
206.443390	1302.229492	1342.129883	1313.969360	29.422941
206.820587	1311.814575	1350.749146	1308.991089	-7.251875
207.197769	1314.340820	1357.807861	1310.774292	-8.205132
207.574921	1309.808350	1355.132935	1313.374878	7.868860
207.952042	1303.566895	1349.931763	1315.827026	26.442719
208.329147	1304.681519	1337.448853	1310.254150	17.006668
208.706223	1313.077759	1336.111450	1318.353149	22.902931
209.083267	1313.077759	1348.148438	1310.254272	-8.050846
209.460297	1318.798950	1357.064819	1312.631836	-16.116488
209.837280	1305.944580	1354.687134	1306.018921	0.152517
210.214264	1301.635010	1349.783203	1302.823853	2.469133
210.591217	1299.034546	1337.449097	1308.842407	25.531631
210.968124	1302.378052	1341.387085	1308.247925	15.047471
211.345016	1308.842407	1343.096069	1324.446167	45.553551
211.721893	1307.505005	1352.532593	1315.009644	16.666758
212.098724	1305.573120	1352.086670	1311.368774	12.460142
212.475555	1302.675415	1353.349731	1305.944702	6.451566
212.852356	1304.161377	1352.458130	1312.557739	17.384941
213.229126	1305.350220	1356.098999	1313.895142	16.837690
213.605865	1304.458496	1352.681030	1315.232544	22.342352
213.982590	1309.362549	1356.173218	1312.409058	6.508151
214.359283	1309.659668	1347.479858	1312.929077	8.644613
214.735931	1311.220093	1341.461304	1309.065308	-7.125327
215.112579	1301.189331	1335.740112	1307.281982	17.633904
215.489197	1299.034546	1342.055786	1306.241821	16.752831
215.865799	1299.703247	1345.102173	1304.087036	9.656152
216.242355	1297.325562	1344.582153	1302.675171	11.320345
216.618896	1293.758911	1341.164185	1294.947754	2.507828
216.995407	1295.319336	1343.764771	1296.656860	2.760889
217.371902	1300.148926	1345.770874	1298.291382	-4.071601
217.748367	1297.028198	1343.616089	1298.217041	2.551828
218.124802	1300.074585	1346.142456	1298.811523	-2.741741
218.501236	1296.433960	1348.074219	1302.526611	11.798259
218.877609	1302.303711	1352.755371	1312.929077	21.060490
219.253983	1296.136719	1351.938110	1318.724609	40.479080
219.630295	1302.155151	1357.807983	1319.244751	30.707512
220.006592	1306.910522	1352.903931	1308.396606	3.231080
220.382889	1313.597778	1354.241333	1298.960205	-36.014500
220.759140	1318.278809	1349.931763	1300.371948	-56.572479
221.135391	1308.470825	1357.956421	1304.309937	-8.408282
221.511581	1302.749634	1357.064819	1310.700073	14.637600
221.887772	1295.913818	1357.287720	1307.876465	19.491423
222.263931	1305.944702	1350.080444	1309.213867	7.407069
222.640060	1308.025024	1354.018555	1314.489380	14.054923
223.016159	1309.436890	1356.619019	1315.158203	12.126019
223.392212	1306.464722	1357.510742	1319.987915	26.492161
223.768265	1308.470825	1349.411743	1315.975464	18.330412
224.144302	1308.025146	1348.520020	1314.415039	15.779510
224.520294	1308.470947	1357.584961	1311.888794	6.959005
224.896286	1302.006714	1370.885254	1312.631958	15.426059
225.272217	1302.006714	1379.801636	1314.712402	16.332285
225.648148	1308.768188	1379.801392	1322.142700	18.828535
226.024048	1314.043579	1373.485718	1317.015747	5.000103
226.399902	1316.569824	1362.711914	1313.895020	-5.796887
226.775772	1310.774292	1361.597290	1308.173706	-5.116947
227.151581	1307.356323	1365.683960	1318.501831	19.108450
227.527374	1293.164551	1384.631226	1333.659546	44.272949
227.903137	1293.015991	1398.674438	1342.501587	46.835438
228.278870	1296.731079	1412.197388	1342.427368	39.575432
228.654572	1310.031250	1420.890991	1339.455200	26.541601
229.030273	1309.585327	1435.454102	1339.975220	24.144108
229.405930	1306.910522	1448.977417	1344.879028	26.725794
229.781555	1302.823853	1453.138306	1345.919434	28.670284
230.157181	1296.879761	1451.578003	1345.770874	31.604181
230.532761	1295.839478	1445.410767	1341.684204	30.650753
230.908325	1295.913696	1437.311890	1342.278687	32.790371
231.283859	1301.040527	1427.503906	1342.204468	32.550087
231.659332	1296.136719	1414.277954	1343.244751	39.874336
232.034821	1297.845581	1410.934204	1346.736938	43.232780
232.410263	1298.514282	1407.590820	1344.136230	41.825630
232.785690	1299.331665	1412.940552	1340.941284	36.625320
233.161087	1296.433960	1418.364746	1333.659424	30.529995
233.536469	1301.114868	1417.473022	1345.473633	38.122608
233.911804	1303.789917	1419.256348	1351.120605	40.990864
234.287140	1300.594849	1418.438965	1350.972046	42.749012
234.662430	1303.789917	1429.955933	1343.616089	31.566481
235.037704	1302.006714	1435.008423	1347.702759	34.357487
235.412933	1312.854858	1436.717407	1351.640747	31.313652
235.788162	1297.251343	1435.082886	1354.166992	41.293633
236.163345	1301.858032	1437.088867	1351.492188	36.703281
236.538513	1295.616577	1442.884644	1360.482788	44.046352
236.913635	1300.000366	1450.166138	1368.284668	45.472614
237.288742	1291.975708	1453.212524	1373.634399	50.645191
237.663834	1286.997437	1458.785522	1375.492065	51.513832
238.038879	1291.529907	1458.116699	1375.566406	50.446075
238.413910	1300.966309	1468.964844	1376.532227	44.980106
238.788910	1313.597778	1468.370239	1376.829468	40.854614
239.163879	1314.786621	1478.104004	1385.894409	43.539631
239.538834	1312.334717	1478.772583	1389.683960	46.473343
239.913757	1305.721802	1495.936646	1393.770508	46.289082
240.288651	1300.223267	1508.345215	1386.191406	41.306618
240.663528	1298.960327	1529.298706	1396.370972	42.290237
241.038361	1301.040649	1541.484253	1403.801270	42.737930
241.413177	1309.288208	1571.651245	1424.531860	43.925262
241.787979	1310.551392	1610.140015	1444.816406	44.816460
242.162735	1307.950806	1656.876343	1469.484985	46.294743
242.537476	1300.074707	1675.006226	1489.769531	50.594524
242.912170	1300.074829	1676.789429	1505.744629	54.595654
243.286865	1295.913696	1665.941284	1509.905640	57.831348
243.661514	1297.771362	1655.390503	1507.305176	58.591331
244.036148	1296.359741	1646.994141	1494.227661	56.431404
244.410751	1299.257324	1641.421509	1484.642578	54.180202
244.785339	1299.257446	1636.963257	1481.150391	53.861362
245.159882	1297.325562	1650.189087	1488.654907	54.221912
245.534378	1295.170776	1678.275513	1511.837524	56.555485
245.908890	1290.563965	1730.956055	1546.091187	58.022663
246.283356	1291.827148	1793.964844	1590.524048	59.485058
246.657791	1297.102539	1862.992188	1631.464844	59.086132
247.032196	1304.458618	1920.130859	1669.953735	59.365211
247.406586	1302.898071	1966.570190	1696.108276	59.247662
247.780960	1307.876587	1974.817749	1704.281616	59.436283
248.155289	1313.226440	1975.709351	1694.102051	57.492142
248.529602	1318.056030	1928.229858	1662.374634	56.429592
248.903870	1310.105591	1877.183960	1633.248047	56.983738
249.278122	1302.155151	1814.621094	1604.567261	59.011162
249.652344	1301.040649	1775.983765	1585.397095	59.871685
250.026550	1304.087036	1756.293457	1573.657227	59.612198
250.400711	1299.851807	1741.878540	1560.431519	58.951122
250.774857	1297.325562	1741.061523	1557.236328	58.573292
251.148987	1304.978638	1754.658691	1558.276733	56.328514
251.523071	1309.882690	1771.896973	1567.713257	55.805756
251.897125	1315.455444	1790.844116	1582.870728	56.251926
252.271164	1306.464722	1793.741821	1592.604492	58.722187
252.645187	1298.662964	1794.931030	1602.783813	61.281567
253.019165	1299.851807	1788.912476	1606.796387	62.762066
253.393112	1298.737183	1778.287109	1600.332031	62.891232
253.767044	1297.697144	1760.008667	1582.796509	61.668236
254.140930	1299.257324	1736.677734	1557.756470	59.096272
254.514801	1303.418335	1718.250610	1552.183960	59.967762
254.888657	1312.631958	1716.095703	1548.394409	58.434605
255.262466	1300.966431	1722.931274	1557.533691	60.802994
255.636276	1295.245117	1747.228516	1565.929810	59.888195
256.010010	1289.746704	1772.268555	1577.000977	59.531868
256.383759	1302.303711	1798.571655	1597.285645	59.440052
256.757446	1302.526733	1826.509399	1616.530151	59.926300
257.131134	1311.442993	1860.763062	1648.257324	61.314770
257.504791	1309.882690	1901.332397	1674.857788	61.708561
257.878418	1315.752563	1956.539063	1719.290649	62.975433
258.252014	1311.443115	2031.956421	1776.503906	64.545761
258.625580	1306.984863	2133.454102	1842.707642	64.820656
258.999115	1300.520508	2256.276367	1921.245483	64.945976
259.372650	1303.269653	2378.578857	2008.476929	65.581810
259.746124	1300.000366	2486.614990	2091.547119	66.706306
260.119598	1304.235718	2543.679443	2142.741943	67.651817
260.493042	1300.074707	2545.462646	2147.794434	68.068726
260.866425	1304.904419	2502.367188	2120.525391	68.112427
261.239838	1308.025024	2416.175781	2070.222412	68.781021
261.613159	1309.882690	2321.439941	2005.876343	68.804176
261.986511	1304.087158	2227.075439	1946.508423	69.602318
262.359802	1299.554565	2161.020508	1898.806030	69.561829
262.733063	1297.102661	2133.156982	1869.382202	68.450043
263.106293	1298.142822	2118.519287	1858.608276	68.318077
263.479523	1302.303711	2111.980469	1844.044922	66.908333
263.852692	1305.127319	2108.339600	1847.983032	67.585587
264.225861	1301.932251	2105.144775	1841.221558	67.141548
264.598969	1298.291504	2114.061279	1852.218140	67.902321
264.972076	1299.777466	2131.002197	1861.951782	67.632050
265.345154	1303.864258	2167.113037	1883.722534	67.171631
265.718201	1300.223267	2210.728760	1914.706665	67.488159
266.091217	1305.573120	2258.728516	1953.641479	67.991890
266.464203	1305.424438	2308.808350	1988.266602	68.053925
266.837158	1313.151978	2347.966064	2021.108398	68.413872
267.210114	1304.235718	2380.213379	2035.300171	67.944206
267.583038	1310.402832	2390.541504	2052.389648	68.693665
267.955902	1301.783569	2405.402100	2064.054932	69.070183
268.328766	1302.749512	2389.129883	2080.550537	71.595642
268.701569	1293.981812	2403.024170	2090.581299	71.827690
269.074371	1292.272949	2419.742432	2097.342773	71.405022
269.447144	1295.170776	2463.878174	2113.838135	70.048958
269.819885	1302.229614	2532.608398	2149.874756	68.893021
270.192596	1308.768066	2613.747070	2216.598877	69.566696
270.565277	1311.442993	2737.089111	2301.452393	69.442856
270.937927	1304.309937	2847.577393	2380.956299	69.764084
271.310577	1307.653442	2934.437500	2439.209717	69.557869
271.683136	1304.458496	2992.616455	2485.946045	69.986786
272.055725	1313.151978	2996.406006	2503.853271	70.738060
272.428284	1309.437012	2981.619873	2498.057373	71.081963
272.800812	1299.331665	2935.626221	2460.163086	70.942696
273.173279	1293.981812	2876.704102	2423.606201	71.372246
273.545776	1289.598022	2841.781982	2402.207031	71.680229
273.918152	1304.012817	2807.454102	2382.367920	71.725784
274.290558	1303.715698	2797.943359	2374.937744	71.690681
274.662964	1307.430786	2797.794922	2361.934814	70.754791
275.035278	1300.743408	2814.810303	2370.479736	70.653175
275.407593	1303.269653	2844.976807	2399.086182	71.078125
275.779907	1307.430664	2886.363525	2432.374023	71.247070
276.152161	1311.220215	2931.316650	2463.878174	71.147491
276.524384	1308.322388	2975.526611	2493.153564	71.066948
276.896606	1306.316162	2998.634766	2521.908691	71.830002
277.268799	1304.830200	3004.430664	2547.394531	73.109200
277.640930	1307.430664	3003.984619	2547.914551	73.117859
278.013031	1306.093140	3007.253906	2542.341797	72.670891
278.385162	1302.006470	3010.968994	2531.939453	71.969574
278.757233	1295.839478	3017.210693	2540.855713	72.327003
279.129272	1299.851807	3044.033936	2574.217773	73.063812
279.501282	1301.932251	3075.240967	2610.328857	73.782791
279.873230	1305.052979	3142.262451	2658.848389	73.687592
280.245178	1300.297607	3229.121826	2710.117432	73.092186
280.617126	1299.034546	3337.752197	2787.912109	73.030098
280.988983	1301.412231	3441.033203	2857.385498	72.721909
281.360870	1298.440063	3537.775391	2940.010010	73.306122
281.732697	1297.028320	3619.954346	3002.647217	73.425453
282.104492	1296.136597	3657.179932	3046.188721	74.121979
282.476288	1297.325317	3658.443359	3046.188721	74.069290
282.848053	1299.851685	3638.975586	3029.099365	73.927147
283.219757	1300.891968	3636.969482	3022.634766	73.702293
283.591461	1302.452393	3626.269775	3020.777100	73.944054
283.963135	1295.839478	3662.678467	3050.423828	74.131973
284.334747	1295.467896	3707.408447	3087.946533	74.316872
284.706360	1293.758911	3793.897217	3156.305420	74.497742
285.077942	1301.040649	3872.806396	3229.790771	74.997116
285.449524	1294.204834	3949.263672	3289.901611	75.165825
285.821014	1294.427734	3972.817627	3298.520752	74.824547
286.192535	1291.604248	4002.835938	3304.390625	74.238815
286.563995	1296.359497	4000.607422	3300.972656	74.128304
286.935425	1295.096558	3988.124268	3294.285889	74.235748
287.306824	1296.285278	3911.889648	3250.818359	74.725868
287.678223	1298.662964	3856.534180	3204.899170	74.524330
288.049561	1297.696899	3808.534424	3185.803467	75.198280
288.420898	1299.926147	3807.197266	3177.629883	74.890335
288.792145	1302.155151	3832.608643	3205.493408	75.217278
289.163452	1306.761841	3916.496826	3261.740967	74.911026
289.534668	1297.696899	4027.579102	3341.616211	74.872070
289.905914	1293.684692	4122.537598	3424.389648	75.320457
290.277039	1295.988159	4208.877441	3482.048584	75.047844
290.648193	1300.594849	4249.224121	3522.394775	75.350258
291.019318	1296.508179	4258.585938	3527.819092	75.329254
291.390381	1291.975708	4208.431641	3500.475342	75.725449
291.761475	1296.582397	4126.996094	3458.048828	76.365738
292.132507	1305.870239	4090.067627	3412.129639	75.650505
292.503510	1305.127319	4095.565674	3414.656250	75.598473
292.874481	1309.065308	4156.419434	3451.212891	75.232918
293.245422	1304.904297	4233.174316	3530.567627	76.006081
293.616364	1302.898193	4345.297363	3609.328857	75.809601
293.987213	1296.582520	4482.312012	3702.578857	75.524185
294.358093	1288.632202	4586.261719	3783.940674	75.669769
294.728943	1293.238892	4688.427246	3874.813232	76.036255
295.099731	1297.399780	4763.918945	3949.412842	76.503639
295.470490	1302.006714	4871.286621	4027.133057	76.349480
295.841248	1306.018921	4955.100098	4093.336670	76.384102
296.211975	1302.823853	5066.331543	4183.168457	76.533516
296.582642	1301.709351	5171.172363	4261.780762	76.498245
296.953308	1296.508179	5220.955078	4306.882813	76.708252
297.323883	1291.901489	5207.803223	4298.189453	76.771286
297.694519	1294.724976	5113.513184	4228.345215	76.820709
298.065063	1293.758911	5003.545410	4148.246582	76.944794
298.435608	1300.817749	4873.887207	4035.232422	76.528450
298.806122	1295.839478	4701.059082	3923.703857	77.171654
299.176575	1297.771362	4553.122559	3805.562500	77.035965
299.547028	1290.786987	4430.819824	3725.612549	77.541412
299.917450	1298.142822	4389.582031	3682.368408	77.123482
300.287872	1299.851929	4382.077637	3676.870117	77.120186
300.658234	1305.796021	4389.433105	3662.604248	76.429489
301.028564	1299.331665	4372.121094	3652.870361	76.592896
301.398865	1299.851807	4353.173828	3619.062500	75.956963
301.769135	1297.251099	4301.013184	3591.867920	76.391426
302.139374	1298.365845	4275.081543	3557.391357	75.889854
302.509583	1288.632202	4232.654297	3533.242920	76.243004
302.879791	1284.322632	4192.308105	3489.255859	75.823395
303.249939	1287.889038	4135.317871	3466.593506	76.514809
303.620087	1289.746460	4085.089111	3435.089111	76.747040
303.990173	1295.244995	4064.729736	3448.983643	77.766762
304.360260	1297.696899	4069.262451	3436.872314	77.182922
304.730286	1305.350220	4063.912842	3447.869141	77.667953
305.100281	1308.842407	4046.749268	3446.605713	78.080208
305.470276	1302.898315	4046.303467	3467.930664	78.917694
305.840179	1299.480347	4073.498047	3497.875000	79.249481
306.210144	1295.468018	4113.621582	3517.267578	78.838837
306.579987	1295.913696	4158.054688	3540.895752	78.437149
306.949890	1295.988159	4187.181641	3569.874023	78.648689
307.319702	1296.359497	4263.118652	3635.112061	78.831894
307.689484	1302.898193	4344.851563	3716.622070	79.347824
308.059265	1306.613403	4446.645996	3800.361328	79.417900
308.429016	1304.978638	4526.967285	3863.295654	79.401794
308.798737	1304.830078	4600.007324	3926.081299	79.548111
309.168396	1302.898315	4644.812012	3960.706299	79.529526
309.538055	1306.167603	4654.693848	3994.217041	80.275589
309.907684	1306.018921	4653.431152	3978.688232	79.842857
310.277313	1298.737183	4667.474121	3989.016357	79.860184
310.646851	1296.731079	4694.148926	3981.734375	79.030708
311.016388	1298.960083	4679.288574	3991.170654	79.643456
311.385895	1310.477173	4629.653809	3972.966797	80.215363
311.755371	1315.827026	4560.478027	3940.347656	80.887611
312.124817	1306.316284	4514.484863	3895.617188	80.709625
312.494232	1306.390503	4473.617676	3850.292236	80.319527
312.863617	1304.235718	4458.163086	3838.552734	80.354324
313.232971	1307.653564	4471.686523	3869.091064	80.954826
313.602295	1300.743530	4547.920898	3940.942139	81.307503
313.971619	1299.034546	4624.750000	4021.411865	81.858406
314.340820	1297.919922	4648.154785	4049.572510	82.133125
314.710083	1301.263550	4631.288574	4050.018311	82.544571
315.079285	1299.331665	4575.561523	3997.114990	82.344131
315.448486	1303.418457	4512.775879	3954.242188	82.596710
315.817596	1305.573120	4390.770508	3848.361084	82.418976
316.186707	1304.755859	4286.747559	3768.336914	82.615288
316.555786	1304.458618	4211.032227	3687.495361	81.987823
316.924866	1303.492676	4186.289551	3664.981689	81.916595
317.293884	1307.282104	4173.286621	3676.276123	82.658424
317.662872	1306.464722	4185.025879	3701.910156	83.216766
318.031830	1307.653687	4208.877441	3750.355469	84.195564
318.400757	1310.105591	4244.245605	3782.156982	84.251305
318.769684	1310.402710	4275.527344	3805.859619	84.160278
319.138550	1296.359619	4273.446777	3814.849854	84.595787
319.507416	1300.743530	4254.202637	3781.562500	83.997063
319.876190	1298.811523	4193.273926	3753.847656	84.818382
320.244995	1309.882690	4146.834473	3694.405518	84.052292
320.613770	1300.372070	4092.593750	3676.870117	85.111366
320.982483	1296.136597	4101.807129	3687.198486	85.222481
321.351166	1297.325439	4136.877930	3736.015381	85.882896
321.719818	1293.461792	4205.236816	3787.209961	85.643570
322.088440	1293.684692	4306.288574	3878.973389	85.815742
322.457062	1292.570190	4453.259277	3997.560547	85.582298
322.825623	1291.455688	4601.344238	4137.026855	85.971809
323.194183	1294.724976	4736.649902	4248.109375	85.806183
323.562653	1295.393677	4797.652344	4317.359863	86.286209
323.931183	1296.508179	4824.104004	4337.347168	86.201454
324.299591	1297.845703	4788.364746	4314.833496	86.433784
324.668060	1297.771362	4735.758301	4257.174805	86.079544
325.036407	1299.183105	4672.006348	4195.503418	85.872284
325.404755	1306.093262	4596.143066	4130.414063	85.844315
325.773102	1296.805420	4533.952148	4074.315186	85.801170
326.141388	1290.638306	4450.584473	4024.012451	86.500648
326.509674	1286.031616	4377.768066	3955.579346	86.344612
326.877899	1299.108887	4296.926270	3903.493408	86.876022
327.246124	1313.523560	4268.765625	3864.038818	86.304779
327.614288	1309.288208	4230.945313	3839.741943	86.610214
327.982422	1299.183105	4242.091309	3835.952393	86.199402
328.350525	1292.644409	4243.948730	3838.106689	86.248734
328.718628	1297.920044	4288.678711	3868.273682	85.943192
329.086700	1303.566895	4318.251465	3902.527588	86.210037
329.454712	1306.018921	4372.714844	3935.517822	85.743721
329.822693	1305.647461	4412.244141	3971.851807	85.823959
330.190674	1308.025024	4464.107422	4007.219727	85.523582
330.558563	1302.823853	4502.224609	4040.433594	85.566330
330.926483	1302.675293	4574.446777	4103.441895	85.603981
331.294312	1296.805298	4641.394043	4166.525391	85.801880
331.662231	1301.857788	4732.266113	4263.341797	86.330360
332.029999	1300.966187	4802.036621	4338.907715	86.771790
332.397766	1303.269653	4872.847168	4402.139160	86.813339
332.765503	1300.148926	4919.359863	4435.129395	86.620552
333.133240	1297.399780	4953.910645	4438.398926	85.901543
333.500916	1297.771362	4963.272949	4431.786133	85.500298
333.868561	1298.811523	4956.660645	4405.186035	84.923531
334.236176	1303.715454	4920.846680	4384.975098	85.185181
334.603790	1297.399780	4873.589844	4354.362793	85.481003
334.971344	1300.594849	4836.958496	4331.402832	85.704079
335.338867	1297.994263	4821.651855	4308.071777	85.424805
335.706360	1307.356445	4823.287109	4300.195801	85.122253
336.073853	1305.796021	4837.404297	4303.762207	84.889542
336.441284	1298.662964	4871.806152	4307.997070	84.220924
336.808655	1291.381226	4898.852539	4311.415039	83.716087
337.176086	1287.889038	4934.814941	4334.671875	83.543861
337.543396	1303.269653	4937.267090	4365.358887	84.262283
337.910706	1308.619507	4959.706543	4379.996582	84.122261
338.277954	1312.483276	4949.007324	4364.021484	83.913597
338.645264	1294.427612	4933.255371	4322.189453	83.207069
339.012421	1283.728149	4878.791504	4279.762695	83.337463
339.379669	1281.796265	4803.002441	4212.369629	83.226402
339.746796	1288.186279	4707.448730	4151.516113	83.741158
340.113953	1296.730957	4641.542480	4097.720703	83.741333
340.481018	1300.743286	4611.598145	4074.761475	83.785553
340.848114	1307.207764	4618.730957	4066.662109	83.328857
341.215118	1306.093140	4668.365723	4102.327637	83.165016
341.582153	1307.579224	4767.782715	4190.301758	83.310783
341.949066	1297.845581	4938.901855	4321.594727	83.045929
342.316010	1300.520508	5145.983398	4477.035645	82.604233
342.682922	1297.919922	5392.520020	4642.730957	81.688347
343.049835	1308.025024	5683.489746	4846.766113	80.876923
343.416656	1307.876465	5968.291504	5055.928223	80.423134
343.783478	1308.768066	6191.274902	5234.106934	80.395973
344.150269	1309.882690	6312.312988	5339.394043	80.551071
344.516998	1307.059204	6329.105469	5351.653809	80.536789
344.883728	1301.709351	6249.750000	5283.963867	80.481445
345.250427	1297.473999	6143.349121	5168.794922	79.888992
345.617065	1295.244995	6000.242188	5037.575684	79.539490
345.983704	1294.873535	5876.304688	4922.183594	79.174171
346.350281	1290.563965	5729.334473	4810.581055	79.301620
346.716827	1295.765137	5615.576660	4712.129883	79.085968
347.083405	1301.783691	5520.692871	4628.093750	78.842896
347.449860	1304.532837	5468.755371	4571.326660	78.449066
347.816376	1301.412231	5445.423828	4533.060547	77.983574
348.182770	1292.941650	5466.451172	4523.624512	77.409256
348.549194	1296.136597	5505.980469	4536.924316	76.981186
348.915558	1299.108765	5576.047363	4577.939453	76.663025
349.281921	1300.891968	5640.616699	4612.192871	76.302094
349.648193	1297.176880	5680.591797	4617.542480	75.748375
350.014526	1298.737183	5701.842285	4630.991211	75.679642
350.380737	1298.439941	5732.603516	4641.170898	75.385826
350.746948	1300.520508	5783.426270	4673.789551	75.247375
351.113159	1292.644409	5845.617676	4690.062012	74.619759
351.479309	1298.662964	5906.769531	4718.816895	74.220375
351.845428	1301.486450	6014.806152	4787.993164	73.971359
352.211517	1308.545288	6135.993652	4852.933594	73.421570
352.577576	1309.436890	6258.295410	4947.817871	73.519600
352.943604	1304.681519	6377.625000	5015.433594	73.147911
353.309601	1301.337891	6511.890625	5106.751465	73.032822
353.675537	1292.050049	6655.666504	5182.540527	72.534843
354.041473	1296.731079	6801.746094	5260.632324	72.005280
354.407379	1294.353394	6903.986328	5327.802734	71.902199
354.773254	1301.560669	7048.058594	5404.482422	71.398651
355.139038	1295.987915	7186.707520	5499.515625	71.358475
355.504913	1299.851807	7431.980957	5628.654297	70.592171
355.870636	1293.461792	7667.892578	5785.878418	70.475571
356.236389	1306.241821	7926.614746	5948.304688	70.117844
356.602081	1312.928955	8150.414063	6104.339844	70.075630
356.967804	1317.164307	8338.994141	6198.035645	69.509956
357.333405	1312.706177	8439.749023	6234.741699	69.061401
357.699036	1302.155151	8440.045898	6199.968262	68.617096
358.064606	1307.579224	8382.610352	6127.374512	68.124016
358.430176	1303.864136	8329.112305	6072.537598	67.879074
358.795654	1304.755737	8397.098633	6075.881348	67.271500
359.161163	1299.405884	8580.625977	6172.921387	66.932678
359.526581	1302.006470	8944.710938	6357.489746	66.147835
359.892029	1301.932129	9422.625000	6658.415527	65.960915
360.257416	1301.189087	9957.530273	6966.177246	65.443222
360.622772	1289.820923	10384.326172	7208.478516	65.079491
360.988098	1290.118164	10643.344727	7339.474609	64.676682
361.353394	1284.322388	10748.706055	7387.696777	64.487816
361.718658	1291.604126	10601.734375	7272.304688	64.238640
362.083893	1296.062378	10217.217773	6992.554688	63.853748
362.449097	1300.817749	9601.620117	6584.187500	63.648899
362.814209	1299.034546	8987.136719	6177.156738	63.450275
363.179382	1289.746582	8425.037109	5802.448730	63.244827
363.544434	1291.084106	8028.929688	5520.246094	62.767273
363.909546	1292.124390	7761.217285	5329.660156	62.412704
364.274536	1301.635132	7631.707031	5186.255859	61.367718
364.639587	1305.052979	7533.255859	5071.829102	60.479340
365.004517	1306.836304	7474.928223	4984.523438	59.624390
365.369507	1306.241821	7380.935059	4924.263672	59.558922
365.734344	1301.263550	7353.740723	4884.809570	59.207924
366.099274	1300.371948	7344.823730	4840.524902	58.568634
366.464081	1299.406006	7356.118652	4805.974121	57.895565
366.828918	1306.984985	7312.502441	4760.872559	57.511906
367.193665	1302.303833	7218.880859	4695.412109	57.349178
367.558411	1300.966309	7144.578125	4632.700684	57.014984
367.923126	1289.300781	7066.782715	4545.915039	56.367363
368.287781	1295.690796	7045.458496	4505.345703	55.822338
368.652435	1307.876465	7012.244629	4460.763672	55.271454
369.017059	1309.139648	7037.061035	4451.476074	54.859978
369.381653	1307.356323	7065.742188	4432.008301	54.262634
369.746185	1296.953979	7129.865723	4434.460938	53.789719
370.110687	1293.758911	7208.106934	4440.404785	53.203598
370.475220	1296.656738	7293.927246	4458.163574	52.715763
370.839661	1298.440063	7351.139160	4457.939941	52.199852
371.204041	1306.241821	7379.375000	4464.851074	52.009552
371.568451	1301.263550	7363.919434	4440.256348	51.775867
371.932770	1299.554565	7344.972656	4415.365234	51.540035
372.297150	1303.864136	7317.257813	4371.526367	51.013824
372.661377	1304.681519	7322.458984	4347.377441	50.561787
373.025696	1299.777588	7361.170410	4327.464844	49.950356
373.389862	1292.941650	7408.798340	4327.539063	49.618519
373.754059	1288.111938	7507.917969	4319.960449	48.745068
374.118225	1292.272949	7606.963379	4347.823242	48.387966
374.482361	1294.724976	7787.222656	4383.339844	47.572060
374.846436	1298.662964	7982.638672	4464.033203	47.357594
375.210510	1290.415405	8287.428711	4561.146484	46.744675
375.574524	1292.198730	8560.044922	4685.529785	46.689636
375.938538	1286.180054	8864.389648	4797.058594	46.328602
376.302460	1288.483398	9067.235352	4870.246094	46.045467
376.666412	1291.232666	9207.444336	4894.097656	45.512489
377.030304	1301.412109	9201.351563	4860.512207	45.052246
377.394196	1315.083984	9096.287109	4766.593750	44.357018
377.757996	1308.396606	8890.691406	4640.798828	43.949787
378.121796	1304.978638	8619.040039	4492.342285	43.578575
378.485565	1298.885864	8326.139648	4342.770996	43.315430
378.849304	1295.319336	8121.138184	4211.106934	42.717037
379.212982	1288.780640	7982.786621	4124.023926	42.354954
379.576630	1279.864380	7946.081543	4059.306641	41.694447
379.940277	1282.539307	7930.106934	4019.851563	41.177654
380.303864	1288.111938	7932.558594	3967.319580	40.322506
380.667450	1294.353394	7946.007324	3941.536377	39.797367
381.030945	1289.895264	7964.285645	3915.084717	39.332272
381.394501	1283.802490	8002.626465	3902.973389	38.982578
381.757935	1290.341187	8062.662598	3908.174561	38.654892
382.121399	1291.901489	8130.352051	3906.093994	38.227844
382.484741	1306.836304	8260.233398	3931.134033	37.741234
382.848145	1297.474121	8375.922852	3950.155518	37.475464
383.211487	1302.526733	8488.713867	3964.941406	37.049057
383.574768	1290.266724	8571.338867	3973.858154	36.857090
383.938019	1290.340942	8618.149414	3955.133789	36.365482
384.301270	1292.941650	8648.093750	3939.753174	35.985817
384.664459	1296.508179	8683.981445	3893.462158	35.153484
385.027649	1301.486450	8710.953125	3882.020264	34.827522
385.390778	1300.594727	8824.636719	3892.199463	34.444317
385.753876	1301.412231	8908.524414	3906.539795	34.245945
386.116943	1296.805420	9016.114258	3898.143555	33.699108
386.479980	1295.690918	9059.878906	3874.738281	33.217220
386.842987	1302.600952	9074.516602	3846.800781	32.735813
387.205994	1308.991089	9073.922852	3808.088867	32.184414
387.568909	1308.842407	9017.006836	3761.352539	31.817045
387.931793	1301.189209	8978.071289	3722.268799	31.537279
388.294678	1307.504883	8968.634766	3700.052734	31.229700
388.657471	1310.922974	8972.202148	3673.452148	30.837269
389.020294	1302.749634	9034.245117	3658.219971	30.465906
389.383057	1293.313110	9188.719727	3665.055908	30.039524
389.745819	1291.009888	9393.202148	3698.418213	29.713047
390.108521	1296.731079	9633.347656	3745.377197	29.372181
390.471191	1286.254517	9865.022461	3797.983643	29.278437
390.833801	1285.437134	10057.467773	3818.416748	28.875635
391.196442	1282.464966	10190.097656	3833.426025	28.637922
391.558960	1288.186157	10226.729492	3797.389404	28.071724
391.921509	1290.192505	10209.194336	3766.999268	27.769999
392.284027	1300.669067	10171.893555	3713.873047	27.202604
392.646484	1302.080933	10118.619141	3672.114502	26.881681
393.008911	1300.743530	10113.565430	3630.876709	26.440262
393.371307	1299.703247	10118.024414	3603.236084	26.122124
393.733673	1306.539063	10087.633789	3571.137451	25.789476
394.096008	1304.681519	10013.554688	3530.419189	25.557127
394.458344	1302.749634	9871.338867	3482.419922	25.437916
394.820587	1303.343994	9664.257813	3428.550537	25.418352
395.182831	1310.031250	9446.030273	3357.740234	25.168501
395.545013	1305.424438	9225.871094	3274.074951	24.855297
395.907196	1297.102661	9080.163086	3208.168701	24.554173
396.269287	1288.483521	9013.588867	3180.602295	24.493113
396.631409	1285.362793	8947.682617	3157.940186	24.438778
396.993469	1293.387451	8912.908203	3134.014404	24.156729
397.355530	1295.616577	8912.313477	3114.250000	23.876930
397.717499	1304.978638	8962.765625	3112.243896	23.600359
398.079468	1304.532959	9010.467773	3109.791748	23.426865
398.441376	1305.721802	8984.982422	3100.726807	23.374710
398.803284	1306.464722	8951.768555	3078.881836	23.183083
399.165131	1304.904297	8922.270508	3071.674561	23.193977
399.526978	1306.316162	8911.125000	3052.578857	22.962612
399.888763	1305.721680	8908.079102	3047.674805	22.913328
400.250519	1302.229492	8918.852539	3045.520264	22.887976
400.612244	1302.675293	8944.264648	3047.897705	22.838474
400.973938	1299.628784	9026.739258	3058.820068	22.766483
401.335602	1297.176880	9120.065430	3071.897217	22.686253
401.697205	1300.371948	9304.707031	3095.897217	22.431911
402.058807	1301.857910	9492.990234	3112.763672	22.108126
402.420349	1304.755737	9731.577148	3139.809814	21.776350
402.781860	1300.074707	9919.859375	3166.558838	21.653488
403.143341	1294.502075	10077.678711	3196.280273	21.652510
403.504822	1295.913818	10235.051758	3216.862061	21.489189
403.866241	1297.771362	10343.459961	3239.450195	21.465240
404.227631	1300.520630	10463.903320	3250.818359	21.283600
404.588959	1302.526733	10489.910156	3246.285889	21.156830
404.950287	1298.514404	10439.532227	3216.267578	20.979647
405.311554	1297.325562	10312.771484	3191.822266	21.013899
405.672821	1295.765259	10175.163086	3154.522217	20.933369
406.034027	1299.703247	10073.888672	3126.064209	20.815163
406.395203	1306.390503	9908.639648	3073.606201	20.543648
406.756348	1307.281982	9822.077148	3030.139404	20.233692
407.117493	1307.059082	9782.028320	2997.966064	19.951778
407.478516	1300.817749	9859.080078	2975.972656	19.573540
407.839600	1300.446289	9929.221680	2971.514404	19.366226
408.200592	1297.622681	10052.416016	2984.517578	19.268244
408.561554	1304.607178	10166.692383	3002.944336	19.164082
408.922485	1308.248047	10294.641602	3023.897705	19.091637
409.283417	1307.505005	10365.155273	3023.971924	18.950466
409.644257	1306.613403	10462.640625	3017.805420	18.689241
410.005096	1304.978638	10521.116211	3006.288086	18.460114
410.365906	1303.789917	10516.436523	2974.858154	18.138851
410.726715	1292.495728	10472.225586	2949.372070	18.049294
411.087433	1289.152222	10383.433594	2913.781250	17.864292
411.448120	1285.585693	10345.093750	2889.930420	17.708961
411.808807	1290.340942	10294.567383	2865.187256	17.490078
412.169434	1287.889160	10271.459961	2838.809814	17.263968
412.530029	1291.084106	10317.007813	2822.017578	16.961515
412.890564	1297.845581	10415.458008	2806.488281	16.546467
413.251099	1307.059204	10566.664063	2816.147461	16.297546
413.611572	1312.409058	10719.132813	2821.943115	16.047394
413.972076	1316.198364	10880.147461	2839.626953	15.928865
414.332489	1313.374878	11003.637695	2833.237061	15.684427
414.692871	1313.597778	11204.627930	2847.577393	15.508795
415.053223	1308.693726	11385.925781	2844.976563	15.245087
415.413574	1309.659790	11659.286133	2859.911377	14.978818
415.773834	1309.659668	11847.495117	2862.140625	14.732446
416.134094	1304.384277	12131.479492	2881.682373	14.568063
416.494263	1299.034424	12411.972656	2896.245850	14.372540
416.854462	1295.616455	12819.448242	2913.186768	14.036739
417.214630	1296.508179	13214.961914	2942.610596	13.811376
417.574738	1300.594849	13598.437500	2971.885986	13.590117
417.934784	1305.721802	14018.323242	3001.086914	13.336099
418.294861	1310.922974	14511.098633	3042.250732	13.115945
418.654846	1310.551514	15098.536133	3072.194580	12.776654
419.014832	1303.418335	15698.307617	3132.528320	12.706662
419.374756	1298.960205	16325.570313	3183.425781	12.540856
419.734680	1297.325562	16968.437500	3247.623047	12.445176
420.094543	1297.622925	17468.419922	3270.954346	12.203056
420.454376	1304.681519	17762.955078	3264.118408	11.905482
420.814148	1299.183105	17932.664063	3238.632813	11.659915
421.173920	1306.613403	18086.173828	3225.852539	11.437959
421.533691	1301.337769	18183.732422	3206.608154	11.285546
421.893341	1307.653442	18218.060547	3187.512451	11.116581
422.253021	1300.148926	18204.314453	3139.661377	10.882007
422.612640	1299.331665	18198.148438	3100.281006	10.657251
422.972260	1300.223267	18192.501953	3068.776611	10.469596
423.331757	1300.149048	18210.630859	3065.061523	10.436795
423.691315	1306.018921	18328.996094	3056.887939	10.285328
424.050781	1302.823853	18360.500000	3035.711914	10.158993
424.410248	1308.990967	18213.083984	2989.124268	9.939210
424.769653	1299.405884	17915.798828	2932.059814	9.825562
425.128998	1300.149048	17536.408203	2871.057373	9.675310
425.488373	1297.251221	17109.984375	2801.806885	9.514836
425.847656	1303.715576	16696.416016	2744.668213	9.361273
426.206940	1304.607300	16273.039063	2690.353027	9.257789
426.566193	1312.111694	15910.516602	2642.056396	9.110206
426.925385	1318.353149	15492.860352	2577.041260	8.879943
427.284576	1322.662720	15127.290039	2517.450439	8.654980
427.643677	1317.536011	14812.023438	2466.181641	8.511962
428.002777	1309.139648	14591.641602	2424.200928	8.394964
428.361847	1303.567017	14398.604492	2383.334229	8.245622
428.720856	1303.567017	14204.301758	2345.291016	8.074920
429.079865	1303.046753	14103.918945	2328.350098	8.009637
429.438812	1302.600952	14080.143555	2310.145752	7.885278
429.797760	1297.474243	14049.010742	2291.272949	7.793561
430.156616	1292.793091	13902.559570	2260.214600	7.672002
430.515503	1289.449463	13796.379883	2232.648193	7.541409
430.874268	1287.591919	13778.250977	2222.989014	7.488773
431.233093	1290.935547	13907.090820	2216.895996	7.339482
431.591827	1296.582520	14081.405273	2220.313721	7.225217
431.950562	1304.012695	14250.741211	2217.341553	7.054514
432.309204	1305.796021	14386.937500	2217.193115	6.967259
432.667877	1303.418213	14534.207031	2214.221191	6.883965
433.026459	1301.189087	14599.666992	2203.818848	6.787467
433.385010	1298.960083	14655.096680	2196.016846	6.716439
433.743561	1301.709351	14622.403320	2173.651611	6.545772
434.102051	1298.514282	14653.089844	2163.992188	6.480760
434.460510	1300.297607	14713.203125	2150.172119	6.336245
434.818939	1299.034546	14730.440430	2147.571533	6.317559
435.177338	1302.080933	14718.848633	2125.206543	6.135052
435.535675	1305.201660	14670.625977	2108.116943	6.007406
435.894012	1304.681519	14646.106445	2086.866455	5.862829
436.252289	1302.749634	14806.601563	2085.677490	5.797812
436.610535	1297.325562	14895.913086	2073.268799	5.706058
436.968719	1294.130493	15168.083008	2078.024170	5.650111
437.326935	1296.731079	15418.631836	2079.287354	5.541438
437.685028	1298.960083	15733.526367	2087.460693	5.462586
438.043152	1300.669067	15986.898438	2085.380127	5.343176
438.401215	1302.972534	16245.843750	2085.454346	5.236489
438.759277	1306.316162	16580.279297	2089.095215	5.124924
439.117249	1310.922852	17076.027344	2103.212646	5.025592
439.475250	1309.436768	17483.429688	2123.051514	5.030389
439.833130	1306.761963	17900.044922	2137.986328	5.009403
440.191071	1299.777466	18022.867188	2134.717041	4.992735
440.548889	1298.737183	18116.267578	2114.803955	4.852477
440.906708	1298.737183	18020.789063	2095.187988	4.762877
441.264496	1299.628906	17846.251953	2076.389404	4.694375
441.622223	1295.170654	17550.005859	2061.008789	4.711448
441.979950	1289.449341	17254.800781	2042.061523	4.714035
442.337616	1284.396851	17044.300781	2036.934692	4.775015
442.695251	1288.929321	16889.677734	2023.560181	4.708946
443.052887	1290.489624	16810.617188	2013.157837	4.656329
443.410461	1299.034546	16924.968750	2001.269531	4.494035
443.768005	1296.359619	17115.705078	2002.978394	4.466802
444.125458	1304.830200	17400.658203	1998.445923	4.309289
444.482941	1300.000366	17722.312500	2008.996948	4.317276
444.840393	1299.406006	18217.392578	2014.049438	4.224164
445.197754	1289.078003	18656.150391	2029.950317	4.265960
445.555084	1290.712524	19001.658203	2036.414673	4.210403
445.912415	1292.049927	19237.048828	2035.894531	4.145136
446.269714	1293.015991	19362.546875	2033.071167	4.095597
446.626953	1298.737305	19373.244141	2020.365234	3.992518
446.984161	1290.340942	19192.169922	2014.272461	4.043897
447.341309	1301.114990	18986.945313	2006.544922	3.988673
447.698456	1298.068481	18693.300781	2003.052856	4.052745
448.055542	1306.539185	18478.568359	1982.322266	3.935371
448.412598	1300.520630	18126.964844	1960.254395	3.920815
448.769653	1303.789917	17744.900391	1933.505371	3.830127
449.126617	1304.830200	17308.595703	1925.406616	3.877690
449.483582	1304.161499	17031.669922	1921.245483	3.923596
449.840515	1300.669067	16817.900391	1921.096680	3.998314
450.197388	1304.830078	16626.349609	1906.087524	3.924268
450.554230	1308.545166	16485.025391	1897.022827	3.877563
450.911041	1307.133423	16419.341797	1883.499634	3.813911
451.267822	1303.121216	16493.271484	1890.781372	3.868692
451.624573	1301.189331	16564.751953	1878.744263	3.783880
451.981262	1297.102539	16534.882813	1874.137573	3.786871
452.337921	1297.176880	16387.984375	1862.472046	3.745957
452.694580	1291.975708	16051.096680	1856.156250	3.822589
453.051147	1293.684692	15859.471680	1850.211914	3.820784
453.407715	1293.833374	15529.195313	1834.088257	3.795161
453.764221	1296.210938	15444.563477	1836.837524	3.821127
454.120728	1296.731079	15109.234375	1829.184448	3.854865
454.477142	1295.467896	15028.839844	1824.206177	3.850025
454.833557	1296.879639	14900.148438	1816.776001	3.821849
455.189911	1298.142822	14926.377930	1813.060913	3.778318
455.546265	1300.000366	14986.338867	1820.788208	3.805166
455.902557	1297.771362	15038.945313	1815.586914	3.768350
456.258820	1296.953979	15269.653320	1813.580933	3.697403
456.615051	1295.839478	15565.602539	1830.447632	3.746440
456.971252	1293.536133	15915.198242	1846.868530	3.784333
457.327393	1297.845581	16440.443359	1869.084961	3.772400
457.683502	1298.142822	17044.970703	1882.608032	3.711638
458.039612	1303.566895	17978.287109	1915.598511	3.670416
458.395630	1293.015991	18833.138672	1956.464966	3.782465
458.751648	1295.393677	19601.873047	1990.718384	3.798244
459.107605	1294.056274	20207.812500	2026.458008	3.872323
459.463562	1301.783569	20406.275391	2031.584961	3.820051
459.819458	1300.149048	20271.193359	2025.120605	3.821464
460.175323	1301.932251	19698.466797	1997.034180	3.778439
460.531158	1301.114868	19034.869141	1984.105469	3.851359
460.886932	1301.337769	18316.808594	1961.294434	3.878568
461.242676	1297.325562	17619.626953	1939.746704	3.935849
461.598419	1303.567017	17086.876953	1916.564331	3.883832
461.954102	1300.074707	16582.955078	1904.601563	3.955582
462.309723	1296.731079	16224.592773	1882.608032	3.924721
462.665344	1291.529907	15956.954102	1871.165405	3.952395
463.020905	1291.529907	15822.541992	1866.261353	3.955206
463.376373	1291.232788	15761.390625	1874.954712	4.033970
463.731873	1294.799194	15723.199219	1875.920776	4.027623
464.087341	1293.090332	15751.731445	1872.428711	4.006866
464.442749	1298.291382	15886.665039	1879.413086	3.983458
464.798126	1290.489746	15990.093750	1883.499634	4.034190
465.153503	1290.563843	16136.098633	1897.765747	4.090131
465.508820	1294.056152	16277.719727	1905.047485	4.077716
465.864105	1300.594727	16398.982422	1917.010254	4.082658
466.219330	1304.458618	16594.917969	1926.520996	4.068304
466.574524	1300.371948	16643.140625	1931.945190	4.116423
466.929657	1296.805420	16534.437500	1929.938843	4.155065
467.284790	1295.467896	16326.983398	1925.777832	4.193256
467.639893	1297.028320	16088.546875	1912.923462	4.163840
467.994934	1300.371948	15914.454102	1912.700562	4.189990
468.349945	1301.412109	15716.585938	1904.601563	4.184406
468.704926	1304.532837	15587.448242	1907.425171	4.221074
469.059875	1296.433960	15477.108398	1906.161987	4.299711
469.414764	1297.028320	15435.276367	1902.818359	4.284760
469.769653	1296.211060	15418.187500	1907.499390	4.328631
470.124451	1299.629028	15518.718750	1909.505737	4.289140
470.479248	1295.022217	15575.930664	1924.514648	4.407930
470.834015	1292.124390	15623.335938	1933.728149	4.476968
471.188721	1292.347290	15817.637695	1953.121094	4.549127
471.543365	1294.873535	16086.984375	1964.638184	4.527850
471.898010	1300.669189	16310.859375	1975.858032	4.498203
472.252625	1306.316162	16526.115234	1985.145874	4.460176
472.607178	1308.396606	16696.044922	1999.932007	4.494094
472.961700	1300.817749	16793.232422	2012.563477	4.594156
473.316193	1299.257446	16802.742188	2020.811157	4.654139
473.670654	1300.520508	16750.359375	2019.919556	4.656353
474.025055	1304.087036	16867.757813	2029.653198	4.661922
474.379456	1303.789795	16966.431641	2037.083374	4.681800
474.733795	1304.309937	17108.423828	2044.736694	4.685025
475.088104	1302.006592	17350.947266	2045.553833	4.632999
475.442383	1298.588623	17685.162109	2056.327881	4.624147
475.796570	1293.907593	18008.007813	2086.048828	4.739359
476.150787	1296.062500	18396.166016	2119.782471	4.817047
476.504944	1296.582520	18684.533203	2142.072998	4.862508
476.859070	1296.359497	18981.521484	2163.472412	4.903053
477.213135	1296.730957	19186.521484	2177.143799	4.921314
477.567200	1294.353394	19450.669922	2200.475098	4.990669
477.921173	1301.040527	19764.302734	2210.877686	4.927824
478.275146	1298.885864	20039.966797	2233.688477	4.987987
478.629089	1306.316284	20320.083984	2248.623291	4.955919
478.983002	1297.251099	20719.164063	2274.554932	5.031965
479.336823	1295.765137	21259.791016	2292.982178	4.995070
479.690643	1294.353394	21907.931641	2332.734131	5.037363
480.044403	1303.344116	22753.498047	2380.362305	5.021028
480.398163	1310.031372	23886.244141	2444.485107	5.024996
480.751862	1310.551392	25531.828125	2516.558838	4.979124
481.105499	1311.963135	27669.814453	2632.991211	5.011896
481.459137	1306.241821	30815.791016	2813.695313	5.108358
481.812744	1306.539063	34931.792969	3042.993408	5.164137
482.166290	1303.344116	39897.363281	3301.195557	5.176583
482.519806	1300.669067	44787.750000	3570.320313	5.219139
482.873291	1298.291382	48945.207031	3824.806885	5.302580
483.226715	1292.570190	51703.769531	4005.957031	5.382508
483.580139	1300.594849	52695.125000	4089.844727	5.427134
483.933502	1306.613403	51953.578125	4049.795654	5.416281
484.286804	1313.597778	49816.332031	3947.703857	5.430840
484.640106	1307.356445	46908.863281	3792.782471	5.450315
484.993347	1302.229614	43996.941406	3653.167236	5.506391
485.346558	1300.148926	41926.570313	3544.165283	5.523539
485.699738	1303.418335	41045.566406	3488.215820	5.497431
486.052887	1296.582397	41389.515625	3504.116455	5.506043
486.405975	1299.926147	42308.117188	3548.029297	5.482083
486.759064	1297.102661	43244.480469	3613.638428	5.522480
487.112061	1310.699951	43626.324219	3642.467773	5.510418
487.464996	1305.052979	43235.046875	3636.449219	5.560212
487.817963	1304.607178	42071.535156	3581.390869	5.584879
488.170868	1297.325562	40258.031250	3494.234131	5.638780
488.523743	1299.405884	38223.769531	3391.844971	5.666825
488.876587	1301.040527	36395.328125	3290.644531	5.669310
489.229401	1307.950684	35259.390625	3240.936279	5.693383
489.582153	1307.579224	35020.136719	3233.134033	5.711684
489.934845	1301.263550	35588.550781	3272.885986	5.750301
490.287537	1292.347290	36748.714844	3346.891846	5.794571
490.640198	1291.604248	37937.929688	3427.584717	5.828635
490.992798	1297.399780	38531.605469	3479.447998	5.860332
491.345337	1293.833374	38232.246094	3457.008057	5.856166
491.697876	1299.257324	36966.644531	3392.141846	5.867782
492.050354	1288.632080	35090.871094	3292.650635	5.928657
492.402832	1288.186279	32666.896484	3172.949219	6.006502
492.755219	1281.424683	30129.531250	3042.993408	6.106358
493.107605	1292.049927	27807.943359	2915.861572	6.123919
493.459930	1297.399780	26052.763672	2828.927734	6.186651
493.812225	1307.282104	24816.884766	2751.058350	6.141219
494.164490	1311.740356	24123.791016	2715.838867	6.155074
494.516724	1309.585449	23778.357422	2675.640869	6.079796
494.868896	1304.532959	23764.537109	2688.197998	6.160573
495.221039	1298.068481	23942.419922	2705.510742	6.215423
495.573120	1294.873535	24145.412109	2731.367920	6.286479
495.925201	1293.387329	24340.162109	2742.736328	6.288728
496.277222	1296.433838	24487.650391	2749.423584	6.265259
496.629211	1302.600952	24556.900391	2753.584717	6.239637
496.981140	1301.486450	24481.632813	2757.002686	6.279150
497.333069	1305.572998	24227.294922	2749.200928	6.298078
497.684967	1300.743286	23833.937500	2739.021240	6.382930
498.036804	1298.514282	23381.431641	2715.467041	6.416511
498.388580	1288.631958	22929.671875	2687.157715	6.462378
498.740326	1297.548340	22530.515625	2663.306396	6.432252
499.092072	1297.399780	22086.560547	2637.375000	6.445548
499.443756	1306.316040	21672.320313	2621.400146	6.457252
499.795410	1297.919922	21341.376953	2598.514404	6.488873
500.147003	1304.384277	21104.423828	2575.629395	6.420417
500.498566	1302.080933	20857.146484	2564.781250	6.457152
500.850098	1302.526733	20638.248047	2555.419189	6.479678
501.201599	1299.777466	20472.107422	2563.518066	6.591482
501.553009	1295.096436	20387.849609	2560.917480	6.629850
501.904449	1295.987915	20373.138672	2567.753418	6.666433
502.255859	1286.105835	20416.232422	2565.375732	6.687200
502.607178	1289.077881	20517.431641	2570.279785	6.663087
502.958405	1291.232666	20571.970703	2576.744141	6.667336
503.309692	1301.709473	20638.324219	2589.078125	6.657673
503.660919	1301.560913	20715.300781	2596.136963	6.668349
504.012115	1308.693848	20688.998047	2602.303955	6.674870
504.363251	1304.978638	20651.996094	2599.257813	6.689812
504.714294	1306.687622	20541.359375	2594.502441	6.695278
505.065369	1298.811523	20549.830078	2596.360107	6.740155
505.416443	1304.458618	20448.482422	2595.171143	6.742117
505.767395	1300.743530	20434.437500	2602.229736	6.802065
506.118317	1301.932373	20356.865234	2598.291992	6.803276
506.469238	1301.114990	20504.802734	2605.647705	6.793137
506.820160	1302.303833	20642.927734	2616.941895	6.797289
507.170929	1304.681519	20899.718750	2633.065430	6.779185
507.521729	1298.365723	21170.775391	2649.783447	6.800472
507.872498	1300.743530	21424.519531	2671.628662	6.812266
508.223236	1299.777466	21643.044922	2703.430420	6.899840
508.573883	1302.675293	21776.123047	2720.222656	6.923833
508.924500	1301.709351	21939.958984	2735.305908	6.946309
509.275116	1297.251221	22103.500000	2746.451416	6.965216
509.625702	1299.257446	22311.470703	2766.290283	6.981810
509.976196	1303.715576	22494.626953	2776.024170	6.947830
510.326660	1309.362549	22707.802734	2793.114014	6.933924
510.677124	1310.625732	22846.453125	2803.144531	6.930399
511.027557	1301.189331	23031.687500	2809.534424	6.941144
511.377869	1302.378052	23151.390625	2813.918701	6.918119
511.728180	1299.257324	23168.775391	2829.893311	6.998947
512.078430	1303.864136	23074.634766	2836.877686	7.041614
512.428650	1302.675293	22947.281250	2824.989258	7.033226
512.778931	1305.052979	22827.802734	2805.744873	6.972584
513.129028	1305.127319	22663.072266	2796.382813	6.982205
513.479126	1306.910522	22550.132813	2800.395264	7.030406
513.829285	1306.910522	22443.134766	2791.330322	7.023108
514.179382	1304.235718	22381.984375	2776.469971	6.984780
514.529297	1300.149048	22353.750000	2771.045654	6.986437
514.879272	1297.251221	22483.929688	2785.311768	7.023567
515.229187	1302.006714	22700.447266	2795.416992	6.979061
515.579163	1297.176880	23095.291016	2822.017578	6.995287
515.928955	1301.189331	23562.210938	2855.899658	6.984003
516.278748	1305.275879	24191.033203	2916.901611	7.042047
516.628540	1307.876465	24941.267578	2963.861328	7.006971
516.978333	1306.018921	25831.861328	3021.148438	6.993153
517.327942	1301.709351	26734.119141	3079.253174	6.989286
517.677612	1298.811523	27384.937500	3133.717529	7.034030
518.027222	1288.260620	27780.226563	3168.639404	7.097921
518.376831	1292.793091	27773.687500	3187.364014	7.154482
518.726379	1292.495728	27529.603516	3172.652100	7.166020
519.075867	1299.257324	26945.882813	3142.485107	7.187019
519.425293	1297.548462	26346.111328	3101.024170	7.199917
519.774658	1308.991089	25710.302734	3058.448486	7.169522
520.124084	1311.665894	25168.708984	3013.049561	7.131578
520.473389	1307.133423	24682.250000	2960.071533	7.071358
520.822693	1304.012817	24324.037109	2931.985596	7.071986
521.171997	1296.285278	24142.291016	2915.490234	7.087475
521.521240	1297.474121	24113.240234	2920.171143	7.112175
521.870361	1287.591797	24227.666016	2924.257813	7.134528
522.219482	1293.758911	24428.431641	2946.697266	7.144853
522.568604	1298.588623	24691.833984	2959.254639	7.098912
522.917664	1306.910645	25091.212891	2990.535889	7.078724
523.266724	1302.229492	25742.103516	3030.436768	7.071261
523.615662	1295.393677	26656.474609	3103.921875	7.131116
523.964600	1287.889038	27725.615234	3180.899658	7.160263
524.313538	1292.792969	28940.166016	3264.118408	7.130245
524.662354	1290.638184	30190.607422	3355.362305	7.144382
525.011169	1297.176880	31469.876953	3445.194580	7.119077
525.359985	1295.468018	32678.263672	3540.598877	7.154018
525.708740	1301.263550	33952.628906	3630.134033	7.132537
526.057434	1303.492554	35522.269531	3737.278564	7.112429
526.406067	1305.127197	37582.093750	3871.246094	7.073687
526.754700	1303.566895	40353.808594	4051.058594	7.035787
527.103333	1307.059082	43569.480469	4279.093750	7.032334
527.451782	1306.910522	46917.562500	4536.850098	7.081546
527.800293	1303.566772	49573.363281	4763.844727	7.168619
528.148743	1300.000366	51118.191406	4902.047363	7.230385
528.497131	1303.195313	51113.062500	4909.774902	7.240693
528.845642	1304.235718	49604.644531	4784.128906	7.204686
529.193909	1297.919922	46928.707031	4577.864746	7.188008
529.542175	1293.536011	43509.515625	4341.953613	7.221004
529.890503	1293.610352	40068.484375	4109.757813	7.262815
530.238770	1295.393677	37094.218750	3899.183838	7.273396
530.586914	1297.845581	35050.078125	3732.820313	7.214262
530.934998	1297.399780	34026.484375	3649.452393	7.186430
531.283142	1299.406006	33945.199219	3648.115234	7.194523
531.631226	1304.755737	34600.996094	3698.269531	7.188540
531.979248	1307.653564	35762.417969	3767.593750	7.139623
532.327148	1307.059204	36972.957031	3836.546631	7.092173
532.675110	1301.858032	37806.414063	3882.614258	7.069683
533.023071	1299.183105	37905.089844	3881.202393	7.053559
533.370850	1300.074707	37146.976563	3832.608643	7.064861
533.718689	1301.635132	35838.582031	3750.132813	7.089502
534.066467	1308.322388	34203.699219	3654.059326	7.130902
534.414246	1308.396606	32800.191406	3562.889893	7.158986
534.761963	1306.464844	31772.585938	3485.614990	7.152699
535.109619	1303.269653	31257.076172	3443.188232	7.144062
535.457153	1299.703125	31045.384766	3415.696045	7.113614
535.804749	1295.616577	30925.685547	3403.287354	7.113284
536.152344	1297.251221	30806.056641	3390.210205	7.092659
536.499817	1301.040649	30442.271484	3363.164063	7.076309
536.847229	1298.514282	29878.015625	3321.182861	7.077340
537.194641	1293.238770	29090.330078	3274.149414	7.126323
537.542114	1289.226440	28337.646484	3222.731689	7.148311
537.889404	1295.839478	27749.468750	3177.407227	7.112702
538.236694	1295.096558	27381.369141	3150.435547	7.112319
538.583984	1296.433960	27539.041016	3150.806641	7.066267
538.931213	1298.068481	28300.716797	3199.920898	7.043207
539.278381	1299.331665	29757.273438	3302.161377	7.037858
539.625488	1302.080933	31637.726563	3442.445313	7.055608
539.972595	1303.121216	33984.355469	3601.601563	7.033028
540.319641	1300.892090	36299.183594	3743.742920	6.979914
540.666687	1305.721802	38072.121094	3864.038818	6.958302
541.013611	1303.121216	39001.718750	3932.545898	6.974861
541.360596	1302.972534	38985.597656	3938.935791	6.995169
541.707458	1299.554565	38306.621094	3893.388428	7.009024
542.054260	1298.960205	36991.312500	3791.742188	6.984079
542.401062	1300.891968	35382.957031	3671.074463	6.954340
542.747864	1294.873535	33564.917969	3533.688721	6.937750
543.094666	1290.861206	31741.898438	3410.643799	6.961283
543.441284	1290.340942	30006.632813	3288.192627	6.957207
543.787903	1291.307007	28575.041016	3199.251953	6.992976
544.134460	1299.108765	27417.109375	3121.457275	6.977366
544.481079	1297.771240	26645.994141	3065.061523	6.972048
544.827637	1300.743408	26137.244141	3020.925781	6.926026
545.174072	1299.108765	25863.884766	2997.000000	6.911894
545.520508	1305.498901	25778.509766	2997.446045	6.913522
545.866943	1305.647461	25726.203125	2992.541992	6.907683
546.213318	1306.390503	25600.185547	2979.836182	6.888367
546.559631	1299.257446	25304.609375	2960.963623	6.922232
546.905823	1299.183105	24775.054688	2921.954834	6.912509
547.252136	1300.223267	24013.228516	2883.242920	6.969662
547.598389	1310.551392	23105.693359	2822.834717	6.938625
547.944458	1311.442993	22203.732422	2759.603271	6.931554
548.290588	1305.796021	21328.818359	2696.297119	6.944512
548.636658	1300.594849	20583.117188	2638.935547	6.940693
548.982727	1294.279175	19908.150391	2593.982178	6.982443
549.328735	1299.628906	19466.345703	2550.218018	6.883958
549.674622	1303.418335	19067.416016	2524.732178	6.875219
550.020569	1305.127319	18861.673828	2514.924072	6.890858
550.366455	1294.130615	18676.806641	2511.357666	7.002530
550.712280	1291.678589	18658.304688	2499.915039	6.957232
551.058044	1295.319458	18762.701172	2500.360840	6.898810
551.403748	1301.560791	18916.953125	2508.162354	6.849700
551.749512	1300.966309	19085.917969	2515.072754	6.826594
552.095154	1301.932251	19197.296875	2513.512451	6.770358
552.440735	1294.130493	19280.367188	2519.753906	6.814229
552.786316	1295.542358	19250.943359	2522.205811	6.831724
553.131897	1296.136719	19101.445313	2507.419678	6.802932
553.477417	1308.545288	18798.142578	2489.066650	6.749848
553.822815	1306.316162	18407.830078	2460.460205	6.748783
554.168213	1301.337891	18012.316406	2446.416992	6.852256
554.513672	1296.582397	17686.275391	2409.414307	6.789827
554.859009	1295.467896	17421.312500	2403.618896	6.871894
555.204285	1302.229492	17238.082031	2389.798584	6.824668
555.549500	1301.486450	17108.052734	2391.507324	6.896000
555.894714	1298.588623	17032.783203	2374.863525	6.840356
556.239990	1301.783691	16914.271484	2354.727539	6.744241
556.585022	1308.396606	16798.730469	2336.151611	6.634815
556.930115	1308.248047	16658.076172	2331.619385	6.666989
557.275146	1300.669067	16515.042969	2326.566650	6.742949
557.620178	1294.279053	16407.304688	2325.749268	6.825041
557.965149	1297.474121	16348.159180	2315.495850	6.763956
558.310059	1294.947632	16304.542969	2307.990967	6.749305
558.654968	1294.650513	16252.754883	2300.709229	6.725843
558.999756	1292.272949	16263.973633	2299.223389	6.725691
559.344604	1300.669067	16323.711914	2307.991211	6.705181
559.689331	1297.399780	16411.537109	2298.034668	6.620522
560.033997	1297.399780	16471.574219	2302.047119	6.620771
560.378723	1291.381348	16559.623047	2315.495605	6.707480
560.723389	1300.000488	16583.548828	2330.504639	6.742571
561.067932	1309.808472	16570.025391	2327.978516	6.672055
561.412476	1309.659790	16489.333984	2310.888916	6.595854
561.757019	1306.390381	16443.490234	2304.870361	6.596244
562.101501	1300.669067	16412.058594	2288.598145	6.537645
562.445862	1304.904297	16369.928711	2283.396729	6.495127
562.790222	1310.031250	16331.589844	2279.310303	6.452587
563.134644	1308.470947	16337.088867	2292.016113	6.544482
563.478943	1303.269775	16423.724609	2305.539307	6.628567
563.823181	1293.313110	16563.117188	2320.399658	6.726259
564.167358	1296.433838	16749.839844	2337.043701	6.733854
564.511536	1301.783569	17024.314453	2347.668945	6.652144
564.855774	1310.774292	17379.626953	2355.916504	6.504149
565.199768	1308.693848	17720.158203	2357.328369	6.389646
565.543823	1301.709473	18013.132813	2366.615967	6.372326
565.887817	1297.251099	18203.572266	2374.343506	6.370945
566.231812	1304.087036	18246.074219	2381.922363	6.361918
566.575745	1312.037476	18121.468750	2379.693115	6.351527
566.919617	1313.895020	17891.576172	2360.745850	6.314820
567.263428	1306.984863	17568.880859	2340.164063	6.353374
567.607239	1301.189331	17345.302734	2315.792725	6.323836
567.950989	1298.811646	17129.673828	2304.498779	6.352700
568.294678	1301.560791	17026.841797	2299.148926	6.343849
568.638367	1305.053101	16910.408203	2298.703369	6.367367
568.981995	1305.350220	16894.062500	2301.303955	6.388942
569.325623	1305.573120	16978.839844	2296.399658	6.321762
569.669128	1302.155151	17132.201172	2297.217285	6.285908
570.012573	1303.864136	17334.826172	2310.888916	6.281749
570.356140	1301.783691	17583.740234	2329.167236	6.309951
570.699524	1303.566895	17845.359375	2348.040039	6.314147
571.042908	1304.607300	18163.003906	2354.355713	6.226858
571.386230	1308.322266	18351.806641	2373.005859	6.246866
571.729492	1306.167480	18438.740234	2371.297119	6.216986
572.072815	1305.944702	18377.515625	2377.166992	6.274890
572.416016	1300.149048	18306.482422	2364.684082	6.259638
572.759094	1300.446289	18132.761719	2363.866943	6.317732
573.102234	1297.251343	17909.556641	2345.588623	6.310607
573.445374	1298.811646	17670.748047	2336.003174	6.335179
573.788391	1304.012817	17587.232422	2333.031250	6.319502
574.131409	1299.628906	17559.294922	2333.625732	6.359275
574.474365	1295.244995	17516.572266	2318.393555	6.307428
574.817261	1295.616577	17426.591797	2303.087158	6.245565
575.160156	1305.647339	17230.875000	2286.666016	6.160155
575.502930	1309.362549	16974.158203	2268.016113	6.119796
575.845703	1311.145874	16687.126953	2246.245361	6.081560
576.188477	1310.328491	16416.814453	2230.121826	6.088731
576.531250	1310.179810	16141.671875	2219.050781	6.127981
576.873901	1304.161255	15793.786133	2193.342041	6.136672
577.216431	1296.508179	15442.335938	2170.828369	6.180764
577.559082	1297.251343	15111.019531	2153.515869	6.198631
577.901611	1299.554565	14824.507813	2142.296143	6.231013
578.244080	1300.594849	14568.312500	2121.714355	6.188853
578.586487	1304.830078	14382.257813	2118.965332	6.225500
578.928955	1307.505005	14192.934570	2128.996094	6.375349
579.271301	1314.860962	14008.515625	2128.550049	6.410203
579.613647	1314.786621	13793.484375	2102.543945	6.312817
579.955872	1305.573120	13637.745117	2068.810547	6.188994
580.298157	1301.412231	13515.368164	2048.526123	6.116887
580.640320	1295.245117	13485.424805	2040.947266	6.117237
580.982483	1299.926147	13439.429688	2039.535522	6.092583
581.324524	1301.337891	13430.291992	2037.603516	6.070314
581.666626	1306.390503	13349.226563	2030.619141	6.013772
582.008728	1311.814575	13284.731445	2023.040161	5.940287
582.350647	1314.935181	13207.011719	2018.507813	5.916315
582.692566	1311.220093	13143.409180	2019.547974	5.986448
583.034424	1307.653564	13087.979492	2016.427246	6.016588
583.376343	1299.554688	12992.128906	2016.798706	6.134184
583.718201	1298.885864	12910.395508	2005.727539	6.087423
584.059937	1294.279175	12801.168945	1990.941406	6.054305
584.401611	1294.204834	12772.934570	1983.957031	6.008959
584.743347	1291.455688	12739.200195	1992.130249	6.120635
585.085022	1292.272949	12740.242188	1996.068359	6.147776
585.426514	1294.353516	12722.409180	1990.124023	6.088267
585.768127	1301.858032	12746.186523	1982.396484	5.946513
586.109619	1306.836182	12747.152344	1982.173828	5.903138
586.451172	1312.037476	12759.487305	1982.842407	5.859863
586.792542	1306.093140	12779.250000	1973.331665	5.815649
587.133850	1304.012695	12817.070313	1974.000366	5.819372
587.475220	1299.554565	12897.540039	1983.734009	5.899123
587.816589	1295.913818	12954.085938	1989.455444	5.948974
588.157776	1293.684692	13059.296875	1994.136353	5.953381
588.498962	1289.969604	13121.860352	2005.356079	6.046257
588.840210	1291.975708	13196.609375	2014.198242	6.066735
589.181335	1291.232666	13264.297852	2015.981445	6.053160
589.522400	1298.142700	13256.273438	2002.532593	5.890468
589.863403	1300.371948	13237.028320	2011.671753	5.958953
590.204407	1303.864136	13164.436523	2010.482910	5.957712
590.545410	1304.458618	13124.535156	2004.984497	5.926577
590.886353	1303.938354	13028.536133	1980.316040	5.768878
591.227112	1304.012695	12916.339844	1968.873535	5.725474
591.567932	1301.783691	12819.745117	1960.031372	5.714967
591.908752	1304.087036	12760.823242	1966.867310	5.785070
592.249512	1301.858032	12798.495117	1968.873535	5.801832
592.590149	1298.737183	12816.699219	1967.684570	5.807862
592.930786	1301.040649	12917.007813	1962.780640	5.696814
593.271423	1301.263550	12989.750000	1965.307007	5.681176
593.612000	1304.607178	13127.284180	1979.498901	5.708451
593.952576	1295.542358	13261.995117	1989.975586	5.803167
594.292969	1287.071655	13414.687500	1995.399414	5.840618
594.633484	1280.978882	13592.790039	1996.216797	5.809364
594.973877	1288.855103	13842.745117	2009.591187	5.741138
595.314209	1306.762085	14123.832031	2026.235229	5.613398
595.654480	1310.254150	14447.124023	2047.114258	5.609099
595.994812	1307.950806	14736.235352	2063.386719	5.625707
596.335022	1295.616577	14967.911133	2071.114014	5.672036
596.675171	1297.771362	15037.014648	2074.160400	5.650887
597.015320	1296.359741	14955.428711	2072.525879	5.682423
597.355408	1296.508179	14673.747070	2059.820313	5.706051
597.695496	1302.972534	14286.629883	2032.253906	5.616918
598.035461	1306.539185	13762.125977	2001.715454	5.581241
598.375366	1309.139771	13309.770508	1976.229492	5.558789
598.715271	1299.406128	12900.809570	1956.316406	5.662334
599.055176	1301.560669	12610.434570	1926.595215	5.526939
599.395081	1306.836304	12374.747070	1916.564331	5.508971
599.734802	1310.922852	12205.335938	1902.892578	5.433700
600.074524	1305.424438	12125.832031	1907.350952	5.562882
600.414246	1298.885864	12068.024414	1888.626587	5.476211
600.753906	1298.439941	12099.007813	1885.208496	5.432756
601.093506	1304.087036	12102.278320	1884.019897	5.370648
601.433044	1309.659790	12233.645508	1899.400391	5.398585
601.772583	1309.065430	12439.242188	1913.072266	5.426750
602.112122	1309.659790	12751.981445	1921.691284	5.348840
602.451538	1303.046875	13106.703125	1933.431030	5.340584
602.790894	1299.257446	13443.071289	1954.681641	5.397186
603.130310	1297.994263	13873.358398	1975.040649	5.383911
603.469604	1298.885864	14268.128906	2001.195313	5.415192
603.808838	1301.932251	14642.094727	2025.715210	5.425593
604.148010	1296.210938	14835.578125	2043.102051	5.516440
604.487305	1298.737305	14904.531250	2056.847900	5.571969
604.826416	1299.406006	14800.877930	2050.606445	5.563841
605.165527	1301.560669	14578.416992	2041.615845	5.574024
605.504456	1299.926147	14208.536133	2020.216797	5.579924
605.843445	1298.588623	13789.320313	1997.480103	5.595281
606.182434	1299.554688	13324.409180	1969.319336	5.569836
606.521423	1303.492676	12935.956055	1939.152344	5.464532
606.860229	1312.334595	12608.057617	1907.945313	5.272887
607.199036	1310.848633	12429.285156	1892.713257	5.233331
607.537903	1311.517456	12367.390625	1880.007446	5.141973
607.876648	1303.492676	12465.620117	1885.208618	5.211515
608.215271	1316.272827	12641.418945	1903.115601	5.181767
608.553955	1315.083862	12845.676758	1912.774780	5.183523
608.892578	1313.077637	12989.006836	1928.898804	5.274280
609.231140	1303.343872	13064.945313	1921.394043	5.254813
609.569641	1297.028198	13016.647461	1928.750122	5.390294
609.908081	1300.446167	12892.488281	1915.895630	5.309241
610.246521	1292.421509	12636.367188	1902.075317	5.374266
610.584961	1297.474121	12352.828125	1876.663696	5.238997
610.923340	1292.347290	12010.218750	1869.382202	5.383858
611.261597	1296.953979	11703.050781	1854.521484	5.358085
611.599854	1292.867432	11427.757813	1846.199707	5.459677
611.938110	1301.709351	11215.625000	1825.840820	5.286826
612.276245	1301.115112	11009.656250	1821.457031	5.359631
612.614319	1309.808350	10847.973633	1815.958618	5.306579
612.952393	1304.904297	10679.455078	1807.265137	5.358772
613.290466	1308.545288	10589.772461	1791.810059	5.206906
613.628479	1294.947754	10469.773438	1783.265259	5.322362
613.966370	1293.238892	10401.339844	1774.125977	5.279774
614.304260	1294.353394	10307.569336	1774.274780	5.324641
614.642151	1303.269653	10230.741211	1758.448242	5.098628
614.979980	1304.012817	10158.741211	1757.333618	5.119534
615.317749	1295.839478	10107.622070	1748.565918	5.137740
615.655396	1288.854858	10080.651367	1755.847656	5.311688
615.993164	1294.576294	10076.340820	1752.726929	5.217068
616.330811	1302.823853	10083.102539	1757.259399	5.175640
616.668396	1311.591675	10089.121094	1753.469849	5.034198
617.005859	1305.796021	10106.433594	1758.076538	5.139179
617.343445	1300.297729	10125.901367	1755.178711	5.154106
617.680908	1295.170776	10162.532227	1760.751587	5.250500
618.018311	1297.845581	10166.990234	1755.921997	5.164832
618.355652	1305.870239	10162.234375	1759.637085	5.123624
618.692993	1306.910522	10113.194336	1747.079956	4.998356
619.030273	1317.164429	10098.706055	1750.497681	4.934592
619.367554	1314.563721	10063.783203	1742.770142	4.894224
619.704712	1309.659668	10074.408203	1750.497681	5.029671
620.041870	1297.325562	10025.219727	1747.451294	5.157323
620.379028	1285.957397	9993.270508	1741.655884	5.233514
620.716064	1285.808594	9933.976563	1737.197632	5.219476
621.053040	1284.099731	9897.418945	1729.692993	5.173305
621.389954	1294.873535	9884.267578	1729.024292	5.054498
621.726929	1305.275879	9839.686523	1725.829468	4.927741
622.063843	1308.099487	9830.769531	1721.222656	4.847344
622.400635	1299.554565	9808.106445	1722.411255	4.969785
622.737427	1290.415405	9841.766602	1726.869507	5.103920
623.074219	1293.090210	9815.909180	1732.665161	5.157624
623.410889	1301.635010	9790.050781	1732.219360	5.072611
623.747559	1308.842407	9816.131836	1723.971680	4.879689
624.084167	1307.802246	9886.868164	1720.553711	4.811147
624.420715	1302.155273	10039.040039	1732.070801	4.920696
624.757324	1299.628906	10159.708008	1742.101563	4.994003
625.093750	1297.102539	10338.554688	1755.996094	5.075441
625.430176	1307.133423	10508.188477	1754.955933	4.867078
625.766602	1310.402832	10698.551758	1761.420288	4.804115
626.102905	1310.402710	10856.594727	1760.900024	4.719131
626.439209	1300.297607	10960.543945	1771.822632	4.881087
626.775452	1297.994263	11010.995117	1773.457397	4.895121
627.111694	1298.217163	10993.608398	1776.578125	4.933900
627.447876	1293.907593	10917.373047	1780.367676	5.054936
627.783997	1293.981812	10794.178711	1777.395508	5.088459
628.120056	1289.523804	10656.124023	1777.469727	5.209424
628.456055	1293.833374	10489.760742	1764.243774	5.115421
628.792053	1293.981812	10337.589844	1755.847656	5.107097
629.128052	1295.096313	10194.481445	1752.206665	5.136426
629.463928	1294.278931	10110.520508	1744.330688	5.104803
629.799744	1289.226440	10036.068359	1741.284302	5.168241
630.135559	1294.799194	9967.635742	1730.584595	5.024716
630.471375	1299.554565	9834.114258	1714.535278	4.862357
630.807068	1309.139648	9717.161133	1705.916138	4.719023
631.142700	1306.984863	9619.303711	1699.154663	4.717935
631.478333	1305.796021	9529.249023	1709.333984	4.907159
631.813965	1298.068481	9478.054688	1705.841797	4.985012
632.149475	1299.182983	9418.463867	1703.835571	4.983848
632.484924	1303.715576	9430.426758	1693.061890	4.790946
632.820435	1305.870361	9426.042969	1691.724243	4.751794
633.155884	1301.560791	9440.680664	1693.879028	4.820156
633.491150	1293.164551	9503.393555	1692.987427	4.869814
633.826477	1291.455566	9523.157227	1700.417847	4.968138
634.161804	1295.690918	9536.458008	1696.479858	4.863491
634.497009	1302.749634	9451.157227	1698.411621	4.855697
634.832153	1305.127319	9355.084961	1694.845093	4.841240
635.167297	1308.842407	9238.948242	1692.838867	4.842261
635.502380	1302.006592	9141.612305	1687.711914	4.919958
635.837463	1294.650757	9064.188477	1680.876099	4.971021
636.172424	1292.718750	9029.118164	1674.114624	4.929889
636.507324	1295.096313	8953.329102	1681.173340	5.041333
636.842224	1302.600952	8855.398438	1682.287964	5.027104
637.177124	1297.622681	8725.888672	1675.674927	5.089374
637.511963	1296.879761	8640.291992	1672.182739	5.110744
637.846741	1295.765137	8556.477539	1664.306641	5.075831
638.181396	1297.994263	8475.265625	1664.380981	5.104819
638.516113	1303.492676	8430.460938	1654.127075	4.919826
638.850769	1303.567017	8383.278320	1652.863892	4.933773
639.185303	1308.396606	8344.493164	1649.668945	4.850307
639.519836	1301.337891	8273.235352	1647.365723	4.963180
639.854370	1300.743408	8230.214844	1637.557739	4.860606
640.188843	1291.307007	8179.392090	1629.384399	4.908148
640.523254	1295.839478	8130.574707	1620.319458	4.747513
640.857605	1297.399780	8097.287109	1622.548462	4.781678
641.191895	1302.526733	8074.031250	1626.783813	4.788553
641.526184	1292.198608	8041.709473	1632.282227	5.038641
641.860413	1293.536011	7996.682129	1632.059204	5.050214
642.194580	1290.638184	7945.338379	1631.687866	5.124944
642.528748	1300.669067	7905.585938	1636.591797	5.085949
642.862793	1301.932251	7850.156250	1636.368774	5.107286
643.196838	1301.263550	7806.243652	1640.158203	5.209773
643.530823	1306.241821	7799.036621	1637.557617	5.102822
643.864746	1297.325562	7827.717285	1631.316284	5.114406
644.198669	1304.309937	7848.076660	1624.703125	4.896159
644.532532	1299.703125	7847.259277	1620.839478	4.904675
644.866333	1306.984741	7846.070313	1623.365845	4.838308
645.200073	1300.148926	7843.099121	1629.012817	5.026233
645.533813	1298.662842	7835.296875	1622.994141	4.961748
645.867554	1297.697144	7811.890625	1614.746704	4.867058
646.201172	1306.464722	7800.373535	1607.910767	4.641982
646.534729	1301.040649	7809.958984	1611.328735	4.767122
646.868225	1301.263550	7808.175781	1619.056274	4.883925
647.201782	1291.678467	7806.541504	1627.675293	5.157389
647.535217	1293.461792	7799.482422	1632.282227	5.207798
647.868591	1289.226440	7797.029785	1641.644165	5.415310
648.201965	1292.644409	7777.859863	1639.712280	5.351678
648.535278	1297.845581	7757.798340	1640.975464	5.311647
648.868591	1294.427734	7760.474121	1640.529785	5.352607
649.201782	1291.678467	7766.714844	1633.396606	5.277471
649.534912	1287.443237	7750.071777	1630.276001	5.304850
649.868103	1292.867310	7723.470703	1629.532837	5.235364
650.201172	1296.953979	7725.773926	1635.477173	5.265713
650.534180	1298.588623	7735.878906	1631.687866	5.174526
650.867188	1297.845581	7761.439453	1626.783813	5.089092
651.200134	1293.090210	7765.080566	1634.734009	5.278806
651.533020	1288.780640	7774.962891	1643.798950	5.473456
651.865845	1290.266724	7733.576660	1648.628784	5.561769
652.198608	1295.913696	7680.300781	1641.792969	5.417580
652.531433	1297.845581	7614.617188	1632.579468	5.299129
652.864136	1300.817749	7602.134277	1631.093262	5.241373
653.196777	1426.835083	7731.792480	1758.522461	5.260739
653.529358	1437.237671	7701.773438	1755.847656	5.085931
653.861938	1435.157104	7646.566895	1749.011719	5.052873
654.194519	1308.173706	7457.689453	1613.111938	4.958736
654.526978	1303.344116	7453.603027	1610.585815	4.995590
654.859375	1299.851685	7439.188965	1615.787109	5.146083
655.191833	1297.994263	7434.433105	1618.759155	5.227216
655.524170	1301.560791	7412.959473	1619.353516	5.200000
655.856445	1305.796021	7394.458496	1617.570313	5.120571
656.188660	1311.963135	7379.375000	1626.932617	5.191167
656.520874	1307.505005	7368.451660	1633.619751	5.380591
656.853088	1299.628906	7421.578613	1642.684570	5.603700
657.185181	1289.820923	7511.708496	1646.325317	5.729843
657.517212	1289.077759	7674.505371	1652.863892	5.697130
657.849243	1298.365723	7830.169434	1656.876343	5.488692
658.181274	1301.114868	8021.572754	1669.805054	5.486087
658.513123	1301.783569	8209.632813	1687.637695	5.585735
658.844971	1305.424561	8387.438477	1697.817017	5.540690
659.176819	1298.068604	8519.921875	1701.755249	5.589793
659.508667	1295.170776	8580.775391	1701.160767	5.572495
659.840393	1290.489624	8567.475586	1702.126587	5.656696
660.172058	1298.365723	8485.444336	1692.615845	5.485541
660.503662	1304.904419	8306.969727	1681.767944	5.382176
660.835266	1308.842407	8102.414551	1677.012329	5.419386
661.166931	1309.436768	7873.710938	1674.114624	5.555494
661.498413	1305.870239	7696.275879	1670.176636	5.700834
661.829773	1303.715454	7528.426270	1657.693848	5.686664
662.161194	1308.470825	7373.133301	1650.783691	5.644384
662.492615	1310.625732	7232.181152	1640.084106	5.563713
662.823975	1305.944580	7137.964844	1638.003540	5.693721
663.155212	1304.830078	7052.962891	1630.573242	5.666939
663.486450	1298.662964	6964.244629	1635.180054	5.939674
663.817627	1295.022095	6876.790527	1632.505005	6.046165
664.148743	1289.969604	6802.636719	1633.173828	6.225739
664.479858	1295.542236	6751.517090	1630.201660	6.133816
664.810913	1302.823853	6743.640625	1629.012817	5.995220
665.141907	1302.080933	6715.107910	1625.000610	5.965603
665.472778	1304.532837	6695.640625	1619.279297	5.838252
665.803711	1302.080933	6682.563965	1623.886108	5.980972
666.134583	1306.464844	6697.052246	1624.331909	5.896706
666.465454	1303.938477	6713.548340	1630.350220	6.033924
666.796143	1308.470825	6678.552246	1624.331909	5.881867
667.126831	1310.848633	6657.226563	1625.743530	5.889874
667.457458	1306.093140	6644.148926	1633.396851	6.131516
667.788147	1302.452271	6663.616699	1638.895142	6.275556
668.118774	1304.458496	6682.489746	1642.164429	6.279360
668.449219	1307.282104	6710.798828	1637.557617	6.112233
668.779663	1302.972534	6734.650391	1632.059204	6.058656
669.110107	1300.669189	6744.532715	1640.529907	6.243006
669.440552	1301.783691	6729.894531	1643.650513	6.298081
669.770874	1300.223267	6687.541504	1651.749512	6.525069
670.101135	1296.879761	6669.263672	1646.028320	6.498950
670.431396	1294.056274	6610.341309	1647.811523	6.654181
670.761597	1296.879761	6563.604980	1644.245117	6.595471
671.091797	1297.696899	6505.128906	1649.148926	6.749047
671.421875	1300.074707	6473.328125	1648.628906	6.737621
671.751892	1302.452271	6444.052246	1650.560547	6.770427
672.081909	1301.486450	6403.408691	1648.926147	6.809976
672.411865	1300.520508	6397.389160	1650.783691	6.872125
672.741821	1298.885864	6360.015625	1652.938354	6.995522
673.071716	1300.000366	6349.464844	1648.925903	6.910150
673.401550	1299.183105	6306.889160	1648.851685	6.982610
673.731262	1300.966431	6289.725098	1641.495972	6.825937
674.060974	1299.257324	6233.701172	1634.585571	6.795664
674.390625	1299.554565	6207.472168	1631.910767	6.771838
674.720276	1302.600952	6195.732422	1642.313110	6.942633
675.049927	1304.755859	6206.431641	1639.489624	6.828966
675.379395	1304.755859	6200.338379	1636.591797	6.778273
675.708923	1304.830078	6165.639160	1628.418457	6.657089
676.038330	1302.303833	6146.692871	1635.031372	6.868308
676.367737	1301.040527	6128.042969	1644.244995	7.110095
676.697083	1300.891968	6143.943359	1651.452271	7.238418
677.026428	1307.133423	6161.850098	1654.052856	7.146028
677.355652	1312.111816	6198.480957	1650.189087	6.918783
677.684875	1312.483398	6225.602051	1651.229370	6.894724
678.013977	1310.477051	6264.536621	1658.288086	7.020728
678.343079	1306.910645	6313.873535	1658.882446	7.029647
678.672180	1301.709473	6392.634277	1663.637817	7.109285
679.001221	1291.455688	6464.484863	1672.182617	7.359845
679.330139	1298.440063	6551.642090	1688.603516	7.427155
679.659058	1293.090210	6605.065918	1705.470337	7.763216
679.987976	1294.650635	6683.009277	1717.804688	7.853117
680.316772	1284.099609	6731.306152	1723.674438	8.069730
680.645630	1290.340942	6760.283691	1717.804688	7.814775
680.974304	1298.217163	6729.894531	1717.730347	7.723455
681.302979	1306.613281	6669.783691	1708.145386	7.486842
681.631653	1311.145874	6606.626465	1709.557007	7.523607
681.960266	1306.316040	6548.521973	1709.631348	7.693618
682.288757	1297.399780	6495.470215	1720.479492	8.139169
682.617249	1294.056152	6427.185059	1717.507446	8.249380
682.945679	1295.839478	6358.381348	1706.287720	8.107553
683.274109	1303.566895	6248.933105	1699.600220	8.008170
683.602478	1302.526733	6152.042480	1693.359009	8.059202
683.930725	1300.297485	6031.820313	1693.507446	8.310431
684.259033	1295.839478	5969.851563	1687.860718	8.387253
684.587280	1295.467896	5901.493652	1689.866699	8.562670
684.915344	1290.563843	5870.583496	1689.718140	8.715122
685.243469	1292.867310	5831.128906	1680.355957	8.538261
685.571533	1292.124268	5808.689941	1674.634766	8.469057
685.899536	1296.879761	5779.042969	1676.417969	8.467747
686.227539	1296.062378	5762.398438	1692.096069	8.867083
686.555420	1295.913696	5738.324707	1696.628418	9.020208
686.883301	1300.817627	5744.714844	1695.662476	8.885102
687.211121	1296.062134	5768.714355	1694.845093	8.916029
687.538940	1299.034424	5812.553223	1705.098755	8.996625
687.866638	1298.588745	5836.998535	1703.835571	8.929270
688.194336	1302.303711	5807.128906	1700.640747	8.842453
688.521973	1301.635132	5763.661621	1697.371460	8.868982
688.849609	1297.399780	5715.067871	1696.851196	9.042133
689.177063	1295.765137	5669.743652	1693.730469	9.098475
689.504578	1288.037598	5607.478027	1685.854492	9.209917
689.832031	1287.220337	5541.125488	1684.739868	9.344814
690.159485	1295.393677	5482.351563	1687.637573	9.368231
690.486816	1305.350220	5434.129395	1694.027710	9.413859
690.814087	1307.802124	5398.166992	1692.764526	9.411445
691.141296	1305.350220	5364.879395	1685.631470	9.367620
691.468506	1299.331665	5329.214355	1681.916382	9.493693
691.795715	1301.635132	5270.960938	1676.046509	9.432619
692.122803	1298.811523	5214.639160	1677.458374	9.669651
692.449829	1307.207764	5199.035645	1666.015625	9.219521
692.776855	1305.424561	5162.255859	1676.269409	9.615273
693.103821	1307.579224	5129.637207	1673.223022	9.566673
693.430664	1298.142822	5068.560547	1673.743164	9.961770
693.757568	1291.827026	5057.117676	1666.387085	9.947707
694.084351	1292.050049	5049.910156	1663.712280	9.890263
694.411133	1300.371948	5047.458008	1669.210571	9.843346
694.737854	1303.641235	5035.197754	1674.263184	9.932100
695.064575	1293.090210	5049.241699	1679.390137	10.284461
695.391174	1287.443237	5073.389648	1674.188843	10.215296
695.717773	1291.158325	5109.798340	1679.835938	10.178430
696.044250	1299.628906	5140.113770	1680.578979	9.919322
696.370789	1302.006470	5206.391602	1700.789429	10.213719
696.697205	1312.928955	5291.914063	1707.105103	9.906449
697.023621	1311.442993	5418.080566	1724.566040	10.059885
697.349915	1300.743286	5559.626953	1736.008789	10.220178
697.676208	1289.078003	5744.789063	1757.185059	10.505777
698.002380	1291.381226	5938.050781	1781.704956	10.552155
698.328674	1301.114868	6130.346191	1807.859741	10.493282
698.654724	1301.263550	6263.125000	1833.939819	10.735413
698.980896	1299.108765	6362.244629	1841.815918	10.718795
699.306946	1300.446167	6374.652832	1846.125488	10.753983
699.632935	1309.213867	6307.781250	1838.620972	10.591177
699.958862	1308.470825	6165.862793	1830.150391	10.739910
700.284729	1309.659790	5985.010254	1820.713867	10.930819
700.610596	1305.201538	5796.207031	1798.868774	10.992354
700.936340	1307.282104	5604.431152	1794.410645	11.336087
701.262146	1304.532715	5444.011719	1773.680298	11.333493
701.587830	1300.669067	5306.625977	1771.302612	11.748343
701.913513	1301.040649	5179.865723	1757.036499	11.756030
702.239075	1300.074707	5057.489746	1748.937500	11.946053
702.564697	1293.238892	4951.905273	1729.692993	11.929322
702.890137	1284.693970	4858.283691	1716.689941	12.088572
703.215698	1285.585693	4771.275391	1709.854126	12.171721
703.541016	1291.529907	4710.420898	1703.910034	12.061810
703.866455	1299.257324	4677.950684	1698.040039	11.802868
704.191711	1301.932129	4653.059570	1691.947266	11.638326
704.517029	1304.532837	4603.796875	1687.488892	11.607317
704.842163	1309.956909	4551.413574	1684.962769	11.569054
705.167419	1306.836182	4518.125488	1684.739868	11.767974
705.492493	1299.777466	4509.283691	1690.312622	12.168076
705.817566	1296.805298	4501.778809	1699.006226	12.549274
706.142578	1305.573120	4493.159668	1695.588013	12.235430
706.467590	1310.402710	4501.778809	1702.498413	12.286102
706.792480	1307.282104	4499.475098	1701.234985	12.341137
707.117371	1297.102661	4499.178711	1709.111206	12.866919
707.442200	1296.953979	4493.383301	1705.990356	12.796666
707.766907	1290.712524	4496.132324	1699.006226	12.737604
708.091675	1286.625977	4486.472656	1698.708618	12.878200
708.416321	1284.916870	4498.212402	1708.442383	13.180410
708.741028	1291.009766	4504.379395	1719.141968	13.323465
709.065552	1297.176758	4551.041504	1726.423706	13.191911
709.390137	1299.406006	4567.388184	1725.383423	13.034876
709.714600	1290.118164	4598.224121	1727.166870	13.211449
710.039063	1294.056274	4623.486816	1727.909790	13.030862
710.363403	1301.263550	4657.888672	1735.042847	12.923079
710.687744	1310.922852	4718.520020	1744.925171	12.736316
711.012085	1308.396606	4753.813965	1754.881714	12.958810
711.336304	1301.412231	4791.336426	1754.064331	12.970256
711.660461	1309.288208	4793.862793	1765.878418	13.103183
711.984619	1307.356323	4786.655762	1764.317993	13.133727
712.308716	1309.213989	4760.055176	1761.791870	13.115002
712.632751	1306.316040	4728.030762	1741.284302	12.711996
712.956726	1311.145874	4689.690918	1738.980957	12.663294
713.280701	1305.275757	4635.152344	1736.231812	12.942103
713.604553	1298.588501	4583.660645	1742.770386	13.521221
713.928467	1296.433716	4532.391602	1747.525757	13.939984
714.252258	1303.269653	4502.744629	1754.584351	14.105898
714.575989	1299.182983	4486.249512	1750.572144	14.163156
714.899719	1290.638184	4483.872070	1747.005493	14.291697
715.223267	1283.208008	4506.683105	1747.228516	14.395040
715.546936	1286.031616	4529.939941	1753.915649	14.423467
715.870422	1294.947876	4550.298340	1764.541016	14.425271
716.193970	1297.845581	4524.664063	1761.866211	14.380129
716.517395	1302.378052	4483.426270	1759.637085	14.374476
716.840820	1306.761841	4442.560059	1743.290405	13.920811
717.164124	1304.978638	4392.925781	1747.154175	14.319401
717.487488	1302.600952	4356.145996	1741.507202	14.373663
717.810730	1289.895142	4301.310059	1735.711548	14.804216
718.133972	1293.164429	4263.118652	1719.216431	14.345407
718.457092	1297.474121	4200.704590	1715.575562	14.401249
718.780212	1301.486450	4138.215332	1717.210083	14.655035
719.103210	1305.127319	4083.157471	1716.764282	14.817584
719.426208	1299.703247	4021.337646	1708.219604	15.009965
719.749207	1304.012695	3973.115234	1706.436401	15.077117
720.072083	1298.960083	3922.589111	1697.891602	15.205334
720.394958	1298.514282	3888.632813	1697.371460	15.399185
720.717773	1297.473999	3855.047852	1687.043335	15.231989
721.040527	1299.926147	3825.475586	1684.219727	15.216237
721.363281	1301.412231	3821.537842	1680.950562	15.060295
721.685913	1310.551392	3812.695557	1685.705688	14.993314
722.008545	1308.693848	3795.382813	1688.529297	15.274747
722.331055	1311.517334	3765.141846	1688.975098	15.383681
722.653503	1298.217163	3754.293701	1675.674927	15.368321
722.976013	1293.684692	3765.661865	1683.105103	15.753399
723.298401	1293.387451	3768.708252	1677.755371	15.528005
723.620789	1297.697021	3757.488525	1687.340454	15.840507
723.943115	1304.012817	3746.491943	1671.514038	15.046239
724.265381	1302.080933	3740.993408	1683.996704	15.659265
724.587585	1287.443237	3750.132813	1682.213501	16.030046
724.909790	1287.963379	3760.014893	1694.547852	16.447248
725.231873	1284.025269	3772.423584	1690.015503	16.315323
725.553894	1293.981934	3774.132080	1693.730469	16.117916
725.875916	1319.319214	3797.686279	1736.083008	16.816063
726.197937	1320.879517	3794.268555	1745.148071	17.153328
726.519775	1320.062256	3801.253174	1748.045898	17.249123
726.841675	1295.988159	3798.355225	1716.021362	16.785435
727.163513	1295.319458	3836.323975	1719.142090	16.679335
727.485291	1299.183228	3878.230469	1733.036621	16.822235
727.806946	1301.783691	3913.078369	1730.659058	16.423859
728.128662	1303.938354	3927.344727	1733.779785	16.384859
728.450256	1305.944458	3940.496338	1733.333862	16.222471
728.771790	1301.114868	3929.128174	1736.603149	16.571009
729.093323	1302.749634	3913.598877	1734.225586	16.526270
729.414795	1301.858032	3891.382080	1740.169800	16.926346
729.736145	1303.046997	3885.586670	1743.810547	17.067059
730.057495	1306.241821	3898.440674	1749.160278	17.086594
730.378845	1302.229614	3899.183838	1745.222290	17.058163
730.700134	1303.121216	3911.072510	1751.017944	17.174276
731.021301	1295.765259	3925.412842	1760.157104	17.659851
731.342468	1298.588745	3958.328857	1764.317993	17.510328
731.663574	1293.684692	3978.985107	1758.374023	17.304930
731.984680	1300.669189	3982.922852	1753.395508	16.878580
732.305664	1304.532837	3995.628906	1752.801147	16.657461
732.626648	1309.882690	3994.440186	1762.237671	16.850262
732.947571	1305.201538	3982.848877	1758.968140	16.946465
733.268433	1301.040649	3949.858398	1756.441895	17.192621
733.589233	1295.393677	3925.487061	1752.206665	17.368700
733.909973	1300.074707	3903.790771	1752.949829	17.393414
734.230713	1302.229492	3866.639404	1750.720703	17.489061
734.551331	1307.059204	3805.264893	1745.668335	17.556967
734.871948	1301.263550	3752.436279	1745.742310	18.133310
735.192505	1301.263672	3713.501221	1734.299805	17.951637
735.513062	1295.393677	3683.557373	1724.566040	17.970812
735.833435	1294.650513	3649.080811	1709.631348	17.625532
736.153931	1290.638306	3606.654053	1708.368164	18.036573
736.474304	1290.341064	3581.019531	1713.792358	18.485846
736.794617	1292.867310	3561.477783	1709.928589	18.383997
737.114807	1297.028320	3564.301514	1713.866577	18.385004
737.434998	1301.634888	3574.778076	1713.123535	18.102188
737.755188	1305.944580	3581.688232	1726.572266	18.483088
738.075256	1302.972534	3594.839844	1717.210327	18.074249
738.395325	1309.659668	3619.879639	1710.002930	17.329227
738.715271	1308.693848	3657.031250	1702.869751	16.785318
739.035278	1309.956909	3666.690674	1711.786011	17.050253
739.355164	1308.693848	3662.529541	1720.850952	17.510019
739.675049	1312.409058	3639.867432	1722.188477	17.606304
739.994873	1313.077759	3630.059570	1724.269043	17.746849
740.314636	1302.452393	3601.156006	1718.250488	18.088373
740.634277	1292.644409	3571.211914	1721.148315	18.805847
740.953979	1292.570190	3533.614502	1713.569336	18.785845
741.273499	1289.672363	3497.577881	1714.163696	19.225973
741.593140	1292.421509	3462.803955	1708.813965	19.185213
741.912598	1289.895142	3435.534912	1702.052368	19.209061
742.232117	1297.771362	3403.213135	1694.102173	18.824116
742.551453	1297.474121	3387.014893	1678.498535	18.234840
742.870850	1303.641235	3365.615967	1681.470703	18.323671
743.190063	1303.641235	3349.492188	1686.374634	18.707785
743.509338	1307.059082	3325.046875	1687.043335	18.829859
743.828552	1306.241821	3306.173828	1678.275513	18.602318
744.147705	1305.498779	3298.891846	1672.405640	18.406147
744.466797	1301.189209	3277.344482	1668.690430	18.596779
744.785828	1301.783569	3253.270264	1674.040161	19.075539
745.104858	1303.641235	3225.778320	1669.136230	19.015032
745.423706	1304.012695	3214.707031	1679.390137	19.646128
745.742615	1302.229614	3213.147217	1669.730835	19.231663
746.061401	1306.910645	3208.465820	1673.743164	19.291185
746.380249	1304.904419	3211.957764	1662.671997	18.760229
746.698975	1308.471069	3205.270508	1666.164185	18.857719
747.017639	1301.858032	3213.964111	1656.653442	18.555216
747.336304	1300.223267	3203.858643	1656.430542	18.711948
747.654907	1293.610352	3196.577393	1667.130249	19.628290
747.973389	1292.570068	3173.915039	1680.281616	20.608212
748.291931	1301.560669	3181.940186	1685.334351	20.409374
748.610352	1300.000366	3190.187500	1678.349976	20.016516
748.928711	1303.195557	3205.047852	1675.452148	19.573370
749.247070	1297.325562	3202.595703	1683.476929	20.267538
749.565308	1299.926147	3199.326416	1681.470581	20.087627
749.883545	1300.966431	3183.648682	1676.120728	19.926586
750.201782	1298.737305	3168.342529	1669.062012	19.807642
750.519836	1297.994263	3154.150391	1672.702759	20.187338
750.837952	1293.610352	3146.348877	1677.383911	20.713854
751.155884	1304.384155	3139.141357	1682.213745	20.592894
751.473877	1304.830078	3130.670654	1681.990723	20.656822
751.791809	1309.808472	3133.122803	1666.387207	19.556623
752.109619	1302.229492	3115.736328	1651.377930	19.252666
752.427490	1300.149048	3111.575195	1653.978516	19.533199
752.745300	1297.994263	3119.822510	1668.467773	20.335260
753.062988	1292.718750	3135.054688	1679.241577	20.980042
753.380615	1295.170776	3137.580811	1673.520142	20.535568
753.698303	1299.034546	3119.748047	1670.176392	20.384418
754.015808	1305.350220	3120.119873	1668.913452	20.033575
754.333374	1302.080933	3129.630615	1674.040405	20.352905
754.650757	1295.467896	3134.014648	1677.532593	20.780798
754.968262	1294.204712	3131.042236	1681.693481	21.095430
755.285583	1299.777466	3116.776123	1669.582031	20.352495
755.602905	1305.052856	3100.578369	1663.340698	19.954483
755.920105	1309.139526	3086.386475	1656.281860	19.532589
756.237305	1306.018921	3087.055420	1661.854614	19.979136
756.554443	1298.960083	3094.188232	1663.860840	20.326149
756.871582	1289.449341	3099.612305	1672.851440	21.180529
757.188599	1293.238892	3104.962158	1675.154907	21.080263
757.505615	1295.765015	3107.562500	1675.600708	20.964579
757.822510	1300.149048	3124.949463	1674.337524	20.505720
758.139465	1292.941650	3150.435547	1678.127075	20.736834
758.456238	1294.130493	3182.459961	1685.111450	20.705124
758.773010	1295.170654	3209.283203	1689.569702	20.604799
759.089783	1297.325439	3211.809326	1690.312500	20.527050
759.406433	1298.811523	3235.214844	1694.919312	20.455851
759.723145	1303.418335	3237.740967	1692.244507	20.101412
760.039673	1304.087036	3250.892578	1707.476440	20.720581
760.356201	1298.662964	3251.635498	1701.458008	20.624716
760.672668	1296.953979	3257.505859	1704.875854	20.806482
760.989136	1305.275757	3254.087646	1699.971802	20.253162
761.305481	1306.464722	3237.889893	1711.488770	20.970217
761.621826	1305.573120	3239.821533	1721.222656	21.488943
761.938049	1304.607178	3259.735107	1715.575562	21.020025
762.254333	1305.127319	3301.492920	1716.913086	20.626772
762.570496	1303.343994	3361.529297	1728.652954	20.664270
762.886597	1298.440063	3472.760498	1764.318237	21.426382
763.202637	1297.399780	3645.588867	1802.807007	21.523277
763.518677	1299.331787	3874.292236	1845.456665	21.209059
763.834656	1303.121216	4080.111328	1890.707031	21.159088
764.150574	1306.093262	4218.313965	1930.830566	21.452265
764.466370	1306.687622	4241.050781	1945.765503	21.779099
764.782288	1301.932129	4169.868652	1928.155640	21.835333
765.097961	1305.647461	4025.795898	1892.416138	21.571201
765.413696	1306.464722	3853.710693	1853.258423	21.466072
765.729309	1308.173706	3679.619385	1816.478638	21.434389
766.044861	1306.613403	3526.778564	1788.912231	21.723557
766.360474	1302.155273	3415.993164	1768.256226	22.049986
766.675903	1297.176880	3327.647217	1755.550293	22.574741
766.991394	1300.297607	3279.870361	1740.986938	22.261841
767.306763	1304.532837	3223.772217	1719.513550	21.622145
767.622131	1304.681519	3190.707275	1720.850952	22.065947
767.937378	1296.656738	3140.033203	1725.457886	23.261724
768.252625	1289.523804	3112.318359	1726.200806	23.956457
768.567810	1288.557739	3065.135986	1709.482788	23.693020
768.882996	1294.204712	3038.461182	1689.346680	22.653891
769.197998	1299.554565	3002.572998	1681.470581	22.425829
769.513062	1311.294434	2986.523682	1668.170410	21.303112
769.828064	1314.118042	2971.217529	1655.761719	20.616968
770.142944	1310.848511	2955.019287	1657.173462	21.063807
770.457825	1304.087036	2946.028564	1650.783569	21.115036
770.772705	1299.034424	2925.892578	1654.127075	21.826897
771.087402	1303.269653	2905.682373	1646.250977	21.404057
771.402100	1301.486450	2869.422607	1649.297485	22.182730
771.716736	1298.885864	2836.431885	1646.028198	22.577688
772.031372	1296.211060	2814.290039	1643.650513	22.886784
772.345947	1298.514282	2811.689453	1630.944824	21.969072
772.660461	1296.731079	2807.156982	1622.177124	21.546640
772.974854	1296.210938	2792.816406	1614.152344	21.244169
773.289246	1293.164551	2776.395264	1620.245117	22.051901
773.603638	1295.393677	2765.398438	1625.669312	22.467657
773.917908	1305.647461	2758.191406	1627.303833	22.144346
774.232178	1308.470825	2748.234619	1630.053101	22.335766
774.546265	1313.597900	2737.312256	1628.046997	22.086531
774.860474	1303.567017	2733.745361	1627.749634	22.667286
775.174561	1297.771362	2726.984131	1624.257446	22.843771
775.488586	1289.672363	2718.810791	1627.675415	23.650827
775.802551	1293.907593	2712.718262	1620.765259	23.037441
776.116516	1296.211060	2706.328369	1615.638306	22.652531
776.430359	1298.068481	2691.690430	1609.991333	22.382172
776.744202	1295.839478	2674.303711	1608.208008	22.660620
777.057922	1295.319214	2670.588135	1611.848999	23.015846
777.371704	1296.433838	2674.972168	1607.762207	22.583948
777.685303	1293.684692	2679.950439	1610.734375	22.870771
777.998962	1298.737305	2666.055908	1609.693970	22.742079
778.312500	1300.371948	2658.105469	1603.898438	22.355381
778.626038	1310.254272	2646.811523	1609.471191	22.387138
778.939453	1307.207764	2647.628906	1605.384644	22.245014
779.252869	1310.997070	2645.771240	1615.489746	22.812300
779.566223	1303.046875	2643.839600	1615.564087	23.308392
779.879578	1306.836304	2654.613525	1616.975952	23.011196
780.192749	1308.396606	2663.678223	1617.496094	22.807030
780.505920	1311.740234	2669.325195	1615.638306	22.385197
780.819031	1304.012817	2646.513916	1618.536255	23.428169
781.132141	1296.731079	2621.920166	1613.780884	23.924873
781.445190	1294.799194	2600.298096	1606.796265	23.898685
781.758118	1298.662964	2597.400146	1605.087402	23.594030
782.071045	1298.365845	2588.335205	1596.765503	23.132305
782.383911	1294.576294	2574.663574	1598.103027	23.711409
782.696838	1301.560913	2550.960938	1594.982300	23.484983
783.009583	1298.068481	2536.917725	1600.629272	24.422729
783.322266	1303.343994	2530.824951	1594.833618	23.746977
783.634888	1293.313110	2525.401123	1592.678833	24.297430
783.947510	1292.718628	2527.184326	1586.883179	23.829302
784.260132	1291.901367	2521.314209	1584.802734	23.824492
784.572571	1293.461670	2521.016846	1578.486938	23.218937
784.885010	1297.251221	2501.624023	1573.954468	22.974884
785.197449	1301.263550	2487.506348	1574.028931	22.994061
785.509766	1301.040649	2482.008057	1566.004272	22.436150
785.822083	1300.371948	2490.627197	1562.511841	22.023838
786.134277	1299.703247	2492.781982	1563.106323	22.077593
786.446533	1301.783691	2497.314697	1575.960571	22.933481
786.758606	1308.768188	2504.150391	1580.939087	22.768526
787.070740	1301.189331	2513.586914	1590.375488	23.852419
787.382690	1297.325562	2515.147217	1588.443726	23.904827
787.694641	1293.313232	2525.549561	1593.198853	24.336697
788.006653	1295.839478	2550.738037	1598.400024	24.110359
788.318481	1304.384277	2595.542725	1608.059570	23.519600
788.630310	1308.916870	2633.362549	1613.780762	23.018225
788.942017	1304.681519	2660.706299	1622.622681	23.446560
789.253784	1305.721802	2659.368896	1626.189453	23.674387
789.565430	1297.697021	2652.532715	1633.768188	24.805307
789.877014	1299.926147	2632.025146	1618.610352	23.923462
790.188538	1297.919922	2607.431152	1613.706421	24.114838
790.500061	1293.981812	2564.855713	1604.790161	24.456270
790.811462	1299.405884	2526.515381	1609.099731	25.237671
791.122925	1289.003418	2499.543457	1604.864624	26.092587
791.434204	1296.359497	2481.190674	1601.223633	25.730597
791.745483	1292.347168	2466.627441	1589.186646	25.278418
792.056702	1301.783569	2453.698730	1579.601563	24.117922
792.367920	1302.378052	2450.355225	1570.462280	23.352749
792.678955	1302.303833	2439.729736	1569.124878	23.458323
792.990112	1299.926147	2427.767090	1565.855469	23.578619
793.301086	1298.960083	2410.603271	1571.576782	24.523760
793.612122	1299.703247	2410.454346	1573.211548	24.623726
793.922974	1295.319336	2401.984131	1579.007202	25.634489
794.233826	1297.474243	2405.327881	1569.496460	24.553986
794.544556	1298.440063	2406.665283	1566.524414	24.190422
794.855286	1300.966431	2411.271973	1568.456421	24.091566
795.166016	1296.731079	2403.024414	1579.155884	25.528925
795.476624	1297.771362	2410.528809	1577.521118	25.140228
795.787292	1302.155151	2434.899902	1576.480835	24.217785
796.097778	1305.721802	2477.104004	1577.744019	23.222328
796.408264	1305.796021	2510.837646	1585.991577	23.251940
796.718689	1301.040649	2516.856201	1586.288696	23.461458
797.029053	1296.656738	2505.785156	1584.951294	23.843170
797.339355	1291.827148	2490.627441	1584.654175	24.426672
797.649658	1295.765137	2481.562256	1588.889282	24.719587
797.959839	1299.257446	2466.701904	1587.031738	24.649935
798.270020	1299.926147	2449.389404	1587.031738	24.977362
798.580078	1296.656860	2433.339844	1579.453003	24.879068
798.890137	1303.195435	2424.349121	1571.130981	23.898199
799.200195	1303.938477	2398.566162	1565.929810	23.934288
799.510071	1310.551392	2389.129639	1565.929810	23.677320
799.820007	1305.498779	2380.361816	1566.672852	24.298359
800.129883	1299.554565	2386.529053	1558.202515	23.795218
800.439575	1298.960083	2375.680908	1549.434692	23.262726
800.749329	1295.244995	2364.312500	1549.360352	23.769814
801.058960	1304.161255	2352.647217	1546.982788	23.159254
801.368591	1298.960083	2337.043701	1551.515015	24.328959
801.678162	1300.074585	2329.984863	1553.669922	24.623051
801.987671	1300.743286	2309.997314	1555.304565	25.222715
802.297119	1294.353394	2305.464600	1551.217896	25.404179
802.606506	1291.455444	2296.697021	1541.781372	24.902067
802.915894	1284.471069	2295.953857	1536.877441	24.954094
803.225159	1289.523682	2289.043701	1535.242798	24.583712
803.534424	1294.576294	2276.932373	1539.478149	24.930050
803.843628	1301.263428	2277.452637	1543.341797	24.798304
804.152771	1306.613281	2283.916992	1544.010376	24.291025
804.461792	1309.659668	2285.997559	1539.849609	23.576872
804.770874	1307.356323	2291.421631	1539.923828	23.633341
805.079773	1307.876465	2288.375244	1548.394409	24.530163
805.388733	1302.155273	2296.474121	1555.304565	25.459568
805.697571	1298.885864	2297.811523	1559.317017	26.071125
806.006470	1294.502075	2307.099365	1553.669922	25.594364
806.315125	1296.656860	2322.182861	1549.211914	24.626879
806.623901	1304.681396	2334.442871	1548.394531	23.666950
806.932495	1307.504883	2334.368408	1550.251953	23.639662
807.241150	1307.430542	2324.040771	1550.697632	23.929239
807.549622	1307.950806	2303.012939	1544.381836	23.760429
807.858154	1313.969360	2296.102783	1542.895996	23.309118
808.166565	1312.631958	2289.712646	1542.895996	23.566532
808.474915	1309.659790	2281.167969	1547.279785	24.458878
808.783264	1304.830078	2264.672607	1546.908203	25.220608
809.091492	1307.430664	2249.440430	1545.719360	25.295778
809.399719	1310.477051	2237.923584	1531.304688	23.810282
809.707825	1305.127319	2233.242432	1518.450317	22.984541
810.015930	1298.662964	2214.295166	1514.586548	23.581913
810.323975	1290.118164	2208.722900	1524.765991	25.543938
810.632080	1291.901367	2193.565186	1527.515259	26.131014
810.939880	1291.455566	2193.044922	1518.896118	25.226624
811.247864	1295.096313	2179.224365	1518.821899	25.304659
811.555664	1295.467896	2176.177979	1524.766113	26.035606
811.863464	1298.811523	2169.862305	1523.800171	25.829567
812.171143	1301.189331	2163.769531	1517.632935	25.092577
812.478882	1302.155151	2164.809814	1509.088257	23.987942
812.786438	1303.938477	2165.924561	1513.174805	24.273748
813.094055	1301.783691	2172.685791	1511.688843	24.102037
813.401489	1296.359619	2172.983154	1508.939575	24.249857
813.708984	1295.542358	2164.884277	1506.041870	24.213661
814.016357	1295.319336	2155.076416	1505.001587	24.388546
814.323730	1296.731079	2138.135498	1507.007813	24.991161
814.630981	1297.994263	2137.986572	1517.187134	26.094627
814.938232	1301.783691	2136.946289	1514.289429	25.444834
815.245361	1302.006470	2129.887451	1512.729126	25.453255
815.552490	1293.684692	2124.092041	1504.258423	25.357883
815.859619	1293.610474	2132.933838	1510.276978	25.814425
816.166565	1299.851929	2139.472412	1513.917969	25.495571
816.473572	1309.288208	2139.695557	1517.558960	25.080553
816.780457	1310.476929	2131.893799	1520.456665	25.563114
817.087341	1314.192139	2140.438477	1522.462769	25.206844
817.394043	1311.071411	2149.652100	1523.577148	25.341120
817.700806	1304.161255	2150.989258	1520.307983	25.524277
818.007507	1294.873535	2151.955322	1523.502930	26.675329
818.314209	1296.359497	2152.178467	1532.122070	27.548183
818.620667	1298.514282	2166.295898	1532.196289	26.928665
818.927246	1296.879639	2183.088135	1535.762817	26.955641
819.233704	1298.514282	2220.611084	1538.660767	26.043522
819.540161	1301.114868	2263.186523	1549.954712	25.865002
819.846497	1302.526733	2330.504883	1564.072266	25.442713
820.152832	1299.405884	2405.327881	1580.567505	25.423277
820.458984	1297.474121	2488.769775	1611.403198	26.351904
820.765259	1300.520508	2584.917236	1631.687622	25.783865
821.071350	1306.390503	2691.318848	1662.003296	25.677341
821.377502	1307.727783	2864.369873	1699.897583	25.193319
821.683472	1307.281982	3196.948975	1786.757446	25.373543
821.989441	1308.842407	3840.335938	1943.313354	25.063107
822.295349	1308.693848	4899.446777	2196.165283	24.715469
822.601196	1309.065430	6195.286621	2513.437988	24.648342
822.907043	1299.703247	7383.609863	2822.388672	25.028086
823.212769	1301.560913	8059.318848	3008.442627	25.258108
823.518494	1304.532837	8059.689941	3003.613281	25.152346
823.824097	1308.099487	7471.287109	2837.100586	24.808609
824.129700	1303.418335	6526.082031	2588.335205	24.602713
824.435242	1291.604248	5549.075684	2345.291016	24.749121
824.740723	1288.632080	4726.693359	2151.212402	25.089149
825.046082	1294.650513	4120.977539	2008.625610	25.261587
825.351501	1305.795898	3688.832764	1912.403442	25.455231
825.656799	1303.418335	3396.749023	1835.574585	25.421511
825.962036	1299.257324	3225.481201	1789.729614	25.462891
826.267212	1291.752808	3147.612061	1773.234375	25.943863
826.572449	1297.028198	3159.871826	1774.869141	25.651157
826.877502	1298.291382	3299.337891	1812.094727	25.676731
827.182495	1309.734131	3570.617188	1876.292358	25.059156
827.487488	1306.984985	3913.969971	1965.901489	25.275042
827.792419	1302.823853	4204.791016	2029.430298	25.038410
828.097290	1296.136719	4306.214355	2055.064697	25.212904
828.402100	1297.771362	4182.648438	2014.272339	24.836449
828.706848	1305.275879	3897.697998	1952.972656	24.984232
829.011597	1301.932251	3524.846924	1858.831055	25.052641
829.316223	1304.607300	3176.367188	1781.556274	25.481312
829.620789	1302.080933	2860.803467	1704.504395	25.817518
829.925354	1307.653564	2643.616455	1656.207642	26.090101
830.229797	1305.053101	2488.249268	1615.712769	26.255974
830.534302	1302.155151	2384.820313	1585.843140	26.202745
830.838562	1295.839478	2308.214111	1562.512085	26.341297
831.142944	1299.628906	2245.577148	1539.998413	25.410429
831.447144	1299.777466	2216.747559	1527.143921	24.795406
831.751404	1305.498901	2191.335938	1520.085083	24.224115
832.055542	1302.972534	2184.351318	1533.013794	26.100159
832.359619	1297.920044	2190.072754	1543.936401	27.575588
832.663635	1295.988159	2217.713379	1549.360352	27.488907
832.967651	1295.096558	2268.239258	1550.920532	26.288433
833.271545	1297.994263	2358.442627	1560.134155	24.719723
833.575439	1305.201660	2516.855957	1598.846069	24.234999
833.879211	1303.343994	2742.439453	1657.173706	24.586952
834.183044	1310.477051	2987.638428	1728.132813	24.902538
834.486694	1304.978638	3179.561768	1777.692749	25.217026
834.790344	1314.118042	3242.719482	1798.348755	25.107868
835.093933	1306.984985	3161.580811	1785.271484	25.789257
835.397522	1311.220215	2991.798828	1744.182007	25.762663
835.700928	1309.659790	2796.977295	1695.067871	25.912966
836.004395	1311.220093	2613.301025	1643.947632	25.553522
836.307739	1304.309937	2455.259033	1604.046997	26.042599
836.611023	1302.303711	2330.727783	1569.942017	26.024118
836.914307	1304.681519	2233.242432	1544.159180	25.790194
837.217529	1304.309937	2160.500000	1521.719727	25.392702
837.520691	1299.406128	2098.828857	1511.763184	26.563801
837.823730	1293.907593	2056.550781	1497.571289	26.704979
838.126831	1296.062378	2018.284790	1488.654907	26.666651
838.429749	1300.817749	1991.238647	1478.921387	25.796385
838.732727	1302.972534	1968.576294	1474.314453	25.742331
839.035522	1303.789917	1949.852051	1467.701660	25.370895
839.338379	1301.263550	1932.688110	1458.562500	24.911757
839.641113	1299.554565	1933.059570	1462.500366	25.721312
839.943848	1301.635132	1967.610352	1464.655273	24.478409
840.246460	1300.297485	2026.161011	1478.847046	24.598227
840.549072	1305.573120	2085.231689	1485.014038	23.015320
840.851563	1303.269653	2117.032959	1502.549438	24.488667
841.154053	1305.052979	2116.587158	1507.825195	24.986282
841.456482	1302.452393	2082.556641	1500.692017	25.411940
841.758850	1301.040649	2028.612915	1494.747681	26.623751
842.061157	1299.405884	1975.114868	1475.280396	26.028145
842.363403	1304.309937	1924.068848	1467.553101	26.339785
842.665588	1295.690796	1883.499634	1439.689453	24.497532
842.967712	1294.130493	1843.673462	1436.048706	25.824772
843.269775	1292.867310	1815.735718	1416.804321	23.703289
843.571777	1297.325562	1802.063965	1416.655640	23.641966
843.873840	1301.040649	1792.553101	1411.083008	22.388519
844.175659	1302.006470	1782.002075	1421.856812	24.969049
844.477600	1303.121094	1762.832031	1420.965210	25.634396
844.779297	1307.505005	1752.726929	1408.779663	22.747005
845.081116	1308.693726	1741.804565	1395.776489	20.106346
845.382751	1310.922852	1737.197754	1388.197632	18.127922
845.684387	1305.201538	1726.721069	1385.745728	19.108057
845.985962	1301.932251	1722.634399	1389.460815	20.805353
846.287537	1299.926147	1712.826294	1397.634155	23.663836
846.588989	1300.149048	1700.640625	1404.024048	25.936874
846.890381	1291.529907	1691.873047	1399.417480	26.948776
847.191711	1296.433960	1685.780151	1394.662109	25.229000
847.493042	1295.468018	1681.693359	1391.169800	24.778742
847.794250	1300.000366	1677.978394	1395.776489	25.339071
848.095459	1300.074707	1677.012329	1397.188354	25.763851
848.396606	1303.789795	1673.891602	1405.138672	27.384054
848.697693	1316.792725	1668.541870	1401.943848	24.207912
848.998657	1314.860962	1663.712280	1398.600098	24.004248
849.299622	1319.021851	1668.690430	1388.197754	19.783278
849.600464	1313.523560	1672.479980	1386.934570	20.451233
849.901367	1310.848633	1675.229126	1392.284302	22.349075
850.202087	1300.297607	1663.340698	1394.439087	25.931213
850.502808	1289.746582	1652.715454	1395.330688	29.089025
850.803467	1295.244995	1643.799194	1393.101685	28.075027
851.104065	1303.789795	1644.690796	1390.575562	25.457762
851.404663	1307.207642	1640.901245	1394.216187	26.074383
851.705139	1298.439941	1640.901367	1390.055298	26.752022
852.005615	1296.285278	1631.910645	1384.705566	26.344936
852.306030	1293.758911	1635.625610	1378.166870	24.690313
852.606384	1295.913696	1629.681519	1377.349487	24.398933
852.906616	1290.563965	1634.511230	1379.207031	25.772284
853.206909	1298.811523	1637.929199	1371.702515	21.494307
853.506958	1305.052979	1636.517456	1366.724121	18.605658
853.807129	1308.025024	1638.077759	1376.977905	20.891474
854.107178	1304.978638	1631.390503	1383.665405	24.106588
854.407166	1299.703125	1634.882813	1388.866577	26.601686
854.707092	1295.765015	1622.919922	1372.742798	23.529461
855.007019	1297.919800	1618.759155	1370.290649	22.556725
855.306763	1299.480225	1610.660034	1368.433228	22.158573
855.606567	1307.282104	1613.483398	1377.943970	23.076933
855.906250	1305.424438	1612.591919	1374.303101	22.423813
856.205933	1302.749634	1610.065552	1378.910034	24.782446
856.505493	1300.371948	1614.300903	1371.628296	22.698240
856.805054	1304.087036	1613.260742	1370.587891	21.509220
857.104492	1301.486450	1613.557983	1365.386719	20.476160
857.403931	1297.548462	1609.619995	1369.324707	22.999933
857.703308	1289.969604	1602.338257	1379.430054	28.639381
858.002563	1289.077881	1605.013062	1377.795288	28.080889
858.301819	1289.449463	1601.297852	1378.018188	28.401213
858.601013	1288.186401	1606.499023	1377.572388	28.081194
858.900208	1297.399902	1601.743774	1381.213257	27.539032
859.199219	1297.102661	1605.458984	1380.024414	26.891537
859.498291	1301.932251	1602.041016	1376.383667	24.808144
859.797302	1302.229492	1600.257690	1376.532227	24.931444
860.096191	1307.579224	1603.378418	1370.810913	21.376558
860.395020	1300.966309	1605.310181	1370.810913	22.949240
860.693787	1293.610352	1603.601196	1364.643677	22.914652
860.992554	1288.334839	1593.124634	1376.234985	28.839596
861.291260	1296.656860	1594.313477	1375.566284	26.510220
861.589844	1303.269653	1598.325806	1372.742798	23.545736
861.888428	1304.309937	1593.867676	1369.696289	22.581455
862.186890	1306.464722	1593.867676	1365.981079	20.708332
862.485413	1304.532837	1594.239258	1368.804688	22.185165
862.783813	1306.241821	1599.737671	1360.036987	18.329105
863.082153	1300.817749	1592.530151	1366.947144	22.669380
863.380371	1297.771362	1597.359863	1367.838745	23.387875
863.678589	1293.090210	1601.372192	1374.674438	26.464157
863.976746	1302.675293	1599.663208	1365.015259	20.990742
864.274902	1309.734009	1589.038086	1368.804688	21.149237
864.572937	1308.693726	1579.675781	1365.981323	21.140736
864.870911	1303.864136	1585.620117	1372.965820	24.525366
865.168884	1297.325439	1592.158691	1376.309204	26.789301
865.466736	1300.743286	1598.325806	1377.200806	25.692881
865.764587	1291.901367	1594.016235	1370.959473	26.168228
866.062317	1297.474121	1585.174194	1363.083496	22.804783
866.360107	1300.446289	1574.697632	1362.711914	22.703854
866.657715	1306.018921	1573.954468	1363.009155	21.270128
866.955322	1307.059204	1578.115601	1362.637573	20.504356
867.252808	1298.960205	1586.883301	1358.922485	20.825798
867.550293	1300.149048	1590.152466	1358.550903	20.138334
867.847717	1288.260620	1583.688110	1356.693481	23.164013
868.145081	1294.650757	1578.115601	1358.105103	22.385262
868.442383	1288.260620	1575.291992	1360.928589	25.317081
868.739624	1294.353394	1578.635620	1361.745972	23.706223
869.036804	1297.251221	1576.480835	1361.820313	23.124012
869.333984	1297.325562	1573.508789	1361.820313	23.352161
869.631042	1307.356445	1578.041138	1361.820313	20.120779
869.928101	1303.938477	1583.762573	1366.204102	22.251703
870.224976	1312.854858	1583.316772	1359.294067	17.170332
870.521851	1303.492676	1584.208374	1366.427124	22.419283
870.818726	1303.344116	1585.322876	1357.287720	19.130379
871.115479	1293.758911	1585.322876	1370.290649	26.248695
871.412231	1296.359497	1573.508789	1363.157715	24.101891
871.708862	1304.235596	1570.165161	1366.575562	23.442286
872.005493	1314.489380	1575.440796	1359.219604	17.141209
872.302063	1315.529663	1579.378784	1366.055542	19.149534
872.598572	1312.037598	1579.824585	1375.417603	23.668068
872.895020	1299.926147	1581.607788	1381.659058	29.016058
873.191406	1297.176880	1585.991577	1377.200806	27.707706
873.487671	1292.792969	1587.180298	1378.835449	29.227644
873.783997	1293.907593	1578.561401	1379.875854	30.200987
874.080200	1296.805298	1579.452759	1378.166626	28.785444
874.376343	1292.718750	1572.839844	1368.210327	26.949623
874.672424	1300.594727	1573.285767	1361.374390	22.288837
874.968445	1295.988037	1567.044312	1367.095703	26.233543
875.264465	1298.885864	1567.415894	1377.200806	29.164314
875.560364	1300.892090	1564.666626	1377.943970	29.211266
875.856201	1303.195313	1566.895874	1363.380737	22.823397
876.152039	1311.591553	1568.530396	1353.572754	16.338985
876.447754	1308.099243	1571.056641	1355.504517	18.027739
876.743469	1311.071411	1572.691406	1364.718140	20.505592
877.039063	1308.247925	1573.434448	1361.448730	20.061655
877.334595	1303.641235	1569.199219	1360.111328	21.264694
877.630127	1301.858032	1566.152832	1354.612915	19.960621
877.925537	1302.601074	1561.917603	1360.482788	22.320873
878.221008	1306.241821	1567.861694	1363.974976	22.067572
878.516296	1300.892090	1577.521118	1374.823242	26.725739
878.811646	1292.867310	1599.588867	1378.984253	28.076586
879.106812	1290.638306	1622.102539	1383.145142	27.908543
879.401978	1293.907593	1641.941528	1390.129517	27.647282
879.697083	1294.650635	1672.256958	1386.562988	24.340788
879.992126	1293.387573	1695.216797	1383.962524	22.540659
880.287109	1291.604370	1741.358521	1389.832397	21.840384
880.582031	1291.009766	1802.807007	1416.284180	24.477352
880.876892	1293.981934	1951.709595	1451.577759	23.960649
881.171753	1298.514282	2200.846680	1518.524780	24.382423
881.466492	1304.012817	2617.164795	1613.929321	23.600962
881.761230	1311.443115	3129.110596	1749.160278	24.081257
882.055786	1311.517456	3643.953857	1867.895874	23.853958
882.350403	1306.539063	3943.542725	1958.248047	24.713997
882.644958	1293.164551	3970.440186	1972.588501	25.377438
882.939453	1284.248169	3723.531982	1917.381714	25.955715
883.233826	1293.015869	3361.306641	1826.732422	25.804716
883.528137	1297.845581	2988.455811	1728.875610	25.495529
883.822449	1307.356323	2664.421387	1649.966309	25.246393
884.116577	1300.149048	2406.219482	1574.697632	24.821980
884.410828	1303.418335	2205.230225	1522.611328	24.305843
884.704956	1304.755737	2059.745605	1486.945923	24.131474
884.999023	1306.241821	1952.749878	1468.667480	25.123531
885.292969	1303.789917	1869.530762	1448.977173	25.663210
885.586914	1301.040649	1819.079224	1432.036255	25.286844
885.880798	1304.087036	1781.259155	1421.708130	24.649616
886.174622	1304.012817	1753.841431	1412.643188	24.149281
886.468384	1305.647461	1726.200806	1400.680664	22.597181
886.762085	1299.257446	1709.779907	1396.073853	23.583706
887.055664	1301.709351	1697.074219	1392.358765	22.928040
887.349304	1301.560791	1683.625366	1392.878784	23.901194
887.642822	1301.858032	1661.854614	1382.030640	22.270380
887.936340	1301.635010	1638.151978	1373.114258	21.240904
888.229736	1299.703125	1624.108887	1360.779907	18.827280
888.523071	1302.006470	1605.904663	1358.179321	18.484102
888.816284	1299.480347	1597.656860	1360.928589	20.608009
889.109619	1301.040649	1578.635620	1368.581665	24.330778
889.402710	1298.662964	1570.833862	1370.290894	26.317263
889.695862	1301.709351	1561.620239	1364.569458	24.185253
889.988892	1301.635132	1558.202515	1361.968872	23.515749
890.281921	1307.133423	1556.344971	1357.287842	20.125238
>>>>>End Processed Spectral Data<<<<<
